Data from 2145_2_HRD10591_00010.txt Node
Date: Mon Jan 19 14:22:07 EST 2026
User: Yrep
Spectrometer: HR+D1059
Trigger mode: 1
Integration Time (sec): 1.000000E-1
Scans to average: 1
Electric dark correction enabled: true
Nonlinearity correction enabled: false
Boxcar width: 0
XAxis mode: Wavelengths
Number of Pixels in Spectrum: 2048
>>>>>Begin Spectral Data<<<<<
223.165	-24.31
223.4	-24.31
223.635	-24.31
223.869	-16.31
224.104	-25.31
224.338	-21.31
224.573	-3.31
224.808	-8.31
225.042	-4.31
225.277	-21.31
225.511	8.69
225.746	-1.31
225.98	3.69
226.215	17.69
226.449	12.69
226.683	23.69
226.918	28.69
227.152	30.69
227.387	37.69
227.621	31.69
227.856	41.69
228.09	41.69
228.324	50.69
228.559	59.69
228.793	55.69
229.027	48.69
229.262	60.69
229.496	70.69
229.73	74.69
229.964	67.69
230.199	69.69
230.433	74.69
230.667	83.69
230.901	89.69
231.136	81.69
231.37	76.69
231.604	90.69
231.838	75.69
232.072	91.69
232.306	78.69
232.541	80.69
232.775	82.69
233.009	85.69
233.243	74.69
233.477	83.69
233.711	76.69
233.945	85.69
234.179	66.69
234.413	81.69
234.647	70.69
234.881	80.69
235.115	66.69
235.349	73.69
235.583	80.69
235.817	82.69
236.051	74.69
236.285	62.69
236.519	89.69
236.753	84.69
236.987	88.69
237.221	72.69
237.455	74.69
237.689	71.69
237.922	86.69
238.156	76.69
238.39	71.69
238.624	76.69
238.858	68.69
239.091	64.69
239.325	79.69
239.559	73.69
239.793	77.69
240.027	86.69
240.26	72.69
240.494	84.69
240.728	70.69
240.961	76.69
241.195	66.69
241.429	90.69
241.662	67.69
241.896	84.69
242.13	69.69
242.363	65.69
242.597	74.69
242.83	69.69
243.064	66.69
243.298	64.69
243.531	84.69
243.765	81.69
243.998	87.69
244.232	77.69
244.465	72.69
244.699	75.69
244.932	72.69
245.166	75.69
245.399	73.69
245.633	71.69
245.866	69.69
246.099	68.69
246.333	79.69
246.566	80.69
246.8	77.69
247.033	73.69
247.266	64.69
247.5	70.69
247.733	77.69
247.966	92.69
248.2	76.69
248.433	84.69
248.666	72.69
248.899	85.69
249.133	72.69
249.366	89.69
249.599	80.69
249.832	76.69
250.066	81.69
250.299	78.69
250.532	94.69
250.765	66.69
250.998	80.69
251.231	71.69
251.465	71.69
251.698	73.69
251.931	76.69
252.164	79.69
252.397	72.69
252.63	82.69
252.863	74.69
253.096	91.69
253.329	86.69
253.562	67.69
253.795	80.69
254.028	85.69
254.261	69.69
254.494	83.69
254.727	74.69
254.96	72.69
255.193	83.69
255.426	89.69
255.659	80.69
255.892	96.69
256.124	84.69
256.357	81.69
256.59	71.69
256.823	70.69
257.056	82.69
257.289	80.69
257.521	84.69
257.754	90.69
257.987	84.69
258.22	86.69
258.452	81.69
258.685	76.69
258.918	98.69
259.151	82.69
259.383	85.69
259.616	95.69
259.849	96.69
260.081	90.69
260.314	80.69
260.547	74.69
260.779	82.69
261.012	81.69
261.244	68.69
261.477	92.69
261.71	71.69
261.942	81.69
262.175	76.69
262.407	82.69
262.64	68.69
262.872	71.69
263.105	79.69
263.337	84.69
263.57	73.69
263.802	92.69
264.035	72.69
264.267	71.69
264.499	75.69
264.732	81.69
264.964	86.69
265.197	80.69
265.429	80.69
265.661	83.69
265.894	82.69
266.126	85.69
266.358	80.69
266.591	85.69
266.823	86.69
267.055	69.69
267.287	91.69
267.52	92.69
267.752	80.69
267.984	97.69
268.216	76.69
268.448	85.69
268.681	80.69
268.913	90.69
269.145	78.69
269.377	85.69
269.609	80.69
269.841	89.69
270.073	80.69
270.306	68.69
270.538	76.69
270.77	83.69
271.002	88.69
271.234	75.69
271.466	85.69
271.698	94.69
271.93	73.69
272.162	77.69
272.394	74.69
272.626	72.69
272.858	83.69
273.09	86.69
273.322	86.69
273.553	71.69
273.785	90.69
274.017	74.69
274.249	82.69
274.481	85.69
274.713	87.69
274.945	77.69
275.176	83.69
275.408	68.69
275.64	77.69
275.872	79.69
276.104	79.69
276.335	89.69
276.567	72.69
276.799	90.69
277.031	75.69
277.262	94.69
277.494	82.69
277.726	89.69
277.957	75.69
278.189	87.69
278.421	88.69
278.652	74.69
278.884	84.69
279.115	83.69
279.347	77.69
279.579	80.69
279.81	75.69
280.042	83.69
280.273	78.69
280.505	87.69
280.736	90.69
280.968	83.69
281.199	84.69
281.431	92.69
281.662	82.69
281.894	87.69
282.125	70.69
282.356	88.69
282.588	84.69
282.819	90.69
283.051	77.69
283.282	74.69
283.513	72.69
283.745	75.69
283.976	103.69
284.207	92.69
284.439	74.69
284.67	94.69
284.901	80.69
285.132	94.69
285.364	82.69
285.595	82.69
285.826	87.69
286.057	86.69
286.288	91.69
286.52	84.69
286.751	81.69
286.982	84.69
287.213	91.69
287.444	89.69
287.675	76.69
287.906	88.69
288.138	85.69
288.369	86.69
288.6	82.69
288.831	100.69
289.062	84.69
289.293	84.69
289.524	106.69
289.755	65.69
289.986	70.69
290.217	102.69
290.448	77.69
290.679	86.69
290.91	92.69
291.141	89.69
291.371	98.69
291.602	84.69
291.833	98.69
292.064	78.69
292.295	84.69
292.526	83.69
292.757	80.69
292.987	91.69
293.218	91.69
293.449	72.69
293.68	74.69
293.91	74.69
294.141	96.69
294.372	78.69
294.603	90.69
294.833	88.69
295.064	77.69
295.295	78.69
295.525	81.69
295.756	106.69
295.987	94.69
296.217	77.69
296.448	96.69
296.679	83.69
296.909	82.69
297.14	86.69
297.37	92.69
297.601	83.69
297.831	86.69
298.062	65.69
298.292	102.69
298.523	96.69
298.753	80.69
298.984	90.69
299.214	96.69
299.445	76.69
299.675	84.69
299.905	102.69
300.136	87.69
300.366	92.69
300.597	95.69
300.827	86.69
301.057	86.69
301.288	88.69
301.518	87.69
301.748	99.69
301.979	94.69
302.209	70.69
302.439	86.69
302.669	82.69
302.9	92.69
303.13	78.69
303.36	87.69
303.59	68.69
303.82	87.69
304.051	86.69
304.281	82.69
304.511	80.69
304.741	92.69
304.971	82.69
305.201	88.69
305.431	85.69
305.661	88.69
305.891	86.69
306.121	76.69
306.352	75.69
306.582	79.69
306.812	83.69
307.042	79.69
307.272	88.69
307.502	94.69
307.731	76.69
307.961	95.69
308.191	91.69
308.421	92.69
308.651	84.69
308.881	92.69
309.111	93.69
309.341	80.69
309.571	111.69
309.8	96.69
310.03	80.69
310.26	84.69
310.49	80.69
310.72	90.69
310.949	77.69
311.179	86.69
311.409	92.69
311.639	80.69
311.868	83.69
312.098	72.69
312.328	101.69
312.557	87.69
312.787	94.69
313.017	79.69
313.246	85.69
313.476	84.69
313.706	84.69
313.935	82.69
314.165	88.69
314.394	84.69
314.624	91.69
314.853	82.69
315.083	80.69
315.312	102.69
315.542	78.69
315.771	95.69
316.001	89.69
316.23	82.69
316.46	81.69
316.689	94.69
316.919	91.69
317.148	89.69
317.377	76.69
317.607	81.69
317.836	88.69
318.065	73.69
318.295	95.69
318.524	72.69
318.753	90.69
318.983	91.69
319.212	77.69
319.441	110.69
319.67	89.69
319.9	86.69
320.129	86.69
320.358	91.69
320.587	82.69
320.816	70.69
321.046	89.69
321.275	90.69
321.504	82.69
321.733	74.69
321.962	84.69
322.191	82.69
322.42	89.69
322.649	87.69
322.878	85.69
323.108	94.69
323.337	95.69
323.566	89.69
323.795	87.69
324.024	80.69
324.253	84.69
324.482	89.69
324.71	88.69
324.939	89.69
325.168	86.69
325.397	81.69
325.626	87.69
325.855	98.69
326.084	102.69
326.313	89.69
326.542	94.69
326.77	97.69
326.999	102.69
327.228	86.69
327.457	88.69
327.686	88.69
327.914	85.69
328.143	86.69
328.372	81.69
328.6	81.69
328.829	86.69
329.058	89.69
329.287	85.69
329.515	84.69
329.744	92.69
329.972	81.69
330.201	84.69
330.43	95.69
330.658	88.69
330.887	92.69
331.115	84.69
331.344	84.69
331.572	81.69
331.801	86.69
332.03	94.69
332.258	81.69
332.486	69.69
332.715	85.69
332.943	80.69
333.172	98.69
333.4	76.69
333.629	82.69
333.857	100.69
334.085	85.69
334.314	94.69
334.542	89.69
334.771	102.69
334.999	98.69
335.227	93.69
335.455	88.69
335.684	94.69
335.912	99.69
336.14	103.69
336.369	90.69
336.597	94.69
336.825	96.69
337.053	96.69
337.281	89.69
337.51	97.69
337.738	84.69
337.966	82.69
338.194	85.69
338.422	71.69
338.65	100.69
338.878	96.69
339.106	89.69
339.334	94.69
339.562	81.69
339.79	74.69
340.018	79.69
340.246	73.69
340.474	70.69
340.702	90.69
340.93	77.69
341.158	82.69
341.386	87.69
341.614	83.69
341.842	91.69
342.07	81.69
342.298	86.69
342.526	84.69
342.754	85.69
342.981	96.69
343.209	88.69
343.437	84.69
343.665	82.69
343.893	92.69
344.12	90.69
344.348	107.69
344.576	92.69
344.804	88.69
345.031	96.69
345.259	83.69
345.487	110.69
345.714	78.69
345.942	97.69
346.17	76.69
346.397	74.69
346.625	80.69
346.853	90.69
347.08	90.69
347.308	94.69
347.535	104.69
347.763	95.69
347.99	90.69
348.218	74.69
348.445	79.69
348.673	94.69
348.9	90.69
349.128	88.69
349.355	90.69
349.583	73.69
349.81	74.69
350.037	85.69
350.265	93.69
350.492	80.69
350.72	90.69
350.947	87.69
351.174	84.69
351.402	81.69
351.629	84.69
351.856	80.69
352.083	83.69
352.311	86.69
352.538	78.69
352.765	95.69
352.992	92.69
353.22	80.69
353.447	86.69
353.674	80.69
353.901	87.69
354.128	84.69
354.355	97.69
354.583	80.69
354.81	87.69
355.037	97.69
355.264	79.69
355.491	93.69
355.718	79.69
355.945	96.69
356.172	78.69
356.399	94.69
356.626	85.69
356.853	80.69
357.08	83.69
357.307	97.69
357.534	77.69
357.761	88.69
357.988	93.69
358.215	105.69
358.441	98.69
358.668	99.69
358.895	90.69
359.122	74.69
359.349	83.69
359.576	78.69
359.802	88.69
360.029	82.69
360.256	83.69
360.483	84.69
360.709	68.69
360.936	85.69
361.163	78.69
361.39	91.69
361.616	68.69
361.843	80.69
362.07	84.69
362.296	99.69
362.523	112.69
362.749	119.69
362.976	120.69
363.203	121.69
363.429	102.69
363.656	93.69
363.882	98.69
364.109	126.69
364.335	155.69
364.562	136.69
364.788	127.69
365.015	101.69
365.241	99.69
365.468	92.69
365.694	99.69
365.92	92.69
366.147	76.69
366.373	85.69
366.599	86.69
366.826	83.69
367.052	84.69
367.278	94.69
367.505	103.69
367.731	89.69
367.957	96.69
368.184	97.69
368.41	85.69
368.636	90.69
368.862	75.69
369.089	84.69
369.315	75.69
369.541	100.69
369.767	84.69
369.993	93.69
370.219	95.69
370.445	98.69
370.672	94.69
370.898	79.69
371.124	89.69
371.35	82.69
371.576	88.69
371.802	86.69
372.028	86.69
372.254	84.69
372.48	88.69
372.706	91.69
372.932	90.69
373.158	95.69
373.384	95.69
373.61	92.69
373.835	101.69
374.061	86.69
374.287	87.69
374.513	88.69
374.739	92.69
374.965	83.69
375.191	81.69
375.416	76.69
375.642	93.69
375.868	95.69
376.094	98.69
376.319	89.69
376.545	97.69
376.771	89.69
376.997	78.69
377.222	98.69
377.448	81.69
377.674	83.69
377.899	80.69
378.125	75.69
378.35	84.69
378.576	88.69
378.802	84.69
379.027	85.69
379.253	82.69
379.478	90.69
379.704	83.69
379.929	87.69
380.155	76.69
380.38	103.69
380.606	102.69
380.831	95.69
381.057	85.69
381.282	96.69
381.507	90.69
381.733	89.69
381.958	90.69
382.184	91.69
382.409	105.69
382.634	94.69
382.86	99.69
383.085	98.69
383.31	114.69
383.535	89.69
383.761	90.69
383.986	98.69
384.211	84.69
384.436	76.69
384.662	89.69
384.887	90.69
385.112	78.69
385.337	82.69
385.562	91.69
385.787	88.69
386.013	91.69
386.238	77.69
386.463	88.69
386.688	99.69
386.913	100.69
387.138	94.69
387.363	91.69
387.588	86.69
387.813	101.69
388.038	75.69
388.263	83.69
388.488	91.69
388.713	88.69
388.938	96.69
389.163	93.69
389.387	92.69
389.612	74.69
389.837	89.69
390.062	91.69
390.287	110.69
390.512	100.69
390.736	66.69
390.961	95.69
391.186	91.69
391.411	91.69
391.636	83.69
391.86	85.69
392.085	94.69
392.31	99.69
392.534	112.69
392.759	114.69
392.984	151.69
393.208	236.69
393.433	298.69
393.658	245.69
393.882	142.69
394.107	107.69
394.331	112.69
394.556	119.69
394.78	100.69
395.005	102.69
395.229	96.69
395.454	91.69
395.678	112.69
395.903	112.69
396.127	123.69
396.352	143.69
396.576	159.69
396.801	206.69
397.025	251.69
397.249	156.69
397.474	142.69
397.698	111.69
397.922	95.69
398.147	90.69
398.371	86.69
398.595	96.69
398.82	78.69
399.044	72.69
399.268	90.69
399.492	76.69
399.717	87.69
399.941	88.69
400.165	93.69
400.389	80.69
400.613	90.69
400.837	82.69
401.062	104.69
401.286	91.69
401.51	97.69
401.734	88.69
401.958	89.69
402.182	82.69
402.406	75.69
402.63	91.69
402.854	77.69
403.078	84.69
403.302	91.69
403.526	75.69
403.75	89.69
403.974	91.69
404.198	102.69
404.422	136.69
404.645	160.69
404.869	131.69
405.093	107.69
405.317	85.69
405.541	86.69
405.765	92.69
405.988	79.69
406.212	87.69
406.436	101.69
406.66	92.69
406.883	82.69
407.107	78.69
407.331	91.69
407.555	91.69
407.778	101.69
408.002	102.69
408.226	79.69
408.449	86.69
408.673	91.69
408.896	76.69
409.12	94.69
409.344	100.69
409.567	102.69
409.791	100.69
410.014	103.69
410.238	94.69
410.461	101.69
410.685	94.69
410.908	100.69
411.132	81.69
411.355	94.69
411.578	91.69
411.802	99.69
412.025	82.69
412.249	83.69
412.472	88.69
412.695	74.69
412.919	80.69
413.142	86.69
413.365	96.69
413.589	94.69
413.812	90.69
414.035	73.69
414.258	82.69
414.482	82.69
414.705	82.69
414.928	88.69
415.151	82.69
415.374	70.69
415.597	88.69
415.821	94.69
416.044	82.69
416.267	90.69
416.49	99.69
416.713	92.69
416.936	83.69
417.159	90.69
417.382	98.69
417.605	92.69
417.828	83.69
418.051	90.69
418.274	76.69
418.497	96.69
418.72	80.69
418.943	99.69
419.166	96.69
419.389	80.69
419.611	80.69
419.834	81.69
420.057	94.69
420.28	106.69
420.503	86.69
420.726	96.69
420.948	100.69
421.171	93.69
421.394	117.69
421.617	118.69
421.839	137.69
422.062	168.69
422.285	199.69
422.507	297.69
422.73	346.69
422.953	335.69
423.175	268.69
423.398	179.69
423.621	139.69
423.843	120.69
424.066	122.69
424.288	107.69
424.511	103.69
424.733	92.69
424.956	86.69
425.178	90.69
425.401	85.69
425.623	91.69
425.846	84.69
426.068	84.69
426.291	92.69
426.513	90.69
426.735	85.69
426.958	95.69
427.18	89.69
427.402	114.69
427.625	99.69
427.847	88.69
428.069	102.69
428.292	136.69
428.514	156.69
428.736	110.69
428.958	140.69
429.181	135.69
429.403	101.69
429.625	128.69
429.847	129.69
430.069	193.69
430.292	217.69
430.514	182.69
430.736	146.69
430.958	144.69
431.18	113.69
431.402	102.69
431.624	103.69
431.846	144.69
432.068	156.69
432.29	90.69
432.512	94.69
432.734	92.69
432.956	81.69
433.178	95.69
433.4	92.69
433.622	87.69
433.844	92.69
434.066	70.69
434.287	81.69
434.509	90.69
434.731	88.69
434.953	85.69
435.175	82.69
435.397	98.69
435.618	97.69
435.84	90.69
436.062	72.69
436.284	94.69
436.505	76.69
436.727	85.69
436.949	94.69
437.17	86.69
437.392	87.69
437.614	86.69
437.835	74.69
438.057	81.69
438.278	84.69
438.5	86.69
438.721	78.69
438.943	89.69
439.165	85.69
439.386	69.69
439.608	78.69
439.829	91.69
440.05	85.69
440.272	79.69
440.493	88.69
440.715	73.69
440.936	90.69
441.158	82.69
441.379	84.69
441.6	89.69
441.822	86.69
442.043	94.69
442.264	122.69
442.486	161.69
442.707	208.69
442.928	146.69
443.149	130.69
443.371	196.69
443.592	306.69
443.813	251.69
444.034	115.69
444.255	105.69
444.476	115.69
444.698	100.69
444.919	115.69
445.14	221.69
445.361	256.69
445.582	348.69
445.803	310.69
446.024	144.69
446.245	114.69
446.466	104.69
446.687	82.69
446.908	98.69
447.129	88.69
447.35	78.69
447.571	80.69
447.792	90.69
448.013	80.69
448.234	88.69
448.455	90.69
448.675	85.69
448.896	73.69
449.117	80.69
449.338	77.69
449.559	91.69
449.779	89.69
450	90.69
450.221	74.69
450.442	80.69
450.662	84.69
450.883	76.69
451.104	77.69
451.324	88.69
451.545	97.69
451.766	93.69
451.986	81.69
452.207	88.69
452.428	78.69
452.648	94.69
452.869	116.69
453.089	96.69
453.31	108.69
453.53	106.69
453.751	82.69
453.971	73.69
454.192	110.69
454.412	88.69
454.633	78.69
454.853	95.69
455.073	78.69
455.294	84.69
455.514	94.69
455.734	74.69
455.955	76.69
456.175	81.69
456.395	90.69
456.616	70.69
456.836	86.69
457.056	87.69
457.276	82.69
457.497	83.69
457.717	98.69
457.937	123.69
458.157	140.69
458.377	139.69
458.598	144.69
458.818	148.69
459.038	104.69
459.258	81.69
459.478	88.69
459.698	85.69
459.918	82.69
460.138	82.69
460.358	89.69
460.578	95.69
460.798	114.69
461.018	120.69
461.238	89.69
461.458	83.69
461.678	82.69
461.898	85.69
462.118	76.69
462.338	84.69
462.558	97.69
462.777	92.69
462.997	76.69
463.217	91.69
463.437	83.69
463.657	82.69
463.876	90.69
464.096	83.69
464.316	80.69
464.536	99.69
464.755	92.69
464.975	72.69
465.195	71.69
465.414	79.69
465.634	78.69
465.854	85.69
466.073	70.69
466.293	81.69
466.512	91.69
466.732	87.69
466.951	65.69
467.171	98.69
467.391	92.69
467.61	91.69
467.829	86.69
468.049	89.69
468.268	88.69
468.488	91.69
468.707	93.69
468.927	83.69
469.146	84.69
469.365	95.69
469.585	80.69
469.804	91.69
470.023	81.69
470.243	88.69
470.462	93.69
470.681	89.69
470.901	87.69
471.12	95.69
471.339	81.69
471.558	88.69
471.777	71.69
471.997	76.69
472.216	92.69
472.435	89.69
472.654	94.69
472.873	97.69
473.092	97.69
473.311	71.69
473.53	88.69
473.749	91.69
473.968	89.69
474.187	87.69
474.406	80.69
474.625	86.69
474.844	86.69
475.063	73.69
475.282	90.69
475.501	80.69
475.72	93.69
475.939	87.69
476.158	90.69
476.377	92.69
476.596	85.69
476.814	86.69
477.033	96.69
477.252	90.69
477.471	90.69
477.69	94.69
477.908	100.69
478.127	86.69
478.346	94.69
478.564	91.69
478.783	82.69
479.002	94.69
479.22	69.69
479.439	81.69
479.658	78.69
479.876	77.69
480.095	82.69
480.313	92.69
480.532	77.69
480.751	95.69
480.969	80.69
481.188	98.69
481.406	86.69
481.624	87.69
481.843	101.69
482.061	95.69
482.28	106.69
482.498	80.69
482.717	82.69
482.935	87.69
483.153	89.69
483.372	95.69
483.59	103.69
483.808	87.69
484.027	91.69
484.245	86.69
484.463	87.69
484.681	102.69
484.9	84.69
485.118	93.69
485.336	88.69
485.554	92.69
485.772	83.69
485.99	96.69
486.209	80.69
486.427	82.69
486.645	97.69
486.863	89.69
487.081	84.69
487.299	85.69
487.517	98.69
487.735	135.69
487.953	190.69
488.171	191.69
488.389	104.69
488.607	91.69
488.825	98.69
489.043	78.69
489.261	101.69
489.479	86.69
489.696	72.69
489.914	85.69
490.132	89.69
490.35	80.69
490.568	92.69
490.786	85.69
491.003	88.69
491.221	100.69
491.439	79.69
491.657	86.69
491.874	84.69
492.092	83.69
492.31	77.69
492.527	91.69
492.745	82.69
492.963	89.69
493.18	84.69
493.398	88.69
493.615	88.69
493.833	96.69
494.05	82.69
494.268	91.69
494.485	92.69
494.703	93.69
494.92	70.69
495.138	91.69
495.355	80.69
495.573	99.69
495.79	90.69
496.008	87.69
496.225	110.69
496.442	84.69
496.66	95.69
496.877	88.69
497.094	88.69
497.312	86.69
497.529	89.69
497.746	86.69
497.963	94.69
498.181	83.69
498.398	91.69
498.615	94.69
498.832	89.69
499.049	72.69
499.267	89.69
499.484	87.69
499.701	99.69
499.918	98.69
500.135	85.69
500.352	91.69
500.569	85.69
500.786	88.69
501.003	85.69
501.22	97.69
501.437	80.69
501.654	100.69
501.871	92.69
502.088	98.69
502.305	94.69
502.522	103.69
502.739	95.69
502.956	91.69
503.172	98.69
503.389	85.69
503.606	99.69
503.823	100.69
504.04	131.69
504.256	160.69
504.473	162.69
504.69	120.69
504.907	99.69
505.123	80.69
505.34	99.69
505.557	102.69
505.773	100.69
505.99	73.69
506.207	98.69
506.423	96.69
506.64	95.69
506.856	105.69
507.073	95.69
507.289	95.69
507.506	84.69
507.722	73.69
507.939	92.69
508.155	87.69
508.372	89.69
508.588	107.69
508.805	98.69
509.021	78.69
509.238	86.69
509.454	85.69
509.67	100.69
509.887	78.69
510.103	75.69
510.319	83.69
510.536	90.69
510.752	92.69
510.968	80.69
511.184	96.69
511.401	81.69
511.617	96.69
511.833	114.69
512.049	97.69
512.265	108.69
512.481	90.69
512.698	98.69
512.914	87.69
513.13	82.69
513.346	82.69
513.562	95.69
513.778	83.69
513.994	85.69
514.21	95.69
514.426	85.69
514.642	104.69
514.858	91.69
515.074	85.69
515.29	89.69
515.506	105.69
515.721	94.69
515.937	85.69
516.153	94.69
516.369	88.69
516.585	94.69
516.801	85.69
517.016	101.69
517.232	87.69
517.448	100.69
517.664	80.69
