Data from 2145_2_HRD10591_00042.txt Node
Date: Mon Jan 19 14:22:23 EST 2026
User: Yrep
Spectrometer: HR+D1059
Trigger mode: 1
Integration Time (sec): 1.000000E-1
Scans to average: 1
Electric dark correction enabled: true
Nonlinearity correction enabled: false
Boxcar width: 0
XAxis mode: Wavelengths
Number of Pixels in Spectrum: 2048
>>>>>Begin Spectral Data<<<<<
223.165	-12.25
223.4	-12.25
223.635	-12.25
223.869	-22.25
224.104	-7.25
224.338	-12.25
224.573	-23.25
224.808	-17.25
225.042	-8.25
225.277	-4.25
225.511	-14.25
225.746	5.75
225.98	13.75
226.215	18.75
226.449	6.75
226.683	28.75
226.918	19.75
227.152	27.75
227.387	39.75
227.621	35.75
227.856	42.75
228.09	33.75
228.324	63.75
228.559	56.75
228.793	44.75
229.027	55.75
229.262	67.75
229.496	64.75
229.73	65.75
229.964	69.75
230.199	64.75
230.433	69.75
230.667	63.75
230.901	77.75
231.136	60.75
231.37	78.75
231.604	83.75
231.838	81.75
232.072	68.75
232.306	78.75
232.541	82.75
232.775	89.75
233.009	89.75
233.243	75.75
233.477	81.75
233.711	67.75
233.945	76.75
234.179	86.75
234.413	81.75
234.647	79.75
234.881	81.75
235.115	86.75
235.349	78.75
235.583	77.75
235.817	70.75
236.051	88.75
236.285	80.75
236.519	74.75
236.753	88.75
236.987	71.75
237.221	69.75
237.455	55.75
237.689	73.75
237.922	77.75
238.156	69.75
238.39	61.75
238.624	70.75
238.858	68.75
239.091	59.75
239.325	67.75
239.559	66.75
239.793	74.75
240.027	81.75
240.26	87.75
240.494	66.75
240.728	64.75
240.961	71.75
241.195	78.75
241.429	77.75
241.662	80.75
241.896	71.75
242.13	71.75
242.363	73.75
242.597	65.75
242.83	61.75
243.064	74.75
243.298	84.75
243.531	53.75
243.765	73.75
243.998	72.75
244.232	75.75
244.465	67.75
244.699	74.75
244.932	63.75
245.166	63.75
245.399	77.75
245.633	83.75
245.866	87.75
246.099	85.75
246.333	68.75
246.566	78.75
246.8	71.75
247.033	82.75
247.266	81.75
247.5	83.75
247.733	56.75
247.966	63.75
248.2	77.75
248.433	73.75
248.666	76.75
248.899	83.75
249.133	67.75
249.366	82.75
249.599	83.75
249.832	78.75
250.066	79.75
250.299	86.75
250.532	77.75
250.765	81.75
250.998	79.75
251.231	91.75
251.465	81.75
251.698	89.75
251.931	81.75
252.164	59.75
252.397	74.75
252.63	86.75
252.863	80.75
253.096	77.75
253.329	54.75
253.562	59.75
253.795	77.75
254.028	74.75
254.261	69.75
254.494	86.75
254.727	78.75
254.96	80.75
255.193	79.75
255.426	84.75
255.659	87.75
255.892	83.75
256.124	79.75
256.357	81.75
256.59	87.75
256.823	75.75
257.056	73.75
257.289	71.75
257.521	87.75
257.754	71.75
257.987	76.75
258.22	84.75
258.452	87.75
258.685	85.75
258.918	80.75
259.151	93.75
259.383	79.75
259.616	83.75
259.849	84.75
260.081	76.75
260.314	82.75
260.547	89.75
260.779	68.75
261.012	73.75
261.244	89.75
261.477	70.75
261.71	60.75
261.942	78.75
262.175	91.75
262.407	70.75
262.64	89.75
262.872	95.75
263.105	72.75
263.337	83.75
263.57	76.75
263.802	79.75
264.035	89.75
264.267	82.75
264.499	87.75
264.732	85.75
264.964	65.75
265.197	87.75
265.429	86.75
265.661	102.75
265.894	72.75
266.126	77.75
266.358	85.75
266.591	81.75
266.823	83.75
267.055	72.75
267.287	67.75
267.52	77.75
267.752	75.75
267.984	69.75
268.216	71.75
268.448	85.75
268.681	84.75
268.913	75.75
269.145	85.75
269.377	81.75
269.609	83.75
269.841	81.75
270.073	90.75
270.306	81.75
270.538	75.75
270.77	81.75
271.002	83.75
271.234	84.75
271.466	74.75
271.698	97.75
271.93	87.75
272.162	64.75
272.394	67.75
272.626	82.75
272.858	85.75
273.09	80.75
273.322	68.75
273.553	81.75
273.785	88.75
274.017	68.75
274.249	81.75
274.481	81.75
274.713	84.75
274.945	77.75
275.176	72.75
275.408	75.75
275.64	79.75
275.872	85.75
276.104	84.75
276.335	87.75
276.567	83.75
276.799	82.75
277.031	67.75
277.262	83.75
277.494	71.75
277.726	85.75
277.957	97.75
278.189	85.75
278.421	99.75
278.652	64.75
278.884	80.75
279.115	74.75
279.347	85.75
279.579	78.75
279.81	71.75
280.042	73.75
280.273	91.75
280.505	91.75
280.736	84.75
280.968	82.75
281.199	75.75
281.431	72.75
281.662	81.75
281.894	81.75
282.125	83.75
282.356	78.75
282.588	79.75
282.819	90.75
283.051	76.75
283.282	103.75
283.513	73.75
283.745	87.75
283.976	64.75
284.207	67.75
284.439	83.75
284.67	74.75
284.901	96.75
285.132	76.75
285.364	93.75
285.595	80.75
285.826	79.75
286.057	84.75
286.288	83.75
286.52	88.75
286.751	83.75
286.982	81.75
287.213	84.75
287.444	89.75
287.675	75.75
287.906	83.75
288.138	81.75
288.369	80.75
288.6	79.75
288.831	88.75
289.062	86.75
289.293	76.75
289.524	83.75
289.755	75.75
289.986	75.75
290.217	96.75
290.448	70.75
290.679	68.75
290.91	77.75
291.141	86.75
291.371	75.75
291.602	92.75
291.833	93.75
292.064	90.75
292.295	87.75
292.526	80.75
292.757	80.75
292.987	89.75
293.218	82.75
293.449	82.75
293.68	82.75
293.91	88.75
294.141	96.75
294.372	83.75
294.603	68.75
294.833	84.75
295.064	77.75
295.295	93.75
295.525	89.75
295.756	85.75
295.987	93.75
296.217	98.75
296.448	90.75
296.679	90.75
296.909	82.75
297.14	85.75
297.37	99.75
297.601	93.75
297.831	80.75
298.062	90.75
298.292	91.75
298.523	87.75
298.753	86.75
298.984	77.75
299.214	91.75
299.445	81.75
299.675	89.75
299.905	76.75
300.136	91.75
300.366	97.75
300.597	78.75
300.827	85.75
301.057	80.75
301.288	87.75
301.518	88.75
301.748	75.75
301.979	98.75
302.209	75.75
302.439	82.75
302.669	89.75
302.9	72.75
303.13	77.75
303.36	84.75
303.59	88.75
303.82	63.75
304.051	93.75
304.281	94.75
304.511	78.75
304.741	85.75
304.971	90.75
305.201	83.75
305.431	99.75
305.661	81.75
305.891	83.75
306.121	88.75
306.352	75.75
306.582	74.75
306.812	82.75
307.042	83.75
307.272	74.75
307.502	78.75
307.731	81.75
307.961	82.75
308.191	80.75
308.421	88.75
308.651	76.75
308.881	76.75
309.111	76.75
309.341	81.75
309.571	75.75
309.8	75.75
310.03	83.75
310.26	96.75
310.49	90.75
310.72	81.75
310.949	79.75
311.179	83.75
311.409	91.75
311.639	82.75
311.868	85.75
312.098	95.75
312.328	78.75
312.557	84.75
312.787	81.75
313.017	89.75
313.246	95.75
313.476	84.75
313.706	89.75
313.935	78.75
314.165	79.75
314.394	91.75
314.624	91.75
314.853	88.75
315.083	89.75
315.312	80.75
315.542	90.75
315.771	77.75
316.001	90.75
316.23	94.75
316.46	91.75
316.689	86.75
316.919	78.75
317.148	86.75
317.377	79.75
317.607	88.75
317.836	88.75
318.065	74.75
318.295	83.75
318.524	81.75
318.753	93.75
318.983	83.75
319.212	91.75
319.441	80.75
319.67	71.75
319.9	94.75
320.129	95.75
320.358	85.75
320.587	82.75
320.816	59.75
321.046	60.75
321.275	74.75
321.504	94.75
321.733	89.75
321.962	83.75
322.191	82.75
322.42	88.75
322.649	85.75
322.878	88.75
323.108	88.75
323.337	73.75
323.566	99.75
323.795	85.75
324.024	83.75
324.253	64.75
324.482	88.75
324.71	76.75
324.939	99.75
325.168	96.75
325.397	95.75
325.626	97.75
325.855	95.75
326.084	90.75
326.313	94.75
326.542	99.75
326.77	93.75
326.999	76.75
327.228	82.75
327.457	89.75
327.686	87.75
327.914	88.75
328.143	81.75
328.372	85.75
328.6	88.75
328.829	93.75
329.058	92.75
329.287	81.75
329.515	81.75
329.744	83.75
329.972	96.75
330.201	89.75
330.43	107.75
330.658	90.75
330.887	90.75
331.115	86.75
331.344	95.75
331.572	90.75
331.801	92.75
332.03	93.75
332.258	85.75
332.486	95.75
332.715	96.75
332.943	76.75
333.172	69.75
333.4	69.75
333.629	83.75
333.857	73.75
334.085	92.75
334.314	82.75
334.542	83.75
334.771	95.75
334.999	85.75
335.227	74.75
335.455	91.75
335.684	83.75
335.912	90.75
336.14	90.75
336.369	85.75
336.597	82.75
336.825	77.75
337.053	74.75
337.281	84.75
337.51	83.75
337.738	83.75
337.966	83.75
338.194	83.75
338.422	84.75
338.65	90.75
338.878	91.75
339.106	96.75
339.334	75.75
339.562	95.75
339.79	90.75
340.018	92.75
340.246	83.75
340.474	78.75
340.702	96.75
340.93	91.75
341.158	71.75
341.386	67.75
341.614	92.75
341.842	85.75
342.07	87.75
342.298	93.75
342.526	83.75
342.754	78.75
342.981	90.75
343.209	80.75
343.437	91.75
343.665	76.75
343.893	71.75
344.12	76.75
344.348	83.75
344.576	78.75
344.804	92.75
345.031	83.75
345.259	82.75
345.487	77.75
345.714	97.75
345.942	90.75
346.17	83.75
346.397	80.75
346.625	84.75
346.853	85.75
347.08	89.75
347.308	77.75
347.535	81.75
347.763	84.75
347.99	72.75
348.218	98.75
348.445	86.75
348.673	81.75
348.9	89.75
349.128	75.75
349.355	92.75
349.583	79.75
349.81	81.75
350.037	84.75
350.265	72.75
350.492	83.75
350.72	95.75
350.947	80.75
351.174	87.75
351.402	80.75
351.629	69.75
351.856	83.75
352.083	92.75
352.311	85.75
352.538	83.75
352.765	83.75
352.992	76.75
353.22	80.75
353.447	78.75
353.674	99.75
353.901	84.75
354.128	72.75
354.355	69.75
354.583	90.75
354.81	96.75
355.037	87.75
355.264	85.75
355.491	81.75
355.718	72.75
355.945	72.75
356.172	72.75
356.399	77.75
356.626	80.75
356.853	98.75
357.08	80.75
357.307	84.75
357.534	75.75
357.761	90.75
357.988	102.75
358.215	86.75
358.441	92.75
358.668	75.75
358.895	75.75
359.122	88.75
359.349	87.75
359.576	90.75
359.802	85.75
360.029	92.75
360.256	81.75
360.483	88.75
360.709	87.75
360.936	79.75
361.163	97.75
361.39	91.75
361.616	76.75
361.843	95.75
362.07	89.75
362.296	73.75
362.523	91.75
362.749	91.75
362.976	105.75
363.203	101.75
363.429	97.75
363.656	91.75
363.882	90.75
364.109	93.75
364.335	94.75
364.562	97.75
364.788	89.75
365.015	87.75
365.241	85.75
365.468	91.75
365.694	85.75
365.92	87.75
366.147	81.75
366.373	89.75
366.599	93.75
366.826	76.75
367.052	89.75
367.278	85.75
367.505	73.75
367.731	83.75
367.957	83.75
368.184	86.75
368.41	81.75
368.636	74.75
368.862	79.75
369.089	103.75
369.315	71.75
369.541	88.75
369.767	85.75
369.993	84.75
370.219	87.75
370.445	91.75
370.672	77.75
370.898	93.75
371.124	91.75
371.35	77.75
371.576	81.75
371.802	89.75
372.028	81.75
372.254	81.75
372.48	88.75
372.706	75.75
372.932	82.75
373.158	91.75
373.384	75.75
373.61	83.75
373.835	92.75
374.061	89.75
374.287	82.75
374.513	77.75
374.739	77.75
374.965	82.75
375.191	81.75
375.416	87.75
375.642	89.75
375.868	92.75
376.094	88.75
376.319	84.75
376.545	74.75
376.771	85.75
376.997	92.75
377.222	95.75
377.448	89.75
377.674	81.75
377.899	81.75
378.125	72.75
378.35	72.75
378.576	97.75
378.802	86.75
379.027	84.75
379.253	87.75
379.478	71.75
379.704	88.75
379.929	92.75
380.155	68.75
380.38	81.75
380.606	86.75
380.831	77.75
381.057	94.75
381.282	84.75
381.507	91.75
381.733	93.75
381.958	84.75
382.184	91.75
382.409	80.75
382.634	81.75
382.86	90.75
383.085	83.75
383.31	92.75
383.535	95.75
383.761	77.75
383.986	77.75
384.211	86.75
384.436	84.75
384.662	87.75
384.887	79.75
385.112	91.75
385.337	94.75
385.562	85.75
385.787	83.75
386.013	84.75
386.238	77.75
386.463	100.75
386.688	89.75
386.913	85.75
387.138	76.75
387.363	84.75
387.588	79.75
387.813	91.75
388.038	93.75
388.263	87.75
388.488	78.75
388.713	74.75
388.938	83.75
389.163	83.75
389.387	90.75
389.612	74.75
389.837	77.75
390.062	87.75
390.287	90.75
390.512	90.75
390.736	88.75
390.961	68.75
391.186	71.75
391.411	103.75
391.636	93.75
391.86	83.75
392.085	90.75
392.31	89.75
392.534	80.75
392.759	85.75
392.984	105.75
393.208	116.75
393.433	138.75
393.658	130.75
393.882	102.75
394.107	86.75
394.331	103.75
394.556	95.75
394.78	88.75
395.005	85.75
395.229	83.75
395.454	85.75
395.678	81.75
395.903	86.75
396.127	111.75
396.352	102.75
396.576	97.75
396.801	109.75
397.025	127.75
397.249	103.75
397.474	81.75
397.698	83.75
397.922	83.75
398.147	81.75
398.371	73.75
398.595	76.75
398.82	80.75
399.044	89.75
399.268	75.75
399.492	80.75
399.717	73.75
399.941	90.75
400.165	93.75
400.389	78.75
400.613	65.75
400.837	84.75
401.062	84.75
401.286	82.75
401.51	83.75
401.734	88.75
401.958	92.75
402.182	77.75
402.406	87.75
402.63	84.75
402.854	79.75
403.078	77.75
403.302	79.75
403.526	70.75
403.75	75.75
403.974	85.75
404.198	80.75
404.422	113.75
404.645	114.75
404.869	95.75
405.093	88.75
405.317	85.75
405.541	83.75
405.765	82.75
405.988	91.75
406.212	85.75
406.436	99.75
406.66	99.75
406.883	80.75
407.107	87.75
407.331	67.75
407.555	75.75
407.778	88.75
408.002	98.75
408.226	95.75
408.449	80.75
408.673	94.75
408.896	103.75
409.12	91.75
409.344	80.75
409.567	85.75
409.791	87.75
410.014	92.75
410.238	81.75
410.461	83.75
410.685	90.75
410.908	76.75
411.132	80.75
411.355	104.75
411.578	96.75
411.802	69.75
412.025	93.75
412.249	83.75
412.472	81.75
412.695	75.75
412.919	93.75
413.142	88.75
413.365	87.75
413.589	88.75
413.812	77.75
414.035	86.75
414.258	75.75
414.482	77.75
414.705	84.75
414.928	88.75
415.151	69.75
415.374	75.75
415.597	86.75
415.821	78.75
416.044	97.75
416.267	89.75
416.49	83.75
416.713	83.75
416.936	93.75
417.159	91.75
417.382	77.75
417.605	80.75
417.828	69.75
418.051	76.75
418.274	85.75
418.497	81.75
418.72	76.75
418.943	77.75
419.166	75.75
419.389	93.75
419.611	110.75
419.834	89.75
420.057	79.75
420.28	88.75
420.503	79.75
420.726	86.75
420.948	88.75
421.171	98.75
421.394	100.75
421.617	85.75
421.839	93.75
422.062	112.75
422.285	118.75
422.507	166.75
422.73	201.75
422.953	186.75
423.175	146.75
423.398	100.75
423.621	84.75
423.843	95.75
424.066	85.75
424.288	81.75
424.511	78.75
424.733	76.75
424.956	73.75
425.178	83.75
425.401	88.75
425.623	78.75
425.846	87.75
426.068	99.75
426.291	80.75
426.513	88.75
426.735	75.75
426.958	77.75
427.18	83.75
427.402	90.75
427.625	82.75
427.847	75.75
428.069	103.75
428.292	99.75
428.514	107.75
428.736	116.75
428.958	89.75
429.181	112.75
429.403	95.75
429.625	84.75
429.847	97.75
430.069	106.75
430.292	121.75
430.514	117.75
430.736	95.75
430.958	114.75
431.18	75.75
431.402	71.75
431.624	88.75
431.846	94.75
432.068	109.75
432.29	91.75
432.512	92.75
432.734	77.75
432.956	82.75
433.178	93.75
433.4	84.75
433.622	72.75
433.844	83.75
434.066	79.75
434.287	83.75
434.509	83.75
434.731	91.75
434.953	93.75
435.175	90.75
435.397	91.75
435.618	76.75
435.84	95.75
436.062	64.75
436.284	70.75
436.505	76.75
436.727	85.75
436.949	91.75
437.17	84.75
437.392	76.75
437.614	90.75
437.835	81.75
438.057	94.75
438.278	71.75
438.5	77.75
438.721	89.75
438.943	90.75
439.165	90.75
439.386	77.75
439.608	66.75
439.829	76.75
440.05	94.75
440.272	69.75
440.493	81.75
440.715	77.75
440.936	90.75
441.158	80.75
441.379	81.75
441.6	83.75
441.822	84.75
442.043	71.75
442.264	88.75
442.486	97.75
442.707	121.75
442.928	91.75
443.149	76.75
443.371	115.75
443.592	151.75
443.813	135.75
444.034	84.75
444.255	73.75
444.476	87.75
444.698	87.75
444.919	100.75
445.14	177.75
445.361	156.75
445.582	161.75
445.803	138.75
446.024	104.75
446.245	84.75
446.466	83.75
446.687	77.75
446.908	94.75
447.129	78.75
447.35	87.75
447.571	80.75
447.792	90.75
448.013	81.75
448.234	79.75
448.455	86.75
448.675	76.75
448.896	91.75
449.117	75.75
449.338	85.75
449.559	75.75
449.779	80.75
450	75.75
450.221	74.75
450.442	74.75
450.662	84.75
450.883	80.75
451.104	82.75
451.324	87.75
451.545	94.75
451.766	80.75
451.986	83.75
452.207	69.75
452.428	81.75
452.648	84.75
452.869	79.75
453.089	85.75
453.31	90.75
453.53	100.75
453.751	97.75
453.971	94.75
454.192	81.75
454.412	87.75
454.633	94.75
454.853	78.75
455.073	76.75
455.294	91.75
455.514	89.75
455.734	82.75
455.955	83.75
456.175	78.75
456.395	79.75
456.616	78.75
456.836	80.75
457.056	78.75
457.276	73.75
457.497	72.75
457.717	74.75
457.937	104.75
458.157	83.75
458.377	80.75
458.598	89.75
458.818	105.75
459.038	81.75
459.258	79.75
459.478	74.75
459.698	80.75
459.918	77.75
460.138	83.75
460.358	96.75
460.578	104.75
460.798	100.75
461.018	91.75
461.238	86.75
461.458	78.75
461.678	83.75
461.898	90.75
462.118	88.75
462.338	70.75
462.558	79.75
462.777	83.75
462.997	80.75
463.217	84.75
463.437	85.75
463.657	87.75
463.876	81.75
464.096	62.75
464.316	85.75
464.536	77.75
464.755	85.75
464.975	80.75
465.195	89.75
465.414	78.75
465.634	89.75
465.854	76.75
466.073	73.75
466.293	71.75
466.512	69.75
466.732	78.75
466.951	91.75
467.171	86.75
467.391	80.75
467.61	87.75
467.829	88.75
468.049	90.75
468.268	89.75
468.488	83.75
468.707	89.75
468.927	76.75
469.146	87.75
469.365	85.75
469.585	97.75
469.804	86.75
470.023	77.75
470.243	85.75
470.462	66.75
470.681	73.75
470.901	93.75
471.12	77.75
471.339	80.75
471.558	73.75
471.777	73.75
471.997	81.75
472.216	86.75
472.435	64.75
472.654	84.75
472.873	89.75
473.092	73.75
473.311	73.75
473.53	100.75
473.749	91.75
473.968	91.75
474.187	72.75
474.406	72.75
474.625	81.75
474.844	80.75
475.063	77.75
475.282	83.75
475.501	84.75
475.72	81.75
475.939	81.75
476.158	80.75
476.377	91.75
476.596	76.75
476.814	80.75
477.033	93.75
477.252	80.75
477.471	75.75
477.69	73.75
477.908	87.75
478.127	89.75
478.346	90.75
478.564	84.75
478.783	82.75
479.002	77.75
479.22	89.75
479.439	76.75
479.658	88.75
479.876	93.75
480.095	93.75
480.313	67.75
480.532	82.75
480.751	74.75
480.969	87.75
481.188	92.75
481.406	88.75
481.624	87.75
481.843	83.75
482.061	88.75
482.28	82.75
482.498	92.75
482.717	75.75
482.935	93.75
483.153	72.75
483.372	85.75
483.59	79.75
483.808	82.75
484.027	99.75
484.245	90.75
484.463	83.75
484.681	92.75
484.9	83.75
485.118	89.75
485.336	73.75
485.554	86.75
485.772	94.75
485.99	76.75
486.209	96.75
486.427	84.75
486.645	79.75
486.863	79.75
487.081	73.75
487.299	79.75
487.517	92.75
487.735	85.75
487.953	109.75
488.171	88.75
488.389	87.75
488.607	85.75
488.825	80.75
489.043	80.75
489.261	88.75
489.479	80.75
489.696	81.75
489.914	84.75
490.132	80.75
490.35	82.75
490.568	95.75
490.786	83.75
491.003	93.75
491.221	78.75
491.439	80.75
491.657	78.75
491.874	85.75
492.092	79.75
492.31	83.75
492.527	88.75
492.745	89.75
492.963	93.75
493.18	92.75
493.398	93.75
493.615	65.75
493.833	76.75
494.05	88.75
494.268	83.75
494.485	81.75
494.703	80.75
494.92	87.75
495.138	87.75
495.355	74.75
495.573	100.75
495.79	81.75
496.008	91.75
496.225	84.75
496.442	67.75
496.66	69.75
496.877	82.75
497.094	96.75
497.312	75.75
497.529	97.75
497.746	79.75
497.963	90.75
498.181	93.75
498.398	80.75
498.615	76.75
498.832	67.75
499.049	85.75
499.267	82.75
499.484	71.75
499.701	76.75
499.918	90.75
500.135	91.75
500.352	80.75
500.569	79.75
500.786	90.75
501.003	75.75
501.22	82.75
501.437	67.75
501.654	75.75
501.871	81.75
502.088	81.75
502.305	88.75
502.522	62.75
502.739	79.75
502.956	90.75
503.172	95.75
503.389	77.75
503.606	82.75
503.823	89.75
504.04	89.75
504.256	88.75
504.473	99.75
504.69	81.75
504.907	80.75
505.123	92.75
505.34	96.75
505.557	86.75
505.773	91.75
505.99	63.75
506.207	77.75
506.423	81.75
506.64	95.75
506.856	85.75
507.073	85.75
507.289	73.75
507.506	75.75
507.722	81.75
507.939	70.75
508.155	81.75
508.372	83.75
508.588	88.75
508.805	90.75
509.021	88.75
509.238	75.75
509.454	81.75
509.67	84.75
509.887	83.75
510.103	70.75
510.319	88.75
510.536	95.75
510.752	81.75
510.968	92.75
511.184	69.75
511.401	97.75
511.617	89.75
511.833	81.75
512.049	92.75
512.265	83.75
512.481	75.75
512.698	69.75
512.914	68.75
513.13	87.75
513.346	72.75
513.562	63.75
513.778	82.75
513.994	81.75
514.21	83.75
514.426	94.75
514.642	85.75
514.858	89.75
515.074	91.75
515.29	85.75
515.506	83.75
515.721	77.75
515.937	81.75
516.153	77.75
516.369	79.75
516.585	97.75
516.801	91.75
517.016	81.75
517.232	71.75
517.448	79.75
517.664	79.75
517.879	91.75
518.095	87.75
518.311	83.75
518.527	73.75
518.742	87.75
518.958	105.75
519.173	103.75
519.389	95.75
