Data from 2145_2_HRD10591_00022.txt Node
Date: Mon Jan 19 14:22:13 EST 2026
User: Yrep
Spectrometer: HR+D1059
Trigger mode: 1
Integration Time (sec): 1.000000E-1
Scans to average: 1
Electric dark correction enabled: true
Nonlinearity correction enabled: false
Boxcar width: 0
XAxis mode: Wavelengths
Number of Pixels in Spectrum: 2048
>>>>>Begin Spectral Data<<<<<
223.165	-25.25
223.4	-25.25
223.635	-25.25
223.869	-17.25
224.104	-34.25
224.338	-16.25
224.573	-10.25
224.808	5.75
225.042	-1.25
225.277	-2.25
225.511	3.75
225.746	7.75
225.98	-3.25
226.215	-3.25
226.449	26.75
226.683	11.75
226.918	12.75
227.152	44.75
227.387	28.75
227.621	43.75
227.856	41.75
228.09	28.75
228.324	42.75
228.559	50.75
228.793	52.75
229.027	65.75
229.262	59.75
229.496	63.75
229.73	54.75
229.964	75.75
230.199	77.75
230.433	82.75
230.667	79.75
230.901	64.75
231.136	66.75
231.37	76.75
231.604	81.75
231.838	91.75
232.072	87.75
232.306	86.75
232.541	69.75
232.775	80.75
233.009	79.75
233.243	78.75
233.477	80.75
233.711	64.75
233.945	85.75
234.179	84.75
234.413	90.75
234.647	67.75
234.881	76.75
235.115	83.75
235.349	72.75
235.583	78.75
235.817	83.75
236.051	78.75
236.285	73.75
236.519	59.75
236.753	75.75
236.987	76.75
237.221	67.75
237.455	73.75
237.689	82.75
237.922	75.75
238.156	69.75
238.39	76.75
238.624	80.75
238.858	87.75
239.091	90.75
239.325	61.75
239.559	67.75
239.793	86.75
240.027	83.75
240.26	83.75
240.494	86.75
240.728	71.75
240.961	60.75
241.195	86.75
241.429	75.75
241.662	63.75
241.896	82.75
242.13	66.75
242.363	80.75
242.597	75.75
242.83	70.75
243.064	83.75
243.298	71.75
243.531	65.75
243.765	70.75
243.998	73.75
244.232	81.75
244.465	87.75
244.699	75.75
244.932	76.75
245.166	65.75
245.399	63.75
245.633	88.75
245.866	79.75
246.099	70.75
246.333	81.75
246.566	69.75
246.8	76.75
247.033	75.75
247.266	80.75
247.5	75.75
247.733	71.75
247.966	89.75
248.2	75.75
248.433	83.75
248.666	74.75
248.899	64.75
249.133	69.75
249.366	77.75
249.599	89.75
249.832	71.75
250.066	84.75
250.299	80.75
250.532	83.75
250.765	71.75
250.998	85.75
251.231	83.75
251.465	76.75
251.698	79.75
251.931	83.75
252.164	75.75
252.397	77.75
252.63	87.75
252.863	76.75
253.096	82.75
253.329	76.75
253.562	81.75
253.795	88.75
254.028	75.75
254.261	87.75
254.494	71.75
254.727	83.75
254.96	69.75
255.193	72.75
255.426	71.75
255.659	59.75
255.892	77.75
256.124	50.75
256.357	77.75
256.59	89.75
256.823	87.75
257.056	82.75
257.289	76.75
257.521	100.75
257.754	92.75
257.987	76.75
258.22	101.75
258.452	68.75
258.685	66.75
258.918	72.75
259.151	80.75
259.383	83.75
259.616	83.75
259.849	78.75
260.081	87.75
260.314	87.75
260.547	86.75
260.779	75.75
261.012	77.75
261.244	86.75
261.477	73.75
261.71	69.75
261.942	87.75
262.175	85.75
262.407	68.75
262.64	69.75
262.872	83.75
263.105	76.75
263.337	87.75
263.57	76.75
263.802	79.75
264.035	81.75
264.267	75.75
264.499	91.75
264.732	88.75
264.964	72.75
265.197	72.75
265.429	73.75
265.661	76.75
265.894	74.75
266.126	83.75
266.358	83.75
266.591	77.75
266.823	69.75
267.055	66.75
267.287	78.75
267.52	88.75
267.752	75.75
267.984	84.75
268.216	83.75
268.448	77.75
268.681	98.75
268.913	83.75
269.145	88.75
269.377	86.75
269.609	72.75
269.841	84.75
270.073	89.75
270.306	81.75
270.538	99.75
270.77	65.75
271.002	79.75
271.234	76.75
271.466	73.75
271.698	88.75
271.93	89.75
272.162	83.75
272.394	90.75
272.626	86.75
272.858	79.75
273.09	78.75
273.322	85.75
273.553	83.75
273.785	74.75
274.017	81.75
274.249	81.75
274.481	95.75
274.713	77.75
274.945	91.75
275.176	77.75
275.408	92.75
275.64	81.75
275.872	59.75
276.104	79.75
276.335	81.75
276.567	76.75
276.799	81.75
277.031	75.75
277.262	94.75
277.494	79.75
277.726	83.75
277.957	98.75
278.189	86.75
278.421	68.75
278.652	83.75
278.884	88.75
279.115	82.75
279.347	76.75
279.579	82.75
279.81	83.75
280.042	76.75
280.273	89.75
280.505	85.75
280.736	92.75
280.968	76.75
281.199	94.75
281.431	90.75
281.662	86.75
281.894	89.75
282.125	96.75
282.356	83.75
282.588	75.75
282.819	82.75
283.051	81.75
283.282	64.75
283.513	75.75
283.745	83.75
283.976	79.75
284.207	80.75
284.439	81.75
284.67	87.75
284.901	83.75
285.132	73.75
285.364	81.75
285.595	77.75
285.826	79.75
286.057	85.75
286.288	83.75
286.52	82.75
286.751	78.75
286.982	79.75
287.213	74.75
287.444	73.75
287.675	86.75
287.906	70.75
288.138	86.75
288.369	81.75
288.6	84.75
288.831	75.75
289.062	93.75
289.293	85.75
289.524	71.75
289.755	80.75
289.986	85.75
290.217	81.75
290.448	84.75
290.679	89.75
290.91	91.75
291.141	85.75
291.371	77.75
291.602	88.75
291.833	80.75
292.064	81.75
292.295	81.75
292.526	90.75
292.757	83.75
292.987	77.75
293.218	70.75
293.449	73.75
293.68	87.75
293.91	84.75
294.141	95.75
294.372	73.75
294.603	88.75
294.833	78.75
295.064	83.75
295.295	88.75
295.525	88.75
295.756	73.75
295.987	85.75
296.217	75.75
296.448	90.75
296.679	84.75
296.909	80.75
297.14	83.75
297.37	100.75
297.601	76.75
297.831	84.75
298.062	87.75
298.292	73.75
298.523	90.75
298.753	95.75
298.984	81.75
299.214	82.75
299.445	87.75
299.675	92.75
299.905	88.75
300.136	94.75
300.366	93.75
300.597	80.75
300.827	81.75
301.057	91.75
301.288	72.75
301.518	85.75
301.748	89.75
301.979	90.75
302.209	75.75
302.439	82.75
302.669	85.75
302.9	83.75
303.13	79.75
303.36	82.75
303.59	89.75
303.82	83.75
304.051	89.75
304.281	84.75
304.511	80.75
304.741	93.75
304.971	79.75
305.201	86.75
305.431	87.75
305.661	83.75
305.891	84.75
306.121	77.75
306.352	75.75
306.582	88.75
306.812	79.75
307.042	75.75
307.272	72.75
307.502	87.75
307.731	89.75
307.961	97.75
308.191	75.75
308.421	76.75
308.651	89.75
308.881	83.75
309.111	78.75
309.341	86.75
309.571	70.75
309.8	80.75
310.03	79.75
310.26	86.75
310.49	66.75
310.72	91.75
310.949	85.75
311.179	79.75
311.409	70.75
311.639	74.75
311.868	86.75
312.098	71.75
312.328	94.75
312.557	70.75
312.787	81.75
313.017	75.75
313.246	85.75
313.476	91.75
313.706	94.75
313.935	87.75
314.165	85.75
314.394	71.75
314.624	93.75
314.853	90.75
315.083	81.75
315.312	53.75
315.542	77.75
315.771	94.75
316.001	88.75
316.23	79.75
316.46	85.75
316.689	78.75
316.919	83.75
317.148	84.75
317.377	106.75
317.607	89.75
317.836	75.75
318.065	86.75
318.295	87.75
318.524	90.75
318.753	93.75
318.983	85.75
319.212	90.75
319.441	87.75
319.67	91.75
319.9	93.75
320.129	97.75
320.358	82.75
320.587	69.75
320.816	91.75
321.046	83.75
321.275	87.75
321.504	83.75
321.733	85.75
321.962	80.75
322.191	78.75
322.42	87.75
322.649	84.75
322.878	98.75
323.108	89.75
323.337	87.75
323.566	83.75
323.795	83.75
324.024	83.75
324.253	76.75
324.482	78.75
324.71	77.75
324.939	87.75
325.168	79.75
325.397	86.75
325.626	69.75
325.855	83.75
326.084	84.75
326.313	76.75
326.542	76.75
326.77	85.75
326.999	89.75
327.228	77.75
327.457	80.75
327.686	82.75
327.914	93.75
328.143	71.75
328.372	71.75
328.6	83.75
328.829	85.75
329.058	84.75
329.287	81.75
329.515	104.75
329.744	92.75
329.972	83.75
330.201	78.75
330.43	82.75
330.658	85.75
330.887	80.75
331.115	87.75
331.344	89.75
331.572	90.75
331.801	88.75
332.03	92.75
332.258	87.75
332.486	91.75
332.715	77.75
332.943	101.75
333.172	77.75
333.4	99.75
333.629	73.75
333.857	97.75
334.085	82.75
334.314	82.75
334.542	72.75
334.771	90.75
334.999	78.75
335.227	77.75
335.455	96.75
335.684	91.75
335.912	98.75
336.14	83.75
336.369	87.75
336.597	94.75
336.825	83.75
337.053	77.75
337.281	80.75
337.51	93.75
337.738	83.75
337.966	69.75
338.194	69.75
338.422	65.75
338.65	84.75
338.878	87.75
339.106	78.75
339.334	84.75
339.562	72.75
339.79	71.75
340.018	91.75
340.246	86.75
340.474	85.75
340.702	91.75
340.93	68.75
341.158	70.75
341.386	82.75
341.614	63.75
341.842	86.75
342.07	85.75
342.298	82.75
342.526	62.75
342.754	76.75
342.981	87.75
343.209	70.75
343.437	101.75
343.665	95.75
343.893	72.75
344.12	79.75
344.348	83.75
344.576	77.75
344.804	79.75
345.031	97.75
345.259	88.75
345.487	84.75
345.714	88.75
345.942	81.75
346.17	97.75
346.397	82.75
346.625	89.75
346.853	81.75
347.08	72.75
347.308	109.75
347.535	73.75
347.763	84.75
347.99	87.75
348.218	73.75
348.445	75.75
348.673	87.75
348.9	88.75
349.128	96.75
349.355	101.75
349.583	83.75
349.81	97.75
350.037	87.75
350.265	93.75
350.492	73.75
350.72	73.75
350.947	88.75
351.174	89.75
351.402	78.75
351.629	69.75
351.856	88.75
352.083	77.75
352.311	79.75
352.538	88.75
352.765	94.75
352.992	92.75
353.22	68.75
353.447	84.75
353.674	92.75
353.901	85.75
354.128	75.75
354.355	94.75
354.583	78.75
354.81	73.75
355.037	91.75
355.264	96.75
355.491	84.75
355.718	78.75
355.945	83.75
356.172	91.75
356.399	77.75
356.626	79.75
356.853	81.75
357.08	80.75
357.307	95.75
357.534	87.75
357.761	84.75
357.988	78.75
358.215	83.75
358.441	70.75
358.668	69.75
358.895	73.75
359.122	84.75
359.349	78.75
359.576	73.75
359.802	89.75
360.029	87.75
360.256	88.75
360.483	102.75
360.709	88.75
360.936	81.75
361.163	97.75
361.39	98.75
361.616	80.75
361.843	80.75
362.07	92.75
362.296	98.75
362.523	88.75
362.749	91.75
362.976	88.75
363.203	103.75
363.429	85.75
363.656	84.75
363.882	86.75
364.109	97.75
364.335	106.75
364.562	94.75
364.788	77.75
365.015	79.75
365.241	79.75
365.468	89.75
365.694	79.75
365.92	72.75
366.147	73.75
366.373	76.75
366.599	71.75
366.826	84.75
367.052	90.75
367.278	88.75
367.505	86.75
367.731	78.75
367.957	99.75
368.184	95.75
368.41	76.75
368.636	87.75
368.862	85.75
369.089	84.75
369.315	93.75
369.541	78.75
369.767	73.75
369.993	73.75
370.219	86.75
370.445	66.75
370.672	89.75
370.898	106.75
371.124	87.75
371.35	77.75
371.576	88.75
371.802	85.75
372.028	86.75
372.254	75.75
372.48	93.75
372.706	85.75
372.932	93.75
373.158	88.75
373.384	71.75
373.61	75.75
373.835	84.75
374.061	90.75
374.287	81.75
374.513	86.75
374.739	73.75
374.965	97.75
375.191	94.75
375.416	97.75
375.642	89.75
375.868	77.75
376.094	83.75
376.319	87.75
376.545	79.75
376.771	95.75
376.997	88.75
377.222	85.75
377.448	95.75
377.674	71.75
377.899	91.75
378.125	89.75
378.35	83.75
378.576	83.75
378.802	84.75
379.027	87.75
379.253	87.75
379.478	74.75
379.704	82.75
379.929	87.75
380.155	78.75
380.38	65.75
380.606	73.75
380.831	71.75
381.057	86.75
381.282	92.75
381.507	86.75
381.733	95.75
381.958	95.75
382.184	74.75
382.409	88.75
382.634	89.75
382.86	92.75
383.085	91.75
383.31	84.75
383.535	71.75
383.761	79.75
383.986	85.75
384.211	89.75
384.436	85.75
384.662	81.75
384.887	76.75
385.112	76.75
385.337	76.75
385.562	64.75
385.787	85.75
386.013	80.75
386.238	82.75
386.463	95.75
386.688	80.75
386.913	72.75
387.138	85.75
387.363	79.75
387.588	86.75
387.813	85.75
388.038	85.75
388.263	89.75
388.488	82.75
388.713	81.75
388.938	88.75
389.163	82.75
389.387	84.75
389.612	75.75
389.837	87.75
390.062	85.75
390.287	92.75
390.512	92.75
390.736	85.75
390.961	85.75
391.186	90.75
391.411	94.75
391.636	83.75
391.86	69.75
392.085	87.75
392.31	85.75
392.534	80.75
392.759	87.75
392.984	107.75
393.208	100.75
393.433	142.75
393.658	106.75
393.882	83.75
394.107	84.75
394.331	91.75
394.556	93.75
394.78	73.75
395.005	95.75
395.229	84.75
395.454	84.75
395.678	78.75
395.903	73.75
396.127	91.75
396.352	85.75
396.576	106.75
396.801	114.75
397.025	121.75
397.249	121.75
397.474	112.75
397.698	101.75
397.922	89.75
398.147	84.75
398.371	87.75
398.595	86.75
398.82	83.75
399.044	81.75
399.268	73.75
399.492	73.75
399.717	96.75
399.941	77.75
400.165	95.75
400.389	82.75
400.613	99.75
400.837	72.75
401.062	85.75
401.286	75.75
401.51	89.75
401.734	90.75
401.958	79.75
402.182	75.75
402.406	81.75
402.63	69.75
402.854	78.75
403.078	69.75
403.302	77.75
403.526	96.75
403.75	66.75
403.974	81.75
404.198	77.75
404.422	88.75
404.645	81.75
404.869	99.75
405.093	72.75
405.317	77.75
405.541	83.75
405.765	71.75
405.988	75.75
406.212	71.75
406.436	79.75
406.66	81.75
406.883	87.75
407.107	69.75
407.331	92.75
407.555	76.75
407.778	86.75
408.002	90.75
408.226	76.75
408.449	81.75
408.673	81.75
408.896	72.75
409.12	83.75
409.344	83.75
409.567	93.75
409.791	100.75
410.014	81.75
410.238	97.75
410.461	89.75
410.685	87.75
410.908	73.75
411.132	64.75
411.355	77.75
411.578	85.75
411.802	85.75
412.025	88.75
412.249	83.75
412.472	95.75
412.695	78.75
412.919	76.75
413.142	85.75
413.365	83.75
413.589	100.75
413.812	87.75
414.035	100.75
414.258	85.75
414.482	81.75
414.705	83.75
414.928	77.75
415.151	75.75
415.374	85.75
415.597	77.75
415.821	74.75
416.044	89.75
416.267	70.75
416.49	91.75
416.713	67.75
416.936	87.75
417.159	76.75
417.382	85.75
417.605	84.75
417.828	75.75
418.051	75.75
418.274	88.75
418.497	73.75
418.72	78.75
418.943	82.75
419.166	78.75
419.389	83.75
419.611	84.75
419.834	82.75
420.057	72.75
420.28	82.75
420.503	81.75
420.726	88.75
420.948	90.75
421.171	76.75
421.394	104.75
421.617	81.75
421.839	104.75
422.062	114.75
422.285	118.75
422.507	164.75
422.73	213.75
422.953	172.75
423.175	137.75
423.398	102.75
423.621	99.75
423.843	88.75
424.066	92.75
424.288	86.75
424.511	82.75
424.733	91.75
424.956	86.75
425.178	86.75
425.401	69.75
425.623	77.75
425.846	87.75
426.068	64.75
426.291	78.75
426.513	65.75
426.735	75.75
426.958	68.75
427.18	75.75
427.402	81.75
427.625	82.75
427.847	87.75
428.069	84.75
428.292	99.75
428.514	102.75
428.736	102.75
428.958	77.75
429.181	93.75
429.403	92.75
429.625	68.75
429.847	103.75
430.069	119.75
430.292	128.75
430.514	95.75
430.736	99.75
430.958	92.75
431.18	95.75
431.402	90.75
431.624	88.75
431.846	99.75
432.068	96.75
432.29	90.75
432.512	87.75
432.734	82.75
432.956	76.75
433.178	96.75
433.4	89.75
433.622	75.75
433.844	78.75
434.066	84.75
434.287	86.75
434.509	86.75
434.731	78.75
434.953	52.75
435.175	64.75
435.397	80.75
435.618	89.75
435.84	77.75
436.062	87.75
436.284	83.75
436.505	84.75
436.727	83.75
436.949	81.75
437.17	69.75
437.392	71.75
437.614	78.75
437.835	78.75
438.057	90.75
438.278	72.75
438.5	81.75
438.721	88.75
438.943	88.75
439.165	87.75
439.386	87.75
439.608	90.75
439.829	90.75
440.05	74.75
440.272	72.75
440.493	81.75
440.715	89.75
440.936	94.75
441.158	85.75
441.379	80.75
441.6	75.75
441.822	87.75
442.043	78.75
442.264	87.75
442.486	104.75
442.707	112.75
442.928	96.75
443.149	84.75
443.371	99.75
443.592	139.75
443.813	131.75
444.034	96.75
444.255	89.75
444.476	81.75
444.698	91.75
444.919	84.75
445.14	181.75
445.361	144.75
445.582	160.75
445.803	130.75
446.024	91.75
446.245	80.75
446.466	75.75
446.687	71.75
446.908	97.75
447.129	74.75
447.35	75.75
447.571	93.75
447.792	84.75
448.013	89.75
448.234	99.75
448.455	82.75
448.675	97.75
448.896	80.75
449.117	75.75
449.338	76.75
449.559	99.75
449.779	84.75
450	83.75
450.221	67.75
450.442	84.75
450.662	92.75
450.883	76.75
451.104	87.75
451.324	82.75
451.545	84.75
451.766	91.75
451.986	83.75
452.207	88.75
452.428	87.75
452.648	88.75
452.869	90.75
453.089	79.75
453.31	77.75
453.53	83.75
453.751	83.75
453.971	82.75
454.192	71.75
454.412	80.75
454.633	83.75
454.853	84.75
455.073	86.75
455.294	80.75
455.514	85.75
455.734	91.75
455.955	82.75
456.175	77.75
456.395	90.75
456.616	75.75
456.836	84.75
457.056	87.75
457.276	63.75
457.497	87.75
457.717	83.75
457.937	88.75
458.157	105.75
458.377	115.75
458.598	94.75
458.818	97.75
459.038	95.75
459.258	77.75
459.478	83.75
459.698	84.75
459.918	85.75
460.138	100.75
460.358	74.75
460.578	94.75
460.798	96.75
461.018	98.75
461.238	72.75
461.458	66.75
461.678	97.75
461.898	80.75
462.118	89.75
462.338	83.75
462.558	93.75
462.777	80.75
462.997	91.75
463.217	80.75
463.437	88.75
463.657	95.75
463.876	71.75
464.096	88.75
464.316	75.75
464.536	89.75
464.755	95.75
464.975	83.75
465.195	89.75
465.414	97.75
465.634	81.75
465.854	84.75
466.073	91.75
466.293	77.75
466.512	81.75
466.732	97.75
466.951	82.75
467.171	83.75
467.391	75.75
467.61	71.75
467.829	75.75
468.049	90.75
468.268	92.75
468.488	77.75
468.707	73.75
468.927	84.75
469.146	73.75
469.365	82.75
469.585	77.75
469.804	83.75
470.023	83.75
470.243	80.75
470.462	80.75
470.681	92.75
470.901	85.75
471.12	92.75
471.339	89.75
471.558	84.75
471.777	89.75
471.997	82.75
472.216	88.75
472.435	81.75
472.654	89.75
472.873	98.75
473.092	77.75
473.311	86.75
473.53	79.75
473.749	92.75
473.968	87.75
474.187	81.75
474.406	88.75
474.625	90.75
474.844	82.75
475.063	78.75
475.282	80.75
475.501	80.75
475.72	85.75
475.939	87.75
476.158	78.75
476.377	91.75
476.596	91.75
476.814	72.75
477.033	78.75
477.252	81.75
477.471	67.75
477.69	82.75
477.908	74.75
478.127	88.75
478.346	70.75
478.564	90.75
478.783	87.75
479.002	73.75
479.22	78.75
479.439	77.75
479.658	83.75
479.876	74.75
480.095	85.75
480.313	95.75
480.532	74.75
480.751	80.75
480.969	85.75
481.188	95.75
481.406	85.75
481.624	94.75
481.843	99.75
482.061	86.75
482.28	83.75
482.498	86.75
482.717	99.75
482.935	85.75
483.153	93.75
483.372	89.75
483.59	77.75
483.808	77.75
484.027	90.75
484.245	91.75
484.463	87.75
484.681	94.75
484.9	85.75
485.118	83.75
485.336	85.75
485.554	87.75
485.772	87.75
485.99	75.75
486.209	81.75
486.427	78.75
486.645	77.75
486.863	90.75
487.081	97.75
487.299	87.75
487.517	87.75
487.735	92.75
487.953	123.75
488.171	123.75
488.389	81.75
488.607	93.75
488.825	90.75
489.043	80.75
489.261	77.75
489.479	73.75
489.696	77.75
489.914	93.75
490.132	91.75
490.35	90.75
490.568	94.75
490.786	98.75
491.003	83.75
491.221	71.75
491.439	78.75
491.657	79.75
491.874	85.75
492.092	92.75
492.31	83.75
492.527	87.75
492.745	80.75
492.963	96.75
493.18	87.75
493.398	84.75
493.615	89.75
493.833	91.75
494.05	87.75
494.268	88.75
494.485	81.75
494.703	80.75
494.92	77.75
495.138	89.75
495.355	92.75
495.573	85.75
495.79	81.75
496.008	85.75
496.225	82.75
496.442	76.75
496.66	96.75
496.877	70.75
497.094	80.75
497.312	80.75
497.529	72.75
497.746	81.75
497.963	81.75
498.181	95.75
498.398	83.75
498.615	89.75
498.832	84.75
499.049	94.75
499.267	89.75
499.484	81.75
499.701	87.75
499.918	105.75
500.135	84.75
500.352	87.75
500.569	80.75
500.786	88.75
501.003	72.75
501.22	90.75
501.437	80.75
501.654	67.75
501.871	74.75
502.088	77.75
502.305	93.75
502.522	100.75
502.739	91.75
502.956	84.75
503.172	78.75
503.389	95.75
503.606	85.75
503.823	97.75
504.04	82.75
504.256	116.75
504.473	110.75
504.69	102.75
504.907	97.75
505.123	94.75
505.34	87.75
505.557	80.75
505.773	88.75
505.99	91.75
506.207	95.75
506.423	83.75
506.64	86.75
506.856	88.75
507.073	82.75
507.289	85.75
507.506	93.75
507.722	84.75
507.939	80.75
508.155	77.75
508.372	81.75
508.588	91.75
508.805	82.75
509.021	88.75
509.238	82.75
509.454	80.75
509.67	88.75
509.887	81.75
510.103	91.75
510.319	91.75
510.536	77.75
510.752	98.75
510.968	89.75
511.184	67.75
511.401	81.75
511.617	69.75
511.833	84.75
512.049	89.75
512.265	83.75
512.481	73.75
512.698	91.75
512.914	91.75
513.13	69.75
513.346	79.75
513.562	80.75
513.778	95.75
513.994	74.75
514.21	94.75
514.426	90.75
514.642	83.75
514.858	93.75
515.074	74.75
515.29	81.75
515.506	87.75
515.721	76.75
515.937	77.75
516.153	92.75
516.369	85.75
516.585	99.75
516.801	83.75
517.016	75.75
517.232	83.75
517.448	92.75
517.664	87.75
517.879	87.75
518.095	98.75
518.311	74.75
518.527	96.75
518.742	112.75
518.958	116.75
519.173	139.75
519.389	90.75
