Data from 2145_2_HRD10591_00013.txt Node
Date: Mon Jan 19 14:22:08 EST 2026
User: Yrep
Spectrometer: HR+D1059
Trigger mode: 1
Integration Time (sec): 1.000000E-1
Scans to average: 1
Electric dark correction enabled: true
Nonlinearity correction enabled: false
Boxcar width: 0
XAxis mode: Wavelengths
Number of Pixels in Spectrum: 2048
>>>>>Begin Spectral Data<<<<<
223.165	-13.38
223.4	-13.38
223.635	-13.38
223.869	-24.38
224.104	-25.38
224.338	-20.38
224.573	-21.38
224.808	-4.38
225.042	3.62
225.277	6.62
225.511	-9.38
225.746	-10.38
225.98	-3.38
226.215	-0.38
226.449	26.62
226.683	32.62
226.918	21.62
227.152	41.62
227.387	44.62
227.621	53.62
227.856	38.62
228.09	55.62
228.324	50.62
228.559	54.62
228.793	68.62
229.027	60.62
229.262	60.62
229.496	60.62
229.73	66.62
229.964	67.62
230.199	83.62
230.433	67.62
230.667	72.62
230.901	81.62
231.136	82.62
231.37	81.62
231.604	65.62
231.838	83.62
232.072	85.62
232.306	85.62
232.541	84.62
232.775	77.62
233.009	80.62
233.243	70.62
233.477	74.62
233.711	76.62
233.945	69.62
234.179	85.62
234.413	76.62
234.647	100.62
234.881	77.62
235.115	75.62
235.349	81.62
235.583	67.62
235.817	88.62
236.051	79.62
236.285	81.62
236.519	68.62
236.753	78.62
236.987	76.62
237.221	82.62
237.455	76.62
237.689	79.62
237.922	67.62
238.156	81.62
238.39	71.62
238.624	86.62
238.858	71.62
239.091	91.62
239.325	71.62
239.559	86.62
239.793	74.62
240.027	79.62
240.26	77.62
240.494	80.62
240.728	69.62
240.961	73.62
241.195	82.62
241.429	88.62
241.662	71.62
241.896	74.62
242.13	82.62
242.363	63.62
242.597	75.62
242.83	79.62
243.064	79.62
243.298	81.62
243.531	67.62
243.765	76.62
243.998	80.62
244.232	68.62
244.465	60.62
244.699	69.62
244.932	76.62
245.166	67.62
245.399	73.62
245.633	72.62
245.866	77.62
246.099	80.62
246.333	71.62
246.566	62.62
246.8	72.62
247.033	69.62
247.266	61.62
247.5	67.62
247.733	85.62
247.966	79.62
248.2	75.62
248.433	75.62
248.666	75.62
248.899	87.62
249.133	67.62
249.366	84.62
249.599	79.62
249.832	79.62
250.066	90.62
250.299	75.62
250.532	68.62
250.765	77.62
250.998	78.62
251.231	76.62
251.465	85.62
251.698	71.62
251.931	84.62
252.164	74.62
252.397	92.62
252.63	87.62
252.863	87.62
253.096	71.62
253.329	86.62
253.562	78.62
253.795	84.62
254.028	81.62
254.261	80.62
254.494	66.62
254.727	73.62
254.96	82.62
255.193	76.62
255.426	75.62
255.659	81.62
255.892	79.62
256.124	80.62
256.357	92.62
256.59	95.62
256.823	76.62
257.056	75.62
257.289	83.62
257.521	79.62
257.754	75.62
257.987	72.62
258.22	82.62
258.452	74.62
258.685	85.62
258.918	73.62
259.151	78.62
259.383	80.62
259.616	80.62
259.849	78.62
260.081	86.62
260.314	61.62
260.547	89.62
260.779	91.62
261.012	83.62
261.244	81.62
261.477	85.62
261.71	71.62
261.942	85.62
262.175	69.62
262.407	87.62
262.64	88.62
262.872	74.62
263.105	81.62
263.337	93.62
263.57	80.62
263.802	87.62
264.035	90.62
264.267	81.62
264.499	84.62
264.732	88.62
264.964	67.62
265.197	72.62
265.429	73.62
265.661	83.62
265.894	72.62
266.126	83.62
266.358	77.62
266.591	87.62
266.823	81.62
267.055	74.62
267.287	83.62
267.52	84.62
267.752	84.62
267.984	73.62
268.216	74.62
268.448	87.62
268.681	84.62
268.913	92.62
269.145	74.62
269.377	72.62
269.609	74.62
269.841	77.62
270.073	84.62
270.306	90.62
270.538	91.62
270.77	85.62
271.002	87.62
271.234	77.62
271.466	91.62
271.698	87.62
271.93	74.62
272.162	91.62
272.394	74.62
272.626	83.62
272.858	86.62
273.09	80.62
273.322	77.62
273.553	66.62
273.785	83.62
274.017	83.62
274.249	71.62
274.481	79.62
274.713	78.62
274.945	97.62
275.176	77.62
275.408	95.62
275.64	79.62
275.872	80.62
276.104	86.62
276.335	95.62
276.567	90.62
276.799	83.62
277.031	76.62
277.262	75.62
277.494	83.62
277.726	84.62
277.957	75.62
278.189	73.62
278.421	89.62
278.652	84.62
278.884	84.62
279.115	88.62
279.347	92.62
279.579	85.62
279.81	75.62
280.042	79.62
280.273	89.62
280.505	83.62
280.736	97.62
280.968	91.62
281.199	85.62
281.431	96.62
281.662	93.62
281.894	76.62
282.125	82.62
282.356	77.62
282.588	85.62
282.819	89.62
283.051	68.62
283.282	77.62
283.513	88.62
283.745	80.62
283.976	81.62
284.207	85.62
284.439	85.62
284.67	88.62
284.901	82.62
285.132	85.62
285.364	80.62
285.595	95.62
285.826	71.62
286.057	95.62
286.288	89.62
286.52	82.62
286.751	64.62
286.982	97.62
287.213	80.62
287.444	88.62
287.675	83.62
287.906	82.62
288.138	82.62
288.369	82.62
288.6	80.62
288.831	78.62
289.062	76.62
289.293	85.62
289.524	90.62
289.755	95.62
289.986	87.62
290.217	70.62
290.448	81.62
290.679	85.62
290.91	92.62
291.141	95.62
291.371	79.62
291.602	89.62
291.833	79.62
292.064	74.62
292.295	87.62
292.526	74.62
292.757	85.62
292.987	84.62
293.218	84.62
293.449	92.62
293.68	78.62
293.91	76.62
294.141	84.62
294.372	71.62
294.603	77.62
294.833	76.62
295.064	81.62
295.295	83.62
295.525	68.62
295.756	80.62
295.987	78.62
296.217	79.62
296.448	90.62
296.679	74.62
296.909	83.62
297.14	77.62
297.37	88.62
297.601	85.62
297.831	72.62
298.062	72.62
298.292	84.62
298.523	81.62
298.753	73.62
298.984	95.62
299.214	95.62
299.445	77.62
299.675	89.62
299.905	79.62
300.136	84.62
300.366	85.62
300.597	77.62
300.827	85.62
301.057	92.62
301.288	82.62
301.518	75.62
301.748	87.62
301.979	91.62
302.209	96.62
302.439	77.62
302.669	79.62
302.9	90.62
303.13	77.62
303.36	71.62
303.59	80.62
303.82	85.62
304.051	77.62
304.281	89.62
304.511	95.62
304.741	89.62
304.971	92.62
305.201	85.62
305.431	78.62
305.661	72.62
305.891	95.62
306.121	75.62
306.352	77.62
306.582	89.62
306.812	86.62
307.042	73.62
307.272	82.62
307.502	93.62
307.731	77.62
307.961	90.62
308.191	93.62
308.421	80.62
308.651	85.62
308.881	90.62
309.111	73.62
309.341	93.62
309.571	99.62
309.8	90.62
310.03	92.62
310.26	100.62
310.49	71.62
310.72	81.62
310.949	88.62
311.179	93.62
311.409	84.62
311.639	92.62
311.868	76.62
312.098	75.62
312.328	77.62
312.557	81.62
312.787	91.62
313.017	78.62
313.246	83.62
313.476	82.62
313.706	79.62
313.935	87.62
314.165	81.62
314.394	90.62
314.624	86.62
314.853	76.62
315.083	90.62
315.312	96.62
315.542	88.62
315.771	83.62
316.001	87.62
316.23	76.62
316.46	87.62
316.689	89.62
316.919	82.62
317.148	70.62
317.377	86.62
317.607	88.62
317.836	85.62
318.065	100.62
318.295	85.62
318.524	67.62
318.753	81.62
318.983	96.62
319.212	102.62
319.441	92.62
319.67	73.62
319.9	82.62
320.129	73.62
320.358	89.62
320.587	90.62
320.816	87.62
321.046	89.62
321.275	95.62
321.504	77.62
321.733	88.62
321.962	90.62
322.191	76.62
322.42	74.62
322.649	77.62
322.878	81.62
323.108	81.62
323.337	80.62
323.566	69.62
323.795	82.62
324.024	71.62
324.253	59.62
324.482	85.62
324.71	91.62
324.939	88.62
325.168	91.62
325.397	72.62
325.626	75.62
325.855	83.62
326.084	88.62
326.313	98.62
326.542	85.62
326.77	82.62
326.999	86.62
327.228	75.62
327.457	95.62
327.686	81.62
327.914	79.62
328.143	84.62
328.372	74.62
328.6	85.62
328.829	77.62
329.058	85.62
329.287	88.62
329.515	84.62
329.744	87.62
329.972	75.62
330.201	80.62
330.43	79.62
330.658	86.62
330.887	74.62
331.115	84.62
331.344	87.62
331.572	93.62
331.801	80.62
332.03	74.62
332.258	58.62
332.486	85.62
332.715	74.62
332.943	78.62
333.172	77.62
333.4	94.62
333.629	83.62
333.857	77.62
334.085	89.62
334.314	91.62
334.542	90.62
334.771	91.62
334.999	85.62
335.227	93.62
335.455	95.62
335.684	87.62
335.912	83.62
336.14	87.62
336.369	92.62
336.597	92.62
336.825	85.62
337.053	91.62
337.281	103.62
337.51	82.62
337.738	86.62
337.966	75.62
338.194	76.62
338.422	89.62
338.65	88.62
338.878	95.62
339.106	72.62
339.334	96.62
339.562	93.62
339.79	89.62
340.018	68.62
340.246	93.62
340.474	77.62
340.702	76.62
340.93	87.62
341.158	95.62
341.386	82.62
341.614	94.62
341.842	102.62
342.07	87.62
342.298	79.62
342.526	91.62
342.754	100.62
342.981	84.62
343.209	85.62
343.437	93.62
343.665	88.62
343.893	87.62
344.12	95.62
344.348	92.62
344.576	78.62
344.804	81.62
345.031	90.62
345.259	87.62
345.487	81.62
345.714	80.62
345.942	89.62
346.17	85.62
346.397	78.62
346.625	86.62
346.853	81.62
347.08	85.62
347.308	87.62
347.535	90.62
347.763	107.62
347.99	80.62
348.218	92.62
348.445	73.62
348.673	84.62
348.9	71.62
349.128	83.62
349.355	89.62
349.583	73.62
349.81	101.62
350.037	92.62
350.265	83.62
350.492	77.62
350.72	87.62
350.947	65.62
351.174	86.62
351.402	81.62
351.629	89.62
351.856	88.62
352.083	84.62
352.311	99.62
352.538	84.62
352.765	94.62
352.992	95.62
353.22	95.62
353.447	73.62
353.674	85.62
353.901	92.62
354.128	91.62
354.355	90.62
354.583	80.62
354.81	90.62
355.037	78.62
355.264	90.62
355.491	95.62
355.718	89.62
355.945	89.62
356.172	76.62
356.399	78.62
356.626	91.62
356.853	90.62
357.08	98.62
357.307	90.62
357.534	80.62
357.761	72.62
357.988	97.62
358.215	91.62
358.441	89.62
358.668	93.62
358.895	91.62
359.122	83.62
359.349	68.62
359.576	87.62
359.802	78.62
360.029	85.62
360.256	78.62
360.483	81.62
360.709	74.62
360.936	85.62
361.163	81.62
361.39	90.62
361.616	97.62
361.843	86.62
362.07	97.62
362.296	93.62
362.523	94.62
362.749	101.62
362.976	107.62
363.203	99.62
363.429	65.62
363.656	97.62
363.882	111.62
364.109	109.62
364.335	123.62
364.562	113.62
364.788	100.62
365.015	92.62
365.241	97.62
365.468	97.62
365.694	82.62
365.92	91.62
366.147	90.62
366.373	90.62
366.599	87.62
366.826	86.62
367.052	76.62
367.278	97.62
367.505	83.62
367.731	97.62
367.957	78.62
368.184	79.62
368.41	84.62
368.636	80.62
368.862	80.62
369.089	81.62
369.315	67.62
369.541	88.62
369.767	95.62
369.993	83.62
370.219	69.62
370.445	69.62
370.672	73.62
370.898	81.62
371.124	91.62
371.35	87.62
371.576	83.62
371.802	84.62
372.028	91.62
372.254	90.62
372.48	76.62
372.706	83.62
372.932	73.62
373.158	89.62
373.384	88.62
373.61	102.62
373.835	106.62
374.061	91.62
374.287	82.62
374.513	93.62
374.739	102.62
374.965	91.62
375.191	90.62
375.416	83.62
375.642	90.62
375.868	97.62
376.094	82.62
376.319	87.62
376.545	78.62
376.771	84.62
376.997	71.62
377.222	85.62
377.448	104.62
377.674	78.62
377.899	76.62
378.125	96.62
378.35	83.62
378.576	85.62
378.802	97.62
379.027	88.62
379.253	85.62
379.478	86.62
379.704	81.62
379.929	90.62
380.155	71.62
380.38	87.62
380.606	92.62
380.831	84.62
381.057	81.62
381.282	76.62
381.507	79.62
381.733	87.62
381.958	88.62
382.184	95.62
382.409	92.62
382.634	87.62
382.86	84.62
383.085	84.62
383.31	88.62
383.535	95.62
383.761	81.62
383.986	85.62
384.211	85.62
384.436	82.62
384.662	91.62
384.887	80.62
385.112	85.62
385.337	95.62
385.562	89.62
385.787	89.62
386.013	88.62
386.238	100.62
386.463	84.62
386.688	109.62
386.913	88.62
387.138	91.62
387.363	85.62
387.588	79.62
387.813	85.62
388.038	87.62
388.263	99.62
388.488	94.62
388.713	90.62
388.938	84.62
389.163	88.62
389.387	103.62
389.612	79.62
389.837	82.62
390.062	92.62
390.287	81.62
390.512	84.62
390.736	108.62
390.961	85.62
391.186	83.62
391.411	95.62
391.636	90.62
391.86	92.62
392.085	95.62
392.31	106.62
392.534	104.62
392.759	109.62
392.984	122.62
393.208	168.62
393.433	239.62
393.658	183.62
393.882	115.62
394.107	107.62
394.331	99.62
394.556	95.62
394.78	100.62
395.005	95.62
395.229	84.62
395.454	83.62
395.678	88.62
395.903	116.62
396.127	115.62
396.352	136.62
396.576	141.62
396.801	160.62
397.025	183.62
397.249	141.62
397.474	104.62
397.698	88.62
397.922	102.62
398.147	87.62
398.371	83.62
398.595	85.62
398.82	77.62
399.044	89.62
399.268	86.62
399.492	90.62
399.717	85.62
399.941	78.62
400.165	90.62
400.389	93.62
400.613	94.62
400.837	77.62
401.062	90.62
401.286	97.62
401.51	88.62
401.734	91.62
401.958	99.62
402.182	82.62
402.406	96.62
402.63	79.62
402.854	89.62
403.078	86.62
403.302	94.62
403.526	74.62
403.75	83.62
403.974	87.62
404.198	97.62
404.422	134.62
404.645	150.62
404.869	120.62
405.093	114.62
405.317	99.62
405.541	89.62
405.765	88.62
405.988	106.62
406.212	88.62
406.436	76.62
406.66	88.62
406.883	85.62
407.107	81.62
407.331	97.62
407.555	86.62
407.778	82.62
408.002	107.62
408.226	86.62
408.449	88.62
408.673	84.62
408.896	84.62
409.12	90.62
409.344	84.62
409.567	82.62
409.791	112.62
410.014	105.62
410.238	95.62
410.461	93.62
410.685	88.62
410.908	82.62
411.132	84.62
411.355	100.62
411.578	93.62
411.802	88.62
412.025	82.62
412.249	103.62
412.472	85.62
412.695	95.62
412.919	73.62
413.142	73.62
413.365	91.62
413.589	81.62
413.812	93.62
414.035	91.62
414.258	77.62
414.482	94.62
414.705	75.62
414.928	87.62
415.151	84.62
415.374	77.62
415.597	88.62
415.821	83.62
416.044	108.62
416.267	88.62
416.49	80.62
416.713	73.62
416.936	79.62
417.159	99.62
417.382	91.62
417.605	87.62
417.828	99.62
418.051	92.62
418.274	84.62
418.497	83.62
418.72	78.62
418.943	85.62
419.166	87.62
419.389	75.62
419.611	93.62
419.834	93.62
420.057	86.62
420.28	83.62
420.503	92.62
420.726	103.62
420.948	90.62
421.171	100.62
421.394	103.62
421.617	109.62
421.839	123.62
422.062	146.62
422.285	175.62
422.507	254.62
422.73	315.62
422.953	292.62
423.175	204.62
423.398	148.62
423.621	116.62
423.843	114.62
424.066	95.62
424.288	92.62
424.511	115.62
424.733	81.62
424.956	93.62
425.178	89.62
425.401	88.62
425.623	89.62
425.846	90.62
426.068	83.62
426.291	82.62
426.513	84.62
426.735	82.62
426.958	98.62
427.18	98.62
427.402	83.62
427.625	81.62
427.847	95.62
428.069	89.62
428.292	139.62
428.514	148.62
428.736	111.62
428.958	125.62
429.181	130.62
429.403	93.62
429.625	104.62
429.847	124.62
430.069	163.62
430.292	166.62
430.514	164.62
430.736	137.62
430.958	132.62
431.18	94.62
431.402	95.62
431.624	91.62
431.846	116.62
432.068	140.62
432.29	99.62
432.512	96.62
432.734	90.62
432.956	93.62
433.178	113.62
433.4	81.62
433.622	89.62
433.844	90.62
434.066	89.62
434.287	81.62
434.509	68.62
434.731	95.62
434.953	74.62
435.175	81.62
435.397	99.62
435.618	75.62
435.84	69.62
436.062	89.62
436.284	89.62
436.505	87.62
436.727	95.62
436.949	88.62
437.17	89.62
437.392	77.62
437.614	92.62
437.835	95.62
438.057	92.62
438.278	94.62
438.5	89.62
438.721	91.62
438.943	96.62
439.165	100.62
439.386	91.62
439.608	94.62
439.829	73.62
440.05	83.62
440.272	74.62
440.493	77.62
440.715	76.62
440.936	82.62
441.158	87.62
441.379	66.62
441.6	95.62
441.822	83.62
442.043	105.62
442.264	108.62
442.486	145.62
442.707	179.62
442.928	123.62
443.149	117.62
443.371	153.62
443.592	255.62
443.813	204.62
444.034	115.62
444.255	96.62
444.476	95.62
444.698	78.62
444.919	84.62
445.14	200.62
445.361	201.62
445.582	281.62
445.803	259.62
446.024	132.62
446.245	97.62
446.466	99.62
446.687	91.62
446.908	92.62
447.129	76.62
447.35	68.62
447.571	97.62
447.792	88.62
448.013	87.62
448.234	84.62
448.455	82.62
448.675	73.62
448.896	89.62
449.117	84.62
449.338	84.62
449.559	92.62
449.779	83.62
450	87.62
450.221	75.62
450.442	91.62
450.662	71.62
450.883	80.62
451.104	93.62
451.324	88.62
451.545	85.62
451.766	88.62
451.986	73.62
452.207	82.62
452.428	87.62
452.648	85.62
452.869	98.62
453.089	99.62
453.31	104.62
453.53	87.62
453.751	93.62
453.971	87.62
454.192	91.62
454.412	84.62
454.633	93.62
454.853	98.62
455.073	94.62
455.294	95.62
455.514	80.62
455.734	95.62
455.955	89.62
456.175	86.62
456.395	105.62
456.616	81.62
456.836	82.62
457.056	82.62
457.276	87.62
457.497	93.62
457.717	86.62
457.937	118.62
458.157	132.62
458.377	117.62
458.598	123.62
458.818	134.62
459.038	108.62
459.258	86.62
459.478	72.62
459.698	92.62
459.918	80.62
460.138	89.62
460.358	109.62
460.578	102.62
460.798	125.62
461.018	103.62
461.238	90.62
461.458	80.62
461.678	97.62
461.898	83.62
462.118	95.62
462.338	89.62
462.558	91.62
462.777	72.62
462.997	81.62
463.217	69.62
463.437	75.62
463.657	85.62
463.876	77.62
464.096	80.62
464.316	81.62
464.536	97.62
464.755	84.62
464.975	88.62
465.195	74.62
465.414	82.62
465.634	102.62
465.854	91.62
466.073	79.62
466.293	88.62
466.512	86.62
466.732	93.62
466.951	81.62
467.171	81.62
467.391	82.62
467.61	88.62
467.829	86.62
468.049	99.62
468.268	81.62
468.488	95.62
468.707	97.62
468.927	96.62
469.146	94.62
469.365	83.62
469.585	76.62
469.804	73.62
470.023	78.62
470.243	90.62
470.462	88.62
470.681	102.62
470.901	86.62
471.12	69.62
471.339	93.62
471.558	73.62
471.777	85.62
471.997	93.62
472.216	84.62
472.435	81.62
472.654	87.62
472.873	73.62
473.092	66.62
473.311	87.62
473.53	93.62
473.749	93.62
473.968	87.62
474.187	100.62
474.406	80.62
474.625	81.62
474.844	73.62
475.063	97.62
475.282	80.62
475.501	79.62
475.72	92.62
475.939	87.62
476.158	84.62
476.377	93.62
476.596	87.62
476.814	87.62
477.033	80.62
477.252	93.62
477.471	85.62
477.69	73.62
477.908	76.62
478.127	74.62
478.346	94.62
478.564	91.62
478.783	91.62
479.002	92.62
479.22	90.62
479.439	74.62
479.658	74.62
479.876	81.62
480.095	95.62
480.313	88.62
480.532	86.62
480.751	93.62
480.969	84.62
481.188	85.62
481.406	80.62
481.624	92.62
481.843	82.62
482.061	86.62
482.28	106.62
482.498	98.62
482.717	76.62
482.935	84.62
483.153	78.62
483.372	92.62
483.59	76.62
483.808	87.62
484.027	98.62
484.245	89.62
484.463	79.62
484.681	102.62
484.9	99.62
485.118	87.62
485.336	94.62
485.554	68.62
485.772	88.62
485.99	101.62
486.209	91.62
486.427	84.62
486.645	89.62
486.863	75.62
487.081	86.62
487.299	100.62
487.517	96.62
487.735	96.62
487.953	160.62
488.171	157.62
488.389	101.62
488.607	96.62
488.825	76.62
489.043	95.62
489.261	78.62
489.479	98.62
489.696	86.62
489.914	85.62
490.132	93.62
490.35	98.62
490.568	94.62
490.786	90.62
491.003	80.62
491.221	83.62
491.439	92.62
491.657	84.62
491.874	78.62
492.092	92.62
492.31	97.62
492.527	84.62
492.745	84.62
492.963	88.62
493.18	102.62
493.398	92.62
493.615	87.62
493.833	96.62
494.05	92.62
494.268	71.62
494.485	84.62
494.703	84.62
494.92	91.62
495.138	77.62
495.355	89.62
495.573	89.62
495.79	94.62
496.008	97.62
496.225	90.62
496.442	97.62
496.66	85.62
496.877	96.62
497.094	84.62
497.312	80.62
497.529	87.62
497.746	84.62
497.963	98.62
498.181	93.62
498.398	90.62
498.615	95.62
498.832	81.62
499.049	87.62
499.267	106.62
499.484	90.62
499.701	97.62
499.918	96.62
500.135	89.62
500.352	98.62
500.569	91.62
500.786	85.62
501.003	83.62
501.22	91.62
501.437	97.62
501.654	104.62
501.871	87.62
502.088	95.62
502.305	85.62
502.522	72.62
502.739	94.62
502.956	102.62
503.172	97.62
503.389	87.62
503.606	87.62
503.823	108.62
504.04	108.62
504.256	133.62
504.473	142.62
504.69	106.62
504.907	84.62
505.123	85.62
505.34	90.62
505.557	95.62
505.773	83.62
505.99	90.62
506.207	78.62
506.423	95.62
506.64	99.62
506.856	95.62
507.073	89.62
507.289	85.62
507.506	83.62
507.722	84.62
507.939	112.62
508.155	82.62
508.372	88.62
508.588	95.62
508.805	99.62
509.021	105.62
509.238	76.62
509.454	88.62
509.67	87.62
509.887	85.62
510.103	94.62
510.319	94.62
510.536	95.62
510.752	89.62
510.968	83.62
511.184	98.62
511.401	81.62
511.617	98.62
511.833	80.62
512.049	83.62
512.265	90.62
512.481	100.62
512.698	84.62
512.914	80.62
513.13	87.62
513.346	90.62
513.562	101.62
513.778	85.62
513.994	80.62
514.21	83.62
514.426	96.62
514.642	93.62
514.858	76.62
515.074	79.62
515.29	89.62
515.506	99.62
515.721	102.62
515.937	91.62
516.153	99.62
516.369	82.62
516.585	87.62
516.801	87.62
517.016	92.62
517.232	99.62
517.448	92.62
517.664	100.62
517.879	83.62
518.095	90.62
518.311	82.62
