Data from 2145_2_HRD10591_00014.txt Node
Date: Mon Jan 19 14:22:09 EST 2026
User: Yrep
Spectrometer: HR+D1059
Trigger mode: 1
Integration Time (sec): 1.000000E-1
Scans to average: 1
Electric dark correction enabled: true
Nonlinearity correction enabled: false
Boxcar width: 0
XAxis mode: Wavelengths
Number of Pixels in Spectrum: 2048
>>>>>Begin Spectral Data<<<<<
223.165	-17.06
223.4	-17.06
223.635	-17.06
223.869	-24.06
224.104	-22.06
224.338	-6.06
224.573	-26.06
224.808	-21.06
225.042	2.94
225.277	-8.06
225.511	-2.06
225.746	-6.06
225.98	11.94
226.215	0.94
226.449	13.94
226.683	14.94
226.918	52.94
227.152	34.94
227.387	37.94
227.621	42.94
227.856	36.94
228.09	43.94
228.324	52.94
228.559	58.94
228.793	72.94
229.027	61.94
229.262	58.94
229.496	74.94
229.73	75.94
229.964	60.94
230.199	86.94
230.433	63.94
230.667	88.94
230.901	65.94
231.136	74.94
231.37	70.94
231.604	66.94
231.838	93.94
232.072	88.94
232.306	84.94
232.541	74.94
232.775	66.94
233.009	79.94
233.243	82.94
233.477	81.94
233.711	83.94
233.945	84.94
234.179	77.94
234.413	81.94
234.647	84.94
234.881	82.94
235.115	88.94
235.349	68.94
235.583	84.94
235.817	77.94
236.051	79.94
236.285	80.94
236.519	79.94
236.753	81.94
236.987	72.94
237.221	80.94
237.455	70.94
237.689	88.94
237.922	80.94
238.156	94.94
238.39	70.94
238.624	90.94
238.858	75.94
239.091	73.94
239.325	72.94
239.559	86.94
239.793	80.94
240.027	67.94
240.26	75.94
240.494	81.94
240.728	71.94
240.961	75.94
241.195	83.94
241.429	78.94
241.662	82.94
241.896	73.94
242.13	82.94
242.363	83.94
242.597	77.94
242.83	78.94
243.064	78.94
243.298	73.94
243.531	79.94
243.765	84.94
243.998	80.94
244.232	84.94
244.465	85.94
244.699	71.94
244.932	65.94
245.166	66.94
245.399	87.94
245.633	82.94
245.866	74.94
246.099	72.94
246.333	76.94
246.566	86.94
246.8	67.94
247.033	62.94
247.266	85.94
247.5	90.94
247.733	74.94
247.966	86.94
248.2	74.94
248.433	71.94
248.666	68.94
248.899	83.94
249.133	80.94
249.366	85.94
249.599	62.94
249.832	83.94
250.066	85.94
250.299	82.94
250.532	83.94
250.765	70.94
250.998	69.94
251.231	83.94
251.465	82.94
251.698	78.94
251.931	80.94
252.164	85.94
252.397	98.94
252.63	74.94
252.863	81.94
253.096	76.94
253.329	96.94
253.562	78.94
253.795	72.94
254.028	90.94
254.261	77.94
254.494	94.94
254.727	82.94
254.96	73.94
255.193	82.94
255.426	82.94
255.659	85.94
255.892	80.94
256.124	85.94
256.357	69.94
256.59	87.94
256.823	75.94
257.056	87.94
257.289	84.94
257.521	76.94
257.754	71.94
257.987	76.94
258.22	80.94
258.452	79.94
258.685	79.94
258.918	73.94
259.151	64.94
259.383	69.94
259.616	85.94
259.849	80.94
260.081	82.94
260.314	85.94
260.547	90.94
260.779	74.94
261.012	73.94
261.244	99.94
261.477	80.94
261.71	77.94
261.942	87.94
262.175	84.94
262.407	75.94
262.64	99.94
262.872	78.94
263.105	80.94
263.337	64.94
263.57	79.94
263.802	76.94
264.035	102.94
264.267	96.94
264.499	68.94
264.732	84.94
264.964	84.94
265.197	82.94
265.429	88.94
265.661	70.94
265.894	88.94
266.126	85.94
266.358	94.94
266.591	76.94
266.823	87.94
267.055	73.94
267.287	80.94
267.52	92.94
267.752	83.94
267.984	90.94
268.216	82.94
268.448	82.94
268.681	97.94
268.913	90.94
269.145	82.94
269.377	93.94
269.609	77.94
269.841	74.94
270.073	84.94
270.306	78.94
270.538	92.94
270.77	84.94
271.002	87.94
271.234	76.94
271.466	82.94
271.698	74.94
271.93	62.94
272.162	82.94
272.394	80.94
272.626	88.94
272.858	77.94
273.09	80.94
273.322	82.94
273.553	86.94
273.785	81.94
274.017	85.94
274.249	84.94
274.481	79.94
274.713	66.94
274.945	85.94
275.176	71.94
275.408	80.94
275.64	78.94
275.872	74.94
276.104	103.94
276.335	81.94
276.567	81.94
276.799	76.94
277.031	84.94
277.262	75.94
277.494	82.94
277.726	88.94
277.957	86.94
278.189	86.94
278.421	83.94
278.652	85.94
278.884	78.94
279.115	71.94
279.347	77.94
279.579	81.94
279.81	68.94
280.042	84.94
280.273	78.94
280.505	72.94
280.736	83.94
280.968	83.94
281.199	82.94
281.431	85.94
281.662	92.94
281.894	78.94
282.125	92.94
282.356	84.94
282.588	75.94
282.819	73.94
283.051	75.94
283.282	65.94
283.513	85.94
283.745	76.94
283.976	72.94
284.207	82.94
284.439	73.94
284.67	88.94
284.901	85.94
285.132	86.94
285.364	80.94
285.595	75.94
285.826	96.94
286.057	92.94
286.288	97.94
286.52	95.94
286.751	63.94
286.982	89.94
287.213	74.94
287.444	92.94
287.675	95.94
287.906	82.94
288.138	77.94
288.369	79.94
288.6	90.94
288.831	72.94
289.062	96.94
289.293	93.94
289.524	84.94
289.755	94.94
289.986	82.94
290.217	99.94
290.448	72.94
290.679	88.94
290.91	84.94
291.141	92.94
291.371	87.94
291.602	88.94
291.833	91.94
292.064	104.94
292.295	92.94
292.526	78.94
292.757	71.94
292.987	98.94
293.218	93.94
293.449	96.94
293.68	100.94
293.91	90.94
294.141	87.94
294.372	77.94
294.603	84.94
294.833	93.94
295.064	73.94
295.295	77.94
295.525	73.94
295.756	97.94
295.987	87.94
296.217	80.94
296.448	94.94
296.679	78.94
296.909	90.94
297.14	77.94
297.37	73.94
297.601	86.94
297.831	93.94
298.062	87.94
298.292	89.94
298.523	101.94
298.753	92.94
298.984	90.94
299.214	75.94
299.445	91.94
299.675	95.94
299.905	97.94
300.136	90.94
300.366	93.94
300.597	98.94
300.827	85.94
301.057	85.94
301.288	91.94
301.518	88.94
301.748	91.94
301.979	99.94
302.209	100.94
302.439	78.94
302.669	82.94
302.9	86.94
303.13	86.94
303.36	88.94
303.59	89.94
303.82	79.94
304.051	85.94
304.281	91.94
304.511	98.94
304.741	89.94
304.971	91.94
305.201	84.94
305.431	85.94
305.661	98.94
305.891	82.94
306.121	75.94
306.352	76.94
306.582	70.94
306.812	84.94
307.042	93.94
307.272	86.94
307.502	79.94
307.731	81.94
307.961	85.94
308.191	76.94
308.421	79.94
308.651	105.94
308.881	88.94
309.111	87.94
309.341	92.94
309.571	87.94
309.8	93.94
310.03	64.94
310.26	78.94
310.49	82.94
310.72	96.94
310.949	94.94
311.179	90.94
311.409	84.94
311.639	87.94
311.868	86.94
312.098	91.94
312.328	86.94
312.557	70.94
312.787	99.94
313.017	84.94
313.246	93.94
313.476	99.94
313.706	83.94
313.935	87.94
314.165	92.94
314.394	73.94
314.624	91.94
314.853	81.94
315.083	84.94
315.312	93.94
315.542	91.94
315.771	74.94
316.001	83.94
316.23	86.94
316.46	80.94
316.689	81.94
316.919	83.94
317.148	97.94
317.377	98.94
317.607	101.94
317.836	90.94
318.065	86.94
318.295	91.94
318.524	98.94
318.753	100.94
318.983	85.94
319.212	80.94
319.441	84.94
319.67	88.94
319.9	98.94
320.129	78.94
320.358	83.94
320.587	95.94
320.816	92.94
321.046	96.94
321.275	84.94
321.504	94.94
321.733	97.94
321.962	88.94
322.191	84.94
322.42	77.94
322.649	77.94
322.878	96.94
323.108	94.94
323.337	76.94
323.566	77.94
323.795	76.94
324.024	100.94
324.253	79.94
324.482	82.94
324.71	80.94
324.939	88.94
325.168	74.94
325.397	88.94
325.626	76.94
325.855	98.94
326.084	86.94
326.313	80.94
326.542	80.94
326.77	89.94
326.999	72.94
327.228	78.94
327.457	91.94
327.686	97.94
327.914	88.94
328.143	93.94
328.372	83.94
328.6	83.94
328.829	91.94
329.058	78.94
329.287	69.94
329.515	85.94
329.744	82.94
329.972	77.94
330.201	83.94
330.43	71.94
330.658	72.94
330.887	89.94
331.115	86.94
331.344	78.94
331.572	89.94
331.801	91.94
332.03	75.94
332.258	90.94
332.486	81.94
332.715	91.94
332.943	90.94
333.172	84.94
333.4	80.94
333.629	100.94
333.857	84.94
334.085	89.94
334.314	81.94
334.542	95.94
334.771	92.94
334.999	90.94
335.227	76.94
335.455	91.94
335.684	93.94
335.912	98.94
336.14	92.94
336.369	98.94
336.597	92.94
336.825	84.94
337.053	84.94
337.281	70.94
337.51	67.94
337.738	79.94
337.966	80.94
338.194	82.94
338.422	85.94
338.65	80.94
338.878	93.94
339.106	89.94
339.334	79.94
339.562	82.94
339.79	81.94
340.018	83.94
340.246	87.94
340.474	93.94
340.702	92.94
340.93	102.94
341.158	84.94
341.386	76.94
341.614	79.94
341.842	94.94
342.07	80.94
342.298	112.94
342.526	90.94
342.754	72.94
342.981	78.94
343.209	77.94
343.437	102.94
343.665	85.94
343.893	82.94
344.12	84.94
344.348	101.94
344.576	93.94
344.804	87.94
345.031	84.94
345.259	79.94
345.487	88.94
345.714	86.94
345.942	80.94
346.17	88.94
346.397	76.94
346.625	84.94
346.853	87.94
347.08	86.94
347.308	91.94
347.535	89.94
347.763	88.94
347.99	92.94
348.218	87.94
348.445	93.94
348.673	92.94
348.9	82.94
349.128	91.94
349.355	78.94
349.583	85.94
349.81	85.94
350.037	84.94
350.265	90.94
350.492	92.94
350.72	92.94
350.947	93.94
351.174	78.94
351.402	93.94
351.629	79.94
351.856	84.94
352.083	77.94
352.311	87.94
352.538	86.94
352.765	91.94
352.992	98.94
353.22	89.94
353.447	91.94
353.674	79.94
353.901	91.94
354.128	92.94
354.355	83.94
354.583	75.94
354.81	87.94
355.037	85.94
355.264	70.94
355.491	90.94
355.718	88.94
355.945	102.94
356.172	72.94
356.399	75.94
356.626	83.94
356.853	91.94
357.08	95.94
357.307	106.94
357.534	88.94
357.761	86.94
357.988	96.94
358.215	91.94
358.441	88.94
358.668	91.94
358.895	94.94
359.122	83.94
359.349	85.94
359.576	89.94
359.802	89.94
360.029	82.94
360.256	95.94
360.483	90.94
360.709	94.94
360.936	90.94
361.163	86.94
361.39	81.94
361.616	77.94
361.843	89.94
362.07	102.94
362.296	96.94
362.523	94.94
362.749	88.94
362.976	113.94
363.203	114.94
363.429	107.94
363.656	104.94
363.882	101.94
364.109	103.94
364.335	134.94
364.562	107.94
364.788	105.94
365.015	95.94
365.241	94.94
365.468	88.94
365.694	84.94
365.92	73.94
366.147	70.94
366.373	78.94
366.599	92.94
366.826	95.94
367.052	87.94
367.278	96.94
367.505	87.94
367.731	94.94
367.957	81.94
368.184	83.94
368.41	78.94
368.636	82.94
368.862	90.94
369.089	92.94
369.315	88.94
369.541	79.94
369.767	94.94
369.993	84.94
370.219	84.94
370.445	79.94
370.672	96.94
370.898	95.94
371.124	83.94
371.35	99.94
371.576	82.94
371.802	100.94
372.028	82.94
372.254	87.94
372.48	87.94
372.706	81.94
372.932	84.94
373.158	88.94
373.384	86.94
373.61	95.94
373.835	98.94
374.061	89.94
374.287	96.94
374.513	95.94
374.739	97.94
374.965	80.94
375.191	81.94
375.416	81.94
375.642	99.94
375.868	99.94
376.094	93.94
376.319	83.94
376.545	95.94
376.771	97.94
376.997	104.94
377.222	82.94
377.448	81.94
377.674	83.94
377.899	87.94
378.125	74.94
378.35	82.94
378.576	88.94
378.802	81.94
379.027	84.94
379.253	101.94
379.478	95.94
379.704	85.94
379.929	81.94
380.155	84.94
380.38	88.94
380.606	77.94
380.831	100.94
381.057	88.94
381.282	86.94
381.507	88.94
381.733	86.94
381.958	84.94
382.184	90.94
382.409	92.94
382.634	93.94
382.86	94.94
383.085	103.94
383.31	95.94
383.535	97.94
383.761	99.94
383.986	88.94
384.211	100.94
384.436	101.94
384.662	101.94
384.887	85.94
385.112	78.94
385.337	97.94
385.562	101.94
385.787	90.94
386.013	97.94
386.238	106.94
386.463	107.94
386.688	93.94
386.913	99.94
387.138	79.94
387.363	87.94
387.588	97.94
387.813	105.94
388.038	103.94
388.263	96.94
388.488	100.94
388.713	86.94
388.938	95.94
389.163	100.94
389.387	89.94
389.612	86.94
389.837	87.94
390.062	97.94
390.287	90.94
390.512	92.94
390.736	82.94
390.961	88.94
391.186	86.94
391.411	86.94
391.636	97.94
391.86	84.94
392.085	90.94
392.31	93.94
392.534	91.94
392.759	89.94
392.984	129.94
393.208	171.94
393.433	212.94
393.658	192.94
393.882	117.94
394.107	98.94
394.331	108.94
394.556	110.94
394.78	105.94
395.005	83.94
395.229	84.94
395.454	96.94
395.678	101.94
395.903	118.94
396.127	126.94
396.352	139.94
396.576	137.94
396.801	190.94
397.025	182.94
397.249	135.94
397.474	119.94
397.698	87.94
397.922	97.94
398.147	97.94
398.371	88.94
398.595	101.94
398.82	95.94
399.044	95.94
399.268	89.94
399.492	102.94
399.717	82.94
399.941	94.94
400.165	97.94
400.389	95.94
400.613	92.94
400.837	103.94
401.062	85.94
401.286	82.94
401.51	89.94
401.734	85.94
401.958	94.94
402.182	94.94
402.406	85.94
402.63	76.94
402.854	81.94
403.078	102.94
403.302	84.94
403.526	89.94
403.75	81.94
403.974	86.94
404.198	110.94
404.422	120.94
404.645	138.94
404.869	125.94
405.093	109.94
405.317	83.94
405.541	81.94
405.765	93.94
405.988	93.94
406.212	91.94
406.436	101.94
406.66	89.94
406.883	89.94
407.107	81.94
407.331	92.94
407.555	92.94
407.778	93.94
408.002	104.94
408.226	90.94
408.449	98.94
408.673	76.94
408.896	77.94
409.12	82.94
409.344	99.94
409.567	106.94
409.791	97.94
410.014	100.94
410.238	116.94
410.461	87.94
410.685	98.94
410.908	88.94
411.132	87.94
411.355	89.94
411.578	94.94
411.802	92.94
412.025	85.94
412.249	82.94
412.472	90.94
412.695	83.94
412.919	87.94
413.142	71.94
413.365	96.94
413.589	84.94
413.812	72.94
414.035	94.94
414.258	83.94
414.482	95.94
414.705	96.94
414.928	91.94
415.151	70.94
415.374	88.94
415.597	86.94
415.821	80.94
416.044	83.94
416.267	100.94
416.49	95.94
416.713	91.94
416.936	88.94
417.159	92.94
417.382	86.94
417.605	88.94
417.828	88.94
418.051	94.94
418.274	86.94
418.497	83.94
418.72	92.94
418.943	85.94
419.166	77.94
419.389	84.94
419.611	88.94
419.834	90.94
420.057	98.94
420.28	85.94
420.503	94.94
420.726	80.94
420.948	91.94
421.171	83.94
421.394	100.94
421.617	107.94
421.839	100.94
422.062	127.94
422.285	155.94
422.507	235.94
422.73	316.94
422.953	284.94
423.175	203.94
423.398	147.94
423.621	100.94
423.843	92.94
424.066	92.94
424.288	94.94
424.511	86.94
424.733	93.94
424.956	99.94
425.178	101.94
425.401	83.94
425.623	82.94
425.846	84.94
426.068	88.94
426.291	88.94
426.513	90.94
426.735	97.94
426.958	87.94
427.18	93.94
427.402	102.94
427.625	99.94
427.847	94.94
428.069	116.94
428.292	114.94
428.514	114.94
428.736	112.94
428.958	130.94
429.181	114.94
429.403	105.94
429.625	84.94
429.847	112.94
430.069	156.94
430.292	157.94
430.514	139.94
430.736	120.94
430.958	129.94
431.18	106.94
431.402	101.94
431.624	100.94
431.846	114.94
432.068	109.94
432.29	96.94
432.512	85.94
432.734	87.94
432.956	96.94
433.178	96.94
433.4	83.94
433.622	78.94
433.844	82.94
434.066	85.94
434.287	95.94
434.509	94.94
434.731	85.94
434.953	97.94
435.175	88.94
435.397	88.94
435.618	87.94
435.84	84.94
436.062	88.94
436.284	86.94
436.505	92.94
436.727	97.94
436.949	84.94
437.17	85.94
437.392	95.94
437.614	77.94
437.835	81.94
438.057	104.94
438.278	64.94
438.5	85.94
438.721	91.94
438.943	101.94
439.165	84.94
439.386	84.94
439.608	100.94
439.829	88.94
440.05	78.94
440.272	84.94
440.493	94.94
440.715	83.94
440.936	84.94
441.158	91.94
441.379	86.94
441.6	75.94
441.822	100.94
442.043	79.94
442.264	93.94
442.486	133.94
442.707	164.94
442.928	130.94
443.149	118.94
443.371	145.94
443.592	221.94
443.813	209.94
444.034	122.94
444.255	88.94
444.476	96.94
444.698	83.94
444.919	82.94
445.14	184.94
445.361	221.94
445.582	259.94
445.803	230.94
446.024	126.94
446.245	95.94
446.466	91.94
446.687	79.94
446.908	94.94
447.129	80.94
447.35	91.94
447.571	82.94
447.792	88.94
448.013	84.94
448.234	90.94
448.455	88.94
448.675	82.94
448.896	82.94
449.117	87.94
449.338	93.94
449.559	104.94
449.779	78.94
450	95.94
450.221	75.94
450.442	88.94
450.662	79.94
450.883	73.94
451.104	85.94
451.324	90.94
451.545	87.94
451.766	94.94
451.986	99.94
452.207	95.94
452.428	88.94
452.648	89.94
452.869	101.94
453.089	89.94
453.31	94.94
453.53	98.94
453.751	102.94
453.971	88.94
454.192	78.94
454.412	78.94
454.633	83.94
454.853	81.94
455.073	90.94
455.294	65.94
455.514	89.94
455.734	88.94
455.955	87.94
456.175	93.94
456.395	88.94
456.616	87.94
456.836	87.94
457.056	72.94
457.276	74.94
457.497	94.94
457.717	89.94
457.937	104.94
458.157	114.94
458.377	104.94
458.598	116.94
458.818	121.94
459.038	98.94
459.258	93.94
459.478	93.94
459.698	74.94
459.918	94.94
460.138	84.94
460.358	93.94
460.578	89.94
460.798	105.94
461.018	125.94
461.238	97.94
461.458	84.94
461.678	88.94
461.898	90.94
462.118	86.94
462.338	83.94
462.558	77.94
462.777	103.94
462.997	78.94
463.217	88.94
463.437	88.94
463.657	85.94
463.876	69.94
464.096	91.94
464.316	88.94
464.536	90.94
464.755	92.94
464.975	78.94
465.195	96.94
465.414	89.94
465.634	99.94
465.854	98.94
466.073	77.94
466.293	98.94
466.512	88.94
466.732	85.94
466.951	90.94
467.171	84.94
467.391	70.94
467.61	78.94
467.829	88.94
468.049	92.94
468.268	102.94
468.488	92.94
468.707	86.94
468.927	91.94
469.146	81.94
469.365	92.94
469.585	84.94
469.804	87.94
470.023	90.94
470.243	89.94
470.462	82.94
470.681	91.94
470.901	93.94
471.12	69.94
471.339	85.94
471.558	81.94
471.777	82.94
471.997	86.94
472.216	76.94
472.435	91.94
472.654	89.94
472.873	84.94
473.092	93.94
473.311	87.94
473.53	89.94
473.749	82.94
473.968	73.94
474.187	88.94
474.406	72.94
474.625	92.94
474.844	97.94
475.063	87.94
475.282	71.94
475.501	93.94
475.72	83.94
475.939	89.94
476.158	88.94
476.377	85.94
476.596	97.94
476.814	86.94
477.033	80.94
477.252	88.94
477.471	90.94
477.69	79.94
477.908	88.94
478.127	82.94
478.346	82.94
478.564	82.94
478.783	71.94
479.002	97.94
479.22	82.94
479.439	93.94
479.658	84.94
479.876	84.94
480.095	89.94
480.313	87.94
480.532	86.94
480.751	93.94
480.969	96.94
481.188	90.94
481.406	94.94
481.624	86.94
481.843	92.94
482.061	93.94
482.28	89.94
482.498	77.94
482.717	89.94
482.935	72.94
483.153	92.94
483.372	86.94
483.59	87.94
483.808	90.94
484.027	92.94
484.245	81.94
484.463	79.94
484.681	89.94
484.9	93.94
485.118	96.94
485.336	79.94
485.554	85.94
485.772	98.94
485.99	84.94
486.209	83.94
486.427	89.94
486.645	101.94
486.863	96.94
487.081	101.94
487.299	98.94
487.517	109.94
487.735	121.94
487.953	161.94
488.171	161.94
488.389	103.94
488.607	91.94
488.825	81.94
489.043	97.94
489.261	90.94
489.479	97.94
489.696	87.94
489.914	83.94
490.132	88.94
490.35	84.94
490.568	97.94
490.786	104.94
491.003	87.94
491.221	72.94
491.439	92.94
491.657	96.94
491.874	96.94
492.092	75.94
492.31	80.94
492.527	92.94
492.745	90.94
492.963	89.94
493.18	89.94
493.398	83.94
493.615	100.94
493.833	82.94
494.05	83.94
494.268	99.94
494.485	92.94
494.703	88.94
494.92	83.94
495.138	89.94
495.355	87.94
495.573	89.94
495.79	84.94
496.008	92.94
496.225	108.94
496.442	89.94
496.66	96.94
496.877	96.94
497.094	95.94
497.312	97.94
497.529	96.94
497.746	84.94
497.963	73.94
498.181	84.94
498.398	101.94
498.615	90.94
498.832	86.94
499.049	98.94
499.267	87.94
499.484	92.94
499.701	91.94
499.918	86.94
500.135	105.94
500.352	92.94
500.569	101.94
500.786	75.94
501.003	100.94
501.22	96.94
501.437	93.94
501.654	88.94
501.871	105.94
502.088	103.94
502.305	94.94
502.522	90.94
502.739	78.94
502.956	85.94
503.172	100.94
503.389	89.94
503.606	94.94
503.823	101.94
504.04	96.94
504.256	117.94
504.473	123.94
504.69	106.94
504.907	85.94
505.123	98.94
505.34	92.94
505.557	92.94
505.773	83.94
505.99	101.94
506.207	81.94
506.423	67.94
506.64	100.94
506.856	74.94
507.073	84.94
507.289	91.94
507.506	91.94
507.722	89.94
507.939	104.94
508.155	89.94
508.372	90.94
508.588	85.94
508.805	92.94
509.021	106.94
509.238	94.94
509.454	89.94
509.67	99.94
509.887	93.94
510.103	96.94
510.319	80.94
510.536	81.94
510.752	96.94
510.968	88.94
511.184	87.94
511.401	94.94
511.617	88.94
511.833	80.94
512.049	99.94
512.265	86.94
512.481	103.94
512.698	99.94
512.914	98.94
513.13	100.94
513.346	83.94
513.562	94.94
513.778	94.94
513.994	98.94
514.21	89.94
514.426	81.94
514.642	93.94
514.858	103.94
515.074	98.94
515.29	99.94
515.506	90.94
515.721	89.94
515.937	93.94
516.153	80.94
516.369	90.94
516.585	80.94
516.801	77.94
517.016	100.94
517.232	85.94
517.448	102.94
517.664	104.94
517.879	102.94
