Data from 2145_2_HRD10591_00003.txt Node
Date: Mon Jan 19 14:22:03 EST 2026
User: Yrep
Spectrometer: HR+D1059
Trigger mode: 1
Integration Time (sec): 1.000000E-1
Scans to average: 1
Electric dark correction enabled: true
Nonlinearity correction enabled: false
Boxcar width: 0
XAxis mode: Wavelengths
Number of Pixels in Spectrum: 2048
>>>>>Begin Spectral Data<<<<<
223.165	-10.12
223.4	-10.12
223.635	-10.12
223.869	-27.12
224.104	-25.12
224.338	-14.12
224.573	-15.12
224.808	-11.12
225.042	-1.12
225.277	-6.12
225.511	-1.12
225.746	-1.12
225.98	5.88
226.215	6.88
226.449	23.88
226.683	16.88
226.918	32.88
227.152	25.88
227.387	32.88
227.621	43.88
227.856	28.88
228.09	45.88
228.324	48.88
228.559	57.88
228.793	78.88
229.027	55.88
229.262	57.88
229.496	61.88
229.73	71.88
229.964	63.88
230.199	65.88
230.433	78.88
230.667	65.88
230.901	64.88
231.136	83.88
231.37	81.88
231.604	63.88
231.838	81.88
232.072	60.88
232.306	63.88
232.541	77.88
232.775	79.88
233.009	90.88
233.243	79.88
233.477	81.88
233.711	74.88
233.945	75.88
234.179	81.88
234.413	74.88
234.647	75.88
234.881	73.88
235.115	70.88
235.349	67.88
235.583	72.88
235.817	69.88
236.051	83.88
236.285	78.88
236.519	79.88
236.753	75.88
236.987	65.88
237.221	65.88
237.455	74.88
237.689	55.88
237.922	63.88
238.156	67.88
238.39	67.88
238.624	77.88
238.858	76.88
239.091	84.88
239.325	79.88
239.559	87.88
239.793	78.88
240.027	84.88
240.26	76.88
240.494	70.88
240.728	66.88
240.961	67.88
241.195	69.88
241.429	72.88
241.662	69.88
241.896	73.88
242.13	64.88
242.363	80.88
242.597	77.88
242.83	75.88
243.064	72.88
243.298	71.88
243.531	76.88
243.765	81.88
243.998	76.88
244.232	84.88
244.465	87.88
244.699	69.88
244.932	64.88
245.166	56.88
245.399	66.88
245.633	61.88
245.866	83.88
246.099	75.88
246.333	69.88
246.566	81.88
246.8	67.88
247.033	71.88
247.266	77.88
247.5	67.88
247.733	78.88
247.966	71.88
248.2	77.88
248.433	89.88
248.666	86.88
248.899	82.88
249.133	65.88
249.366	72.88
249.599	72.88
249.832	71.88
250.066	81.88
250.299	67.88
250.532	77.88
250.765	67.88
250.998	66.88
251.231	72.88
251.465	79.88
251.698	67.88
251.931	77.88
252.164	72.88
252.397	61.88
252.63	77.88
252.863	68.88
253.096	77.88
253.329	65.88
253.562	76.88
253.795	79.88
254.028	67.88
254.261	72.88
254.494	76.88
254.727	65.88
254.96	85.88
255.193	68.88
255.426	80.88
255.659	72.88
255.892	80.88
256.124	78.88
256.357	73.88
256.59	71.88
256.823	84.88
257.056	84.88
257.289	76.88
257.521	83.88
257.754	77.88
257.987	73.88
258.22	80.88
258.452	71.88
258.685	81.88
258.918	72.88
259.151	75.88
259.383	73.88
259.616	83.88
259.849	72.88
260.081	72.88
260.314	80.88
260.547	69.88
260.779	85.88
261.012	84.88
261.244	81.88
261.477	68.88
261.71	85.88
261.942	85.88
262.175	71.88
262.407	84.88
262.64	55.88
262.872	88.88
263.105	73.88
263.337	89.88
263.57	88.88
263.802	79.88
264.035	82.88
264.267	63.88
264.499	78.88
264.732	73.88
264.964	77.88
265.197	72.88
265.429	79.88
265.661	85.88
265.894	82.88
266.126	90.88
266.358	72.88
266.591	72.88
266.823	77.88
267.055	81.88
267.287	76.88
267.52	78.88
267.752	78.88
267.984	62.88
268.216	69.88
268.448	85.88
268.681	86.88
268.913	75.88
269.145	79.88
269.377	70.88
269.609	85.88
269.841	81.88
270.073	85.88
270.306	76.88
270.538	75.88
270.77	71.88
271.002	97.88
271.234	71.88
271.466	80.88
271.698	91.88
271.93	94.88
272.162	86.88
272.394	81.88
272.626	91.88
272.858	81.88
273.09	77.88
273.322	81.88
273.553	77.88
273.785	74.88
274.017	73.88
274.249	77.88
274.481	71.88
274.713	80.88
274.945	75.88
275.176	90.88
275.408	84.88
275.64	77.88
275.872	89.88
276.104	102.88
276.335	70.88
276.567	73.88
276.799	77.88
277.031	77.88
277.262	95.88
277.494	100.88
277.726	93.88
277.957	87.88
278.189	88.88
278.421	88.88
278.652	91.88
278.884	85.88
279.115	95.88
279.347	69.88
279.579	79.88
279.81	87.88
280.042	79.88
280.273	81.88
280.505	84.88
280.736	83.88
280.968	88.88
281.199	76.88
281.431	70.88
281.662	79.88
281.894	69.88
282.125	71.88
282.356	87.88
282.588	92.88
282.819	69.88
283.051	96.88
283.282	91.88
283.513	77.88
283.745	90.88
283.976	81.88
284.207	66.88
284.439	85.88
284.67	82.88
284.901	88.88
285.132	80.88
285.364	77.88
285.595	90.88
285.826	76.88
286.057	105.88
286.288	70.88
286.52	82.88
286.751	84.88
286.982	86.88
287.213	84.88
287.444	92.88
287.675	54.88
287.906	81.88
288.138	73.88
288.369	92.88
288.6	83.88
288.831	89.88
289.062	73.88
289.293	72.88
289.524	76.88
289.755	81.88
289.986	81.88
290.217	86.88
290.448	89.88
290.679	88.88
290.91	76.88
291.141	79.88
291.371	78.88
291.602	77.88
291.833	77.88
292.064	89.88
292.295	81.88
292.526	75.88
292.757	86.88
292.987	84.88
293.218	73.88
293.449	83.88
293.68	81.88
293.91	83.88
294.141	82.88
294.372	70.88
294.603	72.88
294.833	73.88
295.064	84.88
295.295	80.88
295.525	86.88
295.756	74.88
295.987	77.88
296.217	93.88
296.448	89.88
296.679	97.88
296.909	85.88
297.14	85.88
297.37	71.88
297.601	81.88
297.831	84.88
298.062	77.88
298.292	85.88
298.523	77.88
298.753	78.88
298.984	75.88
299.214	82.88
299.445	84.88
299.675	93.88
299.905	88.88
300.136	91.88
300.366	79.88
300.597	76.88
300.827	86.88
301.057	85.88
301.288	84.88
301.518	85.88
301.748	94.88
301.979	99.88
302.209	90.88
302.439	85.88
302.669	66.88
302.9	88.88
303.13	90.88
303.36	99.88
303.59	83.88
303.82	71.88
304.051	82.88
304.281	88.88
304.511	87.88
304.741	78.88
304.971	84.88
305.201	101.88
305.431	69.88
305.661	79.88
305.891	93.88
306.121	84.88
306.352	73.88
306.582	80.88
306.812	72.88
307.042	73.88
307.272	92.88
307.502	69.88
307.731	89.88
307.961	85.88
308.191	68.88
308.421	79.88
308.651	71.88
308.881	87.88
309.111	88.88
309.341	92.88
309.571	97.88
309.8	70.88
310.03	82.88
310.26	81.88
310.49	79.88
310.72	82.88
310.949	70.88
311.179	83.88
311.409	71.88
311.639	79.88
311.868	90.88
312.098	72.88
312.328	73.88
312.557	87.88
312.787	80.88
313.017	94.88
313.246	88.88
313.476	87.88
313.706	74.88
313.935	88.88
314.165	69.88
314.394	97.88
314.624	83.88
314.853	83.88
315.083	78.88
315.312	109.88
315.542	79.88
315.771	85.88
316.001	79.88
316.23	83.88
316.46	75.88
316.689	69.88
316.919	79.88
317.148	85.88
317.377	85.88
317.607	77.88
317.836	87.88
318.065	87.88
318.295	80.88
318.524	89.88
318.753	77.88
318.983	84.88
319.212	67.88
319.441	79.88
319.67	84.88
319.9	79.88
320.129	86.88
320.358	86.88
320.587	79.88
320.816	94.88
321.046	81.88
321.275	86.88
321.504	73.88
321.733	96.88
321.962	75.88
322.191	103.88
322.42	87.88
322.649	81.88
322.878	83.88
323.108	90.88
323.337	83.88
323.566	70.88
323.795	77.88
324.024	75.88
324.253	83.88
324.482	89.88
324.71	79.88
324.939	87.88
325.168	87.88
325.397	88.88
325.626	82.88
325.855	81.88
326.084	83.88
326.313	77.88
326.542	101.88
326.77	81.88
326.999	88.88
327.228	83.88
327.457	82.88
327.686	82.88
327.914	81.88
328.143	83.88
328.372	77.88
328.6	90.88
328.829	84.88
329.058	99.88
329.287	81.88
329.515	88.88
329.744	90.88
329.972	72.88
330.201	71.88
330.43	88.88
330.658	84.88
330.887	82.88
331.115	95.88
331.344	96.88
331.572	79.88
331.801	68.88
332.03	77.88
332.258	91.88
332.486	92.88
332.715	83.88
332.943	94.88
333.172	92.88
333.4	87.88
333.629	91.88
333.857	77.88
334.085	94.88
334.314	86.88
334.542	83.88
334.771	90.88
334.999	107.88
335.227	91.88
335.455	103.88
335.684	96.88
335.912	79.88
336.14	93.88
336.369	111.88
336.597	75.88
336.825	92.88
337.053	87.88
337.281	76.88
337.51	82.88
337.738	79.88
337.966	75.88
338.194	72.88
338.422	95.88
338.65	77.88
338.878	75.88
339.106	88.88
339.334	83.88
339.562	85.88
339.79	95.88
340.018	82.88
340.246	85.88
340.474	84.88
340.702	88.88
340.93	85.88
341.158	88.88
341.386	86.88
341.614	86.88
341.842	85.88
342.07	67.88
342.298	68.88
342.526	78.88
342.754	71.88
342.981	79.88
343.209	77.88
343.437	117.88
343.665	80.88
343.893	107.88
344.12	83.88
344.348	86.88
344.576	83.88
344.804	87.88
345.031	92.88
345.259	91.88
345.487	97.88
345.714	81.88
345.942	87.88
346.17	74.88
346.397	67.88
346.625	80.88
346.853	73.88
347.08	89.88
347.308	91.88
347.535	87.88
347.763	83.88
347.99	98.88
348.218	65.88
348.445	84.88
348.673	80.88
348.9	96.88
349.128	83.88
349.355	84.88
349.583	89.88
349.81	90.88
350.037	83.88
350.265	80.88
350.492	83.88
350.72	82.88
350.947	79.88
351.174	79.88
351.402	84.88
351.629	79.88
351.856	73.88
352.083	85.88
352.311	82.88
352.538	72.88
352.765	87.88
352.992	81.88
353.22	84.88
353.447	73.88
353.674	81.88
353.901	88.88
354.128	97.88
354.355	87.88
354.583	84.88
354.81	89.88
355.037	83.88
355.264	87.88
355.491	84.88
355.718	76.88
355.945	76.88
356.172	84.88
356.399	94.88
356.626	91.88
356.853	88.88
357.08	92.88
357.307	87.88
357.534	71.88
357.761	95.88
357.988	101.88
358.215	97.88
358.441	80.88
358.668	76.88
358.895	89.88
359.122	84.88
359.349	77.88
359.576	81.88
359.802	91.88
360.029	85.88
360.256	92.88
360.483	81.88
360.709	85.88
360.936	92.88
361.163	80.88
361.39	88.88
361.616	105.88
361.843	104.88
362.07	110.88
362.296	107.88
362.523	111.88
362.749	113.88
362.976	136.88
363.203	123.88
363.429	103.88
363.656	98.88
363.882	111.88
364.109	137.88
364.335	135.88
364.562	137.88
364.788	119.88
365.015	85.88
365.241	84.88
365.468	84.88
365.694	88.88
365.92	88.88
366.147	80.88
366.373	80.88
366.599	87.88
366.826	91.88
367.052	80.88
367.278	90.88
367.505	95.88
367.731	77.88
367.957	95.88
368.184	87.88
368.41	89.88
368.636	85.88
368.862	91.88
369.089	80.88
369.315	93.88
369.541	83.88
369.767	87.88
369.993	99.88
370.219	100.88
370.445	76.88
370.672	89.88
370.898	82.88
371.124	89.88
371.35	80.88
371.576	88.88
371.802	89.88
372.028	67.88
372.254	94.88
372.48	90.88
372.706	95.88
372.932	95.88
373.158	91.88
373.384	73.88
373.61	92.88
373.835	100.88
374.061	82.88
374.287	93.88
374.513	81.88
374.739	92.88
374.965	94.88
375.191	99.88
375.416	100.88
375.642	101.88
375.868	92.88
376.094	97.88
376.319	92.88
376.545	86.88
376.771	91.88
376.997	91.88
377.222	80.88
377.448	83.88
377.674	83.88
377.899	84.88
378.125	81.88
378.35	84.88
378.576	67.88
378.802	80.88
379.027	95.88
379.253	94.88
379.478	69.88
379.704	96.88
379.929	92.88
380.155	85.88
380.38	90.88
380.606	79.88
380.831	86.88
381.057	88.88
381.282	85.88
381.507	76.88
381.733	104.88
381.958	82.88
382.184	85.88
382.409	93.88
382.634	90.88
382.86	98.88
383.085	88.88
383.31	87.88
383.535	93.88
383.761	103.88
383.986	101.88
384.211	82.88
384.436	101.88
384.662	68.88
384.887	79.88
385.112	80.88
385.337	87.88
385.562	87.88
385.787	86.88
386.013	91.88
386.238	98.88
386.463	95.88
386.688	101.88
386.913	83.88
387.138	106.88
387.363	97.88
387.588	83.88
387.813	94.88
388.038	85.88
388.263	92.88
388.488	92.88
388.713	79.88
388.938	97.88
389.163	92.88
389.387	88.88
389.612	71.88
389.837	87.88
390.062	83.88
390.287	81.88
390.512	96.88
390.736	89.88
390.961	85.88
391.186	93.88
391.411	88.88
391.636	95.88
391.86	100.88
392.085	103.88
392.31	93.88
392.534	109.88
392.759	130.88
392.984	173.88
393.208	242.88
393.433	314.88
393.658	247.88
393.882	152.88
394.107	110.88
394.331	102.88
394.556	91.88
394.78	98.88
395.005	94.88
395.229	96.88
395.454	87.88
395.678	117.88
395.903	124.88
396.127	139.88
396.352	158.88
396.576	173.88
396.801	237.88
397.025	259.88
397.249	180.88
397.474	131.88
397.698	114.88
397.922	91.88
398.147	83.88
398.371	87.88
398.595	82.88
398.82	83.88
399.044	88.88
399.268	81.88
399.492	72.88
399.717	100.88
399.941	91.88
400.165	75.88
400.389	90.88
400.613	87.88
400.837	78.88
401.062	84.88
401.286	95.88
401.51	84.88
401.734	87.88
401.958	97.88
402.182	87.88
402.406	88.88
402.63	93.88
402.854	98.88
403.078	87.88
403.302	84.88
403.526	85.88
403.75	99.88
403.974	89.88
404.198	99.88
404.422	131.88
404.645	156.88
404.869	137.88
405.093	104.88
405.317	80.88
405.541	89.88
405.765	88.88
405.988	101.88
406.212	84.88
406.436	84.88
406.66	93.88
406.883	87.88
407.107	93.88
407.331	92.88
407.555	83.88
407.778	97.88
408.002	94.88
408.226	87.88
408.449	93.88
408.673	95.88
408.896	88.88
409.12	91.88
409.344	101.88
409.567	90.88
409.791	111.88
410.014	114.88
410.238	91.88
410.461	95.88
410.685	85.88
410.908	85.88
411.132	91.88
411.355	83.88
411.578	93.88
411.802	91.88
412.025	89.88
412.249	81.88
412.472	83.88
412.695	79.88
412.919	81.88
413.142	85.88
413.365	89.88
413.589	77.88
413.812	103.88
414.035	91.88
414.258	84.88
414.482	88.88
414.705	69.88
414.928	88.88
415.151	71.88
415.374	81.88
415.597	69.88
415.821	91.88
416.044	91.88
416.267	96.88
416.49	85.88
416.713	81.88
416.936	79.88
417.159	82.88
417.382	77.88
417.605	77.88
417.828	81.88
418.051	86.88
418.274	75.88
418.497	84.88
418.72	77.88
418.943	79.88
419.166	74.88
419.389	82.88
419.611	93.88
419.834	89.88
420.057	99.88
420.28	86.88
420.503	100.88
420.726	85.88
420.948	94.88
421.171	107.88
421.394	111.88
421.617	124.88
421.839	137.88
422.062	176.88
422.285	242.88
422.507	321.88
422.73	363.88
422.953	331.88
423.175	285.88
423.398	190.88
423.621	165.88
423.843	130.88
424.066	121.88
424.288	131.88
424.511	110.88
424.733	86.88
424.956	104.88
425.178	90.88
425.401	95.88
425.623	85.88
425.846	95.88
426.068	101.88
426.291	81.88
426.513	84.88
426.735	82.88
426.958	88.88
427.18	92.88
427.402	112.88
427.625	76.88
427.847	92.88
428.069	97.88
428.292	121.88
428.514	166.88
428.736	111.88
428.958	158.88
429.181	145.88
429.403	103.88
429.625	100.88
429.847	167.88
430.069	197.88
430.292	231.88
430.514	202.88
430.736	169.88
430.958	160.88
431.18	121.88
431.402	81.88
431.624	97.88
431.846	144.88
432.068	140.88
432.29	105.88
432.512	88.88
432.734	93.88
432.956	76.88
433.178	84.88
433.4	84.88
433.622	85.88
433.844	93.88
434.066	88.88
434.287	79.88
434.509	92.88
434.731	84.88
434.953	83.88
435.175	85.88
435.397	93.88
435.618	92.88
435.84	95.88
436.062	97.88
436.284	97.88
436.505	72.88
436.727	76.88
436.949	79.88
437.17	88.88
437.392	91.88
437.614	87.88
437.835	73.88
438.057	81.88
438.278	81.88
438.5	90.88
438.721	91.88
438.943	84.88
439.165	100.88
439.386	78.88
439.608	80.88
439.829	83.88
440.05	94.88
440.272	80.88
440.493	90.88
440.715	87.88
440.936	94.88
441.158	79.88
441.379	82.88
441.6	93.88
441.822	84.88
442.043	101.88
442.264	119.88
442.486	181.88
442.707	230.88
442.928	146.88
443.149	152.88
443.371	203.88
443.592	313.88
443.813	281.88
444.034	155.88
444.255	111.88
444.476	89.88
444.698	95.88
444.919	113.88
445.14	215.88
445.361	258.88
445.582	375.88
445.803	307.88
446.024	163.88
446.245	105.88
446.466	95.88
446.687	89.88
446.908	80.88
447.129	86.88
447.35	89.88
447.571	84.88
447.792	82.88
448.013	88.88
448.234	85.88
448.455	90.88
448.675	68.88
448.896	81.88
449.117	79.88
449.338	71.88
449.559	80.88
449.779	81.88
450	74.88
450.221	72.88
450.442	79.88
450.662	83.88
450.883	78.88
451.104	90.88
451.324	93.88
451.545	94.88
451.766	88.88
451.986	88.88
452.207	81.88
452.428	93.88
452.648	103.88
452.869	110.88
453.089	98.88
453.31	77.88
453.53	94.88
453.751	85.88
453.971	84.88
454.192	75.88
454.412	79.88
454.633	78.88
454.853	92.88
455.073	73.88
455.294	86.88
455.514	86.88
455.734	76.88
455.955	64.88
456.175	77.88
456.395	85.88
456.616	88.88
456.836	88.88
457.056	76.88
457.276	85.88
457.497	94.88
457.717	89.88
457.937	128.88
458.157	141.88
458.377	172.88
458.598	149.88
458.818	153.88
459.038	92.88
459.258	99.88
459.478	88.88
459.698	83.88
459.918	83.88
460.138	85.88
460.358	80.88
460.578	95.88
460.798	107.88
461.018	120.88
461.238	91.88
461.458	81.88
461.678	87.88
461.898	85.88
462.118	79.88
462.338	75.88
462.558	93.88
462.777	74.88
462.997	89.88
463.217	81.88
463.437	94.88
463.657	77.88
463.876	95.88
464.096	78.88
464.316	80.88
464.536	91.88
464.755	93.88
464.975	84.88
465.195	91.88
465.414	81.88
465.634	81.88
465.854	87.88
466.073	78.88
466.293	75.88
466.512	77.88
466.732	74.88
466.951	85.88
467.171	83.88
467.391	67.88
467.61	69.88
467.829	86.88
468.049	96.88
468.268	87.88
468.488	82.88
468.707	84.88
468.927	97.88
469.146	88.88
469.365	76.88
469.585	101.88
469.804	89.88
470.023	86.88
470.243	79.88
470.462	81.88
470.681	94.88
470.901	86.88
471.12	77.88
471.339	79.88
471.558	81.88
471.777	81.88
471.997	85.88
472.216	87.88
472.435	83.88
472.654	86.88
472.873	83.88
473.092	85.88
473.311	90.88
473.53	75.88
473.749	96.88
473.968	93.88
474.187	85.88
474.406	89.88
474.625	87.88
474.844	80.88
475.063	82.88
475.282	99.88
475.501	65.88
475.72	93.88
475.939	79.88
476.158	71.88
476.377	80.88
476.596	77.88
476.814	77.88
477.033	91.88
477.252	83.88
477.471	96.88
477.69	89.88
477.908	89.88
478.127	95.88
478.346	80.88
478.564	92.88
478.783	87.88
479.002	77.88
479.22	70.88
479.439	87.88
479.658	85.88
479.876	71.88
480.095	85.88
480.313	79.88
480.532	86.88
480.751	76.88
480.969	74.88
481.188	83.88
481.406	85.88
481.624	91.88
481.843	83.88
482.061	84.88
482.28	92.88
482.498	91.88
482.717	82.88
482.935	94.88
483.153	88.88
483.372	82.88
483.59	89.88
483.808	97.88
484.027	95.88
484.245	94.88
484.463	84.88
484.681	87.88
484.9	91.88
485.118	96.88
485.336	86.88
485.554	96.88
485.772	91.88
485.99	91.88
486.209	93.88
486.427	91.88
486.645	78.88
486.863	91.88
487.081	79.88
487.299	97.88
487.517	100.88
487.735	136.88
487.953	220.88
488.171	211.88
488.389	115.88
488.607	99.88
488.825	94.88
489.043	93.88
489.261	92.88
489.479	94.88
489.696	90.88
489.914	93.88
490.132	85.88
490.35	92.88
490.568	83.88
490.786	99.88
491.003	91.88
491.221	97.88
491.439	87.88
491.657	84.88
491.874	100.88
492.092	91.88
492.31	85.88
492.527	88.88
492.745	87.88
492.963	79.88
493.18	83.88
493.398	83.88
493.615	81.88
493.833	84.88
494.05	89.88
494.268	89.88
494.485	85.88
494.703	89.88
494.92	82.88
495.138	88.88
495.355	85.88
495.573	85.88
495.79	76.88
496.008	90.88
496.225	83.88
496.442	97.88
496.66	85.88
496.877	98.88
497.094	102.88
497.312	99.88
497.529	96.88
497.746	96.88
497.963	72.88
498.181	82.88
498.398	91.88
498.615	79.88
498.832	73.88
499.049	71.88
499.267	83.88
499.484	88.88
499.701	81.88
499.918	85.88
500.135	91.88
500.352	88.88
500.569	97.88
500.786	82.88
501.003	98.88
501.22	71.88
501.437	80.88
501.654	97.88
501.871	91.88
502.088	76.88
502.305	86.88
502.522	78.88
502.739	88.88
502.956	87.88
503.172	93.88
503.389	86.88
503.606	100.88
503.823	117.88
504.04	124.88
504.256	161.88
504.473	165.88
504.69	116.88
504.907	101.88
505.123	91.88
505.34	83.88
505.557	81.88
505.773	77.88
505.99	75.88
506.207	92.88
506.423	79.88
506.64	103.88
506.856	74.88
507.073	89.88
507.289	91.88
507.506	83.88
507.722	94.88
507.939	82.88
508.155	90.88
508.372	81.88
508.588	97.88
508.805	84.88
509.021	93.88
509.238	84.88
509.454	89.88
509.67	112.88
509.887	91.88
510.103	95.88
510.319	79.88
510.536	86.88
510.752	78.88
510.968	85.88
511.184	75.88
511.401	101.88
511.617	95.88
511.833	90.88
512.049	104.88
512.265	102.88
512.481	78.88
512.698	94.88
512.914	65.88
513.13	78.88
513.346	76.88
513.562	82.88
513.778	88.88
513.994	87.88
514.21	84.88
514.426	87.88
514.642	97.88
514.858	81.88
515.074	96.88
515.29	86.88
515.506	86.88
515.721	87.88
515.937	93.88
516.153	86.88
516.369	88.88
516.585	86.88
516.801	79.88
517.016	91.88
517.232	91.88
517.448	86.88
517.664	95.88
517.879	93.88
518.095	98.88
