Data from 2145_2_HRD10591_00036.txt Node
Date: Mon Jan 19 14:22:20 EST 2026
User: Yrep
Spectrometer: HR+D1059
Trigger mode: 1
Integration Time (sec): 1.000000E-1
Scans to average: 1
Electric dark correction enabled: true
Nonlinearity correction enabled: false
Boxcar width: 0
XAxis mode: Wavelengths
Number of Pixels in Spectrum: 2048
>>>>>Begin Spectral Data<<<<<
223.165	-15.19
223.4	-15.19
223.635	-15.19
223.869	-11.19
224.104	-17.19
224.338	-18.19
224.573	-13.19
224.808	-27.19
225.042	-13.19
225.277	-25.19
225.511	-1.19
225.746	2.81
225.98	12.81
226.215	16.81
226.449	22.81
226.683	26.81
226.918	23.81
227.152	35.81
227.387	56.81
227.621	37.81
227.856	50.81
228.09	58.81
228.324	55.81
228.559	65.81
228.793	61.81
229.027	52.81
229.262	56.81
229.496	55.81
229.73	64.81
229.964	76.81
230.199	61.81
230.433	68.81
230.667	72.81
230.901	74.81
231.136	89.81
231.37	88.81
231.604	84.81
231.838	84.81
232.072	87.81
232.306	90.81
232.541	82.81
232.775	98.81
233.009	84.81
233.243	82.81
233.477	75.81
233.711	74.81
233.945	90.81
234.179	79.81
234.413	80.81
234.647	91.81
234.881	72.81
235.115	78.81
235.349	69.81
235.583	76.81
235.817	69.81
236.051	70.81
236.285	85.81
236.519	77.81
236.753	78.81
236.987	85.81
237.221	76.81
237.455	84.81
237.689	78.81
237.922	72.81
238.156	82.81
238.39	77.81
238.624	84.81
238.858	74.81
239.091	64.81
239.325	82.81
239.559	84.81
239.793	83.81
240.027	85.81
240.26	81.81
240.494	86.81
240.728	86.81
240.961	76.81
241.195	80.81
241.429	84.81
241.662	78.81
241.896	86.81
242.13	83.81
242.363	70.81
242.597	86.81
242.83	77.81
243.064	93.81
243.298	81.81
243.531	75.81
243.765	76.81
243.998	89.81
244.232	77.81
244.465	75.81
244.699	71.81
244.932	83.81
245.166	77.81
245.399	82.81
245.633	60.81
245.866	88.81
246.099	75.81
246.333	78.81
246.566	73.81
246.8	73.81
247.033	70.81
247.266	82.81
247.5	82.81
247.733	87.81
247.966	91.81
248.2	70.81
248.433	68.81
248.666	94.81
248.899	79.81
249.133	70.81
249.366	77.81
249.599	92.81
249.832	77.81
250.066	89.81
250.299	83.81
250.532	90.81
250.765	81.81
250.998	74.81
251.231	88.81
251.465	89.81
251.698	85.81
251.931	77.81
252.164	92.81
252.397	74.81
252.63	75.81
252.863	93.81
253.096	89.81
253.329	77.81
253.562	78.81
253.795	87.81
254.028	76.81
254.261	71.81
254.494	96.81
254.727	90.81
254.96	89.81
255.193	75.81
255.426	73.81
255.659	72.81
255.892	91.81
256.124	80.81
256.357	78.81
256.59	68.81
256.823	78.81
257.056	81.81
257.289	79.81
257.521	63.81
257.754	81.81
257.987	91.81
258.22	90.81
258.452	78.81
258.685	78.81
258.918	60.81
259.151	91.81
259.383	78.81
259.616	92.81
259.849	84.81
260.081	85.81
260.314	86.81
260.547	79.81
260.779	76.81
261.012	88.81
261.244	85.81
261.477	84.81
261.71	83.81
261.942	85.81
262.175	65.81
262.407	82.81
262.64	75.81
262.872	84.81
263.105	92.81
263.337	93.81
263.57	81.81
263.802	81.81
264.035	95.81
264.267	83.81
264.499	96.81
264.732	88.81
264.964	93.81
265.197	75.81
265.429	87.81
265.661	84.81
265.894	96.81
266.126	92.81
266.358	74.81
266.591	76.81
266.823	88.81
267.055	74.81
267.287	83.81
267.52	73.81
267.752	68.81
267.984	92.81
268.216	75.81
268.448	105.81
268.681	92.81
268.913	78.81
269.145	94.81
269.377	86.81
269.609	73.81
269.841	81.81
270.073	79.81
270.306	84.81
270.538	82.81
270.77	83.81
271.002	84.81
271.234	84.81
271.466	77.81
271.698	85.81
271.93	76.81
272.162	89.81
272.394	93.81
272.626	93.81
272.858	87.81
273.09	90.81
273.322	83.81
273.553	94.81
273.785	91.81
274.017	87.81
274.249	88.81
274.481	82.81
274.713	84.81
274.945	86.81
275.176	89.81
275.408	78.81
275.64	78.81
275.872	94.81
276.104	74.81
276.335	85.81
276.567	84.81
276.799	80.81
277.031	84.81
277.262	78.81
277.494	78.81
277.726	81.81
277.957	84.81
278.189	77.81
278.421	79.81
278.652	82.81
278.884	89.81
279.115	84.81
279.347	78.81
279.579	98.81
279.81	77.81
280.042	77.81
280.273	74.81
280.505	76.81
280.736	70.81
280.968	89.81
281.199	88.81
281.431	72.81
281.662	89.81
281.894	85.81
282.125	78.81
282.356	95.81
282.588	83.81
282.819	101.81
283.051	94.81
283.282	75.81
283.513	81.81
283.745	76.81
283.976	93.81
284.207	81.81
284.439	94.81
284.67	81.81
284.901	82.81
285.132	68.81
285.364	92.81
285.595	86.81
285.826	72.81
286.057	94.81
286.288	82.81
286.52	91.81
286.751	87.81
286.982	82.81
287.213	77.81
287.444	82.81
287.675	86.81
287.906	99.81
288.138	96.81
288.369	91.81
288.6	79.81
288.831	83.81
289.062	86.81
289.293	91.81
289.524	79.81
289.755	83.81
289.986	77.81
290.217	77.81
290.448	81.81
290.679	81.81
290.91	102.81
291.141	92.81
291.371	92.81
291.602	88.81
291.833	78.81
292.064	89.81
292.295	93.81
292.526	75.81
292.757	85.81
292.987	95.81
293.218	91.81
293.449	91.81
293.68	88.81
293.91	90.81
294.141	73.81
294.372	69.81
294.603	90.81
294.833	88.81
295.064	89.81
295.295	81.81
295.525	93.81
295.756	101.81
295.987	85.81
296.217	89.81
296.448	86.81
296.679	77.81
296.909	80.81
297.14	95.81
297.37	83.81
297.601	92.81
297.831	76.81
298.062	77.81
298.292	72.81
298.523	85.81
298.753	92.81
298.984	77.81
299.214	82.81
299.445	86.81
299.675	90.81
299.905	83.81
300.136	88.81
300.366	96.81
300.597	90.81
300.827	98.81
301.057	83.81
301.288	89.81
301.518	92.81
301.748	96.81
301.979	101.81
302.209	82.81
302.439	84.81
302.669	88.81
302.9	92.81
303.13	73.81
303.36	84.81
303.59	77.81
303.82	100.81
304.051	98.81
304.281	90.81
304.511	89.81
304.741	92.81
304.971	101.81
305.201	76.81
305.431	78.81
305.661	100.81
305.891	85.81
306.121	89.81
306.352	77.81
306.582	77.81
306.812	92.81
307.042	87.81
307.272	89.81
307.502	85.81
307.731	90.81
307.961	92.81
308.191	84.81
308.421	98.81
308.651	96.81
308.881	90.81
309.111	83.81
309.341	82.81
309.571	96.81
309.8	104.81
310.03	94.81
310.26	91.81
310.49	93.81
310.72	76.81
310.949	90.81
311.179	80.81
311.409	68.81
311.639	93.81
311.868	77.81
312.098	88.81
312.328	86.81
312.557	88.81
312.787	86.81
313.017	91.81
313.246	80.81
313.476	85.81
313.706	79.81
313.935	99.81
314.165	89.81
314.394	92.81
314.624	83.81
314.853	94.81
315.083	78.81
315.312	86.81
315.542	87.81
315.771	78.81
316.001	82.81
316.23	83.81
316.46	98.81
316.689	85.81
316.919	82.81
317.148	70.81
317.377	92.81
317.607	80.81
317.836	82.81
318.065	102.81
318.295	90.81
318.524	83.81
318.753	89.81
318.983	90.81
319.212	79.81
319.441	97.81
319.67	95.81
319.9	80.81
320.129	78.81
320.358	82.81
320.587	72.81
320.816	80.81
321.046	91.81
321.275	91.81
321.504	88.81
321.733	81.81
321.962	92.81
322.191	96.81
322.42	88.81
322.649	78.81
322.878	78.81
323.108	95.81
323.337	107.81
323.566	84.81
323.795	84.81
324.024	91.81
324.253	87.81
324.482	84.81
324.71	81.81
324.939	78.81
325.168	98.81
325.397	83.81
325.626	74.81
325.855	80.81
326.084	81.81
326.313	71.81
326.542	85.81
326.77	84.81
326.999	67.81
327.228	88.81
327.457	97.81
327.686	83.81
327.914	77.81
328.143	92.81
328.372	92.81
328.6	98.81
328.829	93.81
329.058	74.81
329.287	94.81
329.515	80.81
329.744	82.81
329.972	89.81
330.201	86.81
330.43	87.81
330.658	93.81
330.887	89.81
331.115	91.81
331.344	84.81
331.572	84.81
331.801	97.81
332.03	84.81
332.258	82.81
332.486	77.81
332.715	79.81
332.943	85.81
333.172	85.81
333.4	92.81
333.629	84.81
333.857	84.81
334.085	100.81
334.314	94.81
334.542	100.81
334.771	82.81
334.999	93.81
335.227	98.81
335.455	84.81
335.684	105.81
335.912	88.81
336.14	92.81
336.369	93.81
336.597	84.81
336.825	76.81
337.053	89.81
337.281	88.81
337.51	94.81
337.738	102.81
337.966	89.81
338.194	82.81
338.422	79.81
338.65	73.81
338.878	84.81
339.106	92.81
339.334	86.81
339.562	89.81
339.79	65.81
340.018	83.81
340.246	82.81
340.474	72.81
340.702	78.81
340.93	72.81
341.158	89.81
341.386	84.81
341.614	76.81
341.842	75.81
342.07	83.81
342.298	78.81
342.526	92.81
342.754	73.81
342.981	72.81
343.209	70.81
343.437	89.81
343.665	93.81
343.893	83.81
344.12	85.81
344.348	78.81
344.576	83.81
344.804	93.81
345.031	88.81
345.259	75.81
345.487	87.81
345.714	87.81
345.942	93.81
346.17	92.81
346.397	86.81
346.625	80.81
346.853	93.81
347.08	87.81
347.308	93.81
347.535	102.81
347.763	81.81
347.99	93.81
348.218	89.81
348.445	82.81
348.673	70.81
348.9	91.81
349.128	98.81
349.355	84.81
349.583	73.81
349.81	77.81
350.037	96.81
350.265	84.81
350.492	80.81
350.72	80.81
350.947	83.81
351.174	92.81
351.402	85.81
351.629	98.81
351.856	92.81
352.083	84.81
352.311	77.81
352.538	91.81
352.765	89.81
352.992	80.81
353.22	96.81
353.447	76.81
353.674	77.81
353.901	91.81
354.128	100.81
354.355	85.81
354.583	83.81
354.81	81.81
355.037	66.81
355.264	92.81
355.491	96.81
355.718	89.81
355.945	92.81
356.172	96.81
356.399	86.81
356.626	94.81
356.853	70.81
357.08	86.81
357.307	69.81
357.534	79.81
357.761	89.81
357.988	88.81
358.215	96.81
358.441	91.81
358.668	89.81
358.895	93.81
359.122	96.81
359.349	86.81
359.576	67.81
359.802	78.81
360.029	89.81
360.256	108.81
360.483	70.81
360.709	84.81
360.936	79.81
361.163	84.81
361.39	72.81
361.616	84.81
361.843	88.81
362.07	91.81
362.296	114.81
362.523	125.81
362.749	120.81
362.976	122.81
363.203	125.81
363.429	105.81
363.656	100.81
363.882	106.81
364.109	116.81
364.335	134.81
364.562	137.81
364.788	107.81
365.015	102.81
365.241	93.81
365.468	89.81
365.694	91.81
365.92	81.81
366.147	86.81
366.373	89.81
366.599	87.81
366.826	88.81
367.052	88.81
367.278	78.81
367.505	89.81
367.731	92.81
367.957	92.81
368.184	93.81
368.41	82.81
368.636	79.81
368.862	87.81
369.089	86.81
369.315	79.81
369.541	85.81
369.767	84.81
369.993	98.81
370.219	72.81
370.445	88.81
370.672	93.81
370.898	88.81
371.124	83.81
371.35	69.81
371.576	82.81
371.802	80.81
372.028	96.81
372.254	85.81
372.48	88.81
372.706	92.81
372.932	83.81
373.158	96.81
373.384	95.81
373.61	102.81
373.835	95.81
374.061	82.81
374.287	102.81
374.513	88.81
374.739	75.81
374.965	89.81
375.191	93.81
375.416	74.81
375.642	93.81
375.868	74.81
376.094	83.81
376.319	83.81
376.545	93.81
376.771	92.81
376.997	76.81
377.222	81.81
377.448	90.81
377.674	84.81
377.899	80.81
378.125	78.81
378.35	89.81
378.576	88.81
378.802	83.81
379.027	76.81
379.253	82.81
379.478	78.81
379.704	83.81
379.929	90.81
380.155	82.81
380.38	70.81
380.606	79.81
380.831	68.81
381.057	81.81
381.282	84.81
381.507	94.81
381.733	83.81
381.958	75.81
382.184	83.81
382.409	88.81
382.634	88.81
382.86	112.81
383.085	90.81
383.31	89.81
383.535	96.81
383.761	98.81
383.986	95.81
384.211	102.81
384.436	101.81
384.662	94.81
384.887	90.81
385.112	73.81
385.337	74.81
385.562	87.81
385.787	90.81
386.013	77.81
386.238	101.81
386.463	77.81
386.688	97.81
386.913	82.81
387.138	91.81
387.363	87.81
387.588	88.81
387.813	96.81
388.038	85.81
388.263	100.81
388.488	83.81
388.713	92.81
388.938	77.81
389.163	94.81
389.387	95.81
389.612	72.81
389.837	89.81
390.062	91.81
390.287	74.81
390.512	72.81
390.736	98.81
390.961	81.81
391.186	88.81
391.411	81.81
391.636	89.81
391.86	120.81
392.085	100.81
392.31	101.81
392.534	107.81
392.759	107.81
392.984	118.81
393.208	191.81
393.433	242.81
393.658	204.81
393.882	126.81
394.107	111.81
394.331	113.81
394.556	109.81
394.78	104.81
395.005	102.81
395.229	100.81
395.454	108.81
395.678	98.81
395.903	112.81
396.127	127.81
396.352	126.81
396.576	144.81
396.801	176.81
397.025	199.81
397.249	147.81
397.474	131.81
397.698	108.81
397.922	99.81
398.147	81.81
398.371	85.81
398.595	97.81
398.82	82.81
399.044	92.81
399.268	78.81
399.492	86.81
399.717	89.81
399.941	89.81
400.165	93.81
400.389	81.81
400.613	92.81
400.837	89.81
401.062	84.81
401.286	89.81
401.51	86.81
401.734	80.81
401.958	94.81
402.182	78.81
402.406	76.81
402.63	94.81
402.854	94.81
403.078	86.81
403.302	74.81
403.526	98.81
403.75	92.81
403.974	88.81
404.198	102.81
404.422	113.81
404.645	148.81
404.869	125.81
405.093	103.81
405.317	78.81
405.541	87.81
405.765	108.81
405.988	84.81
406.212	79.81
406.436	81.81
406.66	80.81
406.883	85.81
407.107	89.81
407.331	80.81
407.555	78.81
407.778	103.81
408.002	102.81
408.226	84.81
408.449	90.81
408.673	85.81
408.896	83.81
409.12	87.81
409.344	90.81
409.567	103.81
409.791	100.81
410.014	103.81
410.238	95.81
410.461	97.81
410.685	81.81
410.908	86.81
411.132	105.81
411.355	72.81
411.578	88.81
411.802	86.81
412.025	83.81
412.249	83.81
412.472	81.81
412.695	96.81
412.919	77.81
413.142	82.81
413.365	78.81
413.589	91.81
413.812	90.81
414.035	80.81
414.258	91.81
414.482	85.81
414.705	96.81
414.928	91.81
415.151	86.81
415.374	93.81
415.597	91.81
415.821	87.81
416.044	103.81
416.267	91.81
416.49	87.81
416.713	82.81
416.936	100.81
417.159	90.81
417.382	96.81
417.605	75.81
417.828	95.81
418.051	81.81
418.274	74.81
418.497	80.81
418.72	90.81
418.943	85.81
419.166	91.81
419.389	92.81
419.611	84.81
419.834	84.81
420.057	88.81
420.28	86.81
420.503	98.81
420.726	97.81
420.948	89.81
421.171	113.81
421.394	95.81
421.617	122.81
421.839	122.81
422.062	140.81
422.285	201.81
422.507	260.81
422.73	357.81
422.953	291.81
423.175	228.81
423.398	152.81
423.621	117.81
423.843	107.81
424.066	98.81
424.288	82.81
424.511	98.81
424.733	88.81
424.956	86.81
425.178	80.81
425.401	87.81
425.623	88.81
425.846	85.81
426.068	90.81
426.291	70.81
426.513	81.81
426.735	90.81
426.958	91.81
427.18	86.81
427.402	78.81
427.625	84.81
427.847	104.81
428.069	104.81
428.292	134.81
428.514	148.81
428.736	104.81
428.958	131.81
429.181	130.81
429.403	96.81
429.625	102.81
429.847	132.81
430.069	161.81
430.292	191.81
430.514	176.81
430.736	120.81
430.958	141.81
431.18	102.81
431.402	85.81
431.624	100.81
431.846	128.81
432.068	142.81
432.29	101.81
432.512	82.81
432.734	81.81
432.956	90.81
433.178	80.81
433.4	85.81
433.622	82.81
433.844	89.81
434.066	86.81
434.287	96.81
434.509	81.81
434.731	92.81
434.953	91.81
435.175	86.81
435.397	85.81
435.618	97.81
435.84	96.81
436.062	104.81
436.284	103.81
436.505	81.81
436.727	83.81
436.949	90.81
437.17	76.81
437.392	89.81
437.614	70.81
437.835	75.81
438.057	83.81
438.278	88.81
438.5	79.81
438.721	98.81
438.943	85.81
439.165	102.81
439.386	89.81
439.608	84.81
439.829	87.81
440.05	105.81
440.272	96.81
440.493	85.81
440.715	88.81
440.936	88.81
441.158	90.81
441.379	93.81
441.6	108.81
441.822	107.81
442.043	90.81
442.264	98.81
442.486	143.81
442.707	182.81
442.928	127.81
443.149	122.81
443.371	176.81
443.592	264.81
443.813	229.81
444.034	120.81
444.255	109.81
444.476	86.81
444.698	94.81
444.919	106.81
445.14	200.81
445.361	232.81
445.582	304.81
445.803	261.81
446.024	133.81
446.245	103.81
446.466	87.81
446.687	91.81
446.908	90.81
447.129	70.81
447.35	87.81
447.571	91.81
447.792	90.81
448.013	78.81
448.234	93.81
448.455	90.81
448.675	72.81
448.896	70.81
449.117	89.81
449.338	92.81
449.559	94.81
449.779	87.81
450	91.81
450.221	76.81
450.442	82.81
450.662	83.81
450.883	90.81
451.104	98.81
451.324	94.81
451.545	87.81
451.766	64.81
451.986	73.81
452.207	93.81
452.428	84.81
452.648	102.81
452.869	100.81
453.089	94.81
453.31	80.81
453.53	98.81
453.751	82.81
453.971	88.81
454.192	94.81
454.412	83.81
454.633	81.81
454.853	84.81
455.073	78.81
455.294	90.81
455.514	90.81
455.734	82.81
455.955	90.81
456.175	95.81
456.395	84.81
456.616	109.81
456.836	77.81
457.056	82.81
457.276	81.81
457.497	95.81
457.717	82.81
457.937	100.81
458.157	128.81
458.377	149.81
458.598	131.81
458.818	140.81
459.038	105.81
459.258	70.81
459.478	83.81
459.698	89.81
459.918	83.81
460.138	71.81
460.358	88.81
460.578	84.81
460.798	109.81
461.018	116.81
461.238	88.81
461.458	73.81
461.678	86.81
461.898	82.81
462.118	89.81
462.338	84.81
462.558	84.81
462.777	72.81
462.997	84.81
463.217	89.81
463.437	92.81
463.657	74.81
463.876	82.81
464.096	93.81
464.316	93.81
464.536	92.81
464.755	85.81
464.975	85.81
465.195	87.81
465.414	82.81
465.634	70.81
465.854	84.81
466.073	73.81
466.293	83.81
466.512	86.81
466.732	86.81
466.951	86.81
467.171	84.81
467.391	74.81
467.61	81.81
467.829	84.81
468.049	83.81
468.268	85.81
468.488	85.81
468.707	97.81
468.927	85.81
469.146	77.81
469.365	78.81
469.585	81.81
469.804	81.81
470.023	89.81
470.243	83.81
470.462	73.81
470.681	91.81
470.901	78.81
471.12	72.81
471.339	81.81
471.558	98.81
471.777	89.81
471.997	77.81
472.216	82.81
472.435	92.81
472.654	96.81
472.873	94.81
473.092	85.81
473.311	89.81
473.53	94.81
473.749	93.81
473.968	95.81
474.187	83.81
474.406	83.81
474.625	84.81
474.844	85.81
475.063	83.81
475.282	86.81
475.501	75.81
475.72	78.81
475.939	81.81
476.158	88.81
476.377	78.81
476.596	70.81
476.814	88.81
477.033	84.81
477.252	97.81
477.471	93.81
477.69	94.81
477.908	75.81
478.127	82.81
478.346	101.81
478.564	87.81
478.783	78.81
479.002	96.81
479.22	80.81
479.439	78.81
479.658	92.81
479.876	82.81
480.095	82.81
480.313	84.81
480.532	91.81
480.751	96.81
480.969	87.81
481.188	94.81
481.406	96.81
481.624	86.81
481.843	76.81
482.061	94.81
482.28	85.81
482.498	90.81
482.717	99.81
482.935	93.81
483.153	76.81
483.372	64.81
483.59	86.81
483.808	106.81
484.027	89.81
484.245	87.81
484.463	96.81
484.681	103.81
484.9	91.81
485.118	68.81
485.336	90.81
485.554	85.81
485.772	97.81
485.99	81.81
486.209	84.81
486.427	102.81
486.645	92.81
486.863	82.81
487.081	90.81
487.299	85.81
487.517	101.81
487.735	128.81
487.953	190.81
488.171	170.81
488.389	101.81
488.607	88.81
488.825	93.81
489.043	77.81
489.261	98.81
489.479	87.81
489.696	102.81
489.914	87.81
490.132	86.81
490.35	93.81
490.568	78.81
490.786	97.81
491.003	90.81
491.221	94.81
491.439	89.81
491.657	86.81
491.874	93.81
492.092	83.81
492.31	89.81
492.527	80.81
492.745	90.81
492.963	83.81
493.18	115.81
493.398	83.81
493.615	86.81
493.833	84.81
494.05	98.81
494.268	81.81
494.485	94.81
494.703	78.81
494.92	101.81
495.138	98.81
495.355	83.81
495.573	77.81
495.79	83.81
496.008	88.81
496.225	88.81
496.442	96.81
496.66	85.81
496.877	84.81
497.094	94.81
497.312	97.81
497.529	92.81
497.746	108.81
497.963	92.81
498.181	98.81
498.398	93.81
498.615	101.81
498.832	93.81
499.049	93.81
499.267	93.81
499.484	85.81
499.701	76.81
499.918	91.81
500.135	101.81
500.352	93.81
500.569	85.81
500.786	94.81
501.003	96.81
501.22	84.81
501.437	92.81
501.654	100.81
501.871	72.81
502.088	98.81
502.305	88.81
502.522	81.81
502.739	89.81
502.956	89.81
503.172	94.81
503.389	105.81
503.606	92.81
503.823	97.81
504.04	117.81
504.256	139.81
504.473	132.81
504.69	94.81
504.907	93.81
505.123	96.81
505.34	106.81
505.557	102.81
505.773	88.81
505.99	94.81
506.207	80.81
506.423	85.81
506.64	86.81
506.856	79.81
507.073	88.81
507.289	93.81
507.506	80.81
507.722	85.81
507.939	90.81
508.155	93.81
508.372	75.81
508.588	90.81
508.805	89.81
509.021	81.81
509.238	90.81
509.454	93.81
509.67	93.81
509.887	75.81
510.103	86.81
510.319	88.81
510.536	105.81
510.752	72.81
510.968	70.81
511.184	84.81
511.401	86.81
511.617	92.81
511.833	86.81
512.049	97.81
512.265	82.81
512.481	100.81
512.698	74.81
512.914	88.81
513.13	90.81
513.346	82.81
513.562	70.81
513.778	78.81
513.994	87.81
514.21	102.81
514.426	93.81
514.642	84.81
514.858	73.81
515.074	84.81
515.29	92.81
515.506	84.81
515.721	86.81
515.937	102.81
516.153	96.81
516.369	85.81
516.585	86.81
516.801	103.81
517.016	98.81
517.232	98.81
517.448	90.81
517.664	99.81
517.879	80.81
