Data from 2145_2_HRD10591_00009.txt Node
Date: Mon Jan 19 14:22:06 EST 2026
User: Yrep
Spectrometer: HR+D1059
Trigger mode: 1
Integration Time (sec): 1.000000E-1
Scans to average: 1
Electric dark correction enabled: true
Nonlinearity correction enabled: false
Boxcar width: 0
XAxis mode: Wavelengths
Number of Pixels in Spectrum: 2048
>>>>>Begin Spectral Data<<<<<
223.165	-15.5
223.4	-15.5
223.635	-15.5
223.869	-21.5
224.104	-19.5
224.338	-7.5
224.573	-12.5
224.808	-10.5
225.042	-9.5
225.277	-4.5
225.511	3.5
225.746	8.5
225.98	-7.5
226.215	21.5
226.449	11.5
226.683	14.5
226.918	21.5
227.152	27.5
227.387	40.5
227.621	38.5
227.856	43.5
228.09	42.5
228.324	35.5
228.559	69.5
228.793	66.5
229.027	66.5
229.262	58.5
229.496	48.5
229.73	73.5
229.964	77.5
230.199	79.5
230.433	90.5
230.667	78.5
230.901	75.5
231.136	84.5
231.37	86.5
231.604	70.5
231.838	82.5
232.072	74.5
232.306	89.5
232.541	81.5
232.775	76.5
233.009	80.5
233.243	77.5
233.477	82.5
233.711	84.5
233.945	89.5
234.179	65.5
234.413	90.5
234.647	75.5
234.881	68.5
235.115	69.5
235.349	77.5
235.583	83.5
235.817	74.5
236.051	86.5
236.285	82.5
236.519	70.5
236.753	104.5
236.987	83.5
237.221	78.5
237.455	84.5
237.689	80.5
237.922	86.5
238.156	85.5
238.39	74.5
238.624	70.5
238.858	77.5
239.091	76.5
239.325	76.5
239.559	78.5
239.793	62.5
240.027	70.5
240.26	88.5
240.494	78.5
240.728	72.5
240.961	88.5
241.195	77.5
241.429	66.5
241.662	92.5
241.896	83.5
242.13	69.5
242.363	70.5
242.597	79.5
242.83	82.5
243.064	80.5
243.298	77.5
243.531	84.5
243.765	74.5
243.998	76.5
244.232	78.5
244.465	76.5
244.699	75.5
244.932	74.5
245.166	89.5
245.399	85.5
245.633	80.5
245.866	80.5
246.099	71.5
246.333	74.5
246.566	77.5
246.8	82.5
247.033	86.5
247.266	78.5
247.5	77.5
247.733	78.5
247.966	86.5
248.2	77.5
248.433	79.5
248.666	66.5
248.899	77.5
249.133	72.5
249.366	80.5
249.599	79.5
249.832	84.5
250.066	77.5
250.299	66.5
250.532	91.5
250.765	80.5
250.998	67.5
251.231	77.5
251.465	82.5
251.698	86.5
251.931	88.5
252.164	77.5
252.397	71.5
252.63	80.5
252.863	78.5
253.096	74.5
253.329	76.5
253.562	85.5
253.795	82.5
254.028	78.5
254.261	77.5
254.494	73.5
254.727	74.5
254.96	69.5
255.193	74.5
255.426	84.5
255.659	90.5
255.892	83.5
256.124	72.5
256.357	85.5
256.59	85.5
256.823	87.5
257.056	82.5
257.289	74.5
257.521	92.5
257.754	84.5
257.987	84.5
258.22	99.5
258.452	68.5
258.685	83.5
258.918	80.5
259.151	81.5
259.383	82.5
259.616	80.5
259.849	75.5
260.081	80.5
260.314	71.5
260.547	84.5
260.779	73.5
261.012	74.5
261.244	79.5
261.477	83.5
261.71	80.5
261.942	86.5
262.175	72.5
262.407	81.5
262.64	87.5
262.872	87.5
263.105	91.5
263.337	83.5
263.57	81.5
263.802	76.5
264.035	88.5
264.267	91.5
264.499	81.5
264.732	103.5
264.964	72.5
265.197	81.5
265.429	76.5
265.661	69.5
265.894	74.5
266.126	80.5
266.358	82.5
266.591	83.5
266.823	88.5
267.055	69.5
267.287	88.5
267.52	75.5
267.752	89.5
267.984	79.5
268.216	63.5
268.448	69.5
268.681	78.5
268.913	70.5
269.145	86.5
269.377	86.5
269.609	77.5
269.841	68.5
270.073	73.5
270.306	84.5
270.538	79.5
270.77	71.5
271.002	94.5
271.234	80.5
271.466	74.5
271.698	86.5
271.93	86.5
272.162	83.5
272.394	73.5
272.626	85.5
272.858	73.5
273.09	76.5
273.322	77.5
273.553	86.5
273.785	80.5
274.017	72.5
274.249	76.5
274.481	86.5
274.713	92.5
274.945	91.5
275.176	88.5
275.408	82.5
275.64	96.5
275.872	89.5
276.104	115.5
276.335	87.5
276.567	79.5
276.799	83.5
277.031	88.5
277.262	97.5
277.494	83.5
277.726	97.5
277.957	77.5
278.189	82.5
278.421	75.5
278.652	78.5
278.884	79.5
279.115	76.5
279.347	81.5
279.579	90.5
279.81	81.5
280.042	91.5
280.273	90.5
280.505	75.5
280.736	92.5
280.968	92.5
281.199	88.5
281.431	87.5
281.662	84.5
281.894	84.5
282.125	89.5
282.356	66.5
282.588	80.5
282.819	90.5
283.051	84.5
283.282	78.5
283.513	87.5
283.745	81.5
283.976	73.5
284.207	93.5
284.439	104.5
284.67	81.5
284.901	91.5
285.132	80.5
285.364	82.5
285.595	81.5
285.826	88.5
286.057	97.5
286.288	89.5
286.52	98.5
286.751	71.5
286.982	106.5
287.213	84.5
287.444	90.5
287.675	79.5
287.906	90.5
288.138	86.5
288.369	101.5
288.6	74.5
288.831	88.5
289.062	81.5
289.293	96.5
289.524	80.5
289.755	89.5
289.986	75.5
290.217	81.5
290.448	76.5
290.679	98.5
290.91	93.5
291.141	82.5
291.371	90.5
291.602	81.5
291.833	93.5
292.064	94.5
292.295	78.5
292.526	85.5
292.757	76.5
292.987	84.5
293.218	75.5
293.449	91.5
293.68	84.5
293.91	101.5
294.141	97.5
294.372	89.5
294.603	84.5
294.833	85.5
295.064	83.5
295.295	83.5
295.525	83.5
295.756	67.5
295.987	68.5
296.217	80.5
296.448	86.5
296.679	92.5
296.909	76.5
297.14	92.5
297.37	92.5
297.601	104.5
297.831	88.5
298.062	97.5
298.292	90.5
298.523	89.5
298.753	88.5
298.984	90.5
299.214	99.5
299.445	78.5
299.675	70.5
299.905	96.5
300.136	86.5
300.366	77.5
300.597	84.5
300.827	86.5
301.057	89.5
301.288	88.5
301.518	87.5
301.748	77.5
301.979	102.5
302.209	86.5
302.439	88.5
302.669	79.5
302.9	85.5
303.13	86.5
303.36	81.5
303.59	90.5
303.82	90.5
304.051	86.5
304.281	85.5
304.511	93.5
304.741	70.5
304.971	88.5
305.201	89.5
305.431	77.5
305.661	82.5
305.891	80.5
306.121	86.5
306.352	89.5
306.582	92.5
306.812	84.5
307.042	80.5
307.272	82.5
307.502	100.5
307.731	89.5
307.961	90.5
308.191	92.5
308.421	88.5
308.651	101.5
308.881	82.5
309.111	78.5
309.341	90.5
309.571	81.5
309.8	72.5
310.03	80.5
310.26	65.5
310.49	88.5
310.72	84.5
310.949	90.5
311.179	84.5
311.409	78.5
311.639	88.5
311.868	81.5
312.098	82.5
312.328	86.5
312.557	78.5
312.787	83.5
313.017	88.5
313.246	94.5
313.476	92.5
313.706	101.5
313.935	84.5
314.165	94.5
314.394	76.5
314.624	84.5
314.853	94.5
315.083	91.5
315.312	69.5
315.542	86.5
315.771	79.5
316.001	75.5
316.23	87.5
316.46	75.5
316.689	85.5
316.919	77.5
317.148	98.5
317.377	88.5
317.607	93.5
317.836	86.5
318.065	82.5
318.295	94.5
318.524	79.5
318.753	98.5
318.983	99.5
319.212	96.5
319.441	74.5
319.67	97.5
319.9	84.5
320.129	98.5
320.358	73.5
320.587	82.5
320.816	94.5
321.046	89.5
321.275	83.5
321.504	87.5
321.733	89.5
321.962	88.5
322.191	94.5
322.42	79.5
322.649	96.5
322.878	88.5
323.108	100.5
323.337	82.5
323.566	75.5
323.795	90.5
324.024	83.5
324.253	84.5
324.482	82.5
324.71	73.5
324.939	96.5
325.168	87.5
325.397	80.5
325.626	82.5
325.855	93.5
326.084	82.5
326.313	88.5
326.542	82.5
326.77	67.5
326.999	96.5
327.228	95.5
327.457	76.5
327.686	82.5
327.914	93.5
328.143	94.5
328.372	84.5
328.6	87.5
328.829	78.5
329.058	84.5
329.287	93.5
329.515	76.5
329.744	75.5
329.972	73.5
330.201	106.5
330.43	79.5
330.658	68.5
330.887	79.5
331.115	73.5
331.344	79.5
331.572	92.5
331.801	74.5
332.03	80.5
332.258	96.5
332.486	94.5
332.715	86.5
332.943	72.5
333.172	84.5
333.4	96.5
333.629	96.5
333.857	94.5
334.085	91.5
334.314	96.5
334.542	101.5
334.771	85.5
334.999	90.5
335.227	100.5
335.455	93.5
335.684	96.5
335.912	86.5
336.14	100.5
336.369	85.5
336.597	99.5
336.825	94.5
337.053	84.5
337.281	87.5
337.51	88.5
337.738	81.5
337.966	89.5
338.194	96.5
338.422	74.5
338.65	84.5
338.878	95.5
339.106	83.5
339.334	102.5
339.562	97.5
339.79	84.5
340.018	102.5
340.246	78.5
340.474	84.5
340.702	88.5
340.93	96.5
341.158	81.5
341.386	96.5
341.614	86.5
341.842	86.5
342.07	86.5
342.298	84.5
342.526	89.5
342.754	86.5
342.981	91.5
343.209	88.5
343.437	101.5
343.665	80.5
343.893	82.5
344.12	100.5
344.348	90.5
344.576	92.5
344.804	77.5
345.031	84.5
345.259	82.5
345.487	90.5
345.714	88.5
345.942	77.5
346.17	85.5
346.397	72.5
346.625	85.5
346.853	89.5
347.08	73.5
347.308	89.5
347.535	82.5
347.763	90.5
347.99	82.5
348.218	92.5
348.445	84.5
348.673	93.5
348.9	96.5
349.128	101.5
349.355	87.5
349.583	94.5
349.81	86.5
350.037	69.5
350.265	86.5
350.492	93.5
350.72	89.5
350.947	96.5
351.174	78.5
351.402	85.5
351.629	92.5
351.856	81.5
352.083	83.5
352.311	70.5
352.538	93.5
352.765	76.5
352.992	99.5
353.22	76.5
353.447	86.5
353.674	87.5
353.901	81.5
354.128	97.5
354.355	75.5
354.583	98.5
354.81	66.5
355.037	72.5
355.264	92.5
355.491	90.5
355.718	84.5
355.945	88.5
356.172	94.5
356.399	81.5
356.626	89.5
356.853	89.5
357.08	96.5
357.307	81.5
357.534	86.5
357.761	87.5
357.988	93.5
358.215	91.5
358.441	91.5
358.668	81.5
358.895	98.5
359.122	85.5
359.349	94.5
359.576	82.5
359.802	72.5
360.029	78.5
360.256	89.5
360.483	91.5
360.709	93.5
360.936	92.5
361.163	96.5
361.39	87.5
361.616	91.5
361.843	93.5
362.07	95.5
362.296	83.5
362.523	97.5
362.749	108.5
362.976	120.5
363.203	118.5
363.429	90.5
363.656	91.5
363.882	106.5
364.109	101.5
364.335	121.5
364.562	122.5
364.788	114.5
365.015	90.5
365.241	88.5
365.468	73.5
365.694	86.5
365.92	88.5
366.147	85.5
366.373	78.5
366.599	79.5
366.826	72.5
367.052	101.5
367.278	86.5
367.505	85.5
367.731	89.5
367.957	77.5
368.184	76.5
368.41	86.5
368.636	86.5
368.862	102.5
369.089	89.5
369.315	89.5
369.541	101.5
369.767	78.5
369.993	88.5
370.219	88.5
370.445	92.5
370.672	82.5
370.898	90.5
371.124	98.5
371.35	81.5
371.576	85.5
371.802	88.5
372.028	86.5
372.254	85.5
372.48	84.5
372.706	86.5
372.932	90.5
373.158	89.5
373.384	99.5
373.61	85.5
373.835	99.5
374.061	88.5
374.287	100.5
374.513	88.5
374.739	92.5
374.965	87.5
375.191	88.5
375.416	75.5
375.642	106.5
375.868	84.5
376.094	92.5
376.319	79.5
376.545	95.5
376.771	93.5
376.997	77.5
377.222	88.5
377.448	90.5
377.674	98.5
377.899	92.5
378.125	98.5
378.35	77.5
378.576	93.5
378.802	93.5
379.027	77.5
379.253	87.5
379.478	77.5
379.704	89.5
379.929	83.5
380.155	81.5
380.38	78.5
380.606	90.5
380.831	76.5
381.057	104.5
381.282	75.5
381.507	88.5
381.733	92.5
381.958	85.5
382.184	105.5
382.409	97.5
382.634	94.5
382.86	89.5
383.085	89.5
383.31	89.5
383.535	93.5
383.761	97.5
383.986	98.5
384.211	86.5
384.436	84.5
384.662	94.5
384.887	96.5
385.112	100.5
385.337	83.5
385.562	77.5
385.787	92.5
386.013	106.5
386.238	97.5
386.463	89.5
386.688	97.5
386.913	92.5
387.138	92.5
387.363	105.5
387.588	93.5
387.813	96.5
388.038	93.5
388.263	102.5
388.488	82.5
388.713	81.5
388.938	88.5
389.163	98.5
389.387	90.5
389.612	87.5
389.837	82.5
390.062	94.5
390.287	84.5
390.512	87.5
390.736	84.5
390.961	88.5
391.186	83.5
391.411	88.5
391.636	94.5
391.86	105.5
392.085	97.5
392.31	86.5
392.534	90.5
392.759	114.5
392.984	134.5
393.208	197.5
393.433	271.5
393.658	208.5
393.882	130.5
394.107	110.5
394.331	94.5
394.556	97.5
394.78	94.5
395.005	82.5
395.229	80.5
395.454	101.5
395.678	94.5
395.903	103.5
396.127	119.5
396.352	128.5
396.576	144.5
396.801	189.5
397.025	214.5
397.249	137.5
397.474	110.5
397.698	101.5
397.922	91.5
398.147	93.5
398.371	82.5
398.595	87.5
398.82	82.5
399.044	90.5
399.268	104.5
399.492	77.5
399.717	86.5
399.941	97.5
400.165	92.5
400.389	100.5
400.613	94.5
400.837	81.5
401.062	98.5
401.286	104.5
401.51	88.5
401.734	84.5
401.958	79.5
402.182	77.5
402.406	85.5
402.63	70.5
402.854	87.5
403.078	94.5
403.302	89.5
403.526	88.5
403.75	95.5
403.974	84.5
404.198	82.5
404.422	110.5
404.645	127.5
404.869	107.5
405.093	93.5
405.317	103.5
405.541	89.5
405.765	96.5
405.988	96.5
406.212	93.5
406.436	95.5
406.66	88.5
406.883	99.5
407.107	75.5
407.331	94.5
407.555	87.5
407.778	99.5
408.002	101.5
408.226	74.5
408.449	68.5
408.673	75.5
408.896	81.5
409.12	86.5
409.344	97.5
409.567	102.5
409.791	117.5
410.014	91.5
410.238	104.5
410.461	93.5
410.685	101.5
410.908	83.5
411.132	90.5
411.355	85.5
411.578	78.5
411.802	79.5
412.025	76.5
412.249	84.5
412.472	71.5
412.695	68.5
412.919	88.5
413.142	84.5
413.365	91.5
413.589	90.5
413.812	70.5
414.035	81.5
414.258	102.5
414.482	80.5
414.705	94.5
414.928	93.5
415.151	94.5
415.374	93.5
415.597	73.5
415.821	89.5
416.044	81.5
416.267	90.5
416.49	90.5
416.713	77.5
416.936	86.5
417.159	73.5
417.382	89.5
417.605	68.5
417.828	87.5
418.051	77.5
418.274	86.5
418.497	83.5
418.72	87.5
418.943	81.5
419.166	81.5
419.389	89.5
419.611	91.5
419.834	83.5
420.057	91.5
420.28	77.5
420.503	93.5
420.726	102.5
420.948	100.5
421.171	76.5
421.394	102.5
421.617	111.5
421.839	120.5
422.062	132.5
422.285	176.5
422.507	226.5
422.73	265.5
422.953	261.5
423.175	203.5
423.398	162.5
423.621	134.5
423.843	109.5
424.066	100.5
424.288	91.5
424.511	99.5
424.733	99.5
424.956	102.5
425.178	93.5
425.401	102.5
425.623	79.5
425.846	92.5
426.068	77.5
426.291	84.5
426.513	91.5
426.735	102.5
426.958	102.5
427.18	81.5
427.402	86.5
427.625	79.5
427.847	101.5
428.069	103.5
428.292	136.5
428.514	131.5
428.736	124.5
428.958	126.5
429.181	136.5
429.403	96.5
429.625	102.5
429.847	124.5
430.069	141.5
430.292	165.5
430.514	158.5
430.736	144.5
430.958	125.5
431.18	105.5
431.402	88.5
431.624	83.5
431.846	114.5
432.068	132.5
432.29	103.5
432.512	88.5
432.734	91.5
432.956	81.5
433.178	90.5
433.4	101.5
433.622	77.5
433.844	94.5
434.066	79.5
434.287	92.5
434.509	82.5
434.731	95.5
434.953	88.5
435.175	96.5
435.397	94.5
435.618	95.5
435.84	97.5
436.062	94.5
436.284	88.5
436.505	90.5
436.727	79.5
436.949	91.5
437.17	89.5
437.392	90.5
437.614	75.5
437.835	80.5
438.057	92.5
438.278	81.5
438.5	88.5
438.721	99.5
438.943	98.5
439.165	84.5
439.386	103.5
439.608	67.5
439.829	85.5
440.05	83.5
440.272	89.5
440.493	77.5
440.715	82.5
440.936	96.5
441.158	89.5
441.379	84.5
441.6	82.5
441.822	82.5
442.043	88.5
442.264	105.5
442.486	135.5
442.707	164.5
442.928	122.5
443.149	116.5
443.371	153.5
443.592	228.5
443.813	179.5
444.034	106.5
444.255	104.5
444.476	95.5
444.698	98.5
444.919	108.5
445.14	211.5
445.361	231.5
445.582	263.5
445.803	235.5
446.024	139.5
446.245	112.5
446.466	90.5
446.687	93.5
446.908	87.5
447.129	90.5
447.35	78.5
447.571	87.5
447.792	88.5
448.013	66.5
448.234	98.5
448.455	85.5
448.675	96.5
448.896	77.5
449.117	93.5
449.338	89.5
449.559	85.5
449.779	82.5
450	81.5
450.221	84.5
450.442	89.5
450.662	82.5
450.883	86.5
451.104	91.5
451.324	98.5
451.545	88.5
451.766	77.5
451.986	85.5
452.207	91.5
452.428	84.5
452.648	103.5
452.869	96.5
453.089	85.5
453.31	81.5
453.53	89.5
453.751	76.5
453.971	80.5
454.192	96.5
454.412	91.5
454.633	88.5
454.853	84.5
455.073	95.5
455.294	86.5
455.514	85.5
455.734	86.5
455.955	89.5
456.175	92.5
456.395	77.5
456.616	84.5
456.836	73.5
457.056	90.5
457.276	80.5
457.497	75.5
457.717	95.5
457.937	114.5
458.157	136.5
458.377	130.5
458.598	130.5
458.818	127.5
459.038	113.5
459.258	90.5
459.478	84.5
459.698	87.5
459.918	88.5
460.138	81.5
460.358	86.5
460.578	96.5
460.798	124.5
461.018	103.5
461.238	108.5
461.458	78.5
461.678	82.5
461.898	80.5
462.118	91.5
462.338	93.5
462.558	87.5
462.777	83.5
462.997	80.5
463.217	77.5
463.437	74.5
463.657	82.5
463.876	73.5
464.096	87.5
464.316	94.5
464.536	76.5
464.755	92.5
464.975	87.5
465.195	96.5
465.414	86.5
465.634	92.5
465.854	76.5
466.073	87.5
466.293	87.5
466.512	78.5
466.732	92.5
466.951	85.5
467.171	100.5
467.391	96.5
467.61	94.5
467.829	64.5
468.049	76.5
468.268	88.5
468.488	83.5
468.707	87.5
468.927	94.5
469.146	82.5
469.365	84.5
469.585	89.5
469.804	76.5
470.023	91.5
470.243	84.5
470.462	70.5
470.681	86.5
470.901	84.5
471.12	86.5
471.339	96.5
471.558	98.5
471.777	90.5
471.997	84.5
472.216	89.5
472.435	95.5
472.654	78.5
472.873	89.5
473.092	85.5
473.311	84.5
473.53	97.5
473.749	91.5
473.968	100.5
474.187	73.5
474.406	94.5
474.625	88.5
474.844	107.5
475.063	94.5
475.282	93.5
475.501	80.5
475.72	83.5
475.939	88.5
476.158	89.5
476.377	89.5
476.596	92.5
476.814	94.5
477.033	90.5
477.252	89.5
477.471	85.5
477.69	84.5
477.908	91.5
478.127	73.5
478.346	95.5
478.564	90.5
478.783	76.5
479.002	81.5
479.22	96.5
479.439	75.5
479.658	74.5
479.876	101.5
480.095	82.5
480.313	94.5
480.532	75.5
480.751	84.5
480.969	89.5
481.188	93.5
481.406	90.5
481.624	86.5
481.843	82.5
482.061	78.5
482.28	86.5
482.498	91.5
482.717	87.5
482.935	94.5
483.153	93.5
483.372	88.5
483.59	97.5
483.808	89.5
484.027	97.5
484.245	92.5
484.463	92.5
484.681	83.5
484.9	89.5
485.118	89.5
485.336	76.5
485.554	88.5
485.772	75.5
485.99	86.5
486.209	92.5
486.427	81.5
486.645	86.5
486.863	94.5
487.081	94.5
487.299	83.5
487.517	92.5
487.735	124.5
487.953	182.5
488.171	171.5
488.389	105.5
488.607	98.5
488.825	86.5
489.043	91.5
489.261	99.5
489.479	92.5
489.696	92.5
489.914	100.5
490.132	84.5
490.35	88.5
490.568	96.5
490.786	81.5
491.003	81.5
491.221	94.5
491.439	79.5
491.657	92.5
491.874	93.5
492.092	89.5
492.31	88.5
492.527	93.5
492.745	73.5
492.963	96.5
493.18	85.5
493.398	91.5
493.615	74.5
493.833	82.5
494.05	77.5
494.268	86.5
494.485	97.5
494.703	88.5
494.92	98.5
495.138	97.5
495.355	78.5
495.573	90.5
495.79	87.5
496.008	78.5
496.225	78.5
496.442	83.5
496.66	87.5
496.877	84.5
497.094	100.5
497.312	85.5
497.529	82.5
497.746	89.5
497.963	84.5
498.181	80.5
498.398	80.5
498.615	106.5
498.832	90.5
499.049	92.5
499.267	83.5
499.484	92.5
499.701	81.5
499.918	93.5
500.135	79.5
500.352	83.5
500.569	99.5
500.786	93.5
501.003	90.5
501.22	87.5
501.437	80.5
501.654	94.5
501.871	85.5
502.088	81.5
502.305	74.5
502.522	98.5
502.739	85.5
502.956	90.5
503.172	100.5
503.389	75.5
503.606	78.5
503.823	81.5
504.04	94.5
504.256	137.5
504.473	158.5
504.69	120.5
504.907	98.5
505.123	94.5
505.34	98.5
505.557	90.5
505.773	92.5
505.99	90.5
506.207	78.5
506.423	101.5
506.64	81.5
506.856	85.5
507.073	79.5
507.289	89.5
507.506	71.5
507.722	94.5
507.939	95.5
508.155	78.5
508.372	89.5
508.588	83.5
508.805	96.5
509.021	84.5
509.238	86.5
509.454	93.5
509.67	98.5
509.887	100.5
510.103	97.5
510.319	88.5
510.536	100.5
510.752	91.5
510.968	95.5
511.184	97.5
511.401	93.5
511.617	92.5
511.833	78.5
512.049	96.5
512.265	94.5
512.481	85.5
512.698	71.5
512.914	91.5
513.13	98.5
513.346	82.5
513.562	95.5
513.778	93.5
513.994	88.5
514.21	95.5
514.426	68.5
514.642	88.5
514.858	88.5
515.074	84.5
515.29	95.5
515.506	93.5
515.721	83.5
515.937	92.5
516.153	97.5
516.369	87.5
516.585	79.5
516.801	82.5
517.016	103.5
517.232	91.5
517.448	92.5
517.664	86.5
517.879	94.5
518.095	92.5
518.311	89.5
518.527	111.5
518.742	135.5
518.958	161.5
519.173	176.5
519.389	128.5
519.605	100.5
519.82	86.5
520.036	72.5
520.251	94.5
520.467	88.5
520.682	97.5
520.898	82.5
521.113	83.5
521.329	86.5
521.544	84.5
521.76	68.5
521.975	75.5
522.19	76.5
522.406	71.5
522.621	104.5
522.836	106.5
523.052	90.5
523.267	96.5
523.482	80.5
523.698	88.5
523.913	97.5
524.128	102.5
524.343	88.5
524.559	90.5
524.774	76.5
524.989	72.5
525.204	101.5
525.419	103.5
525.634	112.5
525.849	112.5
526.064	137.5
526.28	242.5
526.495	325.5
526.71	354.5
526.925	246.5
527.14	270.5
527.355	258.5
527.57	123.5
527.785	112.5
527.999	93.5
528.214	86.5
528.429	97.5
528.644	97.5
528.859	86.5
529.074	90.5
529.289	84.5
529.503	91.5
529.718	84.5
529.933	99.5
530.148	92.5
530.363	97.5
530.577	79.5
530.792	98.5
531.007	85.5
531.221	78.5
531.436	102.5
531.651	87.5
531.865	88.5
532.08	85.5
532.295	80.5
532.509	94.5
532.724	98.5
532.938	105.5
533.153	114.5
533.367	105.5
533.582	84.5
533.796	101.5
534.011	71.5
534.225	93.5
534.44	113.5
534.654	95.5
534.868	114.5
535.083	165.5
535.297	148.5
535.511	104.5
535.726	100.5
535.94	96.5
536.154	108.5
536.369	97.5
536.583	114.5
536.797	95.5
537.011	86.5
537.225	103.5
537.44	85.5
537.654	96.5
