Data from 2145_2_HRD10591_00006.txt Node
Date: Mon Jan 19 14:22:05 EST 2026
User: Yrep
Spectrometer: HR+D1059
Trigger mode: 1
Integration Time (sec): 1.000000E-1
Scans to average: 1
Electric dark correction enabled: true
Nonlinearity correction enabled: false
Boxcar width: 0
XAxis mode: Wavelengths
Number of Pixels in Spectrum: 2048
>>>>>Begin Spectral Data<<<<<
223.165	-15.56
223.4	-15.56
223.635	-15.56
223.869	-22.56
224.104	-11.56
224.338	-26.56
224.573	-12.56
224.808	-5.56
225.042	-0.56
225.277	8.44
225.511	12.44
225.746	5.44
225.98	8.44
226.215	8.44
226.449	4.44
226.683	18.44
226.918	5.44
227.152	23.44
227.387	32.44
227.621	23.44
227.856	44.44
228.09	44.44
228.324	55.44
228.559	61.44
228.793	53.44
229.027	65.44
229.262	75.44
229.496	70.44
229.73	83.44
229.964	60.44
230.199	79.44
230.433	92.44
230.667	78.44
230.901	93.44
231.136	80.44
231.37	74.44
231.604	86.44
231.838	68.44
232.072	87.44
232.306	84.44
232.541	74.44
232.775	73.44
233.009	79.44
233.243	73.44
233.477	64.44
233.711	79.44
233.945	78.44
234.179	89.44
234.413	68.44
234.647	68.44
234.881	63.44
235.115	81.44
235.349	77.44
235.583	87.44
235.817	71.44
236.051	68.44
236.285	88.44
236.519	68.44
236.753	84.44
236.987	84.44
237.221	77.44
237.455	78.44
237.689	72.44
237.922	83.44
238.156	62.44
238.39	68.44
238.624	71.44
238.858	80.44
239.091	66.44
239.325	81.44
239.559	74.44
239.793	60.44
240.027	67.44
240.26	73.44
240.494	76.44
240.728	82.44
240.961	76.44
241.195	74.44
241.429	62.44
241.662	58.44
241.896	66.44
242.13	76.44
242.363	68.44
242.597	65.44
242.83	80.44
243.064	77.44
243.298	86.44
243.531	76.44
243.765	74.44
243.998	77.44
244.232	87.44
244.465	70.44
244.699	58.44
244.932	87.44
245.166	68.44
245.399	78.44
245.633	76.44
245.866	69.44
246.099	68.44
246.333	72.44
246.566	79.44
246.8	84.44
247.033	66.44
247.266	71.44
247.5	72.44
247.733	71.44
247.966	86.44
248.2	72.44
248.433	74.44
248.666	68.44
248.899	69.44
249.133	77.44
249.366	84.44
249.599	80.44
249.832	68.44
250.066	80.44
250.299	64.44
250.532	85.44
250.765	71.44
250.998	67.44
251.231	70.44
251.465	69.44
251.698	80.44
251.931	69.44
252.164	64.44
252.397	78.44
252.63	60.44
252.863	70.44
253.096	66.44
253.329	74.44
253.562	75.44
253.795	68.44
254.028	73.44
254.261	86.44
254.494	72.44
254.727	84.44
254.96	96.44
255.193	81.44
255.426	71.44
255.659	80.44
255.892	86.44
256.124	65.44
256.357	80.44
256.59	80.44
256.823	71.44
257.056	80.44
257.289	72.44
257.521	72.44
257.754	79.44
257.987	87.44
258.22	87.44
258.452	82.44
258.685	67.44
258.918	73.44
259.151	65.44
259.383	84.44
259.616	82.44
259.849	78.44
260.081	79.44
260.314	70.44
260.547	84.44
260.779	79.44
261.012	82.44
261.244	66.44
261.477	74.44
261.71	70.44
261.942	71.44
262.175	78.44
262.407	72.44
262.64	82.44
262.872	88.44
263.105	72.44
263.337	85.44
263.57	73.44
263.802	80.44
264.035	64.44
264.267	74.44
264.499	69.44
264.732	71.44
264.964	72.44
265.197	78.44
265.429	80.44
265.661	74.44
265.894	85.44
266.126	86.44
266.358	74.44
266.591	75.44
266.823	85.44
267.055	71.44
267.287	57.44
267.52	64.44
267.752	77.44
267.984	88.44
268.216	70.44
268.448	78.44
268.681	78.44
268.913	74.44
269.145	78.44
269.377	73.44
269.609	61.44
269.841	76.44
270.073	75.44
270.306	67.44
270.538	66.44
270.77	80.44
271.002	76.44
271.234	85.44
271.466	77.44
271.698	85.44
271.93	75.44
272.162	58.44
272.394	84.44
272.626	73.44
272.858	72.44
273.09	71.44
273.322	73.44
273.553	84.44
273.785	85.44
274.017	59.44
274.249	82.44
274.481	80.44
274.713	88.44
274.945	90.44
275.176	88.44
275.408	83.44
275.64	68.44
275.872	79.44
276.104	77.44
276.335	81.44
276.567	82.44
276.799	79.44
277.031	78.44
277.262	77.44
277.494	88.44
277.726	86.44
277.957	99.44
278.189	67.44
278.421	79.44
278.652	87.44
278.884	64.44
279.115	76.44
279.347	72.44
279.579	66.44
279.81	72.44
280.042	81.44
280.273	80.44
280.505	84.44
280.736	84.44
280.968	90.44
281.199	86.44
281.431	74.44
281.662	81.44
281.894	95.44
282.125	80.44
282.356	82.44
282.588	84.44
282.819	82.44
283.051	95.44
283.282	85.44
283.513	68.44
283.745	82.44
283.976	92.44
284.207	83.44
284.439	84.44
284.67	80.44
284.901	67.44
285.132	79.44
285.364	92.44
285.595	83.44
285.826	75.44
286.057	74.44
286.288	93.44
286.52	74.44
286.751	78.44
286.982	81.44
287.213	99.44
287.444	83.44
287.675	78.44
287.906	79.44
288.138	86.44
288.369	92.44
288.6	82.44
288.831	91.44
289.062	80.44
289.293	69.44
289.524	73.44
289.755	82.44
289.986	65.44
290.217	71.44
290.448	72.44
290.679	65.44
290.91	95.44
291.141	89.44
291.371	84.44
291.602	96.44
291.833	72.44
292.064	69.44
292.295	92.44
292.526	88.44
292.757	81.44
292.987	85.44
293.218	86.44
293.449	72.44
293.68	72.44
293.91	86.44
294.141	91.44
294.372	98.44
294.603	72.44
294.833	71.44
295.064	79.44
295.295	84.44
295.525	80.44
295.756	82.44
295.987	82.44
296.217	97.44
296.448	66.44
296.679	82.44
296.909	93.44
297.14	78.44
297.37	85.44
297.601	68.44
297.831	98.44
298.062	84.44
298.292	95.44
298.523	92.44
298.753	90.44
298.984	80.44
299.214	83.44
299.445	89.44
299.675	92.44
299.905	82.44
300.136	77.44
300.366	93.44
300.597	86.44
300.827	74.44
301.057	85.44
301.288	88.44
301.518	69.44
301.748	78.44
301.979	94.44
302.209	86.44
302.439	84.44
302.669	83.44
302.9	81.44
303.13	74.44
303.36	72.44
303.59	70.44
303.82	87.44
304.051	80.44
304.281	82.44
304.511	90.44
304.741	83.44
304.971	100.44
305.201	72.44
305.431	87.44
305.661	88.44
305.891	72.44
306.121	81.44
306.352	62.44
306.582	87.44
306.812	82.44
307.042	89.44
307.272	83.44
307.502	85.44
307.731	80.44
307.961	82.44
308.191	88.44
308.421	85.44
308.651	92.44
308.881	99.44
309.111	87.44
309.341	89.44
309.571	89.44
309.8	77.44
310.03	92.44
310.26	86.44
310.49	79.44
310.72	90.44
310.949	75.44
311.179	80.44
311.409	74.44
311.639	82.44
311.868	70.44
312.098	79.44
312.328	90.44
312.557	81.44
312.787	84.44
313.017	91.44
313.246	93.44
313.476	92.44
313.706	79.44
313.935	68.44
314.165	65.44
314.394	67.44
314.624	74.44
314.853	89.44
315.083	81.44
315.312	97.44
315.542	82.44
315.771	84.44
316.001	84.44
316.23	74.44
316.46	84.44
316.689	82.44
316.919	77.44
317.148	88.44
317.377	82.44
317.607	90.44
317.836	84.44
318.065	86.44
318.295	80.44
318.524	84.44
318.753	80.44
318.983	76.44
319.212	91.44
319.441	72.44
319.67	81.44
319.9	82.44
320.129	85.44
320.358	94.44
320.587	84.44
320.816	72.44
321.046	72.44
321.275	90.44
321.504	85.44
321.733	84.44
321.962	83.44
322.191	85.44
322.42	81.44
322.649	82.44
322.878	99.44
323.108	92.44
323.337	92.44
323.566	88.44
323.795	90.44
324.024	85.44
324.253	85.44
324.482	83.44
324.71	80.44
324.939	80.44
325.168	88.44
325.397	90.44
325.626	93.44
325.855	80.44
326.084	69.44
326.313	78.44
326.542	82.44
326.77	91.44
326.999	84.44
327.228	89.44
327.457	87.44
327.686	68.44
327.914	86.44
328.143	77.44
328.372	86.44
328.6	85.44
328.829	81.44
329.058	82.44
329.287	77.44
329.515	78.44
329.744	81.44
329.972	77.44
330.201	85.44
330.43	83.44
330.658	86.44
330.887	79.44
331.115	78.44
331.344	88.44
331.572	87.44
331.801	87.44
332.03	80.44
332.258	85.44
332.486	93.44
332.715	83.44
332.943	74.44
333.172	96.44
333.4	90.44
333.629	85.44
333.857	75.44
334.085	98.44
334.314	88.44
334.542	87.44
334.771	96.44
334.999	82.44
335.227	86.44
335.455	75.44
335.684	97.44
335.912	97.44
336.14	103.44
336.369	94.44
336.597	79.44
336.825	90.44
337.053	85.44
337.281	96.44
337.51	84.44
337.738	94.44
337.966	84.44
338.194	89.44
338.422	88.44
338.65	94.44
338.878	78.44
339.106	87.44
339.334	86.44
339.562	89.44
339.79	80.44
340.018	77.44
340.246	71.44
340.474	71.44
340.702	90.44
340.93	81.44
341.158	98.44
341.386	104.44
341.614	84.44
341.842	69.44
342.07	82.44
342.298	85.44
342.526	80.44
342.754	78.44
342.981	87.44
343.209	73.44
343.437	102.44
343.665	78.44
343.893	86.44
344.12	95.44
344.348	94.44
344.576	78.44
344.804	85.44
345.031	75.44
345.259	82.44
345.487	83.44
345.714	87.44
345.942	74.44
346.17	76.44
346.397	76.44
346.625	69.44
346.853	73.44
347.08	85.44
347.308	87.44
347.535	78.44
347.763	94.44
347.99	81.44
348.218	88.44
348.445	87.44
348.673	80.44
348.9	88.44
349.128	99.44
349.355	77.44
349.583	88.44
349.81	88.44
350.037	91.44
350.265	95.44
350.492	85.44
350.72	66.44
350.947	80.44
351.174	75.44
351.402	91.44
351.629	84.44
351.856	83.44
352.083	80.44
352.311	88.44
352.538	73.44
352.765	94.44
352.992	88.44
353.22	79.44
353.447	77.44
353.674	78.44
353.901	80.44
354.128	91.44
354.355	83.44
354.583	99.44
354.81	95.44
355.037	98.44
355.264	82.44
355.491	78.44
355.718	98.44
355.945	88.44
356.172	77.44
356.399	80.44
356.626	87.44
356.853	78.44
357.08	90.44
357.307	92.44
357.534	77.44
357.761	89.44
357.988	98.44
358.215	80.44
358.441	82.44
358.668	88.44
358.895	85.44
359.122	81.44
359.349	90.44
359.576	86.44
359.802	88.44
360.029	71.44
360.256	92.44
360.483	84.44
360.709	68.44
360.936	97.44
361.163	93.44
361.39	70.44
361.616	84.44
361.843	85.44
362.07	87.44
362.296	112.44
362.523	103.44
362.749	100.44
362.976	106.44
363.203	128.44
363.429	94.44
363.656	103.44
363.882	102.44
364.109	113.44
364.335	146.44
364.562	131.44
364.788	113.44
365.015	98.44
365.241	96.44
365.468	77.44
365.694	88.44
365.92	78.44
366.147	78.44
366.373	81.44
366.599	93.44
366.826	80.44
367.052	93.44
367.278	97.44
367.505	86.44
367.731	84.44
367.957	77.44
368.184	80.44
368.41	82.44
368.636	98.44
368.862	89.44
369.089	86.44
369.315	76.44
369.541	77.44
369.767	90.44
369.993	92.44
370.219	82.44
370.445	83.44
370.672	92.44
370.898	76.44
371.124	86.44
371.35	82.44
371.576	102.44
371.802	85.44
372.028	88.44
372.254	89.44
372.48	100.44
372.706	97.44
372.932	75.44
373.158	103.44
373.384	104.44
373.61	95.44
373.835	113.44
374.061	90.44
374.287	87.44
374.513	82.44
374.739	73.44
374.965	78.44
375.191	76.44
375.416	83.44
375.642	105.44
375.868	86.44
376.094	95.44
376.319	67.44
376.545	80.44
376.771	72.44
376.997	79.44
377.222	75.44
377.448	87.44
377.674	72.44
377.899	72.44
378.125	74.44
378.35	84.44
378.576	80.44
378.802	87.44
379.027	85.44
379.253	83.44
379.478	68.44
379.704	88.44
379.929	91.44
380.155	75.44
380.38	72.44
380.606	78.44
380.831	82.44
381.057	79.44
381.282	80.44
381.507	80.44
381.733	75.44
381.958	88.44
382.184	90.44
382.409	82.44
382.634	99.44
382.86	86.44
383.085	88.44
383.31	94.44
383.535	106.44
383.761	95.44
383.986	92.44
384.211	83.44
384.436	75.44
384.662	81.44
384.887	87.44
385.112	83.44
385.337	87.44
385.562	85.44
385.787	100.44
386.013	87.44
386.238	84.44
386.463	95.44
386.688	85.44
386.913	87.44
387.138	74.44
387.363	86.44
387.588	101.44
387.813	97.44
388.038	88.44
388.263	92.44
388.488	80.44
388.713	92.44
388.938	76.44
389.163	87.44
389.387	97.44
389.612	96.44
389.837	92.44
390.062	93.44
390.287	79.44
390.512	85.44
390.736	74.44
390.961	71.44
391.186	73.44
391.411	77.44
391.636	94.44
391.86	94.44
392.085	84.44
392.31	78.44
392.534	119.44
392.759	127.44
392.984	134.44
393.208	215.44
393.433	266.44
393.658	222.44
393.882	128.44
394.107	107.44
394.331	94.44
394.556	108.44
394.78	110.44
395.005	102.44
395.229	77.44
395.454	89.44
395.678	113.44
395.903	125.44
396.127	126.44
396.352	133.44
396.576	154.44
396.801	212.44
397.025	246.44
397.249	166.44
397.474	120.44
397.698	103.44
397.922	92.44
398.147	85.44
398.371	86.44
398.595	96.44
398.82	84.44
399.044	76.44
399.268	77.44
399.492	81.44
399.717	83.44
399.941	82.44
400.165	80.44
400.389	76.44
400.613	74.44
400.837	78.44
401.062	74.44
401.286	88.44
401.51	89.44
401.734	94.44
401.958	94.44
402.182	99.44
402.406	81.44
402.63	95.44
402.854	92.44
403.078	84.44
403.302	91.44
403.526	80.44
403.75	81.44
403.974	81.44
404.198	106.44
404.422	116.44
404.645	129.44
404.869	106.44
405.093	82.44
405.317	84.44
405.541	72.44
405.765	78.44
405.988	76.44
406.212	90.44
406.436	102.44
406.66	94.44
406.883	74.44
407.107	68.44
407.331	76.44
407.555	89.44
407.778	89.44
408.002	86.44
408.226	91.44
408.449	77.44
408.673	77.44
408.896	80.44
409.12	83.44
409.344	90.44
409.567	105.44
409.791	88.44
410.014	122.44
410.238	92.44
410.461	94.44
410.685	91.44
410.908	93.44
411.132	69.44
411.355	83.44
411.578	83.44
411.802	75.44
412.025	77.44
412.249	85.44
412.472	82.44
412.695	69.44
412.919	75.44
413.142	71.44
413.365	86.44
413.589	80.44
413.812	80.44
414.035	79.44
414.258	87.44
414.482	80.44
414.705	80.44
414.928	82.44
415.151	71.44
415.374	82.44
415.597	86.44
415.821	87.44
416.044	68.44
416.267	88.44
416.49	75.44
416.713	93.44
416.936	89.44
417.159	81.44
417.382	87.44
417.605	81.44
417.828	82.44
418.051	86.44
418.274	85.44
418.497	80.44
418.72	91.44
418.943	76.44
419.166	88.44
419.389	91.44
419.611	93.44
419.834	90.44
420.057	90.44
420.28	87.44
420.503	85.44
420.726	94.44
420.948	97.44
421.171	109.44
421.394	97.44
421.617	116.44
421.839	120.44
422.062	138.44
422.285	193.44
422.507	250.44
422.73	288.44
422.953	268.44
423.175	232.44
423.398	167.44
423.621	138.44
423.843	115.44
424.066	109.44
424.288	98.44
424.511	99.44
424.733	92.44
424.956	89.44
425.178	96.44
425.401	92.44
425.623	89.44
425.846	96.44
426.068	93.44
426.291	99.44
426.513	81.44
426.735	92.44
426.958	92.44
427.18	91.44
427.402	78.44
427.625	82.44
427.847	82.44
428.069	112.44
428.292	136.44
428.514	153.44
428.736	111.44
428.958	134.44
429.181	125.44
429.403	99.44
429.625	86.44
429.847	134.44
430.069	176.44
430.292	190.44
430.514	185.44
430.736	124.44
430.958	148.44
431.18	94.44
431.402	86.44
431.624	107.44
431.846	118.44
432.068	130.44
432.29	102.44
432.512	98.44
432.734	75.44
432.956	84.44
433.178	87.44
433.4	81.44
433.622	65.44
433.844	82.44
434.066	83.44
434.287	84.44
434.509	79.44
434.731	94.44
434.953	86.44
435.175	89.44
435.397	73.44
435.618	93.44
435.84	94.44
436.062	95.44
436.284	82.44
436.505	68.44
436.727	74.44
436.949	85.44
437.17	85.44
437.392	90.44
437.614	71.44
437.835	86.44
438.057	78.44
438.278	89.44
438.5	89.44
438.721	80.44
438.943	80.44
439.165	88.44
439.386	85.44
439.608	71.44
439.829	81.44
440.05	82.44
440.272	94.44
440.493	89.44
440.715	90.44
440.936	107.44
441.158	94.44
441.379	85.44
441.6	81.44
441.822	81.44
442.043	94.44
442.264	117.44
442.486	156.44
442.707	178.44
442.928	126.44
443.149	110.44
443.371	153.44
443.592	260.44
443.813	238.44
444.034	128.44
444.255	98.44
444.476	97.44
444.698	103.44
444.919	100.44
445.14	209.44
445.361	230.44
445.582	305.44
445.803	270.44
446.024	132.44
446.245	98.44
446.466	88.44
446.687	85.44
446.908	84.44
447.129	90.44
447.35	87.44
447.571	82.44
447.792	74.44
448.013	71.44
448.234	95.44
448.455	74.44
448.675	86.44
448.896	80.44
449.117	83.44
449.338	68.44
449.559	75.44
449.779	98.44
450	81.44
450.221	80.44
450.442	79.44
450.662	82.44
450.883	66.44
451.104	76.44
451.324	87.44
451.545	80.44
451.766	73.44
451.986	78.44
452.207	84.44
452.428	78.44
452.648	80.44
452.869	83.44
453.089	89.44
453.31	89.44
453.53	95.44
453.751	84.44
453.971	91.44
454.192	89.44
454.412	84.44
454.633	82.44
454.853	80.44
455.073	73.44
455.294	88.44
455.514	86.44
455.734	75.44
455.955	81.44
456.175	79.44
456.395	75.44
456.616	81.44
456.836	90.44
457.056	88.44
457.276	75.44
457.497	81.44
457.717	91.44
457.937	110.44
458.157	135.44
458.377	138.44
458.598	136.44
458.818	139.44
459.038	110.44
459.258	88.44
459.478	86.44
459.698	99.44
459.918	77.44
460.138	77.44
460.358	94.44
460.578	98.44
460.798	96.44
461.018	102.44
461.238	84.44
461.458	95.44
461.678	80.44
461.898	87.44
462.118	72.44
462.338	97.44
462.558	102.44
462.777	68.44
462.997	77.44
463.217	81.44
463.437	85.44
463.657	88.44
463.876	77.44
464.096	78.44
464.316	74.44
464.536	69.44
464.755	82.44
464.975	91.44
465.195	84.44
465.414	74.44
465.634	86.44
465.854	84.44
466.073	79.44
466.293	81.44
466.512	99.44
466.732	95.44
466.951	81.44
467.171	90.44
467.391	94.44
467.61	88.44
467.829	75.44
468.049	87.44
468.268	98.44
468.488	86.44
468.707	81.44
468.927	89.44
469.146	89.44
469.365	74.44
469.585	86.44
469.804	92.44
470.023	80.44
470.243	80.44
470.462	73.44
470.681	84.44
470.901	93.44
471.12	78.44
471.339	92.44
471.558	81.44
471.777	82.44
471.997	89.44
472.216	80.44
472.435	86.44
472.654	90.44
472.873	95.44
473.092	79.44
473.311	86.44
473.53	87.44
473.749	73.44
473.968	90.44
474.187	82.44
474.406	80.44
474.625	83.44
474.844	93.44
475.063	95.44
475.282	85.44
475.501	82.44
475.72	77.44
475.939	76.44
476.158	85.44
476.377	78.44
476.596	76.44
476.814	88.44
477.033	87.44
477.252	85.44
477.471	85.44
477.69	81.44
477.908	72.44
478.127	84.44
478.346	77.44
478.564	82.44
478.783	89.44
479.002	81.44
479.22	94.44
479.439	76.44
479.658	72.44
479.876	83.44
480.095	84.44
480.313	77.44
480.532	80.44
480.751	87.44
480.969	101.44
481.188	90.44
481.406	85.44
481.624	87.44
481.843	86.44
482.061	78.44
482.28	82.44
482.498	80.44
482.717	94.44
482.935	97.44
483.153	83.44
483.372	90.44
483.59	74.44
483.808	83.44
484.027	80.44
484.245	77.44
484.463	87.44
484.681	95.44
484.9	93.44
485.118	85.44
485.336	78.44
485.554	69.44
485.772	90.44
485.99	77.44
486.209	85.44
486.427	85.44
486.645	91.44
486.863	89.44
487.081	92.44
487.299	89.44
487.517	115.44
487.735	121.44
487.953	203.44
488.171	185.44
488.389	105.44
488.607	83.44
488.825	82.44
489.043	92.44
489.261	73.44
489.479	74.44
489.696	81.44
489.914	75.44
490.132	91.44
490.35	100.44
490.568	75.44
490.786	80.44
491.003	81.44
491.221	80.44
491.439	85.44
491.657	76.44
491.874	80.44
492.092	87.44
492.31	85.44
492.527	81.44
492.745	78.44
492.963	79.44
493.18	76.44
493.398	82.44
493.615	81.44
493.833	81.44
494.05	73.44
494.268	101.44
494.485	87.44
494.703	75.44
494.92	85.44
495.138	99.44
495.355	82.44
495.573	66.44
495.79	88.44
496.008	100.44
496.225	82.44
496.442	70.44
496.66	93.44
496.877	92.44
497.094	90.44
497.312	82.44
497.529	90.44
497.746	71.44
497.963	84.44
498.181	86.44
498.398	89.44
498.615	90.44
498.832	85.44
499.049	86.44
499.267	101.44
499.484	80.44
499.701	82.44
499.918	80.44
500.135	77.44
500.352	87.44
500.569	82.44
500.786	84.44
501.003	88.44
501.22	77.44
501.437	82.44
501.654	87.44
501.871	80.44
502.088	86.44
502.305	94.44
502.522	112.44
502.739	80.44
502.956	83.44
503.172	80.44
503.389	85.44
503.606	89.44
503.823	89.44
504.04	104.44
504.256	141.44
504.473	151.44
504.69	111.44
504.907	105.44
505.123	92.44
505.34	74.44
505.557	83.44
505.773	100.44
505.99	83.44
506.207	89.44
506.423	74.44
506.64	86.44
506.856	82.44
507.073	81.44
507.289	81.44
507.506	65.44
507.722	87.44
507.939	71.44
508.155	88.44
508.372	86.44
508.588	78.44
508.805	87.44
509.021	72.44
509.238	87.44
509.454	91.44
509.67	71.44
509.887	87.44
510.103	84.44
510.319	73.44
510.536	93.44
510.752	92.44
510.968	94.44
511.184	92.44
511.401	80.44
511.617	87.44
511.833	85.44
512.049	97.44
512.265	89.44
512.481	70.44
512.698	81.44
512.914	78.44
513.13	74.44
513.346	78.44
513.562	86.44
513.778	83.44
513.994	75.44
514.21	82.44
514.426	79.44
514.642	93.44
514.858	84.44
515.074	96.44
515.29	88.44
515.506	93.44
515.721	77.44
515.937	87.44
516.153	85.44
516.369	90.44
516.585	94.44
516.801	84.44
517.016	89.44
517.232	85.44
517.448	90.44
517.664	75.44
517.879	80.44
518.095	96.44
518.311	104.44
518.527	116.44
