Data from 2145_2_HRD10591_00049.txt Node
Date: Mon Jan 19 14:22:26 EST 2026
User: Yrep
Spectrometer: HR+D1059
Trigger mode: 1
Integration Time (sec): 1.000000E-1
Scans to average: 1
Electric dark correction enabled: true
Nonlinearity correction enabled: false
Boxcar width: 0
XAxis mode: Wavelengths
Number of Pixels in Spectrum: 2048
>>>>>Begin Spectral Data<<<<<
223.165	-11.94
223.4	-11.94
223.635	-11.94
223.869	-25.94
224.104	-27.94
224.338	-5.94
224.573	-12.94
224.808	-13.94
225.042	3.06
225.277	0.06
225.511	-8.94
225.746	6.06
225.98	4.06
226.215	-0.94
226.449	22.06
226.683	30.06
226.918	19.06
227.152	24.06
227.387	31.06
227.621	38.06
227.856	52.06
228.09	50.06
228.324	62.06
228.559	55.06
228.793	62.06
229.027	52.06
229.262	52.06
229.496	67.06
229.73	75.06
229.964	71.06
230.199	85.06
230.433	77.06
230.667	87.06
230.901	75.06
231.136	75.06
231.37	88.06
231.604	75.06
231.838	87.06
232.072	74.06
232.306	68.06
232.541	75.06
232.775	74.06
233.009	66.06
233.243	74.06
233.477	71.06
233.711	86.06
233.945	84.06
234.179	87.06
234.413	75.06
234.647	78.06
234.881	76.06
235.115	84.06
235.349	86.06
235.583	77.06
235.817	73.06
236.051	86.06
236.285	87.06
236.519	80.06
236.753	88.06
236.987	76.06
237.221	89.06
237.455	54.06
237.689	81.06
237.922	70.06
238.156	73.06
238.39	71.06
238.624	69.06
238.858	81.06
239.091	76.06
239.325	58.06
239.559	70.06
239.793	69.06
240.027	70.06
240.26	87.06
240.494	72.06
240.728	81.06
240.961	73.06
241.195	74.06
241.429	74.06
241.662	78.06
241.896	70.06
242.13	70.06
242.363	91.06
242.597	77.06
242.83	74.06
243.064	79.06
243.298	80.06
243.531	72.06
243.765	90.06
243.998	85.06
244.232	79.06
244.465	59.06
244.699	80.06
244.932	73.06
245.166	84.06
245.399	84.06
245.633	82.06
245.866	73.06
246.099	82.06
246.333	72.06
246.566	72.06
246.8	73.06
247.033	72.06
247.266	89.06
247.5	82.06
247.733	68.06
247.966	73.06
248.2	72.06
248.433	67.06
248.666	75.06
248.899	87.06
249.133	69.06
249.366	73.06
249.599	71.06
249.832	79.06
250.066	73.06
250.299	71.06
250.532	90.06
250.765	74.06
250.998	85.06
251.231	96.06
251.465	87.06
251.698	67.06
251.931	82.06
252.164	84.06
252.397	79.06
252.63	82.06
252.863	86.06
253.096	87.06
253.329	74.06
253.562	76.06
253.795	80.06
254.028	70.06
254.261	67.06
254.494	80.06
254.727	90.06
254.96	61.06
255.193	92.06
255.426	74.06
255.659	82.06
255.892	76.06
256.124	77.06
256.357	82.06
256.59	90.06
256.823	71.06
257.056	70.06
257.289	71.06
257.521	67.06
257.754	76.06
257.987	80.06
258.22	76.06
258.452	68.06
258.685	81.06
258.918	67.06
259.151	63.06
259.383	82.06
259.616	79.06
259.849	81.06
260.081	86.06
260.314	71.06
260.547	91.06
260.779	87.06
261.012	68.06
261.244	83.06
261.477	78.06
261.71	79.06
261.942	80.06
262.175	70.06
262.407	72.06
262.64	82.06
262.872	91.06
263.105	66.06
263.337	83.06
263.57	78.06
263.802	68.06
264.035	72.06
264.267	80.06
264.499	79.06
264.732	75.06
264.964	68.06
265.197	57.06
265.429	78.06
265.661	67.06
265.894	73.06
266.126	88.06
266.358	82.06
266.591	81.06
266.823	74.06
267.055	62.06
267.287	67.06
267.52	77.06
267.752	75.06
267.984	92.06
268.216	74.06
268.448	82.06
268.681	83.06
268.913	87.06
269.145	65.06
269.377	76.06
269.609	79.06
269.841	77.06
270.073	89.06
270.306	84.06
270.538	80.06
270.77	83.06
271.002	60.06
271.234	82.06
271.466	87.06
271.698	97.06
271.93	78.06
272.162	88.06
272.394	65.06
272.626	84.06
272.858	68.06
273.09	92.06
273.322	76.06
273.553	72.06
273.785	78.06
274.017	80.06
274.249	71.06
274.481	90.06
274.713	74.06
274.945	68.06
275.176	73.06
275.408	76.06
275.64	72.06
275.872	84.06
276.104	74.06
276.335	74.06
276.567	82.06
276.799	81.06
277.031	63.06
277.262	84.06
277.494	64.06
277.726	61.06
277.957	73.06
278.189	78.06
278.421	88.06
278.652	80.06
278.884	80.06
279.115	75.06
279.347	76.06
279.579	87.06
279.81	84.06
280.042	91.06
280.273	81.06
280.505	74.06
280.736	75.06
280.968	80.06
281.199	97.06
281.431	80.06
281.662	77.06
281.894	77.06
282.125	87.06
282.356	82.06
282.588	73.06
282.819	77.06
283.051	74.06
283.282	82.06
283.513	76.06
283.745	78.06
283.976	75.06
284.207	84.06
284.439	96.06
284.67	77.06
284.901	98.06
285.132	61.06
285.364	90.06
285.595	90.06
285.826	89.06
286.057	96.06
286.288	80.06
286.52	83.06
286.751	92.06
286.982	81.06
287.213	76.06
287.444	98.06
287.675	86.06
287.906	86.06
288.138	74.06
288.369	83.06
288.6	81.06
288.831	80.06
289.062	78.06
289.293	83.06
289.524	98.06
289.755	78.06
289.986	67.06
290.217	68.06
290.448	97.06
290.679	84.06
290.91	91.06
291.141	81.06
291.371	76.06
291.602	71.06
291.833	93.06
292.064	79.06
292.295	80.06
292.526	85.06
292.757	65.06
292.987	75.06
293.218	84.06
293.449	75.06
293.68	91.06
293.91	72.06
294.141	88.06
294.372	74.06
294.603	98.06
294.833	72.06
295.064	89.06
295.295	78.06
295.525	76.06
295.756	76.06
295.987	88.06
296.217	92.06
296.448	81.06
296.679	81.06
296.909	87.06
297.14	71.06
297.37	72.06
297.601	89.06
297.831	82.06
298.062	86.06
298.292	87.06
298.523	77.06
298.753	79.06
298.984	84.06
299.214	100.06
299.445	77.06
299.675	90.06
299.905	74.06
300.136	80.06
300.366	72.06
300.597	87.06
300.827	76.06
301.057	71.06
301.288	80.06
301.518	73.06
301.748	87.06
301.979	106.06
302.209	90.06
302.439	80.06
302.669	90.06
302.9	82.06
303.13	81.06
303.36	91.06
303.59	82.06
303.82	87.06
304.051	80.06
304.281	76.06
304.511	90.06
304.741	77.06
304.971	75.06
305.201	72.06
305.431	74.06
305.661	74.06
305.891	90.06
306.121	82.06
306.352	78.06
306.582	85.06
306.812	88.06
307.042	91.06
307.272	78.06
307.502	91.06
307.731	95.06
307.961	86.06
308.191	66.06
308.421	95.06
308.651	74.06
308.881	96.06
309.111	93.06
309.341	60.06
309.571	85.06
309.8	75.06
310.03	92.06
310.26	94.06
310.49	86.06
310.72	70.06
310.949	81.06
311.179	68.06
311.409	78.06
311.639	91.06
311.868	81.06
312.098	90.06
312.328	97.06
312.557	84.06
312.787	86.06
313.017	97.06
313.246	79.06
313.476	70.06
313.706	70.06
313.935	70.06
314.165	90.06
314.394	73.06
314.624	86.06
314.853	72.06
315.083	77.06
315.312	68.06
315.542	90.06
315.771	90.06
316.001	83.06
316.23	82.06
316.46	85.06
316.689	84.06
316.919	68.06
317.148	84.06
317.377	91.06
317.607	76.06
317.836	86.06
318.065	84.06
318.295	86.06
318.524	74.06
318.753	85.06
318.983	87.06
319.212	82.06
319.441	84.06
319.67	90.06
319.9	98.06
320.129	99.06
320.358	71.06
320.587	98.06
320.816	89.06
321.046	92.06
321.275	76.06
321.504	80.06
321.733	88.06
321.962	92.06
322.191	91.06
322.42	85.06
322.649	90.06
322.878	95.06
323.108	83.06
323.337	81.06
323.566	97.06
323.795	88.06
324.024	77.06
324.253	81.06
324.482	90.06
324.71	99.06
324.939	84.06
325.168	76.06
325.397	66.06
325.626	85.06
325.855	74.06
326.084	77.06
326.313	72.06
326.542	74.06
326.77	84.06
326.999	82.06
327.228	81.06
327.457	89.06
327.686	87.06
327.914	98.06
328.143	92.06
328.372	90.06
328.6	73.06
328.829	82.06
329.058	88.06
329.287	65.06
329.515	94.06
329.744	76.06
329.972	90.06
330.201	89.06
330.43	76.06
330.658	75.06
330.887	87.06
331.115	67.06
331.344	79.06
331.572	91.06
331.801	87.06
332.03	98.06
332.258	80.06
332.486	96.06
332.715	80.06
332.943	76.06
333.172	89.06
333.4	75.06
333.629	90.06
333.857	79.06
334.085	86.06
334.314	86.06
334.542	81.06
334.771	99.06
334.999	90.06
335.227	84.06
335.455	83.06
335.684	90.06
335.912	86.06
336.14	91.06
336.369	88.06
336.597	82.06
336.825	98.06
337.053	81.06
337.281	85.06
337.51	90.06
337.738	90.06
337.966	82.06
338.194	83.06
338.422	77.06
338.65	86.06
338.878	89.06
339.106	75.06
339.334	86.06
339.562	74.06
339.79	83.06
340.018	82.06
340.246	82.06
340.474	79.06
340.702	86.06
340.93	87.06
341.158	86.06
341.386	89.06
341.614	73.06
341.842	77.06
342.07	81.06
342.298	79.06
342.526	84.06
342.754	83.06
342.981	87.06
343.209	83.06
343.437	100.06
343.665	77.06
343.893	82.06
344.12	93.06
344.348	95.06
344.576	98.06
344.804	89.06
345.031	86.06
345.259	67.06
345.487	81.06
345.714	71.06
345.942	94.06
346.17	91.06
346.397	85.06
346.625	92.06
346.853	81.06
347.08	77.06
347.308	73.06
347.535	80.06
347.763	89.06
347.99	72.06
348.218	84.06
348.445	80.06
348.673	82.06
348.9	88.06
349.128	89.06
349.355	69.06
349.583	98.06
349.81	85.06
350.037	90.06
350.265	77.06
350.492	74.06
350.72	71.06
350.947	74.06
351.174	92.06
351.402	87.06
351.629	95.06
351.856	91.06
352.083	87.06
352.311	88.06
352.538	100.06
352.765	86.06
352.992	89.06
353.22	84.06
353.447	72.06
353.674	86.06
353.901	92.06
354.128	91.06
354.355	82.06
354.583	84.06
354.81	84.06
355.037	77.06
355.264	83.06
355.491	91.06
355.718	75.06
355.945	80.06
356.172	86.06
356.399	86.06
356.626	92.06
356.853	69.06
357.08	90.06
357.307	84.06
357.534	75.06
357.761	84.06
357.988	79.06
358.215	98.06
358.441	86.06
358.668	78.06
358.895	85.06
359.122	92.06
359.349	87.06
359.576	80.06
359.802	85.06
360.029	96.06
360.256	81.06
360.483	74.06
360.709	82.06
360.936	89.06
361.163	88.06
361.39	84.06
361.616	82.06
361.843	92.06
362.07	84.06
362.296	99.06
362.523	95.06
362.749	95.06
362.976	98.06
363.203	120.06
363.429	94.06
363.656	86.06
363.882	85.06
364.109	103.06
364.335	113.06
364.562	120.06
364.788	108.06
365.015	86.06
365.241	74.06
365.468	75.06
365.694	93.06
365.92	87.06
366.147	79.06
366.373	76.06
366.599	66.06
366.826	82.06
367.052	78.06
367.278	82.06
367.505	92.06
367.731	80.06
367.957	82.06
368.184	88.06
368.41	91.06
368.636	77.06
368.862	87.06
369.089	82.06
369.315	74.06
369.541	83.06
369.767	72.06
369.993	77.06
370.219	88.06
370.445	89.06
370.672	91.06
370.898	76.06
371.124	94.06
371.35	84.06
371.576	95.06
371.802	75.06
372.028	76.06
372.254	89.06
372.48	76.06
372.706	99.06
372.932	90.06
373.158	88.06
373.384	88.06
373.61	99.06
373.835	90.06
374.061	81.06
374.287	89.06
374.513	77.06
374.739	108.06
374.965	92.06
375.191	71.06
375.416	90.06
375.642	61.06
375.868	88.06
376.094	86.06
376.319	73.06
376.545	84.06
376.771	86.06
376.997	86.06
377.222	73.06
377.448	83.06
377.674	86.06
377.899	82.06
378.125	76.06
378.35	83.06
378.576	87.06
378.802	80.06
379.027	89.06
379.253	84.06
379.478	88.06
379.704	89.06
379.929	85.06
380.155	86.06
380.38	92.06
380.606	79.06
380.831	83.06
381.057	79.06
381.282	70.06
381.507	86.06
381.733	86.06
381.958	83.06
382.184	76.06
382.409	78.06
382.634	86.06
382.86	81.06
383.085	88.06
383.31	86.06
383.535	86.06
383.761	76.06
383.986	92.06
384.211	88.06
384.436	79.06
384.662	82.06
384.887	83.06
385.112	77.06
385.337	83.06
385.562	85.06
385.787	90.06
386.013	93.06
386.238	90.06
386.463	82.06
386.688	99.06
386.913	90.06
387.138	71.06
387.363	96.06
387.588	80.06
387.813	96.06
388.038	83.06
388.263	92.06
388.488	70.06
388.713	86.06
388.938	82.06
389.163	82.06
389.387	89.06
389.612	84.06
389.837	88.06
390.062	90.06
390.287	82.06
390.512	84.06
390.736	72.06
390.961	76.06
391.186	81.06
391.411	85.06
391.636	92.06
391.86	81.06
392.085	80.06
392.31	96.06
392.534	96.06
392.759	95.06
392.984	125.06
393.208	200.06
393.433	280.06
393.658	196.06
393.882	112.06
394.107	110.06
394.331	100.06
394.556	112.06
394.78	73.06
395.005	84.06
395.229	94.06
395.454	95.06
395.678	102.06
395.903	107.06
396.127	123.06
396.352	134.06
396.576	135.06
396.801	195.06
397.025	211.06
397.249	129.06
397.474	98.06
397.698	108.06
397.922	102.06
398.147	90.06
398.371	91.06
398.595	80.06
398.82	88.06
399.044	79.06
399.268	73.06
399.492	76.06
399.717	87.06
399.941	74.06
400.165	97.06
400.389	98.06
400.613	85.06
400.837	76.06
401.062	84.06
401.286	78.06
401.51	82.06
401.734	86.06
401.958	80.06
402.182	88.06
402.406	89.06
402.63	72.06
402.854	77.06
403.078	80.06
403.302	84.06
403.526	99.06
403.75	81.06
403.974	96.06
404.198	124.06
404.422	174.06
404.645	192.06
404.869	139.06
405.093	114.06
405.317	86.06
405.541	84.06
405.765	85.06
405.988	101.06
406.212	83.06
406.436	90.06
406.66	87.06
406.883	88.06
407.107	83.06
407.331	85.06
407.555	80.06
407.778	85.06
408.002	101.06
408.226	82.06
408.449	86.06
408.673	79.06
408.896	75.06
409.12	96.06
409.344	85.06
409.567	95.06
409.791	87.06
410.014	92.06
410.238	86.06
410.461	97.06
410.685	85.06
410.908	76.06
411.132	84.06
411.355	80.06
411.578	83.06
411.802	93.06
412.025	66.06
412.249	90.06
412.472	82.06
412.695	67.06
412.919	74.06
413.142	74.06
413.365	84.06
413.589	84.06
413.812	80.06
414.035	81.06
414.258	85.06
414.482	85.06
414.705	72.06
414.928	82.06
415.151	91.06
415.374	97.06
415.597	91.06
415.821	94.06
416.044	86.06
416.267	87.06
416.49	75.06
416.713	80.06
416.936	86.06
417.159	88.06
417.382	89.06
417.605	89.06
417.828	82.06
418.051	87.06
418.274	89.06
418.497	97.06
418.72	83.06
418.943	82.06
419.166	87.06
419.389	90.06
419.611	81.06
419.834	80.06
420.057	89.06
420.28	88.06
420.503	103.06
420.726	90.06
420.948	84.06
421.171	101.06
421.394	90.06
421.617	106.06
421.839	98.06
422.062	141.06
422.285	168.06
422.507	291.06
422.73	451.06
422.953	408.06
423.175	210.06
423.398	129.06
423.621	117.06
423.843	99.06
424.066	106.06
424.288	97.06
424.511	87.06
424.733	94.06
424.956	73.06
425.178	91.06
425.401	80.06
425.623	84.06
425.846	79.06
426.068	92.06
426.291	96.06
426.513	87.06
426.735	83.06
426.958	94.06
427.18	78.06
427.402	90.06
427.625	93.06
427.847	88.06
428.069	97.06
428.292	118.06
428.514	138.06
428.736	117.06
428.958	132.06
429.181	126.06
429.403	100.06
429.625	111.06
429.847	136.06
430.069	180.06
430.292	184.06
430.514	174.06
430.736	134.06
430.958	141.06
431.18	107.06
431.402	82.06
431.624	92.06
431.846	136.06
432.068	138.06
432.29	91.06
432.512	94.06
432.734	96.06
432.956	89.06
433.178	75.06
433.4	69.06
433.622	68.06
433.844	79.06
434.066	74.06
434.287	67.06
434.509	75.06
434.731	77.06
434.953	80.06
435.175	80.06
435.397	80.06
435.618	86.06
435.84	82.06
436.062	107.06
436.284	87.06
436.505	81.06
436.727	77.06
436.949	83.06
437.17	82.06
437.392	76.06
437.614	87.06
437.835	86.06
438.057	68.06
438.278	79.06
438.5	82.06
438.721	86.06
438.943	82.06
439.165	77.06
439.386	86.06
439.608	97.06
439.829	74.06
440.05	90.06
440.272	69.06
440.493	76.06
440.715	66.06
440.936	89.06
441.158	77.06
441.379	80.06
441.6	89.06
441.822	98.06
442.043	114.06
442.264	91.06
442.486	127.06
442.707	169.06
442.928	123.06
443.149	102.06
443.371	152.06
443.592	264.06
443.813	230.06
444.034	98.06
444.255	89.06
444.476	104.06
444.698	102.06
444.919	91.06
445.14	166.06
445.361	216.06
445.582	297.06
445.803	252.06
446.024	120.06
446.245	112.06
446.466	91.06
446.687	90.06
446.908	88.06
447.129	64.06
447.35	84.06
447.571	74.06
447.792	82.06
448.013	76.06
448.234	70.06
448.455	83.06
448.675	90.06
448.896	95.06
449.117	69.06
449.338	85.06
449.559	85.06
449.779	78.06
450	88.06
450.221	74.06
450.442	85.06
450.662	90.06
450.883	84.06
451.104	83.06
451.324	71.06
451.545	90.06
451.766	78.06
451.986	77.06
452.207	85.06
452.428	84.06
452.648	98.06
452.869	90.06
453.089	98.06
453.31	82.06
453.53	80.06
453.751	84.06
453.971	94.06
454.192	83.06
454.412	87.06
454.633	80.06
454.853	87.06
455.073	81.06
455.294	99.06
455.514	68.06
455.734	79.06
455.955	84.06
456.175	80.06
456.395	91.06
456.616	73.06
456.836	80.06
457.056	77.06
457.276	86.06
457.497	79.06
457.717	82.06
457.937	92.06
458.157	108.06
458.377	106.06
458.598	115.06
458.818	135.06
459.038	98.06
459.258	94.06
459.478	74.06
459.698	82.06
459.918	75.06
460.138	76.06
460.358	79.06
460.578	100.06
460.798	112.06
461.018	122.06
461.238	79.06
461.458	84.06
461.678	82.06
461.898	79.06
462.118	84.06
462.338	91.06
462.558	74.06
462.777	75.06
462.997	88.06
463.217	71.06
463.437	64.06
463.657	72.06
463.876	83.06
464.096	77.06
464.316	79.06
464.536	89.06
464.755	94.06
464.975	81.06
465.195	85.06
465.414	88.06
465.634	97.06
465.854	87.06
466.073	77.06
466.293	89.06
466.512	80.06
466.732	89.06
466.951	82.06
467.171	89.06
467.391	94.06
467.61	86.06
467.829	73.06
468.049	88.06
468.268	78.06
468.488	83.06
468.707	97.06
468.927	74.06
469.146	80.06
469.365	83.06
469.585	69.06
469.804	84.06
470.023	72.06
470.243	86.06
470.462	68.06
470.681	76.06
470.901	82.06
471.12	75.06
471.339	90.06
471.558	74.06
471.777	84.06
471.997	80.06
472.216	81.06
472.435	90.06
472.654	79.06
472.873	76.06
473.092	82.06
473.311	77.06
473.53	89.06
473.749	81.06
473.968	99.06
474.187	70.06
474.406	91.06
474.625	85.06
474.844	79.06
475.063	85.06
475.282	89.06
475.501	89.06
475.72	83.06
475.939	84.06
476.158	89.06
476.377	76.06
476.596	76.06
476.814	96.06
477.033	96.06
477.252	82.06
477.471	83.06
477.69	85.06
477.908	76.06
478.127	88.06
478.346	83.06
478.564	91.06
478.783	88.06
479.002	76.06
479.22	82.06
479.439	86.06
479.658	79.06
479.876	78.06
480.095	87.06
480.313	82.06
480.532	94.06
480.751	86.06
480.969	95.06
481.188	82.06
481.406	80.06
481.624	83.06
481.843	80.06
482.061	82.06
482.28	91.06
482.498	73.06
482.717	82.06
482.935	85.06
483.153	87.06
483.372	74.06
483.59	87.06
483.808	92.06
484.027	82.06
484.245	106.06
484.463	86.06
484.681	85.06
484.9	88.06
485.118	105.06
485.336	77.06
485.554	81.06
485.772	87.06
485.99	90.06
486.209	81.06
486.427	91.06
486.645	93.06
486.863	94.06
487.081	100.06
487.299	88.06
487.517	100.06
487.735	105.06
487.953	139.06
488.171	130.06
488.389	98.06
488.607	95.06
488.825	86.06
489.043	92.06
489.261	94.06
489.479	80.06
489.696	75.06
489.914	86.06
490.132	88.06
490.35	83.06
490.568	80.06
490.786	93.06
491.003	80.06
491.221	81.06
491.439	82.06
491.657	83.06
491.874	83.06
492.092	91.06
492.31	84.06
492.527	94.06
492.745	71.06
492.963	86.06
493.18	82.06
493.398	98.06
493.615	73.06
493.833	86.06
494.05	67.06
494.268	84.06
494.485	81.06
494.703	83.06
494.92	94.06
495.138	96.06
495.355	80.06
495.573	78.06
495.79	89.06
496.008	82.06
496.225	89.06
496.442	95.06
496.66	94.06
496.877	84.06
497.094	101.06
497.312	95.06
497.529	84.06
497.746	87.06
497.963	79.06
498.181	92.06
498.398	106.06
498.615	92.06
498.832	85.06
499.049	80.06
499.267	78.06
499.484	73.06
499.701	99.06
499.918	98.06
500.135	102.06
500.352	89.06
500.569	87.06
500.786	82.06
501.003	103.06
501.22	92.06
501.437	91.06
501.654	82.06
501.871	76.06
502.088	93.06
502.305	80.06
502.522	78.06
502.739	91.06
502.956	94.06
503.172	87.06
503.389	91.06
503.606	98.06
503.823	82.06
504.04	99.06
504.256	120.06
504.473	118.06
504.69	95.06
504.907	86.06
505.123	94.06
505.34	80.06
505.557	91.06
505.773	87.06
505.99	92.06
506.207	86.06
506.423	89.06
506.64	87.06
506.856	90.06
507.073	79.06
507.289	87.06
507.506	63.06
507.722	99.06
507.939	90.06
508.155	73.06
508.372	87.06
508.588	91.06
508.805	81.06
509.021	90.06
509.238	90.06
509.454	99.06
509.67	74.06
509.887	83.06
510.103	74.06
510.319	86.06
510.536	86.06
510.752	80.06
510.968	88.06
511.184	85.06
511.401	82.06
511.617	94.06
511.833	82.06
512.049	91.06
512.265	85.06
512.481	71.06
512.698	97.06
512.914	80.06
513.13	81.06
513.346	94.06
513.562	71.06
513.778	80.06
513.994	81.06
514.21	82.06
514.426	95.06
514.642	83.06
514.858	75.06
515.074	90.06
515.29	102.06
515.506	73.06
515.721	86.06
515.937	99.06
516.153	84.06
516.369	76.06
516.585	94.06
516.801	89.06
517.016	74.06
517.232	90.06
517.448	94.06
517.664	86.06
517.879	82.06
518.095	96.06
518.311	82.06
518.527	99.06
518.742	94.06
518.958	112.06
