Data from 2145_2_HRD10591_00041.txt Node
Date: Mon Jan 19 14:22:22 EST 2026
User: Yrep
Spectrometer: HR+D1059
Trigger mode: 1
Integration Time (sec): 1.000000E-1
Scans to average: 1
Electric dark correction enabled: true
Nonlinearity correction enabled: false
Boxcar width: 0
XAxis mode: Wavelengths
Number of Pixels in Spectrum: 2048
>>>>>Begin Spectral Data<<<<<
223.165	-9.12
223.4	-9.12
223.635	-9.12
223.869	-27.12
224.104	-25.12
224.338	-10.12
224.573	-14.12
224.808	-18.12
225.042	-12.12
225.277	16.88
225.511	-7.12
225.746	-0.12
225.98	13.88
226.215	11.88
226.449	24.88
226.683	19.88
226.918	21.88
227.152	13.88
227.387	40.88
227.621	49.88
227.856	52.88
228.09	37.88
228.324	35.88
228.559	67.88
228.793	56.88
229.027	69.88
229.262	54.88
229.496	68.88
229.73	57.88
229.964	69.88
230.199	64.88
230.433	76.88
230.667	64.88
230.901	76.88
231.136	85.88
231.37	75.88
231.604	77.88
231.838	78.88
232.072	82.88
232.306	83.88
232.541	91.88
232.775	84.88
233.009	88.88
233.243	73.88
233.477	65.88
233.711	70.88
233.945	65.88
234.179	77.88
234.413	89.88
234.647	81.88
234.881	86.88
235.115	81.88
235.349	73.88
235.583	81.88
235.817	67.88
236.051	72.88
236.285	67.88
236.519	72.88
236.753	81.88
236.987	86.88
237.221	75.88
237.455	85.88
237.689	64.88
237.922	72.88
238.156	68.88
238.39	60.88
238.624	52.88
238.858	72.88
239.091	61.88
239.325	73.88
239.559	74.88
239.793	82.88
240.027	83.88
240.26	80.88
240.494	82.88
240.728	81.88
240.961	83.88
241.195	76.88
241.429	74.88
241.662	90.88
241.896	90.88
242.13	73.88
242.363	86.88
242.597	79.88
242.83	80.88
243.064	73.88
243.298	74.88
243.531	88.88
243.765	70.88
243.998	73.88
244.232	76.88
244.465	84.88
244.699	65.88
244.932	89.88
245.166	89.88
245.399	74.88
245.633	79.88
245.866	80.88
246.099	66.88
246.333	66.88
246.566	80.88
246.8	71.88
247.033	77.88
247.266	77.88
247.5	64.88
247.733	68.88
247.966	81.88
248.2	85.88
248.433	80.88
248.666	84.88
248.899	76.88
249.133	71.88
249.366	84.88
249.599	78.88
249.832	58.88
250.066	75.88
250.299	71.88
250.532	70.88
250.765	73.88
250.998	66.88
251.231	81.88
251.465	87.88
251.698	74.88
251.931	89.88
252.164	69.88
252.397	81.88
252.63	77.88
252.863	88.88
253.096	87.88
253.329	85.88
253.562	67.88
253.795	79.88
254.028	65.88
254.261	78.88
254.494	71.88
254.727	82.88
254.96	69.88
255.193	76.88
255.426	71.88
255.659	80.88
255.892	83.88
256.124	98.88
256.357	78.88
256.59	86.88
256.823	83.88
257.056	76.88
257.289	75.88
257.521	60.88
257.754	69.88
257.987	85.88
258.22	75.88
258.452	85.88
258.685	73.88
258.918	64.88
259.151	76.88
259.383	89.88
259.616	66.88
259.849	79.88
260.081	92.88
260.314	92.88
260.547	74.88
260.779	85.88
261.012	84.88
261.244	71.88
261.477	85.88
261.71	66.88
261.942	78.88
262.175	83.88
262.407	72.88
262.64	83.88
262.872	72.88
263.105	73.88
263.337	79.88
263.57	80.88
263.802	67.88
264.035	93.88
264.267	89.88
264.499	86.88
264.732	72.88
264.964	75.88
265.197	82.88
265.429	81.88
265.661	81.88
265.894	69.88
266.126	93.88
266.358	74.88
266.591	87.88
266.823	99.88
267.055	78.88
267.287	77.88
267.52	105.88
267.752	78.88
267.984	75.88
268.216	82.88
268.448	85.88
268.681	88.88
268.913	91.88
269.145	99.88
269.377	83.88
269.609	90.88
269.841	90.88
270.073	81.88
270.306	77.88
270.538	87.88
270.77	95.88
271.002	82.88
271.234	84.88
271.466	84.88
271.698	88.88
271.93	93.88
272.162	76.88
272.394	99.88
272.626	89.88
272.858	78.88
273.09	69.88
273.322	85.88
273.553	68.88
273.785	100.88
274.017	76.88
274.249	80.88
274.481	82.88
274.713	71.88
274.945	91.88
275.176	76.88
275.408	73.88
275.64	81.88
275.872	83.88
276.104	82.88
276.335	81.88
276.567	82.88
276.799	81.88
277.031	99.88
277.262	77.88
277.494	86.88
277.726	71.88
277.957	84.88
278.189	71.88
278.421	97.88
278.652	91.88
278.884	88.88
279.115	99.88
279.347	90.88
279.579	90.88
279.81	93.88
280.042	80.88
280.273	74.88
280.505	80.88
280.736	84.88
280.968	79.88
281.199	68.88
281.431	75.88
281.662	91.88
281.894	67.88
282.125	81.88
282.356	77.88
282.588	90.88
282.819	77.88
283.051	84.88
283.282	76.88
283.513	86.88
283.745	75.88
283.976	96.88
284.207	83.88
284.439	84.88
284.67	90.88
284.901	97.88
285.132	73.88
285.364	76.88
285.595	101.88
285.826	82.88
286.057	77.88
286.288	86.88
286.52	88.88
286.751	73.88
286.982	89.88
287.213	84.88
287.444	78.88
287.675	96.88
287.906	82.88
288.138	82.88
288.369	83.88
288.6	96.88
288.831	94.88
289.062	101.88
289.293	81.88
289.524	90.88
289.755	68.88
289.986	67.88
290.217	72.88
290.448	71.88
290.679	68.88
290.91	84.88
291.141	95.88
291.371	87.88
291.602	77.88
291.833	73.88
292.064	73.88
292.295	85.88
292.526	98.88
292.757	90.88
292.987	86.88
293.218	86.88
293.449	78.88
293.68	85.88
293.91	81.88
294.141	97.88
294.372	99.88
294.603	95.88
294.833	88.88
295.064	84.88
295.295	70.88
295.525	92.88
295.756	87.88
295.987	75.88
296.217	88.88
296.448	92.88
296.679	75.88
296.909	84.88
297.14	83.88
297.37	81.88
297.601	81.88
297.831	81.88
298.062	84.88
298.292	78.88
298.523	87.88
298.753	73.88
298.984	96.88
299.214	87.88
299.445	75.88
299.675	92.88
299.905	87.88
300.136	88.88
300.366	85.88
300.597	91.88
300.827	74.88
301.057	92.88
301.288	89.88
301.518	76.88
301.748	73.88
301.979	77.88
302.209	102.88
302.439	104.88
302.669	89.88
302.9	86.88
303.13	82.88
303.36	90.88
303.59	84.88
303.82	74.88
304.051	81.88
304.281	83.88
304.511	75.88
304.741	91.88
304.971	94.88
305.201	83.88
305.431	85.88
305.661	91.88
305.891	91.88
306.121	97.88
306.352	75.88
306.582	92.88
306.812	93.88
307.042	80.88
307.272	84.88
307.502	90.88
307.731	91.88
307.961	91.88
308.191	89.88
308.421	90.88
308.651	91.88
308.881	82.88
309.111	96.88
309.341	90.88
309.571	81.88
309.8	90.88
310.03	85.88
310.26	88.88
310.49	83.88
310.72	81.88
310.949	82.88
311.179	89.88
311.409	83.88
311.639	85.88
311.868	85.88
312.098	87.88
312.328	93.88
312.557	82.88
312.787	83.88
313.017	79.88
313.246	87.88
313.476	83.88
313.706	73.88
313.935	78.88
314.165	75.88
314.394	69.88
314.624	74.88
314.853	85.88
315.083	83.88
315.312	80.88
315.542	88.88
315.771	85.88
316.001	80.88
316.23	77.88
316.46	83.88
316.689	103.88
316.919	96.88
317.148	83.88
317.377	92.88
317.607	83.88
317.836	89.88
318.065	82.88
318.295	82.88
318.524	78.88
318.753	84.88
318.983	75.88
319.212	77.88
319.441	89.88
319.67	78.88
319.9	84.88
320.129	87.88
320.358	86.88
320.587	93.88
320.816	87.88
321.046	88.88
321.275	82.88
321.504	87.88
321.733	88.88
321.962	93.88
322.191	93.88
322.42	75.88
322.649	88.88
322.878	85.88
323.108	89.88
323.337	81.88
323.566	86.88
323.795	80.88
324.024	86.88
324.253	89.88
324.482	78.88
324.71	99.88
324.939	70.88
325.168	84.88
325.397	80.88
325.626	87.88
325.855	98.88
326.084	90.88
326.313	97.88
326.542	88.88
326.77	92.88
326.999	87.88
327.228	83.88
327.457	83.88
327.686	90.88
327.914	88.88
328.143	92.88
328.372	99.88
328.6	79.88
328.829	75.88
329.058	82.88
329.287	83.88
329.515	80.88
329.744	86.88
329.972	89.88
330.201	97.88
330.43	85.88
330.658	83.88
330.887	87.88
331.115	74.88
331.344	70.88
331.572	104.88
331.801	73.88
332.03	94.88
332.258	87.88
332.486	98.88
332.715	88.88
332.943	86.88
333.172	92.88
333.4	78.88
333.629	79.88
333.857	88.88
334.085	86.88
334.314	90.88
334.542	82.88
334.771	92.88
334.999	77.88
335.227	85.88
335.455	75.88
335.684	75.88
335.912	86.88
336.14	90.88
336.369	98.88
336.597	91.88
336.825	101.88
337.053	81.88
337.281	89.88
337.51	82.88
337.738	75.88
337.966	88.88
338.194	89.88
338.422	82.88
338.65	78.88
338.878	96.88
339.106	79.88
339.334	89.88
339.562	76.88
339.79	80.88
340.018	77.88
340.246	71.88
340.474	89.88
340.702	85.88
340.93	69.88
341.158	80.88
341.386	83.88
341.614	87.88
341.842	70.88
342.07	82.88
342.298	89.88
342.526	89.88
342.754	91.88
342.981	86.88
343.209	68.88
343.437	98.88
343.665	84.88
343.893	90.88
344.12	95.88
344.348	82.88
344.576	81.88
344.804	87.88
345.031	83.88
345.259	77.88
345.487	79.88
345.714	84.88
345.942	83.88
346.17	92.88
346.397	81.88
346.625	82.88
346.853	87.88
347.08	76.88
347.308	88.88
347.535	83.88
347.763	89.88
347.99	68.88
348.218	91.88
348.445	71.88
348.673	87.88
348.9	87.88
349.128	96.88
349.355	83.88
349.583	101.88
349.81	76.88
350.037	76.88
350.265	87.88
350.492	91.88
350.72	74.88
350.947	87.88
351.174	67.88
351.402	98.88
351.629	77.88
351.856	91.88
352.083	73.88
352.311	88.88
352.538	89.88
352.765	89.88
352.992	83.88
353.22	80.88
353.447	88.88
353.674	88.88
353.901	79.88
354.128	91.88
354.355	65.88
354.583	85.88
354.81	82.88
355.037	69.88
355.264	82.88
355.491	99.88
355.718	85.88
355.945	78.88
356.172	49.88
356.399	91.88
356.626	78.88
356.853	86.88
357.08	79.88
357.307	79.88
357.534	93.88
357.761	85.88
357.988	84.88
358.215	85.88
358.441	84.88
358.668	92.88
358.895	84.88
359.122	77.88
359.349	92.88
359.576	84.88
359.802	80.88
360.029	91.88
360.256	85.88
360.483	84.88
360.709	66.88
360.936	99.88
361.163	81.88
361.39	97.88
361.616	87.88
361.843	89.88
362.07	97.88
362.296	91.88
362.523	86.88
362.749	96.88
362.976	93.88
363.203	97.88
363.429	87.88
363.656	99.88
363.882	91.88
364.109	85.88
364.335	97.88
364.562	89.88
364.788	80.88
365.015	81.88
365.241	80.88
365.468	89.88
365.694	74.88
365.92	85.88
366.147	81.88
366.373	73.88
366.599	107.88
366.826	83.88
367.052	87.88
367.278	81.88
367.505	92.88
367.731	95.88
367.957	78.88
368.184	94.88
368.41	87.88
368.636	86.88
368.862	96.88
369.089	75.88
369.315	87.88
369.541	81.88
369.767	87.88
369.993	82.88
370.219	87.88
370.445	73.88
370.672	87.88
370.898	79.88
371.124	75.88
371.35	67.88
371.576	73.88
371.802	83.88
372.028	77.88
372.254	84.88
372.48	102.88
372.706	86.88
372.932	82.88
373.158	91.88
373.384	87.88
373.61	95.88
373.835	61.88
374.061	105.88
374.287	90.88
374.513	81.88
374.739	84.88
374.965	84.88
375.191	85.88
375.416	90.88
375.642	77.88
375.868	80.88
376.094	88.88
376.319	84.88
376.545	79.88
376.771	78.88
376.997	78.88
377.222	75.88
377.448	100.88
377.674	90.88
377.899	77.88
378.125	83.88
378.35	91.88
378.576	89.88
378.802	80.88
379.027	81.88
379.253	77.88
379.478	83.88
379.704	86.88
379.929	90.88
380.155	85.88
380.38	82.88
380.606	77.88
380.831	92.88
381.057	72.88
381.282	89.88
381.507	95.88
381.733	89.88
381.958	86.88
382.184	84.88
382.409	83.88
382.634	88.88
382.86	70.88
383.085	81.88
383.31	85.88
383.535	82.88
383.761	73.88
383.986	90.88
384.211	78.88
384.436	86.88
384.662	75.88
384.887	78.88
385.112	81.88
385.337	75.88
385.562	77.88
385.787	73.88
386.013	103.88
386.238	80.88
386.463	81.88
386.688	96.88
386.913	85.88
387.138	66.88
387.363	79.88
387.588	94.88
387.813	81.88
388.038	81.88
388.263	84.88
388.488	84.88
388.713	88.88
388.938	93.88
389.163	63.88
389.387	66.88
389.612	86.88
389.837	88.88
390.062	93.88
390.287	71.88
390.512	76.88
390.736	82.88
390.961	80.88
391.186	80.88
391.411	77.88
391.636	87.88
391.86	78.88
392.085	91.88
392.31	80.88
392.534	79.88
392.759	83.88
392.984	98.88
393.208	113.88
393.433	132.88
393.658	114.88
393.882	91.88
394.107	87.88
394.331	85.88
394.556	90.88
394.78	87.88
395.005	88.88
395.229	83.88
395.454	86.88
395.678	74.88
395.903	84.88
396.127	94.88
396.352	103.88
396.576	101.88
396.801	107.88
397.025	124.88
397.249	92.88
397.474	84.88
397.698	90.88
397.922	97.88
398.147	84.88
398.371	81.88
398.595	83.88
398.82	97.88
399.044	81.88
399.268	76.88
399.492	77.88
399.717	90.88
399.941	85.88
400.165	82.88
400.389	84.88
400.613	63.88
400.837	81.88
401.062	75.88
401.286	84.88
401.51	83.88
401.734	68.88
401.958	75.88
402.182	79.88
402.406	87.88
402.63	96.88
402.854	81.88
403.078	73.88
403.302	85.88
403.526	94.88
403.75	67.88
403.974	92.88
404.198	95.88
404.422	107.88
404.645	105.88
404.869	105.88
405.093	99.88
405.317	98.88
405.541	83.88
405.765	78.88
405.988	73.88
406.212	82.88
406.436	81.88
406.66	81.88
406.883	73.88
407.107	65.88
407.331	89.88
407.555	86.88
407.778	91.88
408.002	93.88
408.226	70.88
408.449	73.88
408.673	75.88
408.896	78.88
409.12	73.88
409.344	81.88
409.567	86.88
409.791	66.88
410.014	90.88
410.238	88.88
410.461	80.88
410.685	88.88
410.908	83.88
411.132	77.88
411.355	77.88
411.578	92.88
411.802	91.88
412.025	71.88
412.249	86.88
412.472	80.88
412.695	102.88
412.919	76.88
413.142	96.88
413.365	87.88
413.589	98.88
413.812	71.88
414.035	84.88
414.258	79.88
414.482	88.88
414.705	89.88
414.928	82.88
415.151	89.88
415.374	75.88
415.597	81.88
415.821	76.88
416.044	81.88
416.267	89.88
416.49	80.88
416.713	81.88
416.936	84.88
417.159	80.88
417.382	73.88
417.605	91.88
417.828	75.88
418.051	90.88
418.274	73.88
418.497	72.88
418.72	77.88
418.943	91.88
419.166	83.88
419.389	81.88
419.611	76.88
419.834	81.88
420.057	74.88
420.28	95.88
420.503	80.88
420.726	91.88
420.948	96.88
421.171	91.88
421.394	84.88
421.617	85.88
421.839	97.88
422.062	111.88
422.285	122.88
422.507	164.88
422.73	201.88
422.953	174.88
423.175	137.88
423.398	101.88
423.621	98.88
423.843	90.88
424.066	101.88
424.288	84.88
424.511	93.88
424.733	91.88
424.956	91.88
425.178	98.88
425.401	70.88
425.623	80.88
425.846	66.88
426.068	89.88
426.291	90.88
426.513	98.88
426.735	74.88
426.958	79.88
427.18	90.88
427.402	86.88
427.625	89.88
427.847	74.88
428.069	85.88
428.292	86.88
428.514	113.88
428.736	89.88
428.958	93.88
429.181	114.88
429.403	88.88
429.625	89.88
429.847	112.88
430.069	111.88
430.292	113.88
430.514	106.88
430.736	89.88
430.958	93.88
431.18	102.88
431.402	91.88
431.624	88.88
431.846	84.88
432.068	109.88
432.29	94.88
432.512	81.88
432.734	87.88
432.956	93.88
433.178	98.88
433.4	87.88
433.622	100.88
433.844	73.88
434.066	83.88
434.287	89.88
434.509	76.88
434.731	80.88
434.953	70.88
435.175	80.88
435.397	76.88
435.618	91.88
435.84	83.88
436.062	76.88
436.284	73.88
436.505	76.88
436.727	77.88
436.949	87.88
437.17	85.88
437.392	86.88
437.614	79.88
437.835	91.88
438.057	83.88
438.278	83.88
438.5	77.88
438.721	79.88
438.943	82.88
439.165	87.88
439.386	94.88
439.608	99.88
439.829	91.88
440.05	94.88
440.272	73.88
440.493	77.88
440.715	89.88
440.936	73.88
441.158	92.88
441.379	75.88
441.6	91.88
441.822	87.88
442.043	75.88
442.264	84.88
442.486	98.88
442.707	108.88
442.928	87.88
443.149	91.88
443.371	115.88
443.592	146.88
443.813	116.88
444.034	83.88
444.255	81.88
444.476	88.88
444.698	85.88
444.919	63.88
445.14	172.88
445.361	164.88
445.582	169.88
445.803	140.88
446.024	107.88
446.245	91.88
446.466	83.88
446.687	85.88
446.908	86.88
447.129	81.88
447.35	75.88
447.571	82.88
447.792	95.88
448.013	87.88
448.234	96.88
448.455	74.88
448.675	68.88
448.896	86.88
449.117	82.88
449.338	79.88
449.559	96.88
449.779	88.88
450	83.88
450.221	66.88
450.442	76.88
450.662	87.88
450.883	84.88
451.104	87.88
451.324	85.88
451.545	77.88
451.766	94.88
451.986	85.88
452.207	90.88
452.428	112.88
452.648	76.88
452.869	81.88
453.089	88.88
453.31	95.88
453.53	88.88
453.751	81.88
453.971	92.88
454.192	87.88
454.412	95.88
454.633	83.88
454.853	77.88
455.073	88.88
455.294	84.88
455.514	84.88
455.734	64.88
455.955	73.88
456.175	71.88
456.395	86.88
456.616	76.88
456.836	72.88
457.056	85.88
457.276	83.88
457.497	70.88
457.717	78.88
457.937	97.88
458.157	93.88
458.377	105.88
458.598	95.88
458.818	92.88
459.038	78.88
459.258	84.88
459.478	76.88
459.698	77.88
459.918	81.88
460.138	79.88
460.358	84.88
460.578	90.88
460.798	103.88
461.018	105.88
461.238	73.88
461.458	80.88
461.678	75.88
461.898	69.88
462.118	82.88
462.338	87.88
462.558	87.88
462.777	80.88
462.997	75.88
463.217	90.88
463.437	93.88
463.657	88.88
463.876	71.88
464.096	67.88
464.316	78.88
464.536	73.88
464.755	82.88
464.975	90.88
465.195	87.88
465.414	79.88
465.634	79.88
465.854	72.88
466.073	84.88
466.293	86.88
466.512	87.88
466.732	86.88
466.951	67.88
467.171	91.88
467.391	79.88
467.61	85.88
467.829	86.88
468.049	78.88
468.268	83.88
468.488	73.88
468.707	92.88
468.927	87.88
469.146	74.88
469.365	70.88
469.585	77.88
469.804	71.88
470.023	81.88
470.243	88.88
470.462	57.88
470.681	69.88
470.901	81.88
471.12	77.88
471.339	74.88
471.558	97.88
471.777	86.88
471.997	85.88
472.216	80.88
472.435	89.88
472.654	93.88
472.873	80.88
473.092	82.88
473.311	87.88
473.53	74.88
473.749	84.88
473.968	91.88
474.187	85.88
474.406	72.88
474.625	88.88
474.844	78.88
475.063	85.88
475.282	77.88
475.501	76.88
475.72	77.88
475.939	76.88
476.158	84.88
476.377	77.88
476.596	83.88
476.814	91.88
477.033	86.88
477.252	76.88
477.471	95.88
477.69	84.88
477.908	75.88
478.127	90.88
478.346	70.88
478.564	81.88
478.783	81.88
479.002	90.88
479.22	84.88
479.439	92.88
479.658	70.88
479.876	83.88
480.095	73.88
480.313	78.88
480.532	92.88
480.751	88.88
480.969	78.88
481.188	85.88
481.406	83.88
481.624	81.88
481.843	94.88
482.061	78.88
482.28	77.88
482.498	90.88
482.717	92.88
482.935	87.88
483.153	82.88
483.372	87.88
483.59	98.88
483.808	74.88
484.027	76.88
484.245	82.88
484.463	82.88
484.681	102.88
484.9	75.88
485.118	89.88
485.336	96.88
485.554	98.88
485.772	81.88
485.99	77.88
486.209	75.88
486.427	80.88
486.645	90.88
486.863	78.88
487.081	86.88
487.299	88.88
487.517	88.88
487.735	84.88
487.953	101.88
488.171	94.88
488.389	96.88
488.607	90.88
488.825	78.88
489.043	81.88
489.261	81.88
489.479	86.88
489.696	84.88
489.914	83.88
490.132	76.88
490.35	85.88
490.568	92.88
490.786	72.88
491.003	75.88
491.221	73.88
491.439	93.88
491.657	86.88
491.874	80.88
492.092	83.88
492.31	80.88
492.527	73.88
492.745	92.88
492.963	90.88
493.18	92.88
493.398	74.88
493.615	83.88
493.833	64.88
494.05	81.88
494.268	87.88
494.485	93.88
494.703	83.88
494.92	80.88
495.138	89.88
495.355	88.88
495.573	69.88
495.79	77.88
496.008	96.88
496.225	83.88
496.442	83.88
496.66	97.88
496.877	82.88
497.094	87.88
497.312	83.88
497.529	83.88
497.746	88.88
497.963	75.88
498.181	69.88
498.398	85.88
498.615	83.88
498.832	82.88
499.049	87.88
499.267	87.88
499.484	77.88
499.701	75.88
499.918	70.88
500.135	89.88
500.352	80.88
500.569	88.88
500.786	88.88
501.003	80.88
501.22	87.88
501.437	86.88
501.654	87.88
501.871	84.88
502.088	79.88
502.305	68.88
502.522	73.88
502.739	96.88
502.956	99.88
503.172	101.88
503.389	87.88
503.606	87.88
503.823	99.88
504.04	86.88
504.256	90.88
504.473	86.88
504.69	77.88
504.907	89.88
505.123	73.88
505.34	77.88
505.557	83.88
505.773	81.88
505.99	101.88
506.207	77.88
506.423	85.88
506.64	98.88
506.856	81.88
507.073	81.88
507.289	95.88
507.506	83.88
507.722	79.88
507.939	99.88
508.155	81.88
508.372	76.88
508.588	69.88
508.805	72.88
509.021	87.88
509.238	84.88
509.454	76.88
509.67	77.88
509.887	88.88
510.103	72.88
510.319	69.88
510.536	81.88
510.752	88.88
510.968	85.88
511.184	87.88
511.401	80.88
511.617	87.88
511.833	77.88
512.049	78.88
512.265	82.88
512.481	99.88
512.698	98.88
512.914	89.88
513.13	87.88
513.346	88.88
513.562	88.88
513.778	77.88
513.994	83.88
514.21	91.88
514.426	70.88
514.642	87.88
514.858	86.88
515.074	86.88
515.29	89.88
515.506	90.88
515.721	82.88
515.937	69.88
516.153	75.88
516.369	90.88
516.585	89.88
516.801	88.88
517.016	77.88
517.232	86.88
517.448	77.88
517.664	102.88
517.879	81.88
518.095	85.88
518.311	75.88
518.527	73.88
518.742	81.88
518.958	81.88
519.173	111.88
519.389	93.88
