Data from 2145_2_HRD10591_00032.txt Node
Date: Mon Jan 19 14:22:18 EST 2026
User: Yrep
Spectrometer: HR+D1059
Trigger mode: 1
Integration Time (sec): 1.000000E-1
Scans to average: 1
Electric dark correction enabled: true
Nonlinearity correction enabled: false
Boxcar width: 0
XAxis mode: Wavelengths
Number of Pixels in Spectrum: 2048
>>>>>Begin Spectral Data<<<<<
223.165	-18.62
223.4	-18.62
223.635	-18.62
223.869	-27.62
224.104	-19.62
224.338	-18.62
224.573	-17.62
224.808	-9.62
225.042	-1.62
225.277	-14.62
225.511	12.38
225.746	14.38
225.98	-1.62
226.215	14.38
226.449	24.38
226.683	18.38
226.918	20.38
227.152	25.38
227.387	37.38
227.621	43.38
227.856	32.38
228.09	42.38
228.324	44.38
228.559	52.38
228.793	40.38
229.027	60.38
229.262	59.38
229.496	57.38
229.73	62.38
229.964	57.38
230.199	56.38
230.433	64.38
230.667	78.38
230.901	77.38
231.136	70.38
231.37	85.38
231.604	72.38
231.838	78.38
232.072	77.38
232.306	73.38
232.541	63.38
232.775	76.38
233.009	74.38
233.243	82.38
233.477	70.38
233.711	65.38
233.945	75.38
234.179	77.38
234.413	67.38
234.647	69.38
234.881	77.38
235.115	73.38
235.349	76.38
235.583	73.38
235.817	80.38
236.051	80.38
236.285	65.38
236.519	60.38
236.753	84.38
236.987	75.38
237.221	79.38
237.455	77.38
237.689	80.38
237.922	80.38
238.156	75.38
238.39	72.38
238.624	62.38
238.858	84.38
239.091	72.38
239.325	68.38
239.559	72.38
239.793	68.38
240.027	78.38
240.26	76.38
240.494	69.38
240.728	74.38
240.961	79.38
241.195	68.38
241.429	77.38
241.662	69.38
241.896	66.38
242.13	71.38
242.363	76.38
242.597	70.38
242.83	65.38
243.064	74.38
243.298	88.38
243.531	75.38
243.765	98.38
243.998	91.38
244.232	72.38
244.465	74.38
244.699	65.38
244.932	73.38
245.166	70.38
245.399	66.38
245.633	72.38
245.866	85.38
246.099	67.38
246.333	61.38
246.566	66.38
246.8	80.38
247.033	70.38
247.266	59.38
247.5	60.38
247.733	74.38
247.966	88.38
248.2	78.38
248.433	82.38
248.666	77.38
248.899	64.38
249.133	74.38
249.366	90.38
249.599	75.38
249.832	72.38
250.066	64.38
250.299	74.38
250.532	64.38
250.765	65.38
250.998	85.38
251.231	72.38
251.465	87.38
251.698	78.38
251.931	60.38
252.164	82.38
252.397	97.38
252.63	74.38
252.863	69.38
253.096	75.38
253.329	72.38
253.562	72.38
253.795	79.38
254.028	84.38
254.261	84.38
254.494	88.38
254.727	78.38
254.96	75.38
255.193	64.38
255.426	64.38
255.659	70.38
255.892	64.38
256.124	75.38
256.357	72.38
256.59	79.38
256.823	64.38
257.056	84.38
257.289	89.38
257.521	73.38
257.754	69.38
257.987	80.38
258.22	76.38
258.452	93.38
258.685	92.38
258.918	81.38
259.151	79.38
259.383	73.38
259.616	69.38
259.849	75.38
260.081	88.38
260.314	78.38
260.547	73.38
260.779	86.38
261.012	74.38
261.244	73.38
261.477	77.38
261.71	73.38
261.942	84.38
262.175	71.38
262.407	89.38
262.64	89.38
262.872	70.38
263.105	72.38
263.337	79.38
263.57	79.38
263.802	80.38
264.035	79.38
264.267	63.38
264.499	80.38
264.732	78.38
264.964	83.38
265.197	65.38
265.429	69.38
265.661	76.38
265.894	73.38
266.126	78.38
266.358	86.38
266.591	88.38
266.823	78.38
267.055	84.38
267.287	64.38
267.52	78.38
267.752	87.38
267.984	82.38
268.216	72.38
268.448	82.38
268.681	88.38
268.913	89.38
269.145	79.38
269.377	76.38
269.609	76.38
269.841	67.38
270.073	93.38
270.306	74.38
270.538	75.38
270.77	72.38
271.002	79.38
271.234	74.38
271.466	79.38
271.698	88.38
271.93	75.38
272.162	89.38
272.394	84.38
272.626	86.38
272.858	81.38
273.09	68.38
273.322	78.38
273.553	68.38
273.785	86.38
274.017	89.38
274.249	79.38
274.481	78.38
274.713	74.38
274.945	75.38
275.176	72.38
275.408	86.38
275.64	76.38
275.872	69.38
276.104	76.38
276.335	71.38
276.567	87.38
276.799	88.38
277.031	68.38
277.262	73.38
277.494	80.38
277.726	75.38
277.957	93.38
278.189	63.38
278.421	75.38
278.652	89.38
278.884	80.38
279.115	89.38
279.347	94.38
279.579	76.38
279.81	71.38
280.042	67.38
280.273	73.38
280.505	78.38
280.736	81.38
280.968	84.38
281.199	88.38
281.431	86.38
281.662	84.38
281.894	80.38
282.125	74.38
282.356	80.38
282.588	83.38
282.819	81.38
283.051	92.38
283.282	64.38
283.513	85.38
283.745	84.38
283.976	68.38
284.207	80.38
284.439	80.38
284.67	75.38
284.901	77.38
285.132	71.38
285.364	88.38
285.595	88.38
285.826	79.38
286.057	85.38
286.288	88.38
286.52	79.38
286.751	98.38
286.982	87.38
287.213	75.38
287.444	90.38
287.675	68.38
287.906	83.38
288.138	79.38
288.369	82.38
288.6	84.38
288.831	82.38
289.062	81.38
289.293	70.38
289.524	79.38
289.755	87.38
289.986	77.38
290.217	83.38
290.448	82.38
290.679	78.38
290.91	66.38
291.141	77.38
291.371	79.38
291.602	82.38
291.833	85.38
292.064	72.38
292.295	71.38
292.526	81.38
292.757	93.38
292.987	77.38
293.218	66.38
293.449	63.38
293.68	72.38
293.91	75.38
294.141	84.38
294.372	77.38
294.603	65.38
294.833	88.38
295.064	93.38
295.295	90.38
295.525	87.38
295.756	90.38
295.987	56.38
296.217	73.38
296.448	76.38
296.679	86.38
296.909	79.38
297.14	73.38
297.37	78.38
297.601	93.38
297.831	90.38
298.062	82.38
298.292	70.38
298.523	82.38
298.753	81.38
298.984	87.38
299.214	85.38
299.445	91.38
299.675	71.38
299.905	73.38
300.136	69.38
300.366	64.38
300.597	89.38
300.827	86.38
301.057	76.38
301.288	70.38
301.518	70.38
301.748	78.38
301.979	91.38
302.209	83.38
302.439	83.38
302.669	82.38
302.9	72.38
303.13	76.38
303.36	75.38
303.59	81.38
303.82	96.38
304.051	83.38
304.281	86.38
304.511	81.38
304.741	90.38
304.971	74.38
305.201	95.38
305.431	74.38
305.661	74.38
305.891	80.38
306.121	74.38
306.352	83.38
306.582	104.38
306.812	80.38
307.042	88.38
307.272	77.38
307.502	73.38
307.731	84.38
307.961	74.38
308.191	71.38
308.421	76.38
308.651	80.38
308.881	76.38
309.111	87.38
309.341	87.38
309.571	76.38
309.8	76.38
310.03	82.38
310.26	82.38
310.49	85.38
310.72	87.38
310.949	85.38
311.179	74.38
311.409	87.38
311.639	85.38
311.868	89.38
312.098	79.38
312.328	80.38
312.557	83.38
312.787	86.38
313.017	101.38
313.246	84.38
313.476	82.38
313.706	84.38
313.935	77.38
314.165	91.38
314.394	89.38
314.624	71.38
314.853	85.38
315.083	77.38
315.312	88.38
315.542	74.38
315.771	86.38
316.001	85.38
316.23	91.38
316.46	75.38
316.689	88.38
316.919	70.38
317.148	81.38
317.377	70.38
317.607	87.38
317.836	94.38
318.065	89.38
318.295	90.38
318.524	86.38
318.753	82.38
318.983	82.38
319.212	71.38
319.441	92.38
319.67	84.38
319.9	82.38
320.129	79.38
320.358	89.38
320.587	85.38
320.816	88.38
321.046	87.38
321.275	95.38
321.504	87.38
321.733	84.38
321.962	95.38
322.191	84.38
322.42	77.38
322.649	92.38
322.878	87.38
323.108	90.38
323.337	65.38
323.566	84.38
323.795	77.38
324.024	77.38
324.253	83.38
324.482	81.38
324.71	81.38
324.939	89.38
325.168	86.38
325.397	86.38
325.626	85.38
325.855	78.38
326.084	82.38
326.313	61.38
326.542	84.38
326.77	78.38
326.999	88.38
327.228	76.38
327.457	85.38
327.686	90.38
327.914	86.38
328.143	85.38
328.372	64.38
328.6	80.38
328.829	75.38
329.058	81.38
329.287	89.38
329.515	74.38
329.744	85.38
329.972	97.38
330.201	89.38
330.43	81.38
330.658	79.38
330.887	92.38
331.115	73.38
331.344	82.38
331.572	86.38
331.801	75.38
332.03	80.38
332.258	90.38
332.486	75.38
332.715	89.38
332.943	89.38
333.172	81.38
333.4	76.38
333.629	87.38
333.857	70.38
334.085	86.38
334.314	83.38
334.542	97.38
334.771	85.38
334.999	87.38
335.227	84.38
335.455	85.38
335.684	84.38
335.912	93.38
336.14	85.38
336.369	73.38
336.597	85.38
336.825	80.38
337.053	83.38
337.281	80.38
337.51	92.38
337.738	92.38
337.966	74.38
338.194	94.38
338.422	78.38
338.65	87.38
338.878	82.38
339.106	78.38
339.334	93.38
339.562	68.38
339.79	85.38
340.018	73.38
340.246	83.38
340.474	73.38
340.702	88.38
340.93	72.38
341.158	70.38
341.386	86.38
341.614	89.38
341.842	84.38
342.07	76.38
342.298	92.38
342.526	82.38
342.754	76.38
342.981	73.38
343.209	90.38
343.437	99.38
343.665	88.38
343.893	80.38
344.12	91.38
344.348	77.38
344.576	85.38
344.804	87.38
345.031	81.38
345.259	92.38
345.487	83.38
345.714	85.38
345.942	90.38
346.17	88.38
346.397	77.38
346.625	88.38
346.853	81.38
347.08	81.38
347.308	84.38
347.535	92.38
347.763	84.38
347.99	79.38
348.218	82.38
348.445	78.38
348.673	83.38
348.9	86.38
349.128	81.38
349.355	92.38
349.583	82.38
349.81	77.38
350.037	84.38
350.265	70.38
350.492	87.38
350.72	81.38
350.947	73.38
351.174	74.38
351.402	85.38
351.629	65.38
351.856	66.38
352.083	72.38
352.311	87.38
352.538	84.38
352.765	85.38
352.992	81.38
353.22	69.38
353.447	88.38
353.674	86.38
353.901	93.38
354.128	83.38
354.355	86.38
354.583	67.38
354.81	81.38
355.037	84.38
355.264	94.38
355.491	81.38
355.718	82.38
355.945	90.38
356.172	82.38
356.399	73.38
356.626	96.38
356.853	77.38
357.08	73.38
357.307	70.38
357.534	82.38
357.761	81.38
357.988	90.38
358.215	93.38
358.441	75.38
358.668	72.38
358.895	73.38
359.122	82.38
359.349	75.38
359.576	80.38
359.802	74.38
360.029	88.38
360.256	85.38
360.483	80.38
360.709	80.38
360.936	80.38
361.163	90.38
361.39	76.38
361.616	72.38
361.843	82.38
362.07	109.38
362.296	93.38
362.523	95.38
362.749	94.38
362.976	124.38
363.203	116.38
363.429	101.38
363.656	86.38
363.882	85.38
364.109	121.38
364.335	126.38
364.562	128.38
364.788	100.38
365.015	100.38
365.241	78.38
365.468	79.38
365.694	72.38
365.92	83.38
366.147	86.38
366.373	101.38
366.599	82.38
366.826	82.38
367.052	74.38
367.278	74.38
367.505	72.38
367.731	86.38
367.957	71.38
368.184	74.38
368.41	92.38
368.636	85.38
368.862	76.38
369.089	78.38
369.315	75.38
369.541	79.38
369.767	77.38
369.993	79.38
370.219	81.38
370.445	92.38
370.672	79.38
370.898	94.38
371.124	76.38
371.35	76.38
371.576	82.38
371.802	87.38
372.028	80.38
372.254	88.38
372.48	85.38
372.706	75.38
372.932	80.38
373.158	78.38
373.384	66.38
373.61	79.38
373.835	89.38
374.061	75.38
374.287	89.38
374.513	77.38
374.739	86.38
374.965	93.38
375.191	89.38
375.416	90.38
375.642	90.38
375.868	101.38
376.094	77.38
376.319	80.38
376.545	83.38
376.771	82.38
376.997	84.38
377.222	88.38
377.448	72.38
377.674	85.38
377.899	96.38
378.125	97.38
378.35	71.38
378.576	82.38
378.802	67.38
379.027	76.38
379.253	79.38
379.478	69.38
379.704	72.38
379.929	82.38
380.155	82.38
380.38	84.38
380.606	83.38
380.831	97.38
381.057	94.38
381.282	97.38
381.507	65.38
381.733	89.38
381.958	80.38
382.184	99.38
382.409	87.38
382.634	80.38
382.86	82.38
383.085	94.38
383.31	93.38
383.535	87.38
383.761	92.38
383.986	81.38
384.211	80.38
384.436	82.38
384.662	73.38
384.887	89.38
385.112	88.38
385.337	88.38
385.562	80.38
385.787	83.38
386.013	88.38
386.238	78.38
386.463	92.38
386.688	93.38
386.913	70.38
387.138	81.38
387.363	84.38
387.588	87.38
387.813	101.38
388.038	82.38
388.263	95.38
388.488	80.38
388.713	78.38
388.938	84.38
389.163	85.38
389.387	88.38
389.612	79.38
389.837	90.38
390.062	85.38
390.287	78.38
390.512	82.38
390.736	92.38
390.961	86.38
391.186	86.38
391.411	83.38
391.636	94.38
391.86	91.38
392.085	80.38
392.31	96.38
392.534	86.38
392.759	102.38
392.984	115.38
393.208	174.38
393.433	206.38
393.658	161.38
393.882	108.38
394.107	106.38
394.331	102.38
394.556	104.38
394.78	100.38
395.005	87.38
395.229	94.38
395.454	80.38
395.678	103.38
395.903	112.38
396.127	107.38
396.352	120.38
396.576	120.38
396.801	174.38
397.025	165.38
397.249	124.38
397.474	98.38
397.698	97.38
397.922	94.38
398.147	77.38
398.371	97.38
398.595	81.38
398.82	72.38
399.044	78.38
399.268	76.38
399.492	73.38
399.717	78.38
399.941	83.38
400.165	86.38
400.389	76.38
400.613	80.38
400.837	77.38
401.062	86.38
401.286	80.38
401.51	79.38
401.734	74.38
401.958	76.38
402.182	62.38
402.406	79.38
402.63	91.38
402.854	83.38
403.078	86.38
403.302	64.38
403.526	86.38
403.75	90.38
403.974	86.38
404.198	92.38
404.422	96.38
404.645	121.38
404.869	103.38
405.093	90.38
405.317	90.38
405.541	75.38
405.765	86.38
405.988	69.38
406.212	73.38
406.436	78.38
406.66	110.38
406.883	86.38
407.107	81.38
407.331	90.38
407.555	94.38
407.778	97.38
408.002	102.38
408.226	82.38
408.449	69.38
408.673	87.38
408.896	82.38
409.12	95.38
409.344	87.38
409.567	87.38
409.791	92.38
410.014	87.38
410.238	83.38
410.461	83.38
410.685	72.38
410.908	79.38
411.132	91.38
411.355	83.38
411.578	78.38
411.802	76.38
412.025	74.38
412.249	78.38
412.472	85.38
412.695	74.38
412.919	94.38
413.142	86.38
413.365	83.38
413.589	62.38
413.812	87.38
414.035	82.38
414.258	88.38
414.482	73.38
414.705	76.38
414.928	85.38
415.151	84.38
415.374	70.38
415.597	79.38
415.821	93.38
416.044	62.38
416.267	71.38
416.49	82.38
416.713	85.38
416.936	80.38
417.159	83.38
417.382	84.38
417.605	79.38
417.828	74.38
418.051	90.38
418.274	74.38
418.497	83.38
418.72	82.38
418.943	84.38
419.166	74.38
419.389	88.38
419.611	89.38
419.834	89.38
420.057	85.38
420.28	77.38
420.503	72.38
420.726	92.38
420.948	83.38
421.171	96.38
421.394	116.38
421.617	110.38
421.839	101.38
422.062	113.38
422.285	160.38
422.507	237.38
422.73	318.38
422.953	277.38
423.175	193.38
423.398	136.38
423.621	121.38
423.843	104.38
424.066	92.38
424.288	99.38
424.511	88.38
424.733	91.38
424.956	99.38
425.178	81.38
425.401	90.38
425.623	75.38
425.846	85.38
426.068	96.38
426.291	77.38
426.513	88.38
426.735	74.38
426.958	83.38
427.18	86.38
427.402	83.38
427.625	84.38
427.847	101.38
428.069	80.38
428.292	117.38
428.514	138.38
428.736	101.38
428.958	106.38
429.181	106.38
429.403	92.38
429.625	99.38
429.847	128.38
430.069	151.38
430.292	156.38
430.514	140.38
430.736	118.38
430.958	140.38
431.18	90.38
431.402	85.38
431.624	92.38
431.846	119.38
432.068	126.38
432.29	84.38
432.512	92.38
432.734	70.38
432.956	89.38
433.178	93.38
433.4	81.38
433.622	73.38
433.844	96.38
434.066	80.38
434.287	72.38
434.509	78.38
434.731	77.38
434.953	84.38
435.175	81.38
435.397	81.38
435.618	74.38
435.84	98.38
436.062	79.38
436.284	92.38
436.505	75.38
436.727	81.38
436.949	81.38
437.17	101.38
437.392	78.38
437.614	81.38
437.835	77.38
438.057	83.38
438.278	74.38
438.5	81.38
438.721	86.38
438.943	81.38
439.165	74.38
439.386	83.38
439.608	86.38
439.829	72.38
440.05	79.38
440.272	81.38
440.493	77.38
440.715	88.38
440.936	76.38
441.158	99.38
441.379	65.38
441.6	81.38
441.822	87.38
442.043	88.38
442.264	91.38
442.486	126.38
442.707	158.38
442.928	130.38
443.149	109.38
443.371	134.38
443.592	228.38
443.813	202.38
444.034	105.38
444.255	95.38
444.476	100.38
444.698	83.38
444.919	93.38
445.14	185.38
445.361	198.38
445.582	261.38
445.803	217.38
446.024	112.38
446.245	107.38
446.466	86.38
446.687	84.38
446.908	69.38
447.129	83.38
447.35	79.38
447.571	80.38
447.792	77.38
448.013	78.38
448.234	92.38
448.455	88.38
448.675	88.38
448.896	77.38
449.117	71.38
449.338	82.38
449.559	75.38
449.779	84.38
450	95.38
450.221	80.38
450.442	66.38
450.662	87.38
450.883	72.38
451.104	73.38
451.324	84.38
451.545	96.38
451.766	89.38
451.986	68.38
452.207	74.38
452.428	87.38
452.648	81.38
452.869	91.38
453.089	85.38
453.31	75.38
453.53	82.38
453.751	83.38
453.971	80.38
454.192	96.38
454.412	72.38
454.633	84.38
454.853	71.38
455.073	82.38
455.294	72.38
455.514	69.38
455.734	77.38
455.955	84.38
456.175	80.38
456.395	84.38
456.616	75.38
456.836	85.38
457.056	72.38
457.276	68.38
457.497	86.38
457.717	86.38
457.937	96.38
458.157	102.38
458.377	117.38
458.598	107.38
458.818	124.38
459.038	78.38
459.258	73.38
459.478	80.38
459.698	71.38
459.918	77.38
460.138	84.38
460.358	95.38
460.578	86.38
460.798	112.38
461.018	104.38
461.238	85.38
461.458	78.38
461.678	81.38
461.898	84.38
462.118	93.38
462.338	74.38
462.558	73.38
462.777	94.38
462.997	89.38
463.217	81.38
463.437	74.38
463.657	76.38
463.876	88.38
464.096	82.38
464.316	82.38
464.536	70.38
464.755	92.38
464.975	79.38
465.195	82.38
465.414	80.38
465.634	85.38
465.854	82.38
466.073	80.38
466.293	81.38
466.512	77.38
466.732	77.38
466.951	86.38
467.171	79.38
467.391	88.38
467.61	85.38
467.829	91.38
468.049	88.38
468.268	82.38
468.488	88.38
468.707	89.38
468.927	75.38
469.146	75.38
469.365	73.38
469.585	83.38
469.804	84.38
470.023	95.38
470.243	89.38
470.462	92.38
470.681	97.38
470.901	67.38
471.12	87.38
471.339	80.38
471.558	85.38
471.777	83.38
471.997	77.38
472.216	77.38
472.435	86.38
472.654	84.38
472.873	71.38
473.092	67.38
473.311	84.38
473.53	83.38
473.749	85.38
473.968	80.38
474.187	84.38
474.406	78.38
474.625	80.38
474.844	81.38
475.063	81.38
475.282	83.38
475.501	80.38
475.72	82.38
475.939	72.38
476.158	77.38
476.377	76.38
476.596	78.38
476.814	84.38
477.033	71.38
477.252	77.38
477.471	80.38
477.69	95.38
477.908	84.38
478.127	95.38
478.346	86.38
478.564	69.38
478.783	75.38
479.002	84.38
479.22	90.38
479.439	95.38
479.658	84.38
479.876	64.38
480.095	87.38
480.313	91.38
480.532	96.38
480.751	91.38
480.969	79.38
481.188	82.38
481.406	88.38
481.624	76.38
481.843	81.38
482.061	77.38
482.28	81.38
482.498	75.38
482.717	97.38
482.935	90.38
483.153	81.38
483.372	84.38
483.59	85.38
483.808	101.38
484.027	87.38
484.245	89.38
484.463	94.38
484.681	94.38
484.9	77.38
485.118	81.38
485.336	61.38
485.554	100.38
485.772	77.38
485.99	81.38
486.209	85.38
486.427	83.38
486.645	91.38
486.863	76.38
487.081	80.38
487.299	88.38
487.517	94.38
487.735	109.38
487.953	167.38
488.171	144.38
488.389	93.38
488.607	76.38
488.825	86.38
489.043	89.38
489.261	77.38
489.479	77.38
489.696	75.38
489.914	88.38
490.132	81.38
490.35	92.38
490.568	95.38
490.786	88.38
491.003	90.38
491.221	90.38
491.439	86.38
491.657	69.38
491.874	80.38
492.092	88.38
492.31	79.38
492.527	95.38
492.745	93.38
492.963	80.38
493.18	88.38
493.398	81.38
493.615	73.38
493.833	86.38
494.05	72.38
494.268	84.38
494.485	90.38
494.703	80.38
494.92	81.38
495.138	78.38
495.355	81.38
495.573	81.38
495.79	86.38
496.008	86.38
496.225	96.38
496.442	102.38
496.66	90.38
496.877	85.38
497.094	82.38
497.312	76.38
497.529	82.38
497.746	85.38
497.963	76.38
498.181	89.38
498.398	78.38
498.615	108.38
498.832	93.38
499.049	99.38
499.267	80.38
499.484	89.38
499.701	87.38
499.918	93.38
500.135	85.38
500.352	89.38
500.569	82.38
500.786	92.38
501.003	79.38
501.22	88.38
501.437	86.38
501.654	87.38
501.871	93.38
502.088	84.38
502.305	78.38
502.522	74.38
502.739	82.38
502.956	77.38
503.172	96.38
503.389	80.38
503.606	98.38
503.823	69.38
504.04	99.38
504.256	133.38
504.473	125.38
504.69	93.38
504.907	86.38
505.123	79.38
505.34	90.38
505.557	84.38
505.773	75.38
505.99	93.38
506.207	78.38
506.423	72.38
506.64	90.38
506.856	79.38
507.073	88.38
507.289	83.38
507.506	84.38
507.722	70.38
507.939	77.38
508.155	87.38
508.372	81.38
508.588	97.38
508.805	84.38
509.021	69.38
509.238	84.38
509.454	82.38
509.67	86.38
509.887	79.38
510.103	74.38
510.319	92.38
510.536	72.38
510.752	74.38
510.968	78.38
511.184	84.38
511.401	82.38
511.617	96.38
511.833	94.38
512.049	80.38
512.265	76.38
512.481	75.38
512.698	74.38
512.914	82.38
513.13	95.38
513.346	86.38
513.562	89.38
513.778	77.38
513.994	84.38
514.21	72.38
514.426	93.38
514.642	65.38
514.858	87.38
515.074	90.38
515.29	89.38
515.506	84.38
515.721	95.38
515.937	80.38
516.153	96.38
516.369	85.38
516.585	84.38
516.801	87.38
517.016	80.38
517.232	74.38
517.448	82.38
517.664	95.38
517.879	75.38
518.095	80.38
518.311	70.38
518.527	92.38
518.742	112.38
518.958	130.38
