Data from 2145_2_HRD10591_00040.txt Node
Date: Mon Jan 19 14:22:22 EST 2026
User: Yrep
Spectrometer: HR+D1059
Trigger mode: 1
Integration Time (sec): 1.000000E-1
Scans to average: 1
Electric dark correction enabled: true
Nonlinearity correction enabled: false
Boxcar width: 0
XAxis mode: Wavelengths
Number of Pixels in Spectrum: 2048
>>>>>Begin Spectral Data<<<<<
223.165	-27.88
223.4	-27.88
223.635	-27.88
223.869	-12.88
224.104	-9.88
224.338	-9.88
224.573	-20.88
224.808	-14.88
225.042	1.12
225.277	8.12
225.511	-4.88
225.746	-4.88
225.98	7.12
226.215	15.12
226.449	5.12
226.683	20.12
226.918	21.12
227.152	28.12
227.387	32.12
227.621	48.12
227.856	39.12
228.09	59.12
228.324	49.12
228.559	35.12
228.793	43.12
229.027	67.12
229.262	58.12
229.496	69.12
229.73	75.12
229.964	76.12
230.199	76.12
230.433	72.12
230.667	69.12
230.901	78.12
231.136	75.12
231.37	78.12
231.604	72.12
231.838	89.12
232.072	78.12
232.306	75.12
232.541	76.12
232.775	81.12
233.009	85.12
233.243	85.12
233.477	85.12
233.711	83.12
233.945	70.12
234.179	87.12
234.413	74.12
234.647	68.12
234.881	77.12
235.115	85.12
235.349	72.12
235.583	68.12
235.817	86.12
236.051	78.12
236.285	61.12
236.519	65.12
236.753	71.12
236.987	74.12
237.221	87.12
237.455	81.12
237.689	77.12
237.922	71.12
238.156	72.12
238.39	88.12
238.624	73.12
238.858	75.12
239.091	84.12
239.325	76.12
239.559	77.12
239.793	73.12
240.027	75.12
240.26	77.12
240.494	71.12
240.728	73.12
240.961	80.12
241.195	68.12
241.429	69.12
241.662	88.12
241.896	75.12
242.13	65.12
242.363	82.12
242.597	83.12
242.83	80.12
243.064	61.12
243.298	72.12
243.531	78.12
243.765	89.12
243.998	75.12
244.232	77.12
244.465	71.12
244.699	81.12
244.932	77.12
245.166	61.12
245.399	68.12
245.633	76.12
245.866	90.12
246.099	71.12
246.333	81.12
246.566	73.12
246.8	78.12
247.033	66.12
247.266	61.12
247.5	76.12
247.733	77.12
247.966	70.12
248.2	85.12
248.433	73.12
248.666	70.12
248.899	77.12
249.133	76.12
249.366	76.12
249.599	74.12
249.832	77.12
250.066	87.12
250.299	68.12
250.532	80.12
250.765	74.12
250.998	85.12
251.231	78.12
251.465	61.12
251.698	82.12
251.931	88.12
252.164	92.12
252.397	78.12
252.63	82.12
252.863	69.12
253.096	86.12
253.329	76.12
253.562	80.12
253.795	89.12
254.028	76.12
254.261	81.12
254.494	86.12
254.727	99.12
254.96	67.12
255.193	82.12
255.426	78.12
255.659	88.12
255.892	89.12
256.124	76.12
256.357	80.12
256.59	91.12
256.823	72.12
257.056	78.12
257.289	82.12
257.521	82.12
257.754	96.12
257.987	99.12
258.22	80.12
258.452	73.12
258.685	76.12
258.918	71.12
259.151	78.12
259.383	79.12
259.616	92.12
259.849	79.12
260.081	76.12
260.314	86.12
260.547	83.12
260.779	85.12
261.012	77.12
261.244	80.12
261.477	75.12
261.71	85.12
261.942	77.12
262.175	77.12
262.407	74.12
262.64	88.12
262.872	82.12
263.105	88.12
263.337	97.12
263.57	87.12
263.802	97.12
264.035	63.12
264.267	91.12
264.499	75.12
264.732	82.12
264.964	72.12
265.197	71.12
265.429	66.12
265.661	87.12
265.894	82.12
266.126	88.12
266.358	75.12
266.591	75.12
266.823	65.12
267.055	76.12
267.287	83.12
267.52	84.12
267.752	81.12
267.984	72.12
268.216	91.12
268.448	91.12
268.681	77.12
268.913	69.12
269.145	96.12
269.377	76.12
269.609	91.12
269.841	96.12
270.073	79.12
270.306	91.12
270.538	94.12
270.77	85.12
271.002	85.12
271.234	76.12
271.466	89.12
271.698	76.12
271.93	78.12
272.162	76.12
272.394	84.12
272.626	75.12
272.858	78.12
273.09	77.12
273.322	91.12
273.553	83.12
273.785	79.12
274.017	103.12
274.249	84.12
274.481	81.12
274.713	74.12
274.945	73.12
275.176	90.12
275.408	85.12
275.64	87.12
275.872	97.12
276.104	90.12
276.335	76.12
276.567	92.12
276.799	77.12
277.031	76.12
277.262	84.12
277.494	92.12
277.726	82.12
277.957	70.12
278.189	77.12
278.421	83.12
278.652	72.12
278.884	83.12
279.115	73.12
279.347	75.12
279.579	92.12
279.81	86.12
280.042	93.12
280.273	79.12
280.505	81.12
280.736	75.12
280.968	77.12
281.199	75.12
281.431	70.12
281.662	83.12
281.894	77.12
282.125	77.12
282.356	69.12
282.588	78.12
282.819	85.12
283.051	99.12
283.282	74.12
283.513	87.12
283.745	87.12
283.976	75.12
284.207	81.12
284.439	74.12
284.67	85.12
284.901	83.12
285.132	87.12
285.364	88.12
285.595	98.12
285.826	83.12
286.057	82.12
286.288	85.12
286.52	82.12
286.751	73.12
286.982	89.12
287.213	82.12
287.444	101.12
287.675	84.12
287.906	83.12
288.138	99.12
288.369	98.12
288.6	96.12
288.831	80.12
289.062	91.12
289.293	92.12
289.524	89.12
289.755	78.12
289.986	85.12
290.217	95.12
290.448	97.12
290.679	86.12
290.91	101.12
291.141	98.12
291.371	86.12
291.602	89.12
291.833	91.12
292.064	84.12
292.295	81.12
292.526	83.12
292.757	91.12
292.987	86.12
293.218	92.12
293.449	83.12
293.68	81.12
293.91	81.12
294.141	81.12
294.372	98.12
294.603	88.12
294.833	89.12
295.064	81.12
295.295	92.12
295.525	80.12
295.756	92.12
295.987	90.12
296.217	87.12
296.448	87.12
296.679	77.12
296.909	93.12
297.14	89.12
297.37	77.12
297.601	84.12
297.831	81.12
298.062	86.12
298.292	88.12
298.523	90.12
298.753	91.12
298.984	86.12
299.214	87.12
299.445	101.12
299.675	112.12
299.905	107.12
300.136	92.12
300.366	92.12
300.597	92.12
300.827	99.12
301.057	103.12
301.288	93.12
301.518	89.12
301.748	77.12
301.979	101.12
302.209	95.12
302.439	86.12
302.669	97.12
302.9	87.12
303.13	103.12
303.36	107.12
303.59	89.12
303.82	84.12
304.051	93.12
304.281	97.12
304.511	89.12
304.741	79.12
304.971	89.12
305.201	77.12
305.431	88.12
305.661	91.12
305.891	91.12
306.121	86.12
306.352	89.12
306.582	94.12
306.812	91.12
307.042	92.12
307.272	87.12
307.502	84.12
307.731	93.12
307.961	85.12
308.191	94.12
308.421	115.12
308.651	100.12
308.881	95.12
309.111	104.12
309.341	123.12
309.571	101.12
309.8	102.12
310.03	86.12
310.26	89.12
310.49	97.12
310.72	69.12
310.949	75.12
311.179	87.12
311.409	90.12
311.639	93.12
311.868	90.12
312.098	96.12
312.328	85.12
312.557	96.12
312.787	80.12
313.017	96.12
313.246	91.12
313.476	91.12
313.706	96.12
313.935	87.12
314.165	91.12
314.394	87.12
314.624	92.12
314.853	84.12
315.083	97.12
315.312	81.12
315.542	89.12
315.771	109.12
316.001	104.12
316.23	108.12
316.46	100.12
316.689	92.12
316.919	92.12
317.148	112.12
317.377	98.12
317.607	83.12
317.836	84.12
318.065	119.12
318.295	98.12
318.524	104.12
318.753	99.12
318.983	87.12
319.212	84.12
319.441	95.12
319.67	90.12
319.9	93.12
320.129	97.12
320.358	98.12
320.587	95.12
320.816	95.12
321.046	97.12
321.275	87.12
321.504	100.12
321.733	102.12
321.962	113.12
322.191	94.12
322.42	103.12
322.649	100.12
322.878	87.12
323.108	108.12
323.337	84.12
323.566	85.12
323.795	92.12
324.024	84.12
324.253	84.12
324.482	90.12
324.71	106.12
324.939	92.12
325.168	97.12
325.397	98.12
325.626	103.12
325.855	91.12
326.084	101.12
326.313	87.12
326.542	84.12
326.77	86.12
326.999	81.12
327.228	89.12
327.457	90.12
327.686	75.12
327.914	99.12
328.143	94.12
328.372	97.12
328.6	92.12
328.829	91.12
329.058	80.12
329.287	87.12
329.515	84.12
329.744	87.12
329.972	96.12
330.201	103.12
330.43	113.12
330.658	106.12
330.887	95.12
331.115	87.12
331.344	102.12
331.572	95.12
331.801	87.12
332.03	92.12
332.258	81.12
332.486	75.12
332.715	91.12
332.943	94.12
333.172	79.12
333.4	86.12
333.629	100.12
333.857	101.12
334.085	90.12
334.314	112.12
334.542	102.12
334.771	113.12
334.999	96.12
335.227	95.12
335.455	100.12
335.684	121.12
335.912	105.12
336.14	115.12
336.369	113.12
336.597	96.12
336.825	87.12
337.053	87.12
337.281	104.12
337.51	100.12
337.738	105.12
337.966	86.12
338.194	106.12
338.422	92.12
338.65	96.12
338.878	84.12
339.106	93.12
339.334	105.12
339.562	93.12
339.79	86.12
340.018	104.12
340.246	93.12
340.474	86.12
340.702	108.12
340.93	95.12
341.158	99.12
341.386	91.12
341.614	94.12
341.842	107.12
342.07	75.12
342.298	95.12
342.526	81.12
342.754	97.12
342.981	101.12
343.209	88.12
343.437	104.12
343.665	98.12
343.893	105.12
344.12	97.12
344.348	90.12
344.576	115.12
344.804	121.12
345.031	103.12
345.259	97.12
345.487	92.12
345.714	89.12
345.942	88.12
346.17	76.12
346.397	93.12
346.625	102.12
346.853	107.12
347.08	84.12
347.308	76.12
347.535	91.12
347.763	97.12
347.99	100.12
348.218	94.12
348.445	99.12
348.673	105.12
348.9	84.12
349.128	95.12
349.355	102.12
349.583	95.12
349.81	99.12
350.037	87.12
350.265	81.12
350.492	87.12
350.72	81.12
350.947	95.12
351.174	99.12
351.402	94.12
351.629	97.12
351.856	95.12
352.083	92.12
352.311	99.12
352.538	90.12
352.765	75.12
352.992	98.12
353.22	105.12
353.447	99.12
353.674	88.12
353.901	87.12
354.128	77.12
354.355	83.12
354.583	79.12
354.81	94.12
355.037	75.12
355.264	86.12
355.491	97.12
355.718	92.12
355.945	81.12
356.172	80.12
356.399	101.12
356.626	96.12
356.853	101.12
357.08	86.12
357.307	81.12
357.534	88.12
357.761	85.12
357.988	91.12
358.215	101.12
358.441	91.12
358.668	89.12
358.895	96.12
359.122	87.12
359.349	90.12
359.576	84.12
359.802	96.12
360.029	91.12
360.256	99.12
360.483	89.12
360.709	91.12
360.936	109.12
361.163	106.12
361.39	108.12
361.616	103.12
361.843	99.12
362.07	121.12
362.296	138.12
362.523	151.12
362.749	175.12
362.976	185.12
363.203	187.12
363.429	152.12
363.656	143.12
363.882	145.12
364.109	193.12
364.335	247.12
364.562	235.12
364.788	155.12
365.015	127.12
365.241	122.12
365.468	104.12
365.694	103.12
365.92	97.12
366.147	93.12
366.373	95.12
366.599	100.12
366.826	88.12
367.052	100.12
367.278	111.12
367.505	84.12
367.731	113.12
367.957	97.12
368.184	92.12
368.41	99.12
368.636	93.12
368.862	87.12
369.089	88.12
369.315	78.12
369.541	90.12
369.767	85.12
369.993	105.12
370.219	82.12
370.445	97.12
370.672	99.12
370.898	96.12
371.124	97.12
371.35	99.12
371.576	93.12
371.802	84.12
372.028	102.12
372.254	103.12
372.48	97.12
372.706	90.12
372.932	98.12
373.158	96.12
373.384	117.12
373.61	117.12
373.835	119.12
374.061	106.12
374.287	102.12
374.513	116.12
374.739	103.12
374.965	116.12
375.191	107.12
375.416	94.12
375.642	114.12
375.868	108.12
376.094	103.12
376.319	93.12
376.545	96.12
376.771	101.12
376.997	98.12
377.222	101.12
377.448	88.12
377.674	97.12
377.899	97.12
378.125	111.12
378.35	91.12
378.576	97.12
378.802	79.12
379.027	101.12
379.253	99.12
379.478	98.12
379.704	101.12
379.929	92.12
380.155	99.12
380.38	86.12
380.606	87.12
380.831	93.12
381.057	92.12
381.282	90.12
381.507	103.12
381.733	91.12
381.958	103.12
382.184	97.12
382.409	96.12
382.634	104.12
382.86	112.12
383.085	119.12
383.31	117.12
383.535	99.12
383.761	117.12
383.986	115.12
384.211	109.12
384.436	107.12
384.662	100.12
384.887	96.12
385.112	106.12
385.337	92.12
385.562	100.12
385.787	119.12
386.013	117.12
386.238	121.12
386.463	110.12
386.688	111.12
386.913	103.12
387.138	118.12
387.363	106.12
387.588	121.12
387.813	111.12
388.038	115.12
388.263	131.12
388.488	111.12
388.713	102.12
388.938	115.12
389.163	107.12
389.387	102.12
389.612	106.12
389.837	103.12
390.062	103.12
390.287	116.12
390.512	106.12
390.736	106.12
390.961	89.12
391.186	93.12
391.411	87.12
391.636	97.12
391.86	115.12
392.085	99.12
392.31	117.12
392.534	126.12
392.759	181.12
392.984	261.12
393.208	448.12
393.433	619.12
393.658	467.12
393.882	239.12
394.107	168.12
394.331	185.12
394.556	199.12
394.78	148.12
395.005	133.12
395.229	144.12
395.454	112.12
395.678	153.12
395.903	209.12
396.127	228.12
396.352	286.12
396.576	294.12
396.801	439.12
397.025	517.12
397.249	286.12
397.474	205.12
397.698	143.12
397.922	125.12
398.147	96.12
398.371	106.12
398.595	108.12
398.82	98.12
399.044	97.12
399.268	101.12
399.492	101.12
399.717	109.12
399.941	82.12
400.165	115.12
400.389	100.12
400.613	108.12
400.837	97.12
401.062	104.12
401.286	84.12
401.51	92.12
401.734	104.12
401.958	97.12
402.182	94.12
402.406	105.12
402.63	112.12
402.854	86.12
403.078	83.12
403.302	111.12
403.526	108.12
403.75	121.12
403.974	111.12
404.198	154.12
404.422	268.12
404.645	314.12
404.869	264.12
405.093	171.12
405.317	109.12
405.541	103.12
405.765	111.12
405.988	108.12
406.212	99.12
406.436	105.12
406.66	98.12
406.883	100.12
407.107	110.12
407.331	95.12
407.555	111.12
407.778	158.12
408.002	151.12
408.226	116.12
408.449	114.12
408.673	99.12
408.896	106.12
409.12	100.12
409.344	119.12
409.567	120.12
409.791	142.12
410.014	141.12
410.238	133.12
410.461	129.12
410.685	112.12
410.908	104.12
411.132	106.12
411.355	97.12
411.578	108.12
411.802	100.12
412.025	98.12
412.249	119.12
412.472	105.12
412.695	87.12
412.919	107.12
413.142	101.12
413.365	107.12
413.589	100.12
413.812	93.12
414.035	84.12
414.258	104.12
414.482	92.12
414.705	90.12
414.928	105.12
415.151	95.12
415.374	107.12
415.597	97.12
415.821	95.12
416.044	91.12
416.267	86.12
416.49	99.12
416.713	87.12
416.936	100.12
417.159	99.12
417.382	99.12
417.605	82.12
417.828	96.12
418.051	79.12
418.274	89.12
418.497	88.12
418.72	102.12
418.943	89.12
419.166	98.12
419.389	108.12
419.611	107.12
419.834	96.12
420.057	113.12
420.28	108.12
420.503	118.12
420.726	124.12
420.948	132.12
421.171	130.12
421.394	155.12
421.617	197.12
421.839	226.12
422.062	272.12
422.285	417.12
422.507	721.12
422.73	928.12
422.953	862.12
423.175	558.12
423.398	313.12
423.621	221.12
423.843	159.12
424.066	154.12
424.288	132.12
424.511	120.12
424.733	106.12
424.956	99.12
425.178	118.12
425.401	97.12
425.623	115.12
425.846	106.12
426.068	104.12
426.291	108.12
426.513	93.12
426.735	106.12
426.958	112.12
427.18	104.12
427.402	111.12
427.625	105.12
427.847	109.12
428.069	130.12
428.292	237.12
428.514	274.12
428.736	190.12
428.958	249.12
429.181	263.12
429.403	152.12
429.625	163.12
429.847	233.12
430.069	370.12
430.292	441.12
430.514	404.12
430.736	287.12
430.958	298.12
431.18	167.12
431.402	108.12
431.624	147.12
431.846	248.12
432.068	278.12
432.29	140.12
432.512	93.12
432.734	85.12
432.956	103.12
433.178	89.12
433.4	95.12
433.622	102.12
433.844	104.12
434.066	85.12
434.287	81.12
434.509	92.12
434.731	99.12
434.953	99.12
435.175	98.12
435.397	104.12
435.618	101.12
435.84	106.12
436.062	117.12
436.284	98.12
436.505	111.12
436.727	96.12
436.949	81.12
437.17	95.12
437.392	109.12
437.614	96.12
437.835	83.12
438.057	91.12
438.278	89.12
438.5	91.12
438.721	102.12
438.943	85.12
439.165	90.12
439.386	87.12
439.608	94.12
439.829	89.12
440.05	94.12
440.272	90.12
440.493	97.12
440.715	101.12
440.936	100.12
441.158	105.12
441.379	111.12
441.6	108.12
441.822	97.12
442.043	129.12
442.264	170.12
442.486	306.12
442.707	444.12
442.928	279.12
443.149	206.12
443.371	370.12
443.592	693.12
443.813	574.12
444.034	220.12
444.255	150.12
444.476	106.12
444.698	140.12
444.919	157.12
445.14	315.12
445.361	509.12
445.582	876.12
445.803	739.12
446.024	283.12
446.245	149.12
446.466	108.12
446.687	107.12
446.908	112.12
447.129	89.12
447.35	108.12
447.571	100.12
447.792	77.12
448.013	87.12
448.234	95.12
448.455	99.12
448.675	81.12
448.896	95.12
449.117	81.12
449.338	80.12
449.559	97.12
449.779	73.12
450	99.12
450.221	95.12
450.442	92.12
450.662	102.12
450.883	99.12
451.104	99.12
451.324	89.12
451.545	91.12
451.766	101.12
451.986	97.12
452.207	100.12
452.428	101.12
452.648	106.12
452.869	131.12
453.089	124.12
453.31	105.12
453.53	129.12
453.751	111.12
453.971	85.12
454.192	96.12
454.412	93.12
454.633	97.12
454.853	98.12
455.073	95.12
455.294	84.12
455.514	99.12
455.734	82.12
455.955	81.12
456.175	85.12
456.395	95.12
456.616	91.12
456.836	89.12
457.056	97.12
457.276	92.12
457.497	97.12
457.717	107.12
457.937	168.12
458.157	217.12
458.377	256.12
458.598	231.12
458.818	249.12
459.038	173.12
459.258	128.12
459.478	103.12
459.698	103.12
459.918	99.12
460.138	92.12
460.358	109.12
460.578	129.12
460.798	228.12
461.018	204.12
461.238	100.12
461.458	96.12
461.678	99.12
461.898	92.12
462.118	98.12
462.338	92.12
462.558	95.12
462.777	91.12
462.997	84.12
463.217	84.12
463.437	84.12
463.657	88.12
463.876	96.12
464.096	76.12
464.316	108.12
464.536	91.12
464.755	87.12
464.975	106.12
465.195	80.12
465.414	83.12
465.634	99.12
465.854	90.12
466.073	81.12
466.293	78.12
466.512	83.12
466.732	96.12
466.951	92.12
467.171	99.12
467.391	91.12
467.61	100.12
467.829	87.12
468.049	92.12
468.268	98.12
468.488	112.12
468.707	95.12
468.927	96.12
469.146	87.12
469.365	105.12
469.585	105.12
469.804	81.12
470.023	87.12
470.243	95.12
470.462	90.12
470.681	88.12
470.901	95.12
471.12	76.12
471.339	99.12
471.558	90.12
471.777	91.12
471.997	90.12
472.216	104.12
472.435	100.12
472.654	90.12
472.873	88.12
473.092	77.12
473.311	83.12
473.53	91.12
473.749	92.12
473.968	81.12
474.187	85.12
474.406	93.12
474.625	88.12
474.844	112.12
475.063	89.12
475.282	88.12
475.501	92.12
475.72	112.12
475.939	87.12
476.158	83.12
476.377	91.12
476.596	93.12
476.814	86.12
477.033	101.12
477.252	91.12
477.471	107.12
477.69	101.12
477.908	91.12
478.127	96.12
478.346	103.12
478.564	94.12
478.783	78.12
479.002	79.12
479.22	89.12
479.439	95.12
479.658	98.12
479.876	93.12
480.095	75.12
480.313	95.12
480.532	91.12
480.751	98.12
480.969	85.12
481.188	101.12
481.406	120.12
481.624	95.12
481.843	114.12
482.061	99.12
482.28	95.12
482.498	101.12
482.717	102.12
482.935	91.12
483.153	111.12
483.372	100.12
483.59	93.12
483.808	109.12
484.027	117.12
484.245	101.12
484.463	96.12
484.681	93.12
484.9	122.12
485.118	104.12
485.336	113.12
485.554	104.12
485.772	86.12
485.99	107.12
486.209	90.12
486.427	106.12
486.645	102.12
486.863	96.12
487.081	102.12
487.299	129.12
487.517	158.12
487.735	227.12
487.953	356.12
488.171	343.12
488.389	156.12
488.607	123.12
488.825	98.12
489.043	92.12
489.261	109.12
489.479	111.12
489.696	103.12
489.914	95.12
490.132	82.12
490.35	83.12
490.568	78.12
490.786	91.12
491.003	89.12
491.221	101.12
491.439	106.12
491.657	88.12
491.874	94.12
492.092	109.12
492.31	99.12
492.527	107.12
492.745	78.12
492.963	102.12
493.18	92.12
493.398	87.12
493.615	97.12
493.833	104.12
494.05	87.12
494.268	93.12
494.485	110.12
494.703	87.12
494.92	93.12
495.138	109.12
495.355	99.12
495.573	93.12
495.79	95.12
496.008	113.12
496.225	99.12
496.442	102.12
496.66	112.12
496.877	91.12
497.094	104.12
497.312	90.12
497.529	107.12
497.746	92.12
497.963	103.12
498.181	99.12
498.398	119.12
498.615	95.12
498.832	97.12
499.049	97.12
499.267	113.12
499.484	100.12
499.701	100.12
499.918	90.12
500.135	94.12
500.352	93.12
500.569	97.12
500.786	115.12
501.003	105.12
501.22	104.12
501.437	96.12
501.654	111.12
501.871	101.12
502.088	87.12
502.305	93.12
502.522	96.12
502.739	104.12
502.956	103.12
503.172	102.12
503.389	98.12
503.606	107.12
503.823	132.12
504.04	141.12
504.256	213.12
504.473	244.12
504.69	152.12
504.907	128.12
505.123	92.12
505.34	99.12
505.557	103.12
505.773	97.12
505.99	100.12
506.207	84.12
506.423	91.12
506.64	91.12
506.856	88.12
507.073	95.12
507.289	88.12
507.506	95.12
507.722	84.12
507.939	94.12
508.155	92.12
508.372	100.12
508.588	87.12
508.805	84.12
509.021	91.12
509.238	93.12
509.454	97.12
509.67	107.12
509.887	99.12
510.103	87.12
510.319	93.12
510.536	99.12
510.752	86.12
510.968	91.12
511.184	102.12
511.401	106.12
511.617	103.12
511.833	87.12
512.049	89.12
512.265	93.12
512.481	88.12
512.698	92.12
512.914	89.12
513.13	90.12
513.346	93.12
513.562	105.12
513.778	98.12
513.994	87.12
