Data from 2145_2_HRD10591_00024.txt Node
Date: Mon Jan 19 14:22:14 EST 2026
User: Yrep
Spectrometer: HR+D1059
Trigger mode: 1
Integration Time (sec): 1.000000E-1
Scans to average: 1
Electric dark correction enabled: true
Nonlinearity correction enabled: false
Boxcar width: 0
XAxis mode: Wavelengths
Number of Pixels in Spectrum: 2048
>>>>>Begin Spectral Data<<<<<
223.165	-12.12
223.4	-12.12
223.635	-12.12
223.869	-6.12
224.104	-18.12
224.338	-16.12
224.573	-23.12
224.808	-22.12
225.042	-9.12
225.277	-8.12
225.511	16.88
225.746	12.88
225.98	7.88
226.215	20.88
226.449	6.88
226.683	4.88
226.918	19.88
227.152	24.88
227.387	33.88
227.621	18.88
227.856	51.88
228.09	57.88
228.324	57.88
228.559	55.88
228.793	65.88
229.027	68.88
229.262	67.88
229.496	67.88
229.73	76.88
229.964	75.88
230.199	68.88
230.433	71.88
230.667	88.88
230.901	82.88
231.136	81.88
231.37	79.88
231.604	64.88
231.838	67.88
232.072	72.88
232.306	83.88
232.541	75.88
232.775	86.88
233.009	101.88
233.243	95.88
233.477	77.88
233.711	72.88
233.945	72.88
234.179	62.88
234.413	73.88
234.647	85.88
234.881	88.88
235.115	89.88
235.349	78.88
235.583	76.88
235.817	95.88
236.051	97.88
236.285	74.88
236.519	83.88
236.753	73.88
236.987	87.88
237.221	91.88
237.455	65.88
237.689	73.88
237.922	75.88
238.156	68.88
238.39	83.88
238.624	67.88
238.858	76.88
239.091	83.88
239.325	95.88
239.559	81.88
239.793	61.88
240.027	78.88
240.26	83.88
240.494	72.88
240.728	81.88
240.961	62.88
241.195	82.88
241.429	84.88
241.662	76.88
241.896	59.88
242.13	77.88
242.363	73.88
242.597	77.88
242.83	58.88
243.064	85.88
243.298	67.88
243.531	72.88
243.765	82.88
243.998	83.88
244.232	89.88
244.465	88.88
244.699	67.88
244.932	69.88
245.166	62.88
245.399	85.88
245.633	91.88
245.866	83.88
246.099	64.88
246.333	78.88
246.566	76.88
246.8	84.88
247.033	77.88
247.266	73.88
247.5	69.88
247.733	74.88
247.966	83.88
248.2	85.88
248.433	89.88
248.666	67.88
248.899	75.88
249.133	75.88
249.366	84.88
249.599	81.88
249.832	82.88
250.066	73.88
250.299	78.88
250.532	84.88
250.765	67.88
250.998	81.88
251.231	72.88
251.465	66.88
251.698	73.88
251.931	82.88
252.164	88.88
252.397	75.88
252.63	92.88
252.863	82.88
253.096	86.88
253.329	84.88
253.562	86.88
253.795	87.88
254.028	96.88
254.261	87.88
254.494	71.88
254.727	81.88
254.96	95.88
255.193	76.88
255.426	85.88
255.659	71.88
255.892	79.88
256.124	92.88
256.357	81.88
256.59	77.88
256.823	66.88
257.056	95.88
257.289	73.88
257.521	81.88
257.754	89.88
257.987	83.88
258.22	86.88
258.452	73.88
258.685	91.88
258.918	73.88
259.151	77.88
259.383	89.88
259.616	91.88
259.849	71.88
260.081	84.88
260.314	83.88
260.547	87.88
260.779	64.88
261.012	81.88
261.244	89.88
261.477	80.88
261.71	83.88
261.942	76.88
262.175	76.88
262.407	84.88
262.64	80.88
262.872	76.88
263.105	79.88
263.337	62.88
263.57	89.88
263.802	88.88
264.035	87.88
264.267	82.88
264.499	84.88
264.732	80.88
264.964	81.88
265.197	85.88
265.429	78.88
265.661	72.88
265.894	77.88
266.126	88.88
266.358	88.88
266.591	83.88
266.823	88.88
267.055	85.88
267.287	71.88
267.52	78.88
267.752	86.88
267.984	91.88
268.216	68.88
268.448	78.88
268.681	84.88
268.913	90.88
269.145	74.88
269.377	95.88
269.609	70.88
269.841	97.88
270.073	73.88
270.306	68.88
270.538	85.88
270.77	83.88
271.002	81.88
271.234	81.88
271.466	89.88
271.698	86.88
271.93	80.88
272.162	63.88
272.394	81.88
272.626	88.88
272.858	72.88
273.09	81.88
273.322	96.88
273.553	84.88
273.785	85.88
274.017	86.88
274.249	91.88
274.481	82.88
274.713	77.88
274.945	87.88
275.176	80.88
275.408	69.88
275.64	85.88
275.872	79.88
276.104	82.88
276.335	83.88
276.567	73.88
276.799	75.88
277.031	87.88
277.262	79.88
277.494	77.88
277.726	80.88
277.957	81.88
278.189	84.88
278.421	85.88
278.652	85.88
278.884	87.88
279.115	83.88
279.347	91.88
279.579	87.88
279.81	84.88
280.042	56.88
280.273	92.88
280.505	93.88
280.736	84.88
280.968	95.88
281.199	91.88
281.431	64.88
281.662	83.88
281.894	92.88
282.125	73.88
282.356	83.88
282.588	81.88
282.819	87.88
283.051	81.88
283.282	75.88
283.513	81.88
283.745	79.88
283.976	91.88
284.207	91.88
284.439	91.88
284.67	95.88
284.901	78.88
285.132	85.88
285.364	105.88
285.595	91.88
285.826	87.88
286.057	88.88
286.288	90.88
286.52	83.88
286.751	80.88
286.982	78.88
287.213	80.88
287.444	83.88
287.675	96.88
287.906	81.88
288.138	85.88
288.369	86.88
288.6	87.88
288.831	83.88
289.062	90.88
289.293	91.88
289.524	78.88
289.755	79.88
289.986	70.88
290.217	89.88
290.448	93.88
290.679	93.88
290.91	88.88
291.141	67.88
291.371	78.88
291.602	77.88
291.833	83.88
292.064	78.88
292.295	90.88
292.526	95.88
292.757	75.88
292.987	75.88
293.218	80.88
293.449	74.88
293.68	77.88
293.91	81.88
294.141	83.88
294.372	88.88
294.603	81.88
294.833	80.88
295.064	92.88
295.295	83.88
295.525	73.88
295.756	98.88
295.987	85.88
296.217	87.88
296.448	74.88
296.679	76.88
296.909	83.88
297.14	94.88
297.37	82.88
297.601	91.88
297.831	75.88
298.062	84.88
298.292	83.88
298.523	90.88
298.753	89.88
298.984	68.88
299.214	76.88
299.445	91.88
299.675	90.88
299.905	84.88
300.136	71.88
300.366	89.88
300.597	73.88
300.827	85.88
301.057	79.88
301.288	78.88
301.518	92.88
301.748	86.88
301.979	94.88
302.209	93.88
302.439	75.88
302.669	88.88
302.9	75.88
303.13	79.88
303.36	99.88
303.59	84.88
303.82	85.88
304.051	76.88
304.281	80.88
304.511	96.88
304.741	85.88
304.971	76.88
305.201	77.88
305.431	93.88
305.661	87.88
305.891	83.88
306.121	86.88
306.352	81.88
306.582	87.88
306.812	96.88
307.042	81.88
307.272	89.88
307.502	76.88
307.731	77.88
307.961	88.88
308.191	98.88
308.421	93.88
308.651	93.88
308.881	80.88
309.111	87.88
309.341	87.88
309.571	88.88
309.8	99.88
310.03	89.88
310.26	74.88
310.49	82.88
310.72	76.88
310.949	91.88
311.179	80.88
311.409	81.88
311.639	75.88
311.868	94.88
312.098	93.88
312.328	113.88
312.557	88.88
312.787	77.88
313.017	73.88
313.246	85.88
313.476	98.88
313.706	79.88
313.935	89.88
314.165	86.88
314.394	75.88
314.624	85.88
314.853	82.88
315.083	79.88
315.312	83.88
315.542	75.88
315.771	63.88
316.001	93.88
316.23	95.88
316.46	88.88
316.689	79.88
316.919	78.88
317.148	80.88
317.377	95.88
317.607	75.88
317.836	102.88
318.065	87.88
318.295	86.88
318.524	78.88
318.753	92.88
318.983	79.88
319.212	77.88
319.441	91.88
319.67	88.88
319.9	100.88
320.129	87.88
320.358	68.88
320.587	86.88
320.816	65.88
321.046	81.88
321.275	74.88
321.504	89.88
321.733	71.88
321.962	69.88
322.191	82.88
322.42	88.88
322.649	82.88
322.878	90.88
323.108	90.88
323.337	95.88
323.566	78.88
323.795	97.88
324.024	86.88
324.253	70.88
324.482	91.88
324.71	81.88
324.939	82.88
325.168	84.88
325.397	88.88
325.626	98.88
325.855	76.88
326.084	69.88
326.313	90.88
326.542	83.88
326.77	83.88
326.999	71.88
327.228	88.88
327.457	74.88
327.686	81.88
327.914	83.88
328.143	90.88
328.372	91.88
328.6	89.88
328.829	78.88
329.058	87.88
329.287	85.88
329.515	75.88
329.744	100.88
329.972	95.88
330.201	92.88
330.43	88.88
330.658	85.88
330.887	86.88
331.115	90.88
331.344	89.88
331.572	87.88
331.801	83.88
332.03	75.88
332.258	82.88
332.486	91.88
332.715	83.88
332.943	97.88
333.172	91.88
333.4	69.88
333.629	86.88
333.857	86.88
334.085	95.88
334.314	88.88
334.542	84.88
334.771	69.88
334.999	89.88
335.227	76.88
335.455	79.88
335.684	73.88
335.912	86.88
336.14	83.88
336.369	93.88
336.597	90.88
336.825	76.88
337.053	79.88
337.281	91.88
337.51	89.88
337.738	71.88
337.966	90.88
338.194	87.88
338.422	85.88
338.65	83.88
338.878	76.88
339.106	92.88
339.334	99.88
339.562	86.88
339.79	97.88
340.018	99.88
340.246	72.88
340.474	78.88
340.702	79.88
340.93	83.88
341.158	84.88
341.386	81.88
341.614	71.88
341.842	92.88
342.07	83.88
342.298	90.88
342.526	84.88
342.754	75.88
342.981	88.88
343.209	89.88
343.437	97.88
343.665	84.88
343.893	93.88
344.12	97.88
344.348	83.88
344.576	73.88
344.804	87.88
345.031	86.88
345.259	72.88
345.487	89.88
345.714	85.88
345.942	85.88
346.17	80.88
346.397	89.88
346.625	77.88
346.853	75.88
347.08	87.88
347.308	100.88
347.535	83.88
347.763	67.88
347.99	93.88
348.218	91.88
348.445	77.88
348.673	85.88
348.9	89.88
349.128	86.88
349.355	78.88
349.583	89.88
349.81	72.88
350.037	93.88
350.265	90.88
350.492	88.88
350.72	88.88
350.947	85.88
351.174	91.88
351.402	87.88
351.629	85.88
351.856	76.88
352.083	83.88
352.311	71.88
352.538	93.88
352.765	107.88
352.992	96.88
353.22	92.88
353.447	78.88
353.674	98.88
353.901	102.88
354.128	92.88
354.355	85.88
354.583	83.88
354.81	90.88
355.037	93.88
355.264	68.88
355.491	80.88
355.718	81.88
355.945	80.88
356.172	72.88
356.399	76.88
356.626	79.88
356.853	97.88
357.08	84.88
357.307	81.88
357.534	89.88
357.761	84.88
357.988	88.88
358.215	83.88
358.441	81.88
358.668	85.88
358.895	89.88
359.122	95.88
359.349	73.88
359.576	99.88
359.802	75.88
360.029	55.88
360.256	75.88
360.483	81.88
360.709	88.88
360.936	89.88
361.163	89.88
361.39	102.88
361.616	79.88
361.843	83.88
362.07	77.88
362.296	99.88
362.523	88.88
362.749	92.88
362.976	99.88
363.203	99.88
363.429	75.88
363.656	73.88
363.882	82.88
364.109	90.88
364.335	111.88
364.562	119.88
364.788	91.88
365.015	89.88
365.241	76.88
365.468	83.88
365.694	91.88
365.92	69.88
366.147	93.88
366.373	80.88
366.599	74.88
366.826	88.88
367.052	107.88
367.278	83.88
367.505	77.88
367.731	91.88
367.957	86.88
368.184	77.88
368.41	83.88
368.636	81.88
368.862	93.88
369.089	89.88
369.315	92.88
369.541	80.88
369.767	88.88
369.993	80.88
370.219	93.88
370.445	96.88
370.672	83.88
370.898	83.88
371.124	85.88
371.35	81.88
371.576	73.88
371.802	81.88
372.028	75.88
372.254	75.88
372.48	84.88
372.706	83.88
372.932	86.88
373.158	95.88
373.384	96.88
373.61	93.88
373.835	80.88
374.061	77.88
374.287	83.88
374.513	100.88
374.739	87.88
374.965	89.88
375.191	87.88
375.416	82.88
375.642	67.88
375.868	92.88
376.094	81.88
376.319	84.88
376.545	94.88
376.771	77.88
376.997	79.88
377.222	61.88
377.448	83.88
377.674	82.88
377.899	83.88
378.125	81.88
378.35	87.88
378.576	77.88
378.802	87.88
379.027	89.88
379.253	91.88
379.478	78.88
379.704	88.88
379.929	90.88
380.155	98.88
380.38	83.88
380.606	85.88
380.831	72.88
381.057	100.88
381.282	93.88
381.507	100.88
381.733	106.88
381.958	75.88
382.184	87.88
382.409	95.88
382.634	98.88
382.86	95.88
383.085	76.88
383.31	90.88
383.535	85.88
383.761	91.88
383.986	86.88
384.211	82.88
384.436	86.88
384.662	91.88
384.887	84.88
385.112	74.88
385.337	83.88
385.562	70.88
385.787	91.88
386.013	85.88
386.238	85.88
386.463	82.88
386.688	97.88
386.913	85.88
387.138	98.88
387.363	87.88
387.588	87.88
387.813	96.88
388.038	105.88
388.263	79.88
388.488	88.88
388.713	92.88
388.938	89.88
389.163	89.88
389.387	80.88
389.612	87.88
389.837	90.88
390.062	89.88
390.287	86.88
390.512	88.88
390.736	81.88
390.961	80.88
391.186	92.88
391.411	83.88
391.636	99.88
391.86	90.88
392.085	85.88
392.31	86.88
392.534	90.88
392.759	104.88
392.984	125.88
393.208	129.88
393.433	181.88
393.658	170.88
393.882	98.88
394.107	90.88
394.331	95.88
394.556	104.88
394.78	75.88
395.005	84.88
395.229	83.88
395.454	89.88
395.678	89.88
395.903	113.88
396.127	107.88
396.352	127.88
396.576	113.88
396.801	147.88
397.025	169.88
397.249	104.88
397.474	102.88
397.698	101.88
397.922	86.88
398.147	87.88
398.371	78.88
398.595	91.88
398.82	95.88
399.044	81.88
399.268	76.88
399.492	85.88
399.717	77.88
399.941	89.88
400.165	95.88
400.389	76.88
400.613	77.88
400.837	72.88
401.062	88.88
401.286	78.88
401.51	86.88
401.734	86.88
401.958	66.88
402.182	75.88
402.406	102.88
402.63	90.88
402.854	98.88
403.078	84.88
403.302	79.88
403.526	87.88
403.75	86.88
403.974	78.88
404.198	86.88
404.422	89.88
404.645	100.88
404.869	92.88
405.093	92.88
405.317	87.88
405.541	75.88
405.765	76.88
405.988	92.88
406.212	73.88
406.436	78.88
406.66	67.88
406.883	75.88
407.107	70.88
407.331	80.88
407.555	77.88
407.778	98.88
408.002	103.88
408.226	92.88
408.449	98.88
408.673	81.88
408.896	81.88
409.12	95.88
409.344	93.88
409.567	105.88
409.791	89.88
410.014	88.88
410.238	90.88
410.461	84.88
410.685	82.88
410.908	81.88
411.132	92.88
411.355	85.88
411.578	83.88
411.802	83.88
412.025	80.88
412.249	95.88
412.472	83.88
412.695	91.88
412.919	71.88
413.142	97.88
413.365	90.88
413.589	82.88
413.812	86.88
414.035	74.88
414.258	72.88
414.482	91.88
414.705	81.88
414.928	83.88
415.151	98.88
415.374	95.88
415.597	91.88
415.821	79.88
416.044	83.88
416.267	87.88
416.49	81.88
416.713	76.88
416.936	76.88
417.159	106.88
417.382	99.88
417.605	97.88
417.828	82.88
418.051	75.88
418.274	65.88
418.497	84.88
418.72	69.88
418.943	70.88
419.166	84.88
419.389	90.88
419.611	89.88
419.834	86.88
420.057	94.88
420.28	81.88
420.503	98.88
420.726	81.88
420.948	104.88
421.171	90.88
421.394	96.88
421.617	108.88
421.839	106.88
422.062	122.88
422.285	139.88
422.507	195.88
422.73	243.88
422.953	232.88
423.175	165.88
423.398	130.88
423.621	97.88
423.843	100.88
424.066	98.88
424.288	93.88
424.511	94.88
424.733	91.88
424.956	87.88
425.178	100.88
425.401	89.88
425.623	88.88
425.846	70.88
426.068	96.88
426.291	85.88
426.513	91.88
426.735	90.88
426.958	92.88
427.18	82.88
427.402	80.88
427.625	83.88
427.847	84.88
428.069	100.88
428.292	112.88
428.514	111.88
428.736	91.88
428.958	111.88
429.181	100.88
429.403	91.88
429.625	97.88
429.847	108.88
430.069	124.88
430.292	138.88
430.514	132.88
430.736	111.88
430.958	117.88
431.18	92.88
431.402	91.88
431.624	91.88
431.846	119.88
432.068	103.88
432.29	95.88
432.512	97.88
432.734	105.88
432.956	95.88
433.178	90.88
433.4	87.88
433.622	86.88
433.844	86.88
434.066	86.88
434.287	89.88
434.509	92.88
434.731	89.88
434.953	94.88
435.175	85.88
435.397	109.88
435.618	84.88
435.84	72.88
436.062	85.88
436.284	83.88
436.505	82.88
436.727	81.88
436.949	93.88
437.17	67.88
437.392	87.88
437.614	89.88
437.835	85.88
438.057	93.88
438.278	77.88
438.5	83.88
438.721	94.88
438.943	87.88
439.165	95.88
439.386	78.88
439.608	94.88
439.829	77.88
440.05	91.88
440.272	77.88
440.493	90.88
440.715	84.88
440.936	108.88
441.158	85.88
441.379	82.88
441.6	80.88
441.822	80.88
442.043	88.88
442.264	79.88
442.486	118.88
442.707	133.88
442.928	109.88
443.149	106.88
443.371	117.88
443.592	163.88
443.813	151.88
444.034	93.88
444.255	84.88
444.476	105.88
444.698	85.88
444.919	78.88
445.14	183.88
445.361	167.88
445.582	202.88
445.803	170.88
446.024	101.88
446.245	87.88
446.466	89.88
446.687	75.88
446.908	80.88
447.129	78.88
447.35	80.88
447.571	83.88
447.792	100.88
448.013	83.88
448.234	92.88
448.455	77.88
448.675	74.88
448.896	68.88
449.117	86.88
449.338	73.88
449.559	81.88
449.779	94.88
450	83.88
450.221	90.88
450.442	83.88
450.662	88.88
450.883	95.88
451.104	96.88
451.324	90.88
451.545	71.88
451.766	70.88
451.986	90.88
452.207	85.88
452.428	77.88
452.648	82.88
452.869	106.88
453.089	82.88
453.31	84.88
453.53	81.88
453.751	75.88
453.971	86.88
454.192	96.88
454.412	87.88
454.633	85.88
454.853	89.88
455.073	79.88
455.294	77.88
455.514	91.88
455.734	82.88
455.955	85.88
456.175	89.88
456.395	85.88
456.616	88.88
456.836	84.88
457.056	64.88
457.276	85.88
457.497	82.88
457.717	84.88
457.937	117.88
458.157	107.88
458.377	113.88
458.598	113.88
458.818	134.88
459.038	97.88
459.258	95.88
459.478	81.88
459.698	83.88
459.918	70.88
460.138	87.88
460.358	89.88
460.578	101.88
460.798	98.88
461.018	104.88
461.238	87.88
461.458	91.88
461.678	74.88
461.898	76.88
462.118	83.88
462.338	92.88
462.558	100.88
462.777	78.88
462.997	73.88
463.217	85.88
463.437	85.88
463.657	82.88
463.876	85.88
464.096	83.88
464.316	85.88
464.536	83.88
464.755	84.88
464.975	66.88
465.195	89.88
465.414	79.88
465.634	73.88
465.854	76.88
466.073	73.88
466.293	88.88
466.512	70.88
466.732	77.88
466.951	85.88
467.171	83.88
467.391	95.88
467.61	91.88
467.829	84.88
468.049	86.88
468.268	85.88
468.488	88.88
468.707	84.88
468.927	78.88
469.146	85.88
469.365	78.88
469.585	74.88
469.804	92.88
470.023	77.88
470.243	91.88
470.462	93.88
470.681	78.88
470.901	82.88
471.12	72.88
471.339	97.88
471.558	83.88
471.777	98.88
471.997	95.88
472.216	98.88
472.435	86.88
472.654	75.88
472.873	104.88
473.092	100.88
473.311	95.88
473.53	96.88
473.749	86.88
473.968	95.88
474.187	85.88
474.406	85.88
474.625	85.88
474.844	98.88
475.063	86.88
475.282	89.88
475.501	69.88
475.72	91.88
475.939	92.88
476.158	78.88
476.377	81.88
476.596	84.88
476.814	81.88
477.033	92.88
477.252	87.88
477.471	74.88
477.69	83.88
477.908	101.88
478.127	92.88
478.346	92.88
478.564	91.88
478.783	84.88
479.002	84.88
479.22	91.88
479.439	89.88
479.658	79.88
479.876	72.88
480.095	79.88
480.313	87.88
480.532	88.88
480.751	92.88
480.969	87.88
481.188	92.88
481.406	97.88
481.624	94.88
481.843	73.88
482.061	84.88
482.28	89.88
482.498	83.88
482.717	89.88
482.935	93.88
483.153	96.88
483.372	95.88
483.59	75.88
483.808	71.88
484.027	99.88
484.245	84.88
484.463	81.88
484.681	103.88
484.9	89.88
485.118	81.88
485.336	85.88
485.554	81.88
485.772	98.88
485.99	97.88
486.209	94.88
486.427	76.88
486.645	77.88
486.863	104.88
487.081	89.88
487.299	86.88
487.517	86.88
487.735	103.88
487.953	139.88
488.171	119.88
488.389	80.88
488.607	77.88
488.825	92.88
489.043	76.88
489.261	96.88
489.479	102.88
489.696	91.88
489.914	84.88
490.132	85.88
490.35	99.88
490.568	80.88
490.786	90.88
491.003	95.88
491.221	87.88
491.439	90.88
491.657	69.88
491.874	89.88
492.092	93.88
492.31	87.88
492.527	80.88
492.745	102.88
492.963	78.88
493.18	93.88
493.398	92.88
493.615	82.88
493.833	84.88
494.05	80.88
494.268	86.88
494.485	78.88
494.703	81.88
494.92	92.88
495.138	84.88
495.355	86.88
495.573	87.88
495.79	86.88
496.008	81.88
496.225	84.88
496.442	91.88
496.66	83.88
496.877	95.88
497.094	102.88
497.312	89.88
497.529	75.88
497.746	95.88
497.963	67.88
498.181	86.88
498.398	89.88
498.615	81.88
498.832	88.88
499.049	86.88
499.267	95.88
499.484	88.88
499.701	97.88
499.918	87.88
500.135	86.88
500.352	91.88
500.569	86.88
500.786	105.88
501.003	92.88
501.22	91.88
501.437	94.88
501.654	98.88
501.871	77.88
502.088	93.88
502.305	78.88
502.522	81.88
502.739	93.88
502.956	81.88
503.172	98.88
503.389	68.88
503.606	69.88
503.823	85.88
504.04	104.88
504.256	124.88
504.473	134.88
504.69	84.88
504.907	76.88
505.123	86.88
505.34	100.88
505.557	84.88
505.773	96.88
505.99	75.88
506.207	93.88
506.423	75.88
506.64	88.88
506.856	79.88
507.073	83.88
507.289	81.88
507.506	86.88
507.722	93.88
507.939	97.88
508.155	90.88
508.372	81.88
508.588	85.88
508.805	98.88
509.021	91.88
509.238	81.88
509.454	80.88
509.67	71.88
509.887	78.88
510.103	73.88
510.319	89.88
510.536	93.88
510.752	82.88
510.968	75.88
511.184	92.88
511.401	83.88
511.617	84.88
511.833	81.88
512.049	90.88
512.265	96.88
512.481	83.88
512.698	98.88
512.914	99.88
513.13	81.88
513.346	87.88
513.562	79.88
513.778	83.88
513.994	80.88
514.21	87.88
514.426	82.88
514.642	92.88
514.858	86.88
515.074	87.88
515.29	91.88
515.506	84.88
515.721	88.88
515.937	91.88
516.153	91.88
516.369	84.88
516.585	85.88
516.801	96.88
517.016	98.88
517.232	90.88
517.448	95.88
517.664	79.88
517.879	80.88
518.095	93.88
518.311	95.88
518.527	90.88
518.742	106.88
