Data from 2145_2_HRD10591_00046.txt Node
Date: Mon Jan 19 14:22:25 EST 2026
User: Yrep
Spectrometer: HR+D1059
Trigger mode: 1
Integration Time (sec): 1.000000E-1
Scans to average: 1
Electric dark correction enabled: true
Nonlinearity correction enabled: false
Boxcar width: 0
XAxis mode: Wavelengths
Number of Pixels in Spectrum: 2048
>>>>>Begin Spectral Data<<<<<
223.165	-22.69
223.4	-22.69
223.635	-22.69
223.869	-21.69
224.104	-14.69
224.338	-5.69
224.573	-8.69
224.808	-17.69
225.042	-4.69
225.277	-6.69
225.511	-8.69
225.746	-1.69
225.98	19.31
226.215	8.31
226.449	9.31
226.683	18.31
226.918	22.31
227.152	35.31
227.387	31.31
227.621	38.31
227.856	41.31
228.09	42.31
228.324	49.31
228.559	53.31
228.793	55.31
229.027	82.31
229.262	77.31
229.496	69.31
229.73	72.31
229.964	63.31
230.199	68.31
230.433	78.31
230.667	91.31
230.901	74.31
231.136	63.31
231.37	72.31
231.604	85.31
231.838	86.31
232.072	93.31
232.306	77.31
232.541	92.31
232.775	75.31
233.009	79.31
233.243	74.31
233.477	91.31
233.711	82.31
233.945	85.31
234.179	87.31
234.413	77.31
234.647	84.31
234.881	85.31
235.115	84.31
235.349	90.31
235.583	97.31
235.817	73.31
236.051	75.31
236.285	93.31
236.519	76.31
236.753	69.31
236.987	76.31
237.221	93.31
237.455	85.31
237.689	80.31
237.922	80.31
238.156	80.31
238.39	63.31
238.624	65.31
238.858	76.31
239.091	72.31
239.325	71.31
239.559	66.31
239.793	88.31
240.027	91.31
240.26	85.31
240.494	69.31
240.728	86.31
240.961	78.31
241.195	78.31
241.429	72.31
241.662	77.31
241.896	77.31
242.13	78.31
242.363	83.31
242.597	71.31
242.83	76.31
243.064	81.31
243.298	71.31
243.531	77.31
243.765	72.31
243.998	76.31
244.232	80.31
244.465	73.31
244.699	81.31
244.932	80.31
245.166	79.31
245.399	65.31
245.633	95.31
245.866	79.31
246.099	83.31
246.333	81.31
246.566	78.31
246.8	89.31
247.033	94.31
247.266	78.31
247.5	79.31
247.733	94.31
247.966	78.31
248.2	75.31
248.433	83.31
248.666	83.31
248.899	85.31
249.133	84.31
249.366	76.31
249.599	76.31
249.832	69.31
250.066	72.31
250.299	73.31
250.532	88.31
250.765	77.31
250.998	75.31
251.231	85.31
251.465	85.31
251.698	67.31
251.931	78.31
252.164	72.31
252.397	80.31
252.63	77.31
252.863	75.31
253.096	85.31
253.329	81.31
253.562	92.31
253.795	89.31
254.028	81.31
254.261	76.31
254.494	97.31
254.727	72.31
254.96	80.31
255.193	85.31
255.426	94.31
255.659	84.31
255.892	89.31
256.124	99.31
256.357	93.31
256.59	80.31
256.823	70.31
257.056	81.31
257.289	93.31
257.521	93.31
257.754	67.31
257.987	85.31
258.22	79.31
258.452	89.31
258.685	90.31
258.918	80.31
259.151	72.31
259.383	79.31
259.616	68.31
259.849	69.31
260.081	77.31
260.314	68.31
260.547	69.31
260.779	65.31
261.012	79.31
261.244	70.31
261.477	88.31
261.71	69.31
261.942	65.31
262.175	86.31
262.407	80.31
262.64	79.31
262.872	81.31
263.105	87.31
263.337	84.31
263.57	77.31
263.802	70.31
264.035	91.31
264.267	95.31
264.499	74.31
264.732	82.31
264.964	79.31
265.197	76.31
265.429	83.31
265.661	87.31
265.894	95.31
266.126	63.31
266.358	85.31
266.591	86.31
266.823	63.31
267.055	89.31
267.287	65.31
267.52	72.31
267.752	82.31
267.984	93.31
268.216	91.31
268.448	74.31
268.681	82.31
268.913	85.31
269.145	69.31
269.377	86.31
269.609	81.31
269.841	92.31
270.073	80.31
270.306	77.31
270.538	95.31
270.77	91.31
271.002	90.31
271.234	78.31
271.466	74.31
271.698	84.31
271.93	76.31
272.162	79.31
272.394	86.31
272.626	91.31
272.858	78.31
273.09	74.31
273.322	71.31
273.553	79.31
273.785	85.31
274.017	76.31
274.249	85.31
274.481	95.31
274.713	89.31
274.945	94.31
275.176	83.31
275.408	85.31
275.64	76.31
275.872	83.31
276.104	81.31
276.335	92.31
276.567	74.31
276.799	83.31
277.031	75.31
277.262	89.31
277.494	93.31
277.726	75.31
277.957	84.31
278.189	94.31
278.421	91.31
278.652	81.31
278.884	89.31
279.115	86.31
279.347	70.31
279.579	80.31
279.81	82.31
280.042	95.31
280.273	76.31
280.505	79.31
280.736	92.31
280.968	87.31
281.199	86.31
281.431	86.31
281.662	77.31
281.894	86.31
282.125	93.31
282.356	91.31
282.588	87.31
282.819	88.31
283.051	80.31
283.282	80.31
283.513	87.31
283.745	77.31
283.976	89.31
284.207	91.31
284.439	98.31
284.67	78.31
284.901	89.31
285.132	86.31
285.364	93.31
285.595	77.31
285.826	93.31
286.057	75.31
286.288	90.31
286.52	86.31
286.751	93.31
286.982	83.31
287.213	87.31
287.444	91.31
287.675	94.31
287.906	82.31
288.138	84.31
288.369	84.31
288.6	78.31
288.831	88.31
289.062	95.31
289.293	70.31
289.524	87.31
289.755	83.31
289.986	89.31
290.217	76.31
290.448	99.31
290.679	85.31
290.91	95.31
291.141	94.31
291.371	93.31
291.602	80.31
291.833	82.31
292.064	79.31
292.295	95.31
292.526	91.31
292.757	69.31
292.987	94.31
293.218	87.31
293.449	87.31
293.68	82.31
293.91	93.31
294.141	81.31
294.372	86.31
294.603	77.31
294.833	77.31
295.064	105.31
295.295	83.31
295.525	90.31
295.756	86.31
295.987	86.31
296.217	73.31
296.448	78.31
296.679	81.31
296.909	83.31
297.14	90.31
297.37	89.31
297.601	86.31
297.831	79.31
298.062	91.31
298.292	61.31
298.523	84.31
298.753	80.31
298.984	80.31
299.214	79.31
299.445	87.31
299.675	108.31
299.905	93.31
300.136	94.31
300.366	100.31
300.597	104.31
300.827	104.31
301.057	94.31
301.288	86.31
301.518	102.31
301.748	77.31
301.979	87.31
302.209	97.31
302.439	93.31
302.669	75.31
302.9	83.31
303.13	86.31
303.36	84.31
303.59	91.31
303.82	102.31
304.051	85.31
304.281	106.31
304.511	83.31
304.741	98.31
304.971	95.31
305.201	95.31
305.431	94.31
305.661	77.31
305.891	86.31
306.121	73.31
306.352	76.31
306.582	97.31
306.812	85.31
307.042	85.31
307.272	76.31
307.502	81.31
307.731	83.31
307.961	91.31
308.191	88.31
308.421	79.31
308.651	72.31
308.881	81.31
309.111	94.31
309.341	85.31
309.571	67.31
309.8	93.31
310.03	76.31
310.26	89.31
310.49	92.31
310.72	79.31
310.949	83.31
311.179	92.31
311.409	85.31
311.639	88.31
311.868	88.31
312.098	108.31
312.328	99.31
312.557	92.31
312.787	86.31
313.017	87.31
313.246	92.31
313.476	93.31
313.706	85.31
313.935	69.31
314.165	91.31
314.394	94.31
314.624	86.31
314.853	89.31
315.083	93.31
315.312	83.31
315.542	88.31
315.771	82.31
316.001	91.31
316.23	90.31
316.46	78.31
316.689	87.31
316.919	90.31
317.148	92.31
317.377	81.31
317.607	92.31
317.836	83.31
318.065	86.31
318.295	96.31
318.524	83.31
318.753	89.31
318.983	85.31
319.212	104.31
319.441	85.31
319.67	100.31
319.9	94.31
320.129	87.31
320.358	94.31
320.587	80.31
320.816	85.31
321.046	81.31
321.275	89.31
321.504	96.31
321.733	94.31
321.962	93.31
322.191	90.31
322.42	86.31
322.649	97.31
322.878	95.31
323.108	83.31
323.337	99.31
323.566	94.31
323.795	84.31
324.024	88.31
324.253	78.31
324.482	91.31
324.71	92.31
324.939	90.31
325.168	83.31
325.397	83.31
325.626	83.31
325.855	85.31
326.084	91.31
326.313	89.31
326.542	89.31
326.77	94.31
326.999	73.31
327.228	100.31
327.457	96.31
327.686	99.31
327.914	75.31
328.143	103.31
328.372	101.31
328.6	85.31
328.829	91.31
329.058	84.31
329.287	99.31
329.515	78.31
329.744	78.31
329.972	80.31
330.201	80.31
330.43	85.31
330.658	75.31
330.887	79.31
331.115	87.31
331.344	87.31
331.572	90.31
331.801	93.31
332.03	97.31
332.258	94.31
332.486	81.31
332.715	91.31
332.943	82.31
333.172	83.31
333.4	86.31
333.629	92.31
333.857	86.31
334.085	92.31
334.314	87.31
334.542	90.31
334.771	88.31
334.999	89.31
335.227	88.31
335.455	88.31
335.684	97.31
335.912	83.31
336.14	91.31
336.369	93.31
336.597	79.31
336.825	84.31
337.053	89.31
337.281	87.31
337.51	93.31
337.738	88.31
337.966	77.31
338.194	81.31
338.422	70.31
338.65	80.31
338.878	93.31
339.106	91.31
339.334	82.31
339.562	100.31
339.79	80.31
340.018	80.31
340.246	86.31
340.474	75.31
340.702	77.31
340.93	90.31
341.158	97.31
341.386	74.31
341.614	79.31
341.842	61.31
342.07	85.31
342.298	93.31
342.526	83.31
342.754	94.31
342.981	84.31
343.209	86.31
343.437	87.31
343.665	85.31
343.893	85.31
344.12	85.31
344.348	83.31
344.576	74.31
344.804	79.31
345.031	88.31
345.259	97.31
345.487	101.31
345.714	82.31
345.942	89.31
346.17	79.31
346.397	108.31
346.625	83.31
346.853	92.31
347.08	87.31
347.308	65.31
347.535	96.31
347.763	85.31
347.99	78.31
348.218	99.31
348.445	84.31
348.673	93.31
348.9	81.31
349.128	72.31
349.355	93.31
349.583	88.31
349.81	74.31
350.037	94.31
350.265	89.31
350.492	92.31
350.72	87.31
350.947	88.31
351.174	77.31
351.402	87.31
351.629	97.31
351.856	87.31
352.083	95.31
352.311	89.31
352.538	91.31
352.765	90.31
352.992	85.31
353.22	83.31
353.447	79.31
353.674	82.31
353.901	87.31
354.128	95.31
354.355	89.31
354.583	77.31
354.81	78.31
355.037	82.31
355.264	86.31
355.491	83.31
355.718	98.31
355.945	100.31
356.172	72.31
356.399	88.31
356.626	92.31
356.853	78.31
357.08	89.31
357.307	94.31
357.534	82.31
357.761	85.31
357.988	108.31
358.215	101.31
358.441	73.31
358.668	88.31
358.895	75.31
359.122	95.31
359.349	87.31
359.576	98.31
359.802	78.31
360.029	95.31
360.256	89.31
360.483	81.31
360.709	87.31
360.936	97.31
361.163	95.31
361.39	91.31
361.616	81.31
361.843	86.31
362.07	85.31
362.296	102.31
362.523	111.31
362.749	99.31
362.976	100.31
363.203	98.31
363.429	93.31
363.656	83.31
363.882	87.31
364.109	93.31
364.335	95.31
364.562	95.31
364.788	91.31
365.015	83.31
365.241	87.31
365.468	97.31
365.694	78.31
365.92	75.31
366.147	90.31
366.373	95.31
366.599	87.31
366.826	86.31
367.052	89.31
367.278	87.31
367.505	93.31
367.731	88.31
367.957	76.31
368.184	87.31
368.41	81.31
368.636	86.31
368.862	80.31
369.089	80.31
369.315	78.31
369.541	78.31
369.767	85.31
369.993	81.31
370.219	75.31
370.445	85.31
370.672	86.31
370.898	78.31
371.124	76.31
371.35	83.31
371.576	101.31
371.802	83.31
372.028	97.31
372.254	74.31
372.48	85.31
372.706	84.31
372.932	88.31
373.158	79.31
373.384	93.31
373.61	88.31
373.835	84.31
374.061	83.31
374.287	92.31
374.513	85.31
374.739	84.31
374.965	81.31
375.191	85.31
375.416	78.31
375.642	89.31
375.868	84.31
376.094	98.31
376.319	92.31
376.545	80.31
376.771	82.31
376.997	76.31
377.222	76.31
377.448	87.31
377.674	70.31
377.899	88.31
378.125	88.31
378.35	98.31
378.576	90.31
378.802	88.31
379.027	76.31
379.253	87.31
379.478	94.31
379.704	85.31
379.929	89.31
380.155	92.31
380.38	85.31
380.606	83.31
380.831	89.31
381.057	82.31
381.282	93.31
381.507	86.31
381.733	75.31
381.958	78.31
382.184	102.31
382.409	66.31
382.634	83.31
382.86	81.31
383.085	85.31
383.31	86.31
383.535	98.31
383.761	80.31
383.986	97.31
384.211	85.31
384.436	81.31
384.662	77.31
384.887	85.31
385.112	93.31
385.337	95.31
385.562	85.31
385.787	88.31
386.013	104.31
386.238	95.31
386.463	76.31
386.688	96.31
386.913	86.31
387.138	73.31
387.363	86.31
387.588	97.31
387.813	95.31
388.038	93.31
388.263	86.31
388.488	77.31
388.713	91.31
388.938	91.31
389.163	75.31
389.387	85.31
389.612	95.31
389.837	97.31
390.062	93.31
390.287	83.31
390.512	91.31
390.736	76.31
390.961	90.31
391.186	95.31
391.411	78.31
391.636	89.31
391.86	99.31
392.085	86.31
392.31	87.31
392.534	85.31
392.759	88.31
392.984	97.31
393.208	117.31
393.433	143.31
393.658	136.31
393.882	102.31
394.107	89.31
394.331	105.31
394.556	97.31
394.78	102.31
395.005	88.31
395.229	90.31
395.454	89.31
395.678	83.31
395.903	93.31
396.127	108.31
396.352	106.31
396.576	103.31
396.801	145.31
397.025	138.31
397.249	117.31
397.474	103.31
397.698	99.31
397.922	98.31
398.147	93.31
398.371	85.31
398.595	75.31
398.82	91.31
399.044	86.31
399.268	76.31
399.492	77.31
399.717	86.31
399.941	90.31
400.165	90.31
400.389	79.31
400.613	77.31
400.837	87.31
401.062	89.31
401.286	81.31
401.51	77.31
401.734	78.31
401.958	86.31
402.182	87.31
402.406	75.31
402.63	95.31
402.854	89.31
403.078	80.31
403.302	74.31
403.526	96.31
403.75	81.31
403.974	88.31
404.198	97.31
404.422	113.31
404.645	119.31
404.869	104.31
405.093	102.31
405.317	89.31
405.541	89.31
405.765	86.31
405.988	81.31
406.212	85.31
406.436	91.31
406.66	89.31
406.883	82.31
407.107	80.31
407.331	73.31
407.555	86.31
407.778	85.31
408.002	89.31
408.226	85.31
408.449	89.31
408.673	88.31
408.896	85.31
409.12	101.31
409.344	83.31
409.567	81.31
409.791	83.31
410.014	88.31
410.238	98.31
410.461	83.31
410.685	75.31
410.908	87.31
411.132	92.31
411.355	93.31
411.578	76.31
411.802	79.31
412.025	85.31
412.249	74.31
412.472	102.31
412.695	72.31
412.919	92.31
413.142	84.31
413.365	86.31
413.589	90.31
413.812	74.31
414.035	85.31
414.258	86.31
414.482	80.31
414.705	82.31
414.928	91.31
415.151	75.31
415.374	83.31
415.597	88.31
415.821	100.31
416.044	95.31
416.267	78.31
416.49	77.31
416.713	87.31
416.936	82.31
417.159	83.31
417.382	92.31
417.605	79.31
417.828	84.31
418.051	83.31
418.274	77.31
418.497	87.31
418.72	73.31
418.943	81.31
419.166	77.31
419.389	88.31
419.611	67.31
419.834	85.31
420.057	92.31
420.28	70.31
420.503	72.31
420.726	83.31
420.948	89.31
421.171	86.31
421.394	88.31
421.617	95.31
421.839	83.31
422.062	109.31
422.285	133.31
422.507	169.31
422.73	243.31
422.953	216.31
423.175	138.31
423.398	99.31
423.621	89.31
423.843	101.31
424.066	92.31
424.288	84.31
424.511	90.31
424.733	82.31
424.956	99.31
425.178	90.31
425.401	87.31
425.623	88.31
425.846	90.31
426.068	85.31
426.291	101.31
426.513	97.31
426.735	82.31
426.958	81.31
427.18	85.31
427.402	84.31
427.625	85.31
427.847	87.31
428.069	85.31
428.292	101.31
428.514	112.31
428.736	88.31
428.958	110.31
429.181	110.31
429.403	84.31
429.625	111.31
429.847	106.31
430.069	133.31
430.292	137.31
430.514	126.31
430.736	93.31
430.958	111.31
431.18	97.31
431.402	92.31
431.624	84.31
431.846	105.31
432.068	109.31
432.29	95.31
432.512	99.31
432.734	84.31
432.956	88.31
433.178	95.31
433.4	83.31
433.622	85.31
433.844	78.31
434.066	90.31
434.287	89.31
434.509	82.31
434.731	83.31
434.953	78.31
435.175	77.31
435.397	83.31
435.618	93.31
435.84	107.31
436.062	86.31
436.284	77.31
436.505	85.31
436.727	78.31
436.949	85.31
437.17	84.31
437.392	73.31
437.614	75.31
437.835	93.31
438.057	90.31
438.278	85.31
438.5	78.31
438.721	85.31
438.943	85.31
439.165	82.31
439.386	81.31
439.608	86.31
439.829	87.31
440.05	86.31
440.272	75.31
440.493	80.31
440.715	93.31
440.936	85.31
441.158	86.31
441.379	94.31
441.6	94.31
441.822	91.31
442.043	85.31
442.264	90.31
442.486	100.31
442.707	133.31
442.928	91.31
443.149	97.31
443.371	119.31
443.592	163.31
443.813	151.31
444.034	105.31
444.255	88.31
444.476	94.31
444.698	93.31
444.919	90.31
445.14	180.31
445.361	165.31
445.582	195.31
445.803	171.31
446.024	93.31
446.245	86.31
446.466	79.31
446.687	85.31
446.908	81.31
447.129	68.31
447.35	90.31
447.571	79.31
447.792	63.31
448.013	91.31
448.234	91.31
448.455	83.31
448.675	73.31
448.896	82.31
449.117	78.31
449.338	87.31
449.559	66.31
449.779	69.31
450	71.31
450.221	78.31
450.442	74.31
450.662	81.31
450.883	83.31
451.104	88.31
451.324	83.31
451.545	91.31
451.766	80.31
451.986	87.31
452.207	74.31
452.428	93.31
452.648	88.31
452.869	91.31
453.089	93.31
453.31	98.31
453.53	105.31
453.751	71.31
453.971	71.31
454.192	78.31
454.412	85.31
454.633	85.31
454.853	98.31
455.073	71.31
455.294	82.31
455.514	75.31
455.734	77.31
455.955	85.31
456.175	81.31
456.395	91.31
456.616	86.31
456.836	70.31
457.056	80.31
457.276	78.31
457.497	62.31
457.717	82.31
457.937	74.31
458.157	93.31
458.377	98.31
458.598	93.31
458.818	97.31
459.038	84.31
459.258	86.31
459.478	83.31
459.698	92.31
459.918	67.31
460.138	89.31
460.358	86.31
460.578	86.31
460.798	102.31
461.018	109.31
461.238	73.31
461.458	85.31
461.678	81.31
461.898	88.31
462.118	75.31
462.338	83.31
462.558	86.31
462.777	81.31
462.997	100.31
463.217	69.31
463.437	80.31
463.657	76.31
463.876	75.31
464.096	93.31
464.316	74.31
464.536	93.31
464.755	89.31
464.975	80.31
465.195	78.31
465.414	81.31
465.634	85.31
465.854	83.31
466.073	90.31
466.293	86.31
466.512	74.31
466.732	89.31
466.951	81.31
467.171	85.31
467.391	81.31
467.61	71.31
467.829	80.31
468.049	85.31
468.268	77.31
468.488	81.31
468.707	87.31
468.927	97.31
469.146	75.31
469.365	75.31
469.585	79.31
469.804	85.31
470.023	86.31
470.243	90.31
470.462	87.31
470.681	90.31
470.901	76.31
471.12	84.31
471.339	84.31
471.558	83.31
471.777	90.31
471.997	89.31
472.216	84.31
472.435	78.31
472.654	83.31
472.873	89.31
473.092	86.31
473.311	88.31
473.53	83.31
473.749	84.31
473.968	91.31
474.187	81.31
474.406	79.31
474.625	93.31
474.844	103.31
475.063	73.31
475.282	92.31
475.501	88.31
475.72	84.31
475.939	88.31
476.158	88.31
476.377	92.31
476.596	72.31
476.814	91.31
477.033	88.31
477.252	92.31
477.471	72.31
477.69	87.31
477.908	85.31
478.127	89.31
478.346	83.31
478.564	87.31
478.783	84.31
479.002	93.31
479.22	85.31
479.439	88.31
479.658	69.31
479.876	90.31
480.095	88.31
480.313	79.31
480.532	94.31
480.751	74.31
480.969	92.31
481.188	87.31
481.406	89.31
481.624	99.31
481.843	90.31
482.061	91.31
482.28	84.31
482.498	95.31
482.717	95.31
482.935	92.31
483.153	83.31
483.372	80.31
483.59	87.31
483.808	93.31
484.027	80.31
484.245	85.31
484.463	83.31
484.681	83.31
484.9	79.31
485.118	84.31
485.336	85.31
485.554	77.31
485.772	86.31
485.99	87.31
486.209	85.31
486.427	95.31
486.645	91.31
486.863	86.31
487.081	84.31
487.299	94.31
487.517	84.31
487.735	96.31
487.953	129.31
488.171	101.31
488.389	92.31
488.607	91.31
488.825	89.31
489.043	89.31
489.261	94.31
489.479	85.31
489.696	77.31
489.914	81.31
490.132	86.31
490.35	90.31
490.568	75.31
490.786	80.31
491.003	87.31
491.221	83.31
491.439	87.31
491.657	73.31
491.874	93.31
492.092	83.31
492.31	86.31
492.527	83.31
492.745	90.31
492.963	86.31
493.18	79.31
493.398	69.31
493.615	81.31
493.833	83.31
494.05	97.31
494.268	77.31
494.485	88.31
494.703	84.31
494.92	92.31
495.138	88.31
495.355	84.31
495.573	86.31
495.79	76.31
496.008	93.31
496.225	97.31
496.442	79.31
496.66	100.31
496.877	90.31
497.094	75.31
497.312	79.31
497.529	80.31
497.746	80.31
497.963	87.31
498.181	75.31
498.398	85.31
498.615	73.31
498.832	81.31
499.049	76.31
499.267	83.31
499.484	86.31
499.701	90.31
499.918	84.31
500.135	89.31
500.352	97.31
500.569	88.31
500.786	103.31
501.003	69.31
501.22	83.31
501.437	83.31
501.654	79.31
501.871	96.31
502.088	80.31
502.305	94.31
502.522	77.31
502.739	89.31
502.956	85.31
503.172	86.31
503.389	89.31
503.606	73.31
503.823	87.31
504.04	109.31
504.256	93.31
504.473	88.31
504.69	87.31
504.907	85.31
505.123	78.31
505.34	93.31
505.557	69.31
505.773	92.31
505.99	73.31
506.207	91.31
506.423	83.31
506.64	86.31
506.856	93.31
507.073	74.31
507.289	85.31
507.506	85.31
507.722	83.31
507.939	85.31
508.155	74.31
508.372	83.31
508.588	90.31
508.805	82.31
509.021	95.31
509.238	97.31
509.454	90.31
509.67	72.31
509.887	79.31
510.103	91.31
510.319	96.31
510.536	95.31
510.752	89.31
510.968	77.31
511.184	91.31
511.401	85.31
511.617	91.31
511.833	81.31
512.049	88.31
512.265	104.31
512.481	101.31
512.698	86.31
512.914	91.31
513.13	77.31
513.346	81.31
513.562	88.31
513.778	85.31
513.994	87.31
514.21	91.31
514.426	87.31
514.642	100.31
514.858	92.31
515.074	89.31
515.29	99.31
515.506	89.31
515.721	94.31
515.937	77.31
516.153	89.31
516.369	94.31
516.585	97.31
516.801	88.31
517.016	91.31
517.232	74.31
517.448	86.31
517.664	79.31
517.879	76.31
518.095	94.31
518.311	93.31
518.527	91.31
518.742	99.31
518.958	114.31
