Data from 2145_2_HRD10591_00015.txt Node
Date: Mon Jan 19 14:22:09 EST 2026
User: Yrep
Spectrometer: HR+D1059
Trigger mode: 1
Integration Time (sec): 1.000000E-1
Scans to average: 1
Electric dark correction enabled: true
Nonlinearity correction enabled: false
Boxcar width: 0
XAxis mode: Wavelengths
Number of Pixels in Spectrum: 2048
>>>>>Begin Spectral Data<<<<<
223.165	-25.38
223.4	-25.38
223.635	-25.38
223.869	-21.38
224.104	-13.38
224.338	-21.38
224.573	-4.38
224.808	-22.38
225.042	-8.38
225.277	-5.38
225.511	-6.38
225.746	7.62
225.98	12.62
226.215	12.62
226.449	11.62
226.683	32.62
226.918	20.62
227.152	30.62
227.387	23.62
227.621	40.62
227.856	41.62
228.09	60.62
228.324	54.62
228.559	46.62
228.793	58.62
229.027	49.62
229.262	66.62
229.496	77.62
229.73	66.62
229.964	66.62
230.199	73.62
230.433	70.62
230.667	55.62
230.901	89.62
231.136	77.62
231.37	81.62
231.604	65.62
231.838	66.62
232.072	81.62
232.306	84.62
232.541	92.62
232.775	93.62
233.009	80.62
233.243	79.62
233.477	67.62
233.711	100.62
233.945	87.62
234.179	69.62
234.413	65.62
234.647	76.62
234.881	74.62
235.115	79.62
235.349	69.62
235.583	76.62
235.817	66.62
236.051	76.62
236.285	76.62
236.519	72.62
236.753	71.62
236.987	70.62
237.221	68.62
237.455	73.62
237.689	75.62
237.922	92.62
238.156	91.62
238.39	64.62
238.624	73.62
238.858	80.62
239.091	72.62
239.325	67.62
239.559	71.62
239.793	72.62
240.027	70.62
240.26	71.62
240.494	76.62
240.728	67.62
240.961	79.62
241.195	72.62
241.429	91.62
241.662	82.62
241.896	84.62
242.13	82.62
242.363	77.62
242.597	62.62
242.83	63.62
243.064	66.62
243.298	76.62
243.531	88.62
243.765	72.62
243.998	73.62
244.232	80.62
244.465	70.62
244.699	76.62
244.932	94.62
245.166	70.62
245.399	55.62
245.633	82.62
245.866	77.62
246.099	68.62
246.333	84.62
246.566	74.62
246.8	68.62
247.033	72.62
247.266	73.62
247.5	76.62
247.733	74.62
247.966	70.62
248.2	79.62
248.433	72.62
248.666	66.62
248.899	80.62
249.133	65.62
249.366	78.62
249.599	84.62
249.832	86.62
250.066	81.62
250.299	85.62
250.532	90.62
250.765	74.62
250.998	88.62
251.231	86.62
251.465	86.62
251.698	88.62
251.931	80.62
252.164	65.62
252.397	77.62
252.63	73.62
252.863	80.62
253.096	74.62
253.329	87.62
253.562	82.62
253.795	84.62
254.028	73.62
254.261	86.62
254.494	83.62
254.727	76.62
254.96	66.62
255.193	74.62
255.426	76.62
255.659	81.62
255.892	77.62
256.124	67.62
256.357	68.62
256.59	95.62
256.823	74.62
257.056	72.62
257.289	90.62
257.521	82.62
257.754	77.62
257.987	80.62
258.22	76.62
258.452	77.62
258.685	84.62
258.918	83.62
259.151	83.62
259.383	75.62
259.616	85.62
259.849	86.62
260.081	62.62
260.314	82.62
260.547	78.62
260.779	77.62
261.012	75.62
261.244	95.62
261.477	76.62
261.71	84.62
261.942	79.62
262.175	75.62
262.407	80.62
262.64	86.62
262.872	71.62
263.105	71.62
263.337	86.62
263.57	69.62
263.802	88.62
264.035	76.62
264.267	81.62
264.499	78.62
264.732	68.62
264.964	75.62
265.197	71.62
265.429	95.62
265.661	73.62
265.894	68.62
266.126	69.62
266.358	95.62
266.591	74.62
266.823	75.62
267.055	81.62
267.287	75.62
267.52	78.62
267.752	95.62
267.984	68.62
268.216	78.62
268.448	83.62
268.681	80.62
268.913	78.62
269.145	68.62
269.377	77.62
269.609	90.62
269.841	82.62
270.073	71.62
270.306	80.62
270.538	83.62
270.77	75.62
271.002	80.62
271.234	98.62
271.466	78.62
271.698	85.62
271.93	78.62
272.162	71.62
272.394	76.62
272.626	86.62
272.858	85.62
273.09	83.62
273.322	75.62
273.553	85.62
273.785	76.62
274.017	88.62
274.249	76.62
274.481	83.62
274.713	91.62
274.945	84.62
275.176	88.62
275.408	76.62
275.64	79.62
275.872	68.62
276.104	68.62
276.335	71.62
276.567	82.62
276.799	88.62
277.031	86.62
277.262	78.62
277.494	95.62
277.726	76.62
277.957	74.62
278.189	91.62
278.421	86.62
278.652	70.62
278.884	68.62
279.115	76.62
279.347	81.62
279.579	84.62
279.81	70.62
280.042	86.62
280.273	80.62
280.505	80.62
280.736	92.62
280.968	72.62
281.199	76.62
281.431	78.62
281.662	87.62
281.894	71.62
282.125	82.62
282.356	94.62
282.588	87.62
282.819	78.62
283.051	75.62
283.282	72.62
283.513	85.62
283.745	86.62
283.976	88.62
284.207	84.62
284.439	83.62
284.67	75.62
284.901	80.62
285.132	76.62
285.364	79.62
285.595	93.62
285.826	68.62
286.057	86.62
286.288	83.62
286.52	81.62
286.751	89.62
286.982	98.62
287.213	83.62
287.444	76.62
287.675	85.62
287.906	75.62
288.138	83.62
288.369	74.62
288.6	81.62
288.831	79.62
289.062	76.62
289.293	84.62
289.524	85.62
289.755	89.62
289.986	73.62
290.217	73.62
290.448	77.62
290.679	90.62
290.91	80.62
291.141	77.62
291.371	68.62
291.602	78.62
291.833	78.62
292.064	79.62
292.295	76.62
292.526	73.62
292.757	79.62
292.987	83.62
293.218	76.62
293.449	84.62
293.68	71.62
293.91	81.62
294.141	94.62
294.372	79.62
294.603	97.62
294.833	87.62
295.064	89.62
295.295	95.62
295.525	82.62
295.756	78.62
295.987	95.62
296.217	68.62
296.448	94.62
296.679	82.62
296.909	79.62
297.14	76.62
297.37	79.62
297.601	97.62
297.831	81.62
298.062	90.62
298.292	80.62
298.523	89.62
298.753	86.62
298.984	83.62
299.214	90.62
299.445	82.62
299.675	98.62
299.905	85.62
300.136	98.62
300.366	94.62
300.597	66.62
300.827	95.62
301.057	83.62
301.288	92.62
301.518	75.62
301.748	92.62
301.979	101.62
302.209	83.62
302.439	80.62
302.669	84.62
302.9	87.62
303.13	79.62
303.36	88.62
303.59	80.62
303.82	102.62
304.051	83.62
304.281	84.62
304.511	84.62
304.741	87.62
304.971	87.62
305.201	79.62
305.431	81.62
305.661	81.62
305.891	72.62
306.121	93.62
306.352	102.62
306.582	90.62
306.812	90.62
307.042	87.62
307.272	86.62
307.502	90.62
307.731	86.62
307.961	87.62
308.191	80.62
308.421	94.62
308.651	82.62
308.881	90.62
309.111	92.62
309.341	79.62
309.571	82.62
309.8	76.62
310.03	99.62
310.26	86.62
310.49	82.62
310.72	82.62
310.949	77.62
311.179	74.62
311.409	80.62
311.639	79.62
311.868	65.62
312.098	77.62
312.328	86.62
312.557	76.62
312.787	77.62
313.017	80.62
313.246	87.62
313.476	84.62
313.706	96.62
313.935	91.62
314.165	62.62
314.394	80.62
314.624	81.62
314.853	80.62
315.083	68.62
315.312	77.62
315.542	75.62
315.771	82.62
316.001	85.62
316.23	101.62
316.46	91.62
316.689	78.62
316.919	84.62
317.148	92.62
317.377	96.62
317.607	67.62
317.836	84.62
318.065	80.62
318.295	95.62
318.524	93.62
318.753	84.62
318.983	92.62
319.212	83.62
319.441	79.62
319.67	81.62
319.9	82.62
320.129	75.62
320.358	77.62
320.587	83.62
320.816	82.62
321.046	89.62
321.275	85.62
321.504	85.62
321.733	93.62
321.962	90.62
322.191	80.62
322.42	71.62
322.649	79.62
322.878	87.62
323.108	84.62
323.337	78.62
323.566	82.62
323.795	83.62
324.024	73.62
324.253	76.62
324.482	77.62
324.71	88.62
324.939	70.62
325.168	78.62
325.397	92.62
325.626	82.62
325.855	77.62
326.084	92.62
326.313	74.62
326.542	71.62
326.77	86.62
326.999	88.62
327.228	87.62
327.457	89.62
327.686	77.62
327.914	91.62
328.143	74.62
328.372	78.62
328.6	80.62
328.829	86.62
329.058	75.62
329.287	73.62
329.515	98.62
329.744	74.62
329.972	91.62
330.201	75.62
330.43	89.62
330.658	82.62
330.887	97.62
331.115	78.62
331.344	74.62
331.572	83.62
331.801	88.62
332.03	74.62
332.258	94.62
332.486	82.62
332.715	91.62
332.943	76.62
333.172	91.62
333.4	78.62
333.629	75.62
333.857	89.62
334.085	100.62
334.314	72.62
334.542	72.62
334.771	84.62
334.999	86.62
335.227	86.62
335.455	99.62
335.684	81.62
335.912	91.62
336.14	86.62
336.369	92.62
336.597	73.62
336.825	75.62
337.053	83.62
337.281	87.62
337.51	74.62
337.738	92.62
337.966	81.62
338.194	76.62
338.422	83.62
338.65	70.62
338.878	80.62
339.106	72.62
339.334	84.62
339.562	98.62
339.79	87.62
340.018	63.62
340.246	74.62
340.474	87.62
340.702	76.62
340.93	80.62
341.158	77.62
341.386	69.62
341.614	85.62
341.842	92.62
342.07	80.62
342.298	67.62
342.526	97.62
342.754	80.62
342.981	87.62
343.209	85.62
343.437	105.62
343.665	85.62
343.893	82.62
344.12	67.62
344.348	86.62
344.576	81.62
344.804	89.62
345.031	97.62
345.259	87.62
345.487	82.62
345.714	86.62
345.942	80.62
346.17	92.62
346.397	78.62
346.625	72.62
346.853	72.62
347.08	83.62
347.308	82.62
347.535	94.62
347.763	87.62
347.99	78.62
348.218	96.62
348.445	94.62
348.673	85.62
348.9	81.62
349.128	83.62
349.355	91.62
349.583	83.62
349.81	86.62
350.037	77.62
350.265	97.62
350.492	77.62
350.72	84.62
350.947	78.62
351.174	86.62
351.402	89.62
351.629	83.62
351.856	82.62
352.083	67.62
352.311	83.62
352.538	96.62
352.765	105.62
352.992	68.62
353.22	81.62
353.447	92.62
353.674	75.62
353.901	69.62
354.128	76.62
354.355	90.62
354.583	86.62
354.81	87.62
355.037	78.62
355.264	79.62
355.491	81.62
355.718	69.62
355.945	92.62
356.172	80.62
356.399	82.62
356.626	87.62
356.853	84.62
357.08	87.62
357.307	97.62
357.534	82.62
357.761	85.62
357.988	85.62
358.215	89.62
358.441	84.62
358.668	80.62
358.895	71.62
359.122	88.62
359.349	80.62
359.576	67.62
359.802	76.62
360.029	81.62
360.256	77.62
360.483	94.62
360.709	80.62
360.936	96.62
361.163	101.62
361.39	98.62
361.616	83.62
361.843	104.62
362.07	87.62
362.296	91.62
362.523	89.62
362.749	86.62
362.976	101.62
363.203	106.62
363.429	104.62
363.656	93.62
363.882	103.62
364.109	108.62
364.335	117.62
364.562	118.62
364.788	103.62
365.015	96.62
365.241	84.62
365.468	90.62
365.694	82.62
365.92	74.62
366.147	97.62
366.373	83.62
366.599	65.62
366.826	78.62
367.052	80.62
367.278	75.62
367.505	77.62
367.731	84.62
367.957	77.62
368.184	71.62
368.41	79.62
368.636	96.62
368.862	90.62
369.089	85.62
369.315	87.62
369.541	88.62
369.767	64.62
369.993	75.62
370.219	68.62
370.445	73.62
370.672	82.62
370.898	83.62
371.124	73.62
371.35	82.62
371.576	96.62
371.802	88.62
372.028	89.62
372.254	83.62
372.48	92.62
372.706	86.62
372.932	80.62
373.158	84.62
373.384	71.62
373.61	87.62
373.835	95.62
374.061	91.62
374.287	88.62
374.513	93.62
374.739	102.62
374.965	73.62
375.191	91.62
375.416	95.62
375.642	88.62
375.868	89.62
376.094	93.62
376.319	92.62
376.545	101.62
376.771	83.62
376.997	75.62
377.222	68.62
377.448	96.62
377.674	69.62
377.899	82.62
378.125	80.62
378.35	94.62
378.576	78.62
378.802	67.62
379.027	86.62
379.253	92.62
379.478	99.62
379.704	95.62
379.929	84.62
380.155	90.62
380.38	79.62
380.606	73.62
380.831	94.62
381.057	80.62
381.282	80.62
381.507	81.62
381.733	91.62
381.958	77.62
382.184	80.62
382.409	94.62
382.634	84.62
382.86	88.62
383.085	89.62
383.31	81.62
383.535	85.62
383.761	84.62
383.986	83.62
384.211	83.62
384.436	86.62
384.662	75.62
384.887	92.62
385.112	88.62
385.337	81.62
385.562	95.62
385.787	89.62
386.013	82.62
386.238	81.62
386.463	96.62
386.688	97.62
386.913	85.62
387.138	85.62
387.363	92.62
387.588	87.62
387.813	89.62
388.038	86.62
388.263	101.62
388.488	82.62
388.713	102.62
388.938	87.62
389.163	81.62
389.387	91.62
389.612	90.62
389.837	89.62
390.062	81.62
390.287	89.62
390.512	92.62
390.736	89.62
390.961	89.62
391.186	74.62
391.411	77.62
391.636	97.62
391.86	87.62
392.085	92.62
392.31	95.62
392.534	103.62
392.759	104.62
392.984	128.62
393.208	182.62
393.433	227.62
393.658	172.62
393.882	114.62
394.107	84.62
394.331	104.62
394.556	94.62
394.78	103.62
395.005	87.62
395.229	85.62
395.454	87.62
395.678	103.62
395.903	106.62
396.127	126.62
396.352	124.62
396.576	136.62
396.801	192.62
397.025	179.62
397.249	140.62
397.474	103.62
397.698	101.62
397.922	97.62
398.147	89.62
398.371	76.62
398.595	83.62
398.82	84.62
399.044	89.62
399.268	86.62
399.492	74.62
399.717	75.62
399.941	82.62
400.165	80.62
400.389	88.62
400.613	82.62
400.837	82.62
401.062	82.62
401.286	84.62
401.51	98.62
401.734	91.62
401.958	91.62
402.182	100.62
402.406	79.62
402.63	85.62
402.854	81.62
403.078	77.62
403.302	81.62
403.526	99.62
403.75	100.62
403.974	77.62
404.198	102.62
404.422	114.62
404.645	129.62
404.869	115.62
405.093	108.62
405.317	96.62
405.541	87.62
405.765	80.62
405.988	73.62
406.212	72.62
406.436	88.62
406.66	97.62
406.883	96.62
407.107	91.62
407.331	96.62
407.555	79.62
407.778	88.62
408.002	100.62
408.226	83.62
408.449	83.62
408.673	92.62
408.896	99.62
409.12	89.62
409.344	100.62
409.567	102.62
409.791	105.62
410.014	89.62
410.238	103.62
410.461	84.62
410.685	84.62
410.908	85.62
411.132	80.62
411.355	66.62
411.578	85.62
411.802	83.62
412.025	95.62
412.249	90.62
412.472	75.62
412.695	86.62
412.919	78.62
413.142	89.62
413.365	88.62
413.589	85.62
413.812	79.62
414.035	86.62
414.258	72.62
414.482	77.62
414.705	91.62
414.928	86.62
415.151	74.62
415.374	87.62
415.597	82.62
415.821	101.62
416.044	75.62
416.267	98.62
416.49	74.62
416.713	93.62
416.936	60.62
417.159	83.62
417.382	88.62
417.605	77.62
417.828	90.62
418.051	73.62
418.274	86.62
418.497	82.62
418.72	91.62
418.943	85.62
419.166	88.62
419.389	99.62
419.611	82.62
419.834	81.62
420.057	79.62
420.28	76.62
420.503	108.62
420.726	76.62
420.948	85.62
421.171	87.62
421.394	102.62
421.617	101.62
421.839	136.62
422.062	124.62
422.285	174.62
422.507	233.62
422.73	276.62
422.953	283.62
423.175	201.62
423.398	130.62
423.621	107.62
423.843	115.62
424.066	110.62
424.288	100.62
424.511	97.62
424.733	99.62
424.956	85.62
425.178	88.62
425.401	77.62
425.623	92.62
425.846	66.62
426.068	78.62
426.291	87.62
426.513	93.62
426.735	93.62
426.958	84.62
427.18	97.62
427.402	75.62
427.625	78.62
427.847	80.62
428.069	107.62
428.292	119.62
428.514	110.62
428.736	103.62
428.958	127.62
429.181	118.62
429.403	100.62
429.625	98.62
429.847	108.62
430.069	146.62
430.292	174.62
430.514	156.62
430.736	129.62
430.958	135.62
431.18	89.62
431.402	95.62
431.624	100.62
431.846	120.62
432.068	128.62
432.29	99.62
432.512	83.62
432.734	91.62
432.956	92.62
433.178	94.62
433.4	87.62
433.622	93.62
433.844	85.62
434.066	86.62
434.287	84.62
434.509	81.62
434.731	71.62
434.953	84.62
435.175	62.62
435.397	91.62
435.618	68.62
435.84	77.62
436.062	88.62
436.284	88.62
436.505	82.62
436.727	91.62
436.949	100.62
437.17	78.62
437.392	73.62
437.614	86.62
437.835	96.62
438.057	90.62
438.278	86.62
438.5	95.62
438.721	96.62
438.943	89.62
439.165	77.62
439.386	81.62
439.608	75.62
439.829	96.62
440.05	81.62
440.272	68.62
440.493	82.62
440.715	86.62
440.936	79.62
441.158	89.62
441.379	85.62
441.6	84.62
441.822	84.62
442.043	82.62
442.264	95.62
442.486	144.62
442.707	178.62
442.928	129.62
443.149	100.62
443.371	161.62
443.592	229.62
443.813	201.62
444.034	123.62
444.255	90.62
444.476	100.62
444.698	94.62
444.919	103.62
445.14	186.62
445.361	222.62
445.582	277.62
445.803	238.62
446.024	124.62
446.245	97.62
446.466	67.62
446.687	83.62
446.908	86.62
447.129	82.62
447.35	82.62
447.571	70.62
447.792	75.62
448.013	91.62
448.234	91.62
448.455	73.62
448.675	86.62
448.896	74.62
449.117	82.62
449.338	79.62
449.559	66.62
449.779	82.62
450	86.62
450.221	94.62
450.442	94.62
450.662	82.62
450.883	68.62
451.104	86.62
451.324	82.62
451.545	98.62
451.766	92.62
451.986	87.62
452.207	88.62
452.428	97.62
452.648	82.62
452.869	94.62
453.089	97.62
453.31	72.62
453.53	70.62
453.751	101.62
453.971	98.62
454.192	92.62
454.412	82.62
454.633	83.62
454.853	99.62
455.073	75.62
455.294	90.62
455.514	83.62
455.734	88.62
455.955	115.62
456.175	87.62
456.395	83.62
456.616	81.62
456.836	87.62
457.056	81.62
457.276	77.62
457.497	75.62
457.717	82.62
457.937	107.62
458.157	122.62
458.377	129.62
458.598	119.62
458.818	121.62
459.038	84.62
459.258	86.62
459.478	85.62
459.698	83.62
459.918	81.62
460.138	77.62
460.358	86.62
460.578	96.62
460.798	106.62
461.018	115.62
461.238	79.62
461.458	73.62
461.678	88.62
461.898	85.62
462.118	92.62
462.338	92.62
462.558	76.62
462.777	74.62
462.997	83.62
463.217	70.62
463.437	68.62
463.657	82.62
463.876	93.62
464.096	82.62
464.316	78.62
464.536	74.62
464.755	83.62
464.975	97.62
465.195	88.62
465.414	60.62
465.634	83.62
465.854	69.62
466.073	79.62
466.293	83.62
466.512	89.62
466.732	91.62
466.951	98.62
467.171	75.62
467.391	90.62
467.61	86.62
467.829	76.62
468.049	80.62
468.268	74.62
468.488	85.62
468.707	78.62
468.927	88.62
469.146	68.62
469.365	83.62
469.585	88.62
469.804	86.62
470.023	76.62
470.243	85.62
470.462	94.62
470.681	98.62
470.901	90.62
471.12	81.62
471.339	88.62
471.558	91.62
471.777	100.62
471.997	86.62
472.216	86.62
472.435	82.62
472.654	84.62
472.873	81.62
473.092	89.62
473.311	82.62
473.53	83.62
473.749	92.62
473.968	93.62
474.187	79.62
474.406	78.62
474.625	88.62
474.844	90.62
475.063	104.62
475.282	86.62
475.501	88.62
475.72	82.62
475.939	89.62
476.158	81.62
476.377	82.62
476.596	80.62
476.814	94.62
477.033	88.62
477.252	87.62
477.471	70.62
477.69	86.62
477.908	89.62
478.127	97.62
478.346	76.62
478.564	81.62
478.783	82.62
479.002	87.62
479.22	74.62
479.439	83.62
479.658	84.62
479.876	90.62
480.095	67.62
480.313	95.62
480.532	87.62
480.751	82.62
480.969	90.62
481.188	91.62
481.406	107.62
481.624	86.62
481.843	88.62
482.061	90.62
482.28	86.62
482.498	75.62
482.717	97.62
482.935	100.62
483.153	89.62
483.372	98.62
483.59	74.62
483.808	94.62
484.027	81.62
484.245	98.62
484.463	87.62
484.681	85.62
484.9	82.62
485.118	84.62
485.336	81.62
485.554	74.62
485.772	95.62
485.99	90.62
486.209	89.62
486.427	91.62
486.645	86.62
486.863	89.62
487.081	88.62
487.299	77.62
487.517	99.62
487.735	104.62
487.953	163.62
488.171	153.62
488.389	94.62
488.607	99.62
488.825	85.62
489.043	96.62
489.261	104.62
489.479	91.62
489.696	87.62
489.914	94.62
490.132	95.62
490.35	75.62
490.568	83.62
490.786	88.62
491.003	83.62
491.221	83.62
491.439	90.62
491.657	86.62
491.874	80.62
492.092	77.62
492.31	89.62
492.527	81.62
492.745	74.62
492.963	96.62
493.18	73.62
493.398	76.62
493.615	80.62
493.833	76.62
494.05	84.62
494.268	83.62
494.485	101.62
494.703	98.62
494.92	96.62
495.138	74.62
495.355	94.62
495.573	81.62
495.79	89.62
496.008	98.62
496.225	92.62
496.442	97.62
496.66	85.62
496.877	83.62
497.094	100.62
497.312	88.62
497.529	81.62
497.746	74.62
497.963	82.62
498.181	94.62
498.398	96.62
498.615	92.62
498.832	90.62
499.049	88.62
499.267	97.62
499.484	90.62
499.701	90.62
499.918	111.62
500.135	90.62
500.352	95.62
500.569	79.62
500.786	95.62
501.003	103.62
501.22	81.62
501.437	84.62
501.654	101.62
501.871	78.62
502.088	101.62
502.305	81.62
502.522	91.62
502.739	90.62
502.956	77.62
503.172	95.62
503.389	93.62
503.606	99.62
503.823	91.62
504.04	102.62
504.256	123.62
504.473	136.62
504.69	92.62
504.907	94.62
505.123	87.62
505.34	94.62
505.557	94.62
505.773	102.62
505.99	78.62
506.207	90.62
506.423	89.62
506.64	74.62
506.856	74.62
507.073	69.62
507.289	76.62
507.506	70.62
507.722	91.62
507.939	86.62
508.155	74.62
508.372	92.62
508.588	70.62
508.805	89.62
509.021	85.62
509.238	74.62
509.454	80.62
509.67	88.62
509.887	80.62
510.103	87.62
510.319	94.62
510.536	75.62
510.752	80.62
510.968	94.62
511.184	82.62
511.401	91.62
511.617	89.62
511.833	94.62
512.049	89.62
512.265	80.62
512.481	95.62
512.698	98.62
512.914	98.62
513.13	98.62
513.346	71.62
513.562	80.62
513.778	94.62
513.994	106.62
514.21	87.62
514.426	87.62
514.642	88.62
514.858	88.62
515.074	83.62
515.29	90.62
515.506	98.62
515.721	84.62
515.937	96.62
516.153	98.62
516.369	83.62
516.585	76.62
516.801	89.62
517.016	112.62
517.232	77.62
517.448	78.62
517.664	89.62
517.879	99.62
518.095	102.62
518.311	91.62
