Data from 1600_1_HRD10591_00028.txt Node
Date: Mon Jan 19 13:47:55 EST 2026
User: Yrep
Spectrometer: HR+D1059
Trigger mode: 1
Integration Time (sec): 1.000000E-1
Scans to average: 1
Electric dark correction enabled: true
Nonlinearity correction enabled: false
Boxcar width: 0
XAxis mode: Wavelengths
Number of Pixels in Spectrum: 2048
>>>>>Begin Spectral Data<<<<<
223.165	-18.62
223.4	-18.62
223.635	-18.62
223.869	-21.62
224.104	-7.62
224.338	-18.62
224.573	-3.62
224.808	-19.62
225.042	-12.62
225.277	-11.62
225.511	1.38
225.746	-2.62
225.98	-2.62
226.215	5.38
226.449	17.38
226.683	21.38
226.918	30.38
227.152	43.38
227.387	39.38
227.621	43.38
227.856	44.38
228.09	44.38
228.324	29.38
228.559	47.38
228.793	60.38
229.027	57.38
229.262	66.38
229.496	69.38
229.73	71.38
229.964	74.38
230.199	67.38
230.433	74.38
230.667	77.38
230.901	90.38
231.136	71.38
231.37	81.38
231.604	71.38
231.838	65.38
232.072	88.38
232.306	69.38
232.541	66.38
232.775	83.38
233.009	79.38
233.243	84.38
233.477	76.38
233.711	82.38
233.945	81.38
234.179	78.38
234.413	79.38
234.647	77.38
234.881	71.38
235.115	79.38
235.349	83.38
235.583	68.38
235.817	73.38
236.051	63.38
236.285	87.38
236.519	62.38
236.753	70.38
236.987	75.38
237.221	71.38
237.455	83.38
237.689	72.38
237.922	72.38
238.156	68.38
238.39	70.38
238.624	71.38
238.858	74.38
239.091	80.38
239.325	83.38
239.559	75.38
239.793	59.38
240.027	59.38
240.26	74.38
240.494	83.38
240.728	83.38
240.961	75.38
241.195	64.38
241.429	71.38
241.662	87.38
241.896	68.38
242.13	61.38
242.363	68.38
242.597	63.38
242.83	81.38
243.064	71.38
243.298	69.38
243.531	76.38
243.765	79.38
243.998	64.38
244.232	78.38
244.465	64.38
244.699	73.38
244.932	71.38
245.166	71.38
245.399	71.38
245.633	86.38
245.866	67.38
246.099	69.38
246.333	81.38
246.566	73.38
246.8	84.38
247.033	87.38
247.266	72.38
247.5	59.38
247.733	68.38
247.966	79.38
248.2	83.38
248.433	65.38
248.666	77.38
248.899	75.38
249.133	69.38
249.366	58.38
249.599	86.38
249.832	76.38
250.066	86.38
250.299	69.38
250.532	86.38
250.765	80.38
250.998	80.38
251.231	78.38
251.465	79.38
251.698	72.38
251.931	72.38
252.164	72.38
252.397	70.38
252.63	79.38
252.863	72.38
253.096	70.38
253.329	77.38
253.562	70.38
253.795	71.38
254.028	91.38
254.261	80.38
254.494	84.38
254.727	77.38
254.96	77.38
255.193	69.38
255.426	78.38
255.659	63.38
255.892	82.38
256.124	92.38
256.357	70.38
256.59	79.38
256.823	78.38
257.056	82.38
257.289	93.38
257.521	79.38
257.754	73.38
257.987	72.38
258.22	77.38
258.452	71.38
258.685	87.38
258.918	92.38
259.151	85.38
259.383	80.38
259.616	70.38
259.849	81.38
260.081	89.38
260.314	86.38
260.547	78.38
260.779	78.38
261.012	74.38
261.244	77.38
261.477	80.38
261.71	90.38
261.942	71.38
262.175	81.38
262.407	78.38
262.64	62.38
262.872	86.38
263.105	80.38
263.337	75.38
263.57	71.38
263.802	88.38
264.035	79.38
264.267	82.38
264.499	90.38
264.732	69.38
264.964	55.38
265.197	89.38
265.429	81.38
265.661	76.38
265.894	84.38
266.126	95.38
266.358	85.38
266.591	82.38
266.823	82.38
267.055	83.38
267.287	69.38
267.52	74.38
267.752	84.38
267.984	76.38
268.216	79.38
268.448	92.38
268.681	70.38
268.913	77.38
269.145	72.38
269.377	86.38
269.609	80.38
269.841	75.38
270.073	79.38
270.306	70.38
270.538	77.38
270.77	78.38
271.002	82.38
271.234	75.38
271.466	85.38
271.698	82.38
271.93	96.38
272.162	79.38
272.394	75.38
272.626	83.38
272.858	89.38
273.09	88.38
273.322	74.38
273.553	91.38
273.785	68.38
274.017	83.38
274.249	81.38
274.481	80.38
274.713	80.38
274.945	71.38
275.176	65.38
275.408	80.38
275.64	89.38
275.872	70.38
276.104	90.38
276.335	92.38
276.567	66.38
276.799	87.38
277.031	67.38
277.262	83.38
277.494	81.38
277.726	82.38
277.957	89.38
278.189	83.38
278.421	74.38
278.652	66.38
278.884	96.38
279.115	90.38
279.347	69.38
279.579	76.38
279.81	69.38
280.042	78.38
280.273	77.38
280.505	81.38
280.736	93.38
280.968	93.38
281.199	74.38
281.431	75.38
281.662	74.38
281.894	70.38
282.125	77.38
282.356	85.38
282.588	75.38
282.819	83.38
283.051	65.38
283.282	86.38
283.513	87.38
283.745	85.38
283.976	75.38
284.207	66.38
284.439	82.38
284.67	92.38
284.901	84.38
285.132	77.38
285.364	78.38
285.595	79.38
285.826	92.38
286.057	78.38
286.288	71.38
286.52	81.38
286.751	91.38
286.982	76.38
287.213	81.38
287.444	79.38
287.675	92.38
287.906	89.38
288.138	86.38
288.369	78.38
288.6	79.38
288.831	89.38
289.062	78.38
289.293	70.38
289.524	79.38
289.755	77.38
289.986	89.38
290.217	71.38
290.448	85.38
290.679	86.38
290.91	93.38
291.141	71.38
291.371	77.38
291.602	79.38
291.833	86.38
292.064	75.38
292.295	91.38
292.526	89.38
292.757	81.38
292.987	84.38
293.218	86.38
293.449	78.38
293.68	75.38
293.91	89.38
294.141	81.38
294.372	78.38
294.603	84.38
294.833	90.38
295.064	78.38
295.295	83.38
295.525	85.38
295.756	79.38
295.987	88.38
296.217	93.38
296.448	75.38
296.679	81.38
296.909	89.38
297.14	77.38
297.37	71.38
297.601	82.38
297.831	83.38
298.062	81.38
298.292	80.38
298.523	76.38
298.753	83.38
298.984	79.38
299.214	76.38
299.445	81.38
299.675	70.38
299.905	94.38
300.136	85.38
300.366	78.38
300.597	72.38
300.827	88.38
301.057	88.38
301.288	79.38
301.518	76.38
301.748	94.38
301.979	97.38
302.209	92.38
302.439	87.38
302.669	86.38
302.9	78.38
303.13	72.38
303.36	93.38
303.59	91.38
303.82	85.38
304.051	80.38
304.281	94.38
304.511	66.38
304.741	86.38
304.971	81.38
305.201	97.38
305.431	79.38
305.661	95.38
305.891	69.38
306.121	78.38
306.352	86.38
306.582	85.38
306.812	83.38
307.042	75.38
307.272	81.38
307.502	76.38
307.731	81.38
307.961	87.38
308.191	82.38
308.421	77.38
308.651	95.38
308.881	76.38
309.111	83.38
309.341	81.38
309.571	94.38
309.8	90.38
310.03	83.38
310.26	81.38
310.49	78.38
310.72	91.38
310.949	80.38
311.179	63.38
311.409	79.38
311.639	97.38
311.868	84.38
312.098	95.38
312.328	81.38
312.557	88.38
312.787	75.38
313.017	97.38
313.246	89.38
313.476	76.38
313.706	78.38
313.935	97.38
314.165	97.38
314.394	76.38
314.624	85.38
314.853	105.38
315.083	86.38
315.312	84.38
315.542	89.38
315.771	89.38
316.001	93.38
316.23	85.38
316.46	92.38
316.689	93.38
316.919	85.38
317.148	86.38
317.377	76.38
317.607	94.38
317.836	66.38
318.065	94.38
318.295	101.38
318.524	77.38
318.753	82.38
318.983	83.38
319.212	84.38
319.441	80.38
319.67	81.38
319.9	77.38
320.129	84.38
320.358	92.38
320.587	62.38
320.816	81.38
321.046	87.38
321.275	76.38
321.504	92.38
321.733	90.38
321.962	87.38
322.191	84.38
322.42	76.38
322.649	71.38
322.878	86.38
323.108	77.38
323.337	67.38
323.566	85.38
323.795	79.38
324.024	90.38
324.253	80.38
324.482	83.38
324.71	77.38
324.939	90.38
325.168	81.38
325.397	81.38
325.626	86.38
325.855	86.38
326.084	93.38
326.313	85.38
326.542	72.38
326.77	77.38
326.999	97.38
327.228	79.38
327.457	75.38
327.686	79.38
327.914	87.38
328.143	95.38
328.372	85.38
328.6	86.38
328.829	74.38
329.058	75.38
329.287	59.38
329.515	84.38
329.744	88.38
329.972	86.38
330.201	85.38
330.43	81.38
330.658	79.38
330.887	86.38
331.115	79.38
331.344	88.38
331.572	80.38
331.801	87.38
332.03	89.38
332.258	71.38
332.486	89.38
332.715	90.38
332.943	80.38
333.172	86.38
333.4	80.38
333.629	87.38
333.857	88.38
334.085	84.38
334.314	86.38
334.542	87.38
334.771	88.38
334.999	88.38
335.227	85.38
335.455	81.38
335.684	91.38
335.912	84.38
336.14	93.38
336.369	84.38
336.597	89.38
336.825	75.38
337.053	81.38
337.281	79.38
337.51	90.38
337.738	95.38
337.966	78.38
338.194	97.38
338.422	79.38
338.65	93.38
338.878	82.38
339.106	84.38
339.334	89.38
339.562	82.38
339.79	110.38
340.018	80.38
340.246	79.38
340.474	61.38
340.702	73.38
340.93	89.38
341.158	82.38
341.386	90.38
341.614	76.38
341.842	103.38
342.07	77.38
342.298	86.38
342.526	81.38
342.754	70.38
342.981	89.38
343.209	73.38
343.437	92.38
343.665	64.38
343.893	80.38
344.12	87.38
344.348	81.38
344.576	73.38
344.804	72.38
345.031	82.38
345.259	79.38
345.487	74.38
345.714	69.38
345.942	84.38
346.17	73.38
346.397	93.38
346.625	64.38
346.853	69.38
347.08	79.38
347.308	72.38
347.535	73.38
347.763	74.38
347.99	70.38
348.218	91.38
348.445	90.38
348.673	89.38
348.9	74.38
349.128	83.38
349.355	102.38
349.583	75.38
349.81	84.38
350.037	86.38
350.265	80.38
350.492	78.38
350.72	85.38
350.947	86.38
351.174	89.38
351.402	89.38
351.629	79.38
351.856	69.38
352.083	90.38
352.311	86.38
352.538	77.38
352.765	82.38
352.992	83.38
353.22	82.38
353.447	93.38
353.674	79.38
353.901	93.38
354.128	87.38
354.355	77.38
354.583	90.38
354.81	93.38
355.037	70.38
355.264	74.38
355.491	78.38
355.718	83.38
355.945	70.38
356.172	78.38
356.399	78.38
356.626	85.38
356.853	74.38
357.08	84.38
357.307	79.38
357.534	86.38
357.761	80.38
357.988	80.38
358.215	74.38
358.441	75.38
358.668	79.38
358.895	79.38
359.122	79.38
359.349	72.38
359.576	82.38
359.802	67.38
360.029	79.38
360.256	84.38
360.483	92.38
360.709	67.38
360.936	87.38
361.163	92.38
361.39	86.38
361.616	82.38
361.843	82.38
362.07	82.38
362.296	84.38
362.523	72.38
362.749	87.38
362.976	86.38
363.203	83.38
363.429	83.38
363.656	77.38
363.882	75.38
364.109	82.38
364.335	89.38
364.562	82.38
364.788	71.38
365.015	91.38
365.241	89.38
365.468	94.38
365.694	94.38
365.92	83.38
366.147	69.38
366.373	79.38
366.599	76.38
366.826	81.38
367.052	78.38
367.278	84.38
367.505	89.38
367.731	81.38
367.957	82.38
368.184	84.38
368.41	76.38
368.636	87.38
368.862	78.38
369.089	89.38
369.315	71.38
369.541	82.38
369.767	101.38
369.993	67.38
370.219	76.38
370.445	75.38
370.672	75.38
370.898	85.38
371.124	81.38
371.35	76.38
371.576	85.38
371.802	87.38
372.028	91.38
372.254	78.38
372.48	84.38
372.706	82.38
372.932	74.38
373.158	98.38
373.384	89.38
373.61	84.38
373.835	77.38
374.061	71.38
374.287	71.38
374.513	65.38
374.739	76.38
374.965	68.38
375.191	89.38
375.416	85.38
375.642	68.38
375.868	89.38
376.094	85.38
376.319	81.38
376.545	82.38
376.771	79.38
376.997	94.38
377.222	94.38
377.448	93.38
377.674	80.38
377.899	77.38
378.125	80.38
378.35	92.38
378.576	82.38
378.802	78.38
379.027	99.38
379.253	86.38
379.478	65.38
379.704	74.38
379.929	74.38
380.155	73.38
380.38	71.38
380.606	76.38
380.831	70.38
381.057	76.38
381.282	86.38
381.507	81.38
381.733	90.38
381.958	94.38
382.184	72.38
382.409	71.38
382.634	75.38
382.86	83.38
383.085	75.38
383.31	77.38
383.535	80.38
383.761	83.38
383.986	89.38
384.211	87.38
384.436	83.38
384.662	85.38
384.887	82.38
385.112	82.38
385.337	84.38
385.562	78.38
385.787	79.38
386.013	86.38
386.238	81.38
386.463	78.38
386.688	89.38
386.913	66.38
387.138	84.38
387.363	73.38
387.588	66.38
387.813	83.38
388.038	83.38
388.263	73.38
388.488	82.38
388.713	79.38
388.938	76.38
389.163	86.38
389.387	86.38
389.612	74.38
389.837	91.38
390.062	81.38
390.287	77.38
390.512	80.38
390.736	72.38
390.961	86.38
391.186	81.38
391.411	64.38
391.636	80.38
391.86	86.38
392.085	95.38
392.31	78.38
392.534	75.38
392.759	84.38
392.984	86.38
393.208	92.38
393.433	90.38
393.658	91.38
393.882	83.38
394.107	81.38
394.331	75.38
394.556	78.38
394.78	69.38
395.005	81.38
395.229	71.38
395.454	63.38
395.678	62.38
395.903	85.38
396.127	72.38
396.352	74.38
396.576	75.38
396.801	77.38
397.025	76.38
397.249	74.38
397.474	77.38
397.698	75.38
397.922	86.38
398.147	85.38
398.371	70.38
398.595	61.38
398.82	76.38
399.044	54.38
399.268	87.38
399.492	91.38
399.717	82.38
399.941	69.38
400.165	87.38
400.389	74.38
400.613	86.38
400.837	81.38
401.062	83.38
401.286	101.38
401.51	75.38
401.734	73.38
401.958	83.38
402.182	79.38
402.406	88.38
402.63	95.38
402.854	82.38
403.078	87.38
403.302	74.38
403.526	79.38
403.75	79.38
403.974	77.38
404.198	69.38
404.422	86.38
404.645	89.38
404.869	81.38
405.093	75.38
405.317	67.38
405.541	77.38
405.765	67.38
405.988	98.38
406.212	80.38
406.436	76.38
406.66	87.38
406.883	85.38
407.107	78.38
407.331	76.38
407.555	77.38
407.778	83.38
408.002	65.38
408.226	86.38
408.449	76.38
408.673	77.38
408.896	71.38
409.12	65.38
409.344	75.38
409.567	73.38
409.791	85.38
410.014	77.38
410.238	87.38
410.461	72.38
410.685	84.38
410.908	81.38
411.132	78.38
411.355	83.38
411.578	71.38
411.802	64.38
412.025	70.38
412.249	85.38
412.472	84.38
412.695	84.38
412.919	83.38
413.142	65.38
413.365	85.38
413.589	75.38
413.812	66.38
414.035	83.38
414.258	81.38
414.482	81.38
414.705	84.38
414.928	85.38
415.151	80.38
415.374	77.38
415.597	67.38
415.821	82.38
416.044	85.38
416.267	87.38
416.49	84.38
416.713	72.38
416.936	84.38
417.159	74.38
417.382	59.38
417.605	57.38
417.828	67.38
418.051	81.38
418.274	81.38
418.497	77.38
418.72	74.38
418.943	81.38
419.166	78.38
419.389	74.38
419.611	72.38
419.834	80.38
420.057	92.38
420.28	89.38
420.503	85.38
420.726	81.38
420.948	91.38
421.171	82.38
421.394	93.38
421.617	75.38
421.839	66.38
422.062	75.38
422.285	88.38
422.507	89.38
422.73	101.38
422.953	90.38
423.175	78.38
423.398	83.38
423.621	80.38
423.843	78.38
424.066	84.38
424.288	69.38
424.511	78.38
424.733	93.38
424.956	78.38
425.178	88.38
425.401	81.38
425.623	91.38
425.846	77.38
426.068	83.38
426.291	82.38
426.513	69.38
426.735	87.38
426.958	91.38
427.18	71.38
427.402	76.38
427.625	80.38
427.847	78.38
428.069	83.38
428.292	80.38
428.514	83.38
428.736	77.38
428.958	75.38
429.181	85.38
429.403	76.38
429.625	84.38
429.847	82.38
430.069	77.38
430.292	88.38
430.514	81.38
430.736	75.38
430.958	61.38
431.18	84.38
431.402	92.38
431.624	92.38
431.846	89.38
432.068	72.38
432.29	84.38
432.512	92.38
432.734	87.38
432.956	67.38
433.178	77.38
433.4	70.38
433.622	72.38
433.844	77.38
434.066	82.38
434.287	92.38
434.509	69.38
434.731	74.38
434.953	79.38
435.175	70.38
435.397	80.38
435.618	67.38
435.84	89.38
436.062	76.38
436.284	69.38
436.505	83.38
436.727	95.38
436.949	81.38
437.17	74.38
437.392	83.38
437.614	82.38
437.835	86.38
438.057	77.38
438.278	68.38
438.5	71.38
438.721	81.38
438.943	82.38
439.165	74.38
439.386	74.38
439.608	74.38
439.829	77.38
440.05	76.38
440.272	79.38
440.493	81.38
440.715	75.38
440.936	81.38
441.158	83.38
441.379	81.38
441.6	88.38
441.822	91.38
442.043	86.38
442.264	75.38
442.486	65.38
442.707	72.38
442.928	89.38
443.149	83.38
443.371	77.38
443.592	81.38
443.813	81.38
444.034	81.38
444.255	90.38
444.476	79.38
444.698	76.38
444.919	71.38
445.14	162.38
445.361	124.38
445.582	83.38
445.803	75.38
446.024	76.38
446.245	76.38
446.466	77.38
446.687	80.38
446.908	60.38
447.129	73.38
447.35	75.38
447.571	74.38
447.792	84.38
448.013	86.38
448.234	79.38
448.455	81.38
448.675	75.38
448.896	56.38
449.117	70.38
449.338	69.38
449.559	90.38
449.779	63.38
450	64.38
450.221	70.38
450.442	74.38
450.662	89.38
450.883	78.38
451.104	65.38
451.324	77.38
451.545	75.38
451.766	88.38
451.986	81.38
452.207	71.38
452.428	87.38
452.648	79.38
452.869	79.38
453.089	86.38
453.31	76.38
453.53	79.38
453.751	71.38
453.971	92.38
454.192	82.38
454.412	81.38
454.633	89.38
454.853	79.38
455.073	73.38
455.294	75.38
455.514	74.38
455.734	75.38
455.955	68.38
456.175	77.38
456.395	76.38
456.616	81.38
456.836	81.38
457.056	79.38
457.276	83.38
457.497	66.38
457.717	81.38
457.937	75.38
458.157	80.38
458.377	83.38
458.598	84.38
458.818	82.38
459.038	66.38
459.258	89.38
459.478	35.38
459.698	82.38
459.918	73.38
460.138	86.38
460.358	75.38
460.578	81.38
460.798	77.38
461.018	99.38
461.238	89.38
461.458	78.38
461.678	76.38
461.898	95.38
462.118	90.38
462.338	97.38
462.558	87.38
462.777	83.38
462.997	86.38
463.217	79.38
463.437	92.38
463.657	79.38
463.876	73.38
464.096	70.38
464.316	77.38
464.536	77.38
464.755	77.38
464.975	80.38
465.195	79.38
465.414	75.38
465.634	80.38
465.854	61.38
466.073	81.38
466.293	81.38
466.512	71.38
466.732	72.38
466.951	86.38
467.171	79.38
467.391	69.38
467.61	81.38
467.829	67.38
468.049	87.38
468.268	81.38
468.488	73.38
468.707	76.38
468.927	67.38
469.146	75.38
469.365	72.38
469.585	77.38
469.804	81.38
470.023	71.38
470.243	91.38
470.462	84.38
470.681	77.38
470.901	80.38
471.12	74.38
471.339	76.38
471.558	96.38
471.777	90.38
471.997	89.38
472.216	83.38
472.435	82.38
472.654	78.38
472.873	65.38
473.092	83.38
473.311	77.38
473.53	69.38
473.749	66.38
473.968	75.38
474.187	68.38
474.406	77.38
474.625	79.38
474.844	86.38
475.063	76.38
475.282	63.38
475.501	69.38
475.72	72.38
475.939	81.38
476.158	70.38
476.377	86.38
476.596	77.38
476.814	86.38
477.033	81.38
477.252	87.38
477.471	76.38
477.69	83.38
477.908	87.38
478.127	92.38
478.346	78.38
478.564	76.38
478.783	95.38
479.002	85.38
479.22	84.38
479.439	91.38
479.658	76.38
479.876	90.38
480.095	74.38
480.313	75.38
480.532	77.38
480.751	84.38
480.969	88.38
481.188	83.38
481.406	92.38
481.624	65.38
481.843	94.38
482.061	88.38
482.28	86.38
482.498	81.38
482.717	77.38
482.935	91.38
483.153	81.38
483.372	86.38
483.59	82.38
483.808	68.38
484.027	83.38
484.245	87.38
484.463	77.38
484.681	82.38
484.9	90.38
485.118	75.38
485.336	80.38
485.554	83.38
485.772	81.38
485.99	69.38
486.209	81.38
486.427	77.38
486.645	75.38
486.863	69.38
487.081	85.38
487.299	79.38
487.517	84.38
487.735	83.38
487.953	76.38
488.171	80.38
488.389	86.38
488.607	77.38
488.825	79.38
489.043	73.38
489.261	72.38
489.479	82.38
489.696	84.38
489.914	97.38
490.132	81.38
490.35	69.38
490.568	73.38
490.786	81.38
491.003	78.38
491.221	83.38
491.439	71.38
491.657	79.38
491.874	71.38
492.092	78.38
492.31	72.38
492.527	70.38
492.745	85.38
492.963	72.38
493.18	80.38
493.398	70.38
493.615	72.38
493.833	71.38
494.05	93.38
494.268	97.38
494.485	91.38
494.703	86.38
494.92	83.38
495.138	71.38
495.355	65.38
495.573	87.38
495.79	83.38
496.008	89.38
496.225	67.38
496.442	78.38
496.66	77.38
496.877	73.38
497.094	78.38
497.312	71.38
497.529	77.38
497.746	92.38
497.963	83.38
498.181	66.38
498.398	89.38
498.615	84.38
498.832	81.38
499.049	85.38
499.267	75.38
499.484	79.38
499.701	83.38
499.918	72.38
500.135	66.38
500.352	79.38
500.569	78.38
500.786	89.38
501.003	97.38
501.22	71.38
501.437	76.38
501.654	80.38
501.871	81.38
502.088	74.38
502.305	96.38
502.522	77.38
502.739	78.38
502.956	84.38
503.172	89.38
503.389	89.38
503.606	75.38
503.823	83.38
504.04	87.38
504.256	99.38
504.473	77.38
504.69	78.38
504.907	94.38
505.123	79.38
505.34	85.38
505.557	77.38
505.773	78.38
505.99	73.38
506.207	83.38
506.423	78.38
506.64	84.38
506.856	70.38
507.073	67.38
507.289	78.38
507.506	75.38
507.722	95.38
507.939	100.38
508.155	75.38
508.372	75.38
508.588	79.38
508.805	87.38
509.021	80.38
509.238	87.38
509.454	71.38
509.67	79.38
509.887	81.38
510.103	77.38
510.319	80.38
510.536	80.38
510.752	87.38
510.968	84.38
511.184	71.38
511.401	74.38
511.617	69.38
511.833	84.38
512.049	81.38
512.265	87.38
512.481	77.38
512.698	69.38
512.914	87.38
513.13	90.38
513.346	79.38
513.562	73.38
513.778	80.38
513.994	86.38
514.21	72.38
514.426	86.38
514.642	78.38
514.858	72.38
515.074	75.38
515.29	94.38
515.506	89.38
515.721	83.38
515.937	88.38
516.153	71.38
516.369	84.38
516.585	70.38
516.801	74.38
517.016	95.38
517.232	91.38
517.448	92.38
517.664	72.38
517.879	85.38
518.095	92.38
518.311	90.38
518.527	85.38
518.742	69.38
518.958	79.38
519.173	71.38
519.389	79.38
519.605	82.38
519.82	81.38
520.036	98.38
520.251	66.38
