Data from 1600_1_HRD10591_00035.txt Node
Date: Mon Jan 19 13:47:58 EST 2026
User: Yrep
Spectrometer: HR+D1059
Trigger mode: 1
Integration Time (sec): 1.000000E-1
Scans to average: 1
Electric dark correction enabled: true
Nonlinearity correction enabled: false
Boxcar width: 0
XAxis mode: Wavelengths
Number of Pixels in Spectrum: 2048
>>>>>Begin Spectral Data<<<<<
223.165	-11.25
223.4	-11.25
223.635	-11.25
223.869	-19.25
224.104	-20.25
224.338	-9.25
224.573	-25.25
224.808	-22.25
225.042	1.75
225.277	-2.25
225.511	12.75
225.746	-10.25
225.98	24.75
226.215	10.75
226.449	8.75
226.683	9.75
226.918	26.75
227.152	24.75
227.387	27.75
227.621	43.75
227.856	49.75
228.09	34.75
228.324	45.75
228.559	54.75
228.793	55.75
229.027	67.75
229.262	68.75
229.496	70.75
229.73	60.75
229.964	67.75
230.199	68.75
230.433	80.75
230.667	74.75
230.901	79.75
231.136	74.75
231.37	71.75
231.604	82.75
231.838	72.75
232.072	83.75
232.306	80.75
232.541	85.75
232.775	80.75
233.009	82.75
233.243	92.75
233.477	80.75
233.711	74.75
233.945	85.75
234.179	82.75
234.413	71.75
234.647	72.75
234.881	85.75
235.115	86.75
235.349	76.75
235.583	67.75
235.817	52.75
236.051	81.75
236.285	71.75
236.519	67.75
236.753	88.75
236.987	73.75
237.221	97.75
237.455	73.75
237.689	60.75
237.922	64.75
238.156	83.75
238.39	62.75
238.624	76.75
238.858	92.75
239.091	79.75
239.325	64.75
239.559	79.75
239.793	71.75
240.027	73.75
240.26	81.75
240.494	66.75
240.728	78.75
240.961	58.75
241.195	71.75
241.429	78.75
241.662	86.75
241.896	75.75
242.13	67.75
242.363	85.75
242.597	80.75
242.83	77.75
243.064	72.75
243.298	82.75
243.531	94.75
243.765	76.75
243.998	76.75
244.232	62.75
244.465	66.75
244.699	54.75
244.932	84.75
245.166	86.75
245.399	84.75
245.633	68.75
245.866	73.75
246.099	74.75
246.333	61.75
246.566	81.75
246.8	79.75
247.033	91.75
247.266	77.75
247.5	67.75
247.733	80.75
247.966	85.75
248.2	75.75
248.433	68.75
248.666	67.75
248.899	69.75
249.133	81.75
249.366	91.75
249.599	76.75
249.832	79.75
250.066	83.75
250.299	85.75
250.532	82.75
250.765	84.75
250.998	64.75
251.231	79.75
251.465	73.75
251.698	77.75
251.931	76.75
252.164	87.75
252.397	80.75
252.63	82.75
252.863	71.75
253.096	68.75
253.329	77.75
253.562	74.75
253.795	82.75
254.028	84.75
254.261	70.75
254.494	74.75
254.727	70.75
254.96	91.75
255.193	82.75
255.426	71.75
255.659	80.75
255.892	102.75
256.124	86.75
256.357	69.75
256.59	85.75
256.823	78.75
257.056	64.75
257.289	80.75
257.521	71.75
257.754	68.75
257.987	79.75
258.22	78.75
258.452	85.75
258.685	74.75
258.918	78.75
259.151	77.75
259.383	90.75
259.616	76.75
259.849	82.75
260.081	87.75
260.314	86.75
260.547	88.75
260.779	80.75
261.012	72.75
261.244	85.75
261.477	74.75
261.71	85.75
261.942	90.75
262.175	76.75
262.407	80.75
262.64	82.75
262.872	84.75
263.105	85.75
263.337	90.75
263.57	90.75
263.802	75.75
264.035	72.75
264.267	74.75
264.499	78.75
264.732	70.75
264.964	74.75
265.197	68.75
265.429	74.75
265.661	76.75
265.894	86.75
266.126	74.75
266.358	80.75
266.591	91.75
266.823	82.75
267.055	81.75
267.287	83.75
267.52	84.75
267.752	65.75
267.984	72.75
268.216	93.75
268.448	84.75
268.681	71.75
268.913	79.75
269.145	73.75
269.377	69.75
269.609	94.75
269.841	95.75
270.073	84.75
270.306	84.75
270.538	86.75
270.77	75.75
271.002	91.75
271.234	74.75
271.466	91.75
271.698	80.75
271.93	76.75
272.162	73.75
272.394	73.75
272.626	92.75
272.858	80.75
273.09	83.75
273.322	81.75
273.553	72.75
273.785	78.75
274.017	81.75
274.249	76.75
274.481	93.75
274.713	85.75
274.945	82.75
275.176	73.75
275.408	79.75
275.64	69.75
275.872	84.75
276.104	82.75
276.335	82.75
276.567	82.75
276.799	89.75
277.031	74.75
277.262	71.75
277.494	77.75
277.726	88.75
277.957	88.75
278.189	72.75
278.421	74.75
278.652	77.75
278.884	92.75
279.115	81.75
279.347	92.75
279.579	76.75
279.81	70.75
280.042	77.75
280.273	86.75
280.505	73.75
280.736	81.75
280.968	83.75
281.199	99.75
281.431	75.75
281.662	79.75
281.894	76.75
282.125	65.75
282.356	74.75
282.588	93.75
282.819	84.75
283.051	76.75
283.282	82.75
283.513	84.75
283.745	76.75
283.976	83.75
284.207	78.75
284.439	88.75
284.67	72.75
284.901	86.75
285.132	85.75
285.364	84.75
285.595	99.75
285.826	69.75
286.057	72.75
286.288	86.75
286.52	80.75
286.751	84.75
286.982	79.75
287.213	77.75
287.444	84.75
287.675	86.75
287.906	95.75
288.138	82.75
288.369	76.75
288.6	86.75
288.831	66.75
289.062	84.75
289.293	80.75
289.524	77.75
289.755	87.75
289.986	83.75
290.217	101.75
290.448	85.75
290.679	83.75
290.91	82.75
291.141	72.75
291.371	88.75
291.602	68.75
291.833	76.75
292.064	72.75
292.295	77.75
292.526	74.75
292.757	80.75
292.987	84.75
293.218	81.75
293.449	79.75
293.68	65.75
293.91	86.75
294.141	78.75
294.372	73.75
294.603	98.75
294.833	82.75
295.064	88.75
295.295	73.75
295.525	90.75
295.756	79.75
295.987	92.75
296.217	76.75
296.448	58.75
296.679	70.75
296.909	97.75
297.14	76.75
297.37	89.75
297.601	81.75
297.831	66.75
298.062	78.75
298.292	84.75
298.523	80.75
298.753	86.75
298.984	89.75
299.214	72.75
299.445	74.75
299.675	74.75
299.905	79.75
300.136	68.75
300.366	93.75
300.597	81.75
300.827	82.75
301.057	93.75
301.288	78.75
301.518	85.75
301.748	82.75
301.979	93.75
302.209	89.75
302.439	81.75
302.669	86.75
302.9	87.75
303.13	90.75
303.36	96.75
303.59	86.75
303.82	87.75
304.051	64.75
304.281	85.75
304.511	88.75
304.741	88.75
304.971	69.75
305.201	88.75
305.431	79.75
305.661	76.75
305.891	77.75
306.121	94.75
306.352	96.75
306.582	88.75
306.812	93.75
307.042	98.75
307.272	79.75
307.502	74.75
307.731	67.75
307.961	85.75
308.191	90.75
308.421	91.75
308.651	80.75
308.881	74.75
309.111	86.75
309.341	81.75
309.571	68.75
309.8	76.75
310.03	84.75
310.26	75.75
310.49	72.75
310.72	67.75
310.949	81.75
311.179	85.75
311.409	87.75
311.639	92.75
311.868	78.75
312.098	81.75
312.328	80.75
312.557	71.75
312.787	65.75
313.017	90.75
313.246	75.75
313.476	87.75
313.706	69.75
313.935	84.75
314.165	79.75
314.394	90.75
314.624	85.75
314.853	70.75
315.083	77.75
315.312	76.75
315.542	82.75
315.771	84.75
316.001	80.75
316.23	77.75
316.46	87.75
316.689	88.75
316.919	89.75
317.148	94.75
317.377	86.75
317.607	82.75
317.836	82.75
318.065	64.75
318.295	75.75
318.524	89.75
318.753	78.75
318.983	90.75
319.212	90.75
319.441	84.75
319.67	73.75
319.9	91.75
320.129	76.75
320.358	82.75
320.587	76.75
320.816	95.75
321.046	89.75
321.275	85.75
321.504	81.75
321.733	96.75
321.962	79.75
322.191	78.75
322.42	78.75
322.649	80.75
322.878	94.75
323.108	92.75
323.337	69.75
323.566	81.75
323.795	76.75
324.024	84.75
324.253	73.75
324.482	70.75
324.71	83.75
324.939	98.75
325.168	72.75
325.397	93.75
325.626	73.75
325.855	72.75
326.084	78.75
326.313	64.75
326.542	99.75
326.77	96.75
326.999	90.75
327.228	78.75
327.457	76.75
327.686	93.75
327.914	69.75
328.143	89.75
328.372	77.75
328.6	93.75
328.829	82.75
329.058	86.75
329.287	89.75
329.515	83.75
329.744	89.75
329.972	88.75
330.201	94.75
330.43	82.75
330.658	68.75
330.887	61.75
331.115	89.75
331.344	69.75
331.572	82.75
331.801	79.75
332.03	92.75
332.258	86.75
332.486	75.75
332.715	66.75
332.943	70.75
333.172	92.75
333.4	80.75
333.629	74.75
333.857	81.75
334.085	78.75
334.314	85.75
334.542	77.75
334.771	77.75
334.999	68.75
335.227	76.75
335.455	78.75
335.684	88.75
335.912	70.75
336.14	97.75
336.369	79.75
336.597	88.75
336.825	83.75
337.053	78.75
337.281	89.75
337.51	82.75
337.738	71.75
337.966	77.75
338.194	85.75
338.422	79.75
338.65	78.75
338.878	76.75
339.106	80.75
339.334	93.75
339.562	72.75
339.79	83.75
340.018	82.75
340.246	84.75
340.474	67.75
340.702	88.75
340.93	79.75
341.158	96.75
341.386	86.75
341.614	76.75
341.842	69.75
342.07	88.75
342.298	77.75
342.526	76.75
342.754	98.75
342.981	86.75
343.209	80.75
343.437	90.75
343.665	65.75
343.893	88.75
344.12	94.75
344.348	85.75
344.576	70.75
344.804	71.75
345.031	86.75
345.259	65.75
345.487	81.75
345.714	92.75
345.942	84.75
346.17	87.75
346.397	74.75
346.625	82.75
346.853	85.75
347.08	95.75
347.308	80.75
347.535	90.75
347.763	63.75
347.99	62.75
348.218	88.75
348.445	77.75
348.673	80.75
348.9	76.75
349.128	94.75
349.355	87.75
349.583	80.75
349.81	76.75
350.037	69.75
350.265	86.75
350.492	92.75
350.72	84.75
350.947	94.75
351.174	77.75
351.402	71.75
351.629	84.75
351.856	81.75
352.083	88.75
352.311	86.75
352.538	68.75
352.765	84.75
352.992	85.75
353.22	77.75
353.447	78.75
353.674	83.75
353.901	80.75
354.128	86.75
354.355	77.75
354.583	85.75
354.81	90.75
355.037	97.75
355.264	74.75
355.491	84.75
355.718	78.75
355.945	77.75
356.172	96.75
356.399	79.75
356.626	80.75
356.853	81.75
357.08	78.75
357.307	82.75
357.534	77.75
357.761	92.75
357.988	89.75
358.215	79.75
358.441	86.75
358.668	88.75
358.895	92.75
359.122	83.75
359.349	85.75
359.576	90.75
359.802	86.75
360.029	72.75
360.256	74.75
360.483	82.75
360.709	92.75
360.936	81.75
361.163	84.75
361.39	89.75
361.616	89.75
361.843	78.75
362.07	86.75
362.296	92.75
362.523	89.75
362.749	88.75
362.976	83.75
363.203	84.75
363.429	62.75
363.656	84.75
363.882	68.75
364.109	84.75
364.335	88.75
364.562	80.75
364.788	72.75
365.015	67.75
365.241	80.75
365.468	72.75
365.694	80.75
365.92	92.75
366.147	88.75
366.373	77.75
366.599	86.75
366.826	72.75
367.052	82.75
367.278	80.75
367.505	73.75
367.731	96.75
367.957	70.75
368.184	65.75
368.41	81.75
368.636	84.75
368.862	90.75
369.089	71.75
369.315	81.75
369.541	86.75
369.767	72.75
369.993	84.75
370.219	80.75
370.445	96.75
370.672	73.75
370.898	84.75
371.124	70.75
371.35	89.75
371.576	67.75
371.802	74.75
372.028	83.75
372.254	89.75
372.48	76.75
372.706	86.75
372.932	74.75
373.158	76.75
373.384	88.75
373.61	85.75
373.835	93.75
374.061	76.75
374.287	68.75
374.513	81.75
374.739	80.75
374.965	80.75
375.191	82.75
375.416	78.75
375.642	82.75
375.868	86.75
376.094	85.75
376.319	76.75
376.545	96.75
376.771	76.75
376.997	87.75
377.222	70.75
377.448	75.75
377.674	72.75
377.899	69.75
378.125	70.75
378.35	68.75
378.576	84.75
378.802	86.75
379.027	82.75
379.253	85.75
379.478	82.75
379.704	70.75
379.929	58.75
380.155	84.75
380.38	74.75
380.606	91.75
380.831	80.75
381.057	76.75
381.282	78.75
381.507	74.75
381.733	93.75
381.958	85.75
382.184	78.75
382.409	77.75
382.634	84.75
382.86	70.75
383.085	71.75
383.31	87.75
383.535	81.75
383.761	79.75
383.986	80.75
384.211	74.75
384.436	84.75
384.662	70.75
384.887	81.75
385.112	56.75
385.337	77.75
385.562	78.75
385.787	69.75
386.013	72.75
386.238	78.75
386.463	75.75
386.688	89.75
386.913	82.75
387.138	80.75
387.363	76.75
387.588	81.75
387.813	79.75
388.038	77.75
388.263	80.75
388.488	77.75
388.713	80.75
388.938	90.75
389.163	78.75
389.387	81.75
389.612	83.75
389.837	73.75
390.062	91.75
390.287	81.75
390.512	65.75
390.736	76.75
390.961	82.75
391.186	77.75
391.411	65.75
391.636	90.75
391.86	75.75
392.085	80.75
392.31	83.75
392.534	70.75
392.759	87.75
392.984	86.75
393.208	92.75
393.433	88.75
393.658	92.75
393.882	74.75
394.107	84.75
394.331	77.75
394.556	68.75
394.78	84.75
395.005	78.75
395.229	86.75
395.454	76.75
395.678	75.75
395.903	70.75
396.127	81.75
396.352	94.75
396.576	84.75
396.801	84.75
397.025	80.75
397.249	78.75
397.474	92.75
397.698	77.75
397.922	86.75
398.147	90.75
398.371	71.75
398.595	78.75
398.82	88.75
399.044	76.75
399.268	72.75
399.492	76.75
399.717	79.75
399.941	78.75
400.165	76.75
400.389	87.75
400.613	91.75
400.837	81.75
401.062	75.75
401.286	79.75
401.51	89.75
401.734	79.75
401.958	89.75
402.182	88.75
402.406	71.75
402.63	81.75
402.854	79.75
403.078	73.75
403.302	80.75
403.526	78.75
403.75	78.75
403.974	86.75
404.198	84.75
404.422	76.75
404.645	89.75
404.869	82.75
405.093	78.75
405.317	81.75
405.541	90.75
405.765	74.75
405.988	74.75
406.212	77.75
406.436	64.75
406.66	63.75
406.883	85.75
407.107	77.75
407.331	67.75
407.555	82.75
407.778	95.75
408.002	77.75
408.226	71.75
408.449	81.75
408.673	71.75
408.896	82.75
409.12	90.75
409.344	80.75
409.567	74.75
409.791	69.75
410.014	88.75
410.238	80.75
410.461	68.75
410.685	80.75
410.908	84.75
411.132	79.75
411.355	76.75
411.578	69.75
411.802	80.75
412.025	81.75
412.249	88.75
412.472	61.75
412.695	71.75
412.919	89.75
413.142	92.75
413.365	76.75
413.589	86.75
413.812	81.75
414.035	91.75
414.258	74.75
414.482	84.75
414.705	74.75
414.928	77.75
415.151	81.75
415.374	90.75
415.597	82.75
415.821	68.75
416.044	82.75
416.267	82.75
416.49	85.75
416.713	94.75
416.936	85.75
417.159	89.75
417.382	86.75
417.605	67.75
417.828	74.75
418.051	81.75
418.274	71.75
418.497	86.75
418.72	76.75
418.943	86.75
419.166	78.75
419.389	87.75
419.611	79.75
419.834	82.75
420.057	84.75
420.28	92.75
420.503	88.75
420.726	83.75
420.948	83.75
421.171	85.75
421.394	73.75
421.617	72.75
421.839	60.75
422.062	80.75
422.285	83.75
422.507	77.75
422.73	89.75
422.953	84.75
423.175	80.75
423.398	83.75
423.621	88.75
423.843	84.75
424.066	81.75
424.288	83.75
424.511	85.75
424.733	65.75
424.956	80.75
425.178	93.75
425.401	92.75
425.623	75.75
425.846	85.75
426.068	98.75
426.291	88.75
426.513	73.75
426.735	83.75
426.958	92.75
427.18	74.75
427.402	72.75
427.625	78.75
427.847	65.75
428.069	82.75
428.292	83.75
428.514	85.75
428.736	79.75
428.958	82.75
429.181	82.75
429.403	81.75
429.625	69.75
429.847	77.75
430.069	85.75
430.292	79.75
430.514	85.75
430.736	92.75
430.958	85.75
431.18	76.75
431.402	86.75
431.624	88.75
431.846	76.75
432.068	89.75
432.29	86.75
432.512	89.75
432.734	75.75
432.956	71.75
433.178	66.75
433.4	77.75
433.622	65.75
433.844	73.75
434.066	73.75
434.287	81.75
434.509	73.75
434.731	80.75
434.953	78.75
435.175	70.75
435.397	89.75
435.618	71.75
435.84	81.75
436.062	81.75
436.284	85.75
436.505	81.75
436.727	68.75
436.949	83.75
437.17	78.75
437.392	86.75
437.614	68.75
437.835	85.75
438.057	73.75
438.278	90.75
438.5	81.75
438.721	81.75
438.943	91.75
439.165	72.75
439.386	82.75
439.608	80.75
439.829	85.75
440.05	96.75
440.272	86.75
440.493	77.75
440.715	80.75
440.936	75.75
441.158	72.75
441.379	76.75
441.6	76.75
441.822	71.75
442.043	78.75
442.264	76.75
442.486	72.75
442.707	79.75
442.928	95.75
443.149	80.75
443.371	86.75
443.592	80.75
443.813	88.75
444.034	82.75
444.255	82.75
444.476	81.75
444.698	64.75
444.919	85.75
445.14	147.75
445.361	120.75
445.582	84.75
445.803	90.75
446.024	84.75
446.245	91.75
446.466	78.75
446.687	80.75
446.908	81.75
447.129	69.75
447.35	84.75
447.571	80.75
447.792	83.75
448.013	77.75
448.234	73.75
448.455	69.75
448.675	81.75
448.896	69.75
449.117	65.75
449.338	83.75
449.559	85.75
449.779	71.75
450	64.75
450.221	71.75
450.442	86.75
450.662	92.75
450.883	84.75
451.104	74.75
451.324	67.75
451.545	76.75
451.766	74.75
451.986	78.75
452.207	84.75
452.428	72.75
452.648	86.75
452.869	100.75
453.089	76.75
453.31	79.75
453.53	84.75
453.751	75.75
453.971	85.75
454.192	96.75
454.412	86.75
454.633	82.75
454.853	78.75
455.073	71.75
455.294	85.75
455.514	82.75
455.734	80.75
455.955	76.75
456.175	78.75
456.395	80.75
456.616	104.75
456.836	73.75
457.056	82.75
457.276	72.75
457.497	79.75
457.717	82.75
457.937	73.75
458.157	76.75
458.377	87.75
458.598	80.75
458.818	68.75
459.038	74.75
459.258	80.75
459.478	67.75
459.698	70.75
459.918	90.75
460.138	76.75
460.358	78.75
460.578	85.75
460.798	89.75
461.018	75.75
461.238	83.75
461.458	75.75
461.678	82.75
461.898	89.75
462.118	81.75
462.338	74.75
462.558	78.75
462.777	80.75
462.997	78.75
463.217	77.75
463.437	70.75
463.657	77.75
463.876	80.75
464.096	62.75
464.316	76.75
464.536	71.75
464.755	84.75
464.975	69.75
465.195	82.75
465.414	76.75
465.634	68.75
465.854	90.75
466.073	84.75
466.293	64.75
466.512	77.75
466.732	69.75
466.951	76.75
467.171	67.75
467.391	79.75
467.61	89.75
467.829	79.75
468.049	77.75
468.268	85.75
468.488	89.75
468.707	83.75
468.927	89.75
469.146	82.75
469.365	86.75
469.585	74.75
469.804	75.75
470.023	92.75
470.243	69.75
470.462	59.75
470.681	68.75
470.901	93.75
471.12	88.75
471.339	74.75
471.558	83.75
471.777	81.75
471.997	69.75
472.216	84.75
472.435	89.75
472.654	80.75
472.873	82.75
473.092	79.75
473.311	83.75
473.53	76.75
473.749	62.75
473.968	79.75
474.187	82.75
474.406	88.75
474.625	78.75
474.844	60.75
475.063	64.75
475.282	77.75
475.501	81.75
475.72	87.75
475.939	90.75
476.158	76.75
476.377	86.75
476.596	83.75
476.814	77.75
477.033	77.75
477.252	84.75
477.471	92.75
477.69	76.75
477.908	74.75
478.127	85.75
478.346	89.75
478.564	88.75
478.783	75.75
479.002	89.75
479.22	66.75
479.439	77.75
479.658	81.75
479.876	86.75
480.095	84.75
480.313	67.75
480.532	80.75
480.751	96.75
480.969	72.75
481.188	65.75
481.406	84.75
481.624	81.75
481.843	75.75
482.061	73.75
482.28	91.75
482.498	90.75
482.717	81.75
482.935	72.75
483.153	58.75
483.372	67.75
483.59	82.75
483.808	78.75
484.027	70.75
484.245	75.75
484.463	76.75
484.681	92.75
484.9	73.75
485.118	82.75
485.336	85.75
485.554	91.75
485.772	75.75
485.99	80.75
486.209	82.75
486.427	74.75
486.645	89.75
486.863	80.75
487.081	68.75
487.299	88.75
487.517	74.75
487.735	78.75
487.953	91.75
488.171	92.75
488.389	76.75
488.607	71.75
488.825	88.75
489.043	75.75
489.261	102.75
489.479	75.75
489.696	80.75
489.914	85.75
490.132	71.75
490.35	88.75
490.568	77.75
490.786	82.75
491.003	79.75
491.221	86.75
491.439	99.75
491.657	76.75
491.874	88.75
492.092	76.75
492.31	75.75
492.527	78.75
492.745	83.75
492.963	91.75
493.18	84.75
493.398	80.75
493.615	68.75
493.833	92.75
494.05	75.75
494.268	80.75
494.485	74.75
494.703	84.75
494.92	75.75
495.138	75.75
495.355	89.75
495.573	96.75
495.79	72.75
496.008	98.75
496.225	87.75
496.442	78.75
496.66	72.75
496.877	77.75
497.094	92.75
497.312	69.75
497.529	62.75
497.746	90.75
497.963	85.75
498.181	74.75
498.398	66.75
498.615	86.75
498.832	70.75
499.049	76.75
499.267	71.75
499.484	84.75
499.701	79.75
499.918	85.75
500.135	76.75
500.352	83.75
500.569	77.75
500.786	75.75
501.003	82.75
501.22	77.75
501.437	76.75
501.654	77.75
501.871	85.75
502.088	75.75
502.305	79.75
502.522	74.75
502.739	81.75
502.956	96.75
503.172	80.75
503.389	78.75
503.606	90.75
503.823	78.75
504.04	76.75
504.256	96.75
504.473	74.75
504.69	80.75
504.907	88.75
505.123	76.75
505.34	80.75
505.557	97.75
505.773	98.75
505.99	84.75
506.207	76.75
506.423	75.75
506.64	74.75
506.856	65.75
507.073	80.75
507.289	84.75
507.506	73.75
507.722	72.75
507.939	75.75
508.155	71.75
508.372	73.75
508.588	76.75
508.805	74.75
509.021	85.75
509.238	84.75
509.454	85.75
509.67	80.75
509.887	76.75
510.103	71.75
510.319	80.75
510.536	75.75
510.752	76.75
510.968	76.75
511.184	87.75
511.401	80.75
511.617	94.75
511.833	108.75
512.049	92.75
512.265	90.75
512.481	84.75
512.698	83.75
512.914	67.75
513.13	85.75
513.346	84.75
513.562	69.75
513.778	76.75
513.994	71.75
514.21	88.75
514.426	84.75
514.642	83.75
514.858	78.75
515.074	72.75
515.29	81.75
515.506	82.75
515.721	75.75
515.937	95.75
516.153	78.75
516.369	88.75
516.585	84.75
516.801	74.75
517.016	85.75
517.232	82.75
517.448	83.75
517.664	76.75
517.879	67.75
518.095	79.75
518.311	80.75
518.527	81.75
518.742	78.75
518.958	96.75
519.173	84.75
519.389	70.75
519.605	80.75
519.82	70.75
520.036	81.75
520.251	70.75
