Data from 1600_1_HRD10591_00009.txt Node
Date: Mon Jan 19 13:47:45 EST 2026
User: Yrep
Spectrometer: HR+D1059
Trigger mode: 1
Integration Time (sec): 1.000000E-1
Scans to average: 1
Electric dark correction enabled: true
Nonlinearity correction enabled: false
Boxcar width: 0
XAxis mode: Wavelengths
Number of Pixels in Spectrum: 2048
>>>>>Begin Spectral Data<<<<<
223.165	-26.38
223.4	-26.38
223.635	-26.38
223.869	-31.38
224.104	-10.38
224.338	-13.38
224.573	-17.38
224.808	-10.38
225.042	3.62
225.277	3.62
225.511	0.62
225.746	-0.38
225.98	-0.38
226.215	9.62
226.449	6.62
226.683	13.62
226.918	33.62
227.152	38.62
227.387	41.62
227.621	41.62
227.856	46.62
228.09	36.62
228.324	50.62
228.559	56.62
228.793	46.62
229.027	57.62
229.262	63.62
229.496	66.62
229.73	74.62
229.964	75.62
230.199	67.62
230.433	76.62
230.667	74.62
230.901	73.62
231.136	74.62
231.37	70.62
231.604	68.62
231.838	82.62
232.072	78.62
232.306	86.62
232.541	84.62
232.775	77.62
233.009	84.62
233.243	81.62
233.477	69.62
233.711	73.62
233.945	78.62
234.179	63.62
234.413	90.62
234.647	75.62
234.881	81.62
235.115	66.62
235.349	59.62
235.583	71.62
235.817	60.62
236.051	61.62
236.285	60.62
236.519	65.62
236.753	66.62
236.987	70.62
237.221	76.62
237.455	59.62
237.689	76.62
237.922	69.62
238.156	54.62
238.39	61.62
238.624	62.62
238.858	81.62
239.091	80.62
239.325	76.62
239.559	73.62
239.793	54.62
240.027	79.62
240.26	74.62
240.494	69.62
240.728	76.62
240.961	58.62
241.195	80.62
241.429	88.62
241.662	76.62
241.896	71.62
242.13	62.62
242.363	59.62
242.597	70.62
242.83	82.62
243.064	78.62
243.298	66.62
243.531	63.62
243.765	75.62
243.998	70.62
244.232	80.62
244.465	65.62
244.699	68.62
244.932	71.62
245.166	70.62
245.399	74.62
245.633	74.62
245.866	86.62
246.099	78.62
246.333	84.62
246.566	67.62
246.8	80.62
247.033	77.62
247.266	71.62
247.5	83.62
247.733	68.62
247.966	63.62
248.2	84.62
248.433	80.62
248.666	76.62
248.899	88.62
249.133	86.62
249.366	82.62
249.599	82.62
249.832	71.62
250.066	76.62
250.299	69.62
250.532	68.62
250.765	69.62
250.998	73.62
251.231	67.62
251.465	71.62
251.698	69.62
251.931	78.62
252.164	77.62
252.397	80.62
252.63	74.62
252.863	80.62
253.096	79.62
253.329	73.62
253.562	73.62
253.795	83.62
254.028	84.62
254.261	63.62
254.494	81.62
254.727	82.62
254.96	82.62
255.193	62.62
255.426	73.62
255.659	70.62
255.892	75.62
256.124	78.62
256.357	70.62
256.59	68.62
256.823	78.62
257.056	78.62
257.289	83.62
257.521	87.62
257.754	70.62
257.987	78.62
258.22	71.62
258.452	62.62
258.685	57.62
258.918	64.62
259.151	65.62
259.383	85.62
259.616	83.62
259.849	71.62
260.081	83.62
260.314	66.62
260.547	74.62
260.779	81.62
261.012	79.62
261.244	73.62
261.477	72.62
261.71	71.62
261.942	70.62
262.175	87.62
262.407	79.62
262.64	78.62
262.872	74.62
263.105	87.62
263.337	80.62
263.57	85.62
263.802	74.62
264.035	90.62
264.267	72.62
264.499	80.62
264.732	75.62
264.964	88.62
265.197	79.62
265.429	78.62
265.661	66.62
265.894	65.62
266.126	80.62
266.358	89.62
266.591	70.62
266.823	64.62
267.055	86.62
267.287	82.62
267.52	80.62
267.752	83.62
267.984	81.62
268.216	91.62
268.448	92.62
268.681	73.62
268.913	86.62
269.145	74.62
269.377	70.62
269.609	74.62
269.841	78.62
270.073	79.62
270.306	74.62
270.538	71.62
270.77	67.62
271.002	83.62
271.234	82.62
271.466	83.62
271.698	84.62
271.93	85.62
272.162	88.62
272.394	83.62
272.626	88.62
272.858	83.62
273.09	78.62
273.322	74.62
273.553	77.62
273.785	96.62
274.017	73.62
274.249	85.62
274.481	82.62
274.713	74.62
274.945	74.62
275.176	74.62
275.408	71.62
275.64	74.62
275.872	80.62
276.104	68.62
276.335	64.62
276.567	89.62
276.799	88.62
277.031	70.62
277.262	80.62
277.494	65.62
277.726	76.62
277.957	76.62
278.189	75.62
278.421	77.62
278.652	73.62
278.884	77.62
279.115	80.62
279.347	82.62
279.579	84.62
279.81	68.62
280.042	81.62
280.273	82.62
280.505	76.62
280.736	76.62
280.968	81.62
281.199	86.62
281.431	84.62
281.662	86.62
281.894	77.62
282.125	86.62
282.356	75.62
282.588	93.62
282.819	77.62
283.051	84.62
283.282	92.62
283.513	85.62
283.745	79.62
283.976	89.62
284.207	77.62
284.439	81.62
284.67	85.62
284.901	81.62
285.132	82.62
285.364	94.62
285.595	83.62
285.826	76.62
286.057	83.62
286.288	58.62
286.52	62.62
286.751	80.62
286.982	84.62
287.213	83.62
287.444	88.62
287.675	82.62
287.906	85.62
288.138	77.62
288.369	96.62
288.6	83.62
288.831	80.62
289.062	82.62
289.293	91.62
289.524	88.62
289.755	73.62
289.986	86.62
290.217	74.62
290.448	85.62
290.679	67.62
290.91	82.62
291.141	84.62
291.371	92.62
291.602	69.62
291.833	80.62
292.064	82.62
292.295	92.62
292.526	84.62
292.757	74.62
292.987	80.62
293.218	77.62
293.449	68.62
293.68	78.62
293.91	80.62
294.141	89.62
294.372	76.62
294.603	74.62
294.833	70.62
295.064	77.62
295.295	82.62
295.525	79.62
295.756	83.62
295.987	79.62
296.217	85.62
296.448	90.62
296.679	69.62
296.909	84.62
297.14	81.62
297.37	83.62
297.601	81.62
297.831	78.62
298.062	84.62
298.292	89.62
298.523	73.62
298.753	74.62
298.984	79.62
299.214	89.62
299.445	89.62
299.675	79.62
299.905	85.62
300.136	88.62
300.366	84.62
300.597	74.62
300.827	86.62
301.057	81.62
301.288	70.62
301.518	86.62
301.748	96.62
301.979	89.62
302.209	83.62
302.439	77.62
302.669	75.62
302.9	69.62
303.13	73.62
303.36	81.62
303.59	82.62
303.82	90.62
304.051	85.62
304.281	89.62
304.511	80.62
304.741	68.62
304.971	83.62
305.201	83.62
305.431	76.62
305.661	73.62
305.891	60.62
306.121	80.62
306.352	88.62
306.582	81.62
306.812	91.62
307.042	90.62
307.272	82.62
307.502	72.62
307.731	85.62
307.961	70.62
308.191	69.62
308.421	79.62
308.651	85.62
308.881	90.62
309.111	78.62
309.341	70.62
309.571	79.62
309.8	66.62
310.03	76.62
310.26	88.62
310.49	78.62
310.72	77.62
310.949	74.62
311.179	83.62
311.409	93.62
311.639	78.62
311.868	85.62
312.098	72.62
312.328	80.62
312.557	88.62
312.787	85.62
313.017	84.62
313.246	66.62
313.476	66.62
313.706	81.62
313.935	81.62
314.165	88.62
314.394	84.62
314.624	87.62
314.853	68.62
315.083	88.62
315.312	90.62
315.542	86.62
315.771	77.62
316.001	85.62
316.23	82.62
316.46	86.62
316.689	80.62
316.919	79.62
317.148	85.62
317.377	78.62
317.607	92.62
317.836	75.62
318.065	95.62
318.295	84.62
318.524	84.62
318.753	82.62
318.983	88.62
319.212	84.62
319.441	75.62
319.67	84.62
319.9	83.62
320.129	70.62
320.358	76.62
320.587	99.62
320.816	84.62
321.046	90.62
321.275	89.62
321.504	71.62
321.733	68.62
321.962	91.62
322.191	75.62
322.42	63.62
322.649	76.62
322.878	76.62
323.108	67.62
323.337	79.62
323.566	71.62
323.795	70.62
324.024	91.62
324.253	80.62
324.482	80.62
324.71	89.62
324.939	96.62
325.168	74.62
325.397	81.62
325.626	88.62
325.855	66.62
326.084	82.62
326.313	71.62
326.542	81.62
326.77	89.62
326.999	90.62
327.228	77.62
327.457	66.62
327.686	74.62
327.914	76.62
328.143	86.62
328.372	86.62
328.6	90.62
328.829	89.62
329.058	79.62
329.287	79.62
329.515	76.62
329.744	71.62
329.972	78.62
330.201	80.62
330.43	83.62
330.658	81.62
330.887	82.62
331.115	97.62
331.344	64.62
331.572	81.62
331.801	89.62
332.03	88.62
332.258	92.62
332.486	83.62
332.715	63.62
332.943	71.62
333.172	79.62
333.4	74.62
333.629	75.62
333.857	77.62
334.085	75.62
334.314	89.62
334.542	87.62
334.771	89.62
334.999	92.62
335.227	68.62
335.455	79.62
335.684	75.62
335.912	92.62
336.14	79.62
336.369	80.62
336.597	91.62
336.825	78.62
337.053	94.62
337.281	82.62
337.51	68.62
337.738	81.62
337.966	79.62
338.194	79.62
338.422	74.62
338.65	83.62
338.878	78.62
339.106	84.62
339.334	88.62
339.562	81.62
339.79	75.62
340.018	73.62
340.246	87.62
340.474	75.62
340.702	86.62
340.93	83.62
341.158	85.62
341.386	71.62
341.614	80.62
341.842	81.62
342.07	97.62
342.298	79.62
342.526	85.62
342.754	88.62
342.981	80.62
343.209	83.62
343.437	83.62
343.665	66.62
343.893	84.62
344.12	80.62
344.348	83.62
344.576	80.62
344.804	92.62
345.031	71.62
345.259	76.62
345.487	82.62
345.714	89.62
345.942	85.62
346.17	82.62
346.397	65.62
346.625	78.62
346.853	60.62
347.08	78.62
347.308	80.62
347.535	75.62
347.763	92.62
347.99	89.62
348.218	88.62
348.445	82.62
348.673	86.62
348.9	84.62
349.128	63.62
349.355	92.62
349.583	78.62
349.81	82.62
350.037	91.62
350.265	79.62
350.492	76.62
350.72	87.62
350.947	75.62
351.174	69.62
351.402	87.62
351.629	75.62
351.856	77.62
352.083	78.62
352.311	82.62
352.538	72.62
352.765	84.62
352.992	86.62
353.22	86.62
353.447	92.62
353.674	87.62
353.901	80.62
354.128	87.62
354.355	80.62
354.583	77.62
354.81	80.62
355.037	91.62
355.264	76.62
355.491	86.62
355.718	82.62
355.945	68.62
356.172	78.62
356.399	88.62
356.626	86.62
356.853	96.62
357.08	86.62
357.307	78.62
357.534	80.62
357.761	87.62
357.988	97.62
358.215	85.62
358.441	79.62
358.668	74.62
358.895	86.62
359.122	81.62
359.349	79.62
359.576	73.62
359.802	70.62
360.029	92.62
360.256	95.62
360.483	81.62
360.709	74.62
360.936	88.62
361.163	63.62
361.39	81.62
361.616	93.62
361.843	89.62
362.07	85.62
362.296	70.62
362.523	80.62
362.749	81.62
362.976	78.62
363.203	105.62
363.429	84.62
363.656	87.62
363.882	72.62
364.109	87.62
364.335	74.62
364.562	80.62
364.788	90.62
365.015	92.62
365.241	79.62
365.468	70.62
365.694	87.62
365.92	69.62
366.147	70.62
366.373	88.62
366.599	74.62
366.826	78.62
367.052	94.62
367.278	73.62
367.505	82.62
367.731	82.62
367.957	78.62
368.184	84.62
368.41	74.62
368.636	88.62
368.862	69.62
369.089	72.62
369.315	73.62
369.541	69.62
369.767	70.62
369.993	73.62
370.219	84.62
370.445	93.62
370.672	80.62
370.898	81.62
371.124	68.62
371.35	87.62
371.576	86.62
371.802	82.62
372.028	80.62
372.254	104.62
372.48	73.62
372.706	80.62
372.932	63.62
373.158	73.62
373.384	76.62
373.61	96.62
373.835	85.62
374.061	67.62
374.287	75.62
374.513	80.62
374.739	78.62
374.965	84.62
375.191	88.62
375.416	82.62
375.642	76.62
375.868	69.62
376.094	87.62
376.319	84.62
376.545	71.62
376.771	88.62
376.997	86.62
377.222	82.62
377.448	65.62
377.674	70.62
377.899	82.62
378.125	83.62
378.35	77.62
378.576	87.62
378.802	80.62
379.027	90.62
379.253	91.62
379.478	71.62
379.704	75.62
379.929	95.62
380.155	64.62
380.38	82.62
380.606	77.62
380.831	85.62
381.057	87.62
381.282	70.62
381.507	67.62
381.733	73.62
381.958	83.62
382.184	74.62
382.409	82.62
382.634	81.62
382.86	74.62
383.085	78.62
383.31	69.62
383.535	93.62
383.761	92.62
383.986	90.62
384.211	82.62
384.436	80.62
384.662	81.62
384.887	79.62
385.112	79.62
385.337	85.62
385.562	81.62
385.787	69.62
386.013	80.62
386.238	77.62
386.463	78.62
386.688	102.62
386.913	73.62
387.138	83.62
387.363	84.62
387.588	76.62
387.813	79.62
388.038	73.62
388.263	85.62
388.488	80.62
388.713	78.62
388.938	87.62
389.163	90.62
389.387	82.62
389.612	78.62
389.837	81.62
390.062	70.62
390.287	88.62
390.512	83.62
390.736	80.62
390.961	79.62
391.186	92.62
391.411	93.62
391.636	78.62
391.86	76.62
392.085	78.62
392.31	66.62
392.534	83.62
392.759	73.62
392.984	78.62
393.208	93.62
393.433	97.62
393.658	88.62
393.882	83.62
394.107	88.62
394.331	81.62
394.556	70.62
394.78	68.62
395.005	66.62
395.229	78.62
395.454	78.62
395.678	77.62
395.903	85.62
396.127	73.62
396.352	77.62
396.576	87.62
396.801	87.62
397.025	92.62
397.249	69.62
397.474	81.62
397.698	78.62
397.922	76.62
398.147	80.62
398.371	81.62
398.595	65.62
398.82	70.62
399.044	73.62
399.268	81.62
399.492	80.62
399.717	74.62
399.941	79.62
400.165	75.62
400.389	75.62
400.613	85.62
400.837	82.62
401.062	79.62
401.286	77.62
401.51	81.62
401.734	66.62
401.958	74.62
402.182	76.62
402.406	81.62
402.63	75.62
402.854	78.62
403.078	74.62
403.302	77.62
403.526	77.62
403.75	69.62
403.974	76.62
404.198	83.62
404.422	87.62
404.645	85.62
404.869	76.62
405.093	79.62
405.317	85.62
405.541	70.62
405.765	77.62
405.988	75.62
406.212	85.62
406.436	88.62
406.66	80.62
406.883	75.62
407.107	70.62
407.331	76.62
407.555	84.62
407.778	99.62
408.002	77.62
408.226	68.62
408.449	64.62
408.673	72.62
408.896	63.62
409.12	84.62
409.344	74.62
409.567	63.62
409.791	71.62
410.014	77.62
410.238	77.62
410.461	76.62
410.685	91.62
410.908	82.62
411.132	86.62
411.355	77.62
411.578	74.62
411.802	87.62
412.025	80.62
412.249	57.62
412.472	72.62
412.695	82.62
412.919	89.62
413.142	76.62
413.365	74.62
413.589	69.62
413.812	70.62
414.035	97.62
414.258	85.62
414.482	83.62
414.705	89.62
414.928	63.62
415.151	73.62
415.374	72.62
415.597	70.62
415.821	79.62
416.044	96.62
416.267	68.62
416.49	59.62
416.713	67.62
416.936	82.62
417.159	74.62
417.382	79.62
417.605	90.62
417.828	76.62
418.051	79.62
418.274	82.62
418.497	79.62
418.72	80.62
418.943	70.62
419.166	77.62
419.389	80.62
419.611	85.62
419.834	74.62
420.057	81.62
420.28	67.62
420.503	71.62
420.726	67.62
420.948	83.62
421.171	80.62
421.394	81.62
421.617	54.62
421.839	84.62
422.062	84.62
422.285	80.62
422.507	90.62
422.73	120.62
422.953	121.62
423.175	80.62
423.398	85.62
423.621	85.62
423.843	80.62
424.066	82.62
424.288	71.62
424.511	80.62
424.733	66.62
424.956	74.62
425.178	69.62
425.401	81.62
425.623	64.62
425.846	75.62
426.068	82.62
426.291	88.62
426.513	83.62
426.735	71.62
426.958	88.62
427.18	89.62
427.402	93.62
427.625	79.62
427.847	85.62
428.069	78.62
428.292	72.62
428.514	75.62
428.736	101.62
428.958	66.62
429.181	88.62
429.403	61.62
429.625	93.62
429.847	84.62
430.069	82.62
430.292	79.62
430.514	101.62
430.736	74.62
430.958	78.62
431.18	61.62
431.402	82.62
431.624	88.62
431.846	69.62
432.068	96.62
432.29	88.62
432.512	82.62
432.734	74.62
432.956	76.62
433.178	78.62
433.4	76.62
433.622	77.62
433.844	68.62
434.066	89.62
434.287	78.62
434.509	74.62
434.731	78.62
434.953	76.62
435.175	77.62
435.397	86.62
435.618	88.62
435.84	81.62
436.062	69.62
436.284	64.62
436.505	84.62
436.727	74.62
436.949	70.62
437.17	70.62
437.392	90.62
437.614	74.62
437.835	88.62
438.057	80.62
438.278	80.62
438.5	62.62
438.721	77.62
438.943	85.62
439.165	77.62
439.386	91.62
439.608	86.62
439.829	77.62
440.05	75.62
440.272	72.62
440.493	89.62
440.715	84.62
440.936	85.62
441.158	92.62
441.379	69.62
441.6	66.62
441.822	89.62
442.043	77.62
442.264	80.62
442.486	64.62
442.707	85.62
442.928	80.62
443.149	76.62
443.371	82.62
443.592	98.62
443.813	98.62
444.034	77.62
444.255	84.62
444.476	79.62
444.698	77.62
444.919	89.62
445.14	172.62
445.361	137.62
445.582	103.62
445.803	79.62
446.024	84.62
446.245	68.62
446.466	70.62
446.687	68.62
446.908	81.62
447.129	88.62
447.35	81.62
447.571	78.62
447.792	74.62
448.013	66.62
448.234	78.62
448.455	80.62
448.675	81.62
448.896	75.62
449.117	79.62
449.338	76.62
449.559	76.62
449.779	81.62
450	86.62
450.221	89.62
450.442	88.62
450.662	71.62
450.883	73.62
451.104	75.62
451.324	78.62
451.545	83.62
451.766	87.62
451.986	80.62
452.207	88.62
452.428	76.62
452.648	73.62
452.869	94.62
453.089	89.62
453.31	84.62
453.53	73.62
453.751	62.62
453.971	85.62
454.192	83.62
454.412	82.62
454.633	70.62
454.853	74.62
455.073	82.62
455.294	82.62
455.514	76.62
455.734	77.62
455.955	76.62
456.175	83.62
456.395	82.62
456.616	70.62
456.836	80.62
457.056	79.62
457.276	69.62
457.497	66.62
457.717	72.62
457.937	81.62
458.157	76.62
458.377	68.62
458.598	71.62
458.818	79.62
459.038	75.62
459.258	68.62
459.478	92.62
459.698	78.62
459.918	89.62
460.138	77.62
460.358	71.62
460.578	71.62
460.798	89.62
461.018	65.62
461.238	79.62
461.458	86.62
461.678	72.62
461.898	87.62
462.118	77.62
462.338	72.62
462.558	72.62
462.777	71.62
462.997	82.62
463.217	81.62
463.437	82.62
463.657	80.62
463.876	77.62
464.096	81.62
464.316	78.62
464.536	85.62
464.755	99.62
464.975	77.62
465.195	86.62
465.414	70.62
465.634	78.62
465.854	82.62
466.073	85.62
466.293	73.62
466.512	68.62
466.732	69.62
466.951	80.62
467.171	76.62
467.391	73.62
467.61	72.62
467.829	67.62
468.049	84.62
468.268	81.62
468.488	89.62
468.707	80.62
468.927	82.62
469.146	90.62
469.365	89.62
469.585	70.62
469.804	77.62
470.023	92.62
470.243	73.62
470.462	74.62
470.681	81.62
470.901	88.62
471.12	80.62
471.339	77.62
471.558	69.62
471.777	76.62
471.997	86.62
472.216	82.62
472.435	84.62
472.654	77.62
472.873	85.62
473.092	65.62
473.311	88.62
473.53	82.62
473.749	67.62
473.968	79.62
474.187	90.62
474.406	80.62
474.625	84.62
474.844	78.62
475.063	64.62
475.282	76.62
475.501	73.62
475.72	84.62
475.939	78.62
476.158	83.62
476.377	79.62
476.596	82.62
476.814	82.62
477.033	90.62
477.252	77.62
477.471	81.62
477.69	68.62
477.908	79.62
478.127	82.62
478.346	90.62
478.564	81.62
478.783	77.62
479.002	78.62
479.22	81.62
479.439	83.62
479.658	80.62
479.876	96.62
480.095	71.62
480.313	85.62
480.532	83.62
480.751	86.62
480.969	82.62
481.188	78.62
481.406	82.62
481.624	70.62
481.843	84.62
482.061	85.62
482.28	80.62
482.498	89.62
482.717	80.62
482.935	92.62
483.153	88.62
483.372	81.62
483.59	79.62
483.808	71.62
484.027	85.62
484.245	73.62
484.463	81.62
484.681	69.62
484.9	77.62
485.118	78.62
485.336	84.62
485.554	68.62
485.772	91.62
485.99	80.62
486.209	70.62
486.427	93.62
486.645	93.62
486.863	68.62
487.081	76.62
487.299	70.62
487.517	76.62
487.735	89.62
487.953	101.62
488.171	82.62
488.389	79.62
488.607	77.62
488.825	62.62
489.043	73.62
489.261	82.62
489.479	92.62
489.696	80.62
489.914	69.62
490.132	94.62
490.35	70.62
490.568	68.62
490.786	70.62
491.003	78.62
491.221	97.62
491.439	87.62
491.657	72.62
491.874	98.62
492.092	90.62
492.31	75.62
492.527	66.62
492.745	75.62
492.963	76.62
493.18	76.62
493.398	78.62
493.615	81.62
493.833	76.62
494.05	81.62
494.268	69.62
494.485	78.62
494.703	71.62
494.92	82.62
495.138	76.62
495.355	78.62
495.573	86.62
495.79	75.62
496.008	78.62
496.225	93.62
496.442	71.62
496.66	64.62
496.877	74.62
497.094	90.62
497.312	91.62
497.529	85.62
497.746	97.62
497.963	81.62
498.181	91.62
498.398	74.62
498.615	72.62
498.832	79.62
499.049	59.62
499.267	70.62
499.484	83.62
499.701	74.62
499.918	85.62
500.135	82.62
500.352	70.62
500.569	91.62
500.786	90.62
501.003	81.62
501.22	80.62
501.437	72.62
501.654	73.62
501.871	80.62
502.088	77.62
502.305	70.62
502.522	79.62
502.739	80.62
502.956	77.62
503.172	74.62
503.389	81.62
503.606	82.62
503.823	79.62
504.04	93.62
504.256	74.62
504.473	80.62
504.69	75.62
504.907	81.62
505.123	76.62
505.34	74.62
505.557	70.62
505.773	76.62
505.99	68.62
506.207	85.62
506.423	78.62
506.64	71.62
506.856	81.62
507.073	85.62
507.289	70.62
507.506	78.62
507.722	80.62
507.939	88.62
508.155	70.62
508.372	66.62
508.588	77.62
508.805	82.62
509.021	88.62
509.238	76.62
509.454	80.62
509.67	76.62
509.887	77.62
510.103	75.62
510.319	72.62
510.536	81.62
510.752	72.62
510.968	74.62
511.184	88.62
511.401	69.62
511.617	91.62
511.833	82.62
512.049	74.62
512.265	67.62
512.481	73.62
512.698	77.62
512.914	89.62
513.13	82.62
513.346	74.62
513.562	76.62
513.778	75.62
513.994	85.62
514.21	84.62
514.426	85.62
514.642	84.62
514.858	76.62
515.074	71.62
515.29	78.62
515.506	79.62
515.721	71.62
515.937	77.62
516.153	90.62
516.369	80.62
516.585	69.62
516.801	69.62
517.016	85.62
517.232	97.62
517.448	80.62
517.664	86.62
517.879	77.62
518.095	83.62
518.311	84.62
518.527	92.62
518.742	81.62
518.958	76.62
519.173	81.62
519.389	77.62
519.605	78.62
519.82	61.62
520.036	85.62
520.251	62.62
