Data from 1600_1_HRD10591_00007.txt Node
Date: Mon Jan 19 13:47:44 EST 2026
User: Yrep
Spectrometer: HR+D1059
Trigger mode: 1
Integration Time (sec): 1.000000E-1
Scans to average: 1
Electric dark correction enabled: true
Nonlinearity correction enabled: false
Boxcar width: 0
XAxis mode: Wavelengths
Number of Pixels in Spectrum: 2048
>>>>>Begin Spectral Data<<<<<
223.165	-10.88
223.4	-10.88
223.635	-10.88
223.869	-13.88
224.104	-19.88
224.338	-3.88
224.573	-9.88
224.808	-13.88
225.042	-0.88
225.277	-9.88
225.511	-10.88
225.746	7.12
225.98	3.12
226.215	11.12
226.449	10.12
226.683	23.12
226.918	16.12
227.152	23.12
227.387	31.12
227.621	35.12
227.856	54.12
228.09	50.12
228.324	50.12
228.559	45.12
228.793	60.12
229.027	67.12
229.262	66.12
229.496	49.12
229.73	79.12
229.964	64.12
230.199	68.12
230.433	66.12
230.667	77.12
230.901	70.12
231.136	68.12
231.37	92.12
231.604	87.12
231.838	77.12
232.072	88.12
232.306	86.12
232.541	67.12
232.775	78.12
233.009	70.12
233.243	71.12
233.477	83.12
233.711	90.12
233.945	66.12
234.179	80.12
234.413	72.12
234.647	90.12
234.881	88.12
235.115	81.12
235.349	78.12
235.583	66.12
235.817	71.12
236.051	71.12
236.285	81.12
236.519	89.12
236.753	67.12
236.987	78.12
237.221	88.12
237.455	79.12
237.689	72.12
237.922	78.12
238.156	81.12
238.39	71.12
238.624	63.12
238.858	70.12
239.091	74.12
239.325	57.12
239.559	86.12
239.793	72.12
240.027	85.12
240.26	72.12
240.494	77.12
240.728	80.12
240.961	74.12
241.195	74.12
241.429	72.12
241.662	76.12
241.896	72.12
242.13	67.12
242.363	75.12
242.597	59.12
242.83	74.12
243.064	79.12
243.298	96.12
243.531	76.12
243.765	75.12
243.998	77.12
244.232	82.12
244.465	73.12
244.699	68.12
244.932	89.12
245.166	84.12
245.399	80.12
245.633	59.12
245.866	77.12
246.099	73.12
246.333	71.12
246.566	72.12
246.8	71.12
247.033	76.12
247.266	87.12
247.5	72.12
247.733	71.12
247.966	81.12
248.2	90.12
248.433	74.12
248.666	81.12
248.899	75.12
249.133	81.12
249.366	92.12
249.599	78.12
249.832	84.12
250.066	88.12
250.299	77.12
250.532	82.12
250.765	90.12
250.998	85.12
251.231	75.12
251.465	86.12
251.698	82.12
251.931	83.12
252.164	61.12
252.397	76.12
252.63	81.12
252.863	86.12
253.096	79.12
253.329	83.12
253.562	90.12
253.795	70.12
254.028	68.12
254.261	72.12
254.494	74.12
254.727	72.12
254.96	83.12
255.193	83.12
255.426	81.12
255.659	76.12
255.892	91.12
256.124	76.12
256.357	82.12
256.59	84.12
256.823	77.12
257.056	68.12
257.289	71.12
257.521	70.12
257.754	82.12
257.987	82.12
258.22	82.12
258.452	76.12
258.685	86.12
258.918	82.12
259.151	80.12
259.383	83.12
259.616	101.12
259.849	87.12
260.081	80.12
260.314	77.12
260.547	72.12
260.779	87.12
261.012	74.12
261.244	94.12
261.477	90.12
261.71	94.12
261.942	88.12
262.175	72.12
262.407	81.12
262.64	76.12
262.872	76.12
263.105	77.12
263.337	88.12
263.57	76.12
263.802	79.12
264.035	91.12
264.267	72.12
264.499	68.12
264.732	85.12
264.964	72.12
265.197	84.12
265.429	85.12
265.661	86.12
265.894	78.12
266.126	75.12
266.358	84.12
266.591	93.12
266.823	88.12
267.055	68.12
267.287	86.12
267.52	76.12
267.752	66.12
267.984	70.12
268.216	98.12
268.448	80.12
268.681	81.12
268.913	96.12
269.145	78.12
269.377	74.12
269.609	86.12
269.841	66.12
270.073	82.12
270.306	87.12
270.538	85.12
270.77	84.12
271.002	90.12
271.234	80.12
271.466	78.12
271.698	84.12
271.93	70.12
272.162	78.12
272.394	89.12
272.626	62.12
272.858	79.12
273.09	86.12
273.322	62.12
273.553	80.12
273.785	73.12
274.017	78.12
274.249	63.12
274.481	80.12
274.713	76.12
274.945	84.12
275.176	75.12
275.408	102.12
275.64	78.12
275.872	82.12
276.104	93.12
276.335	77.12
276.567	80.12
276.799	83.12
277.031	73.12
277.262	81.12
277.494	86.12
277.726	76.12
277.957	87.12
278.189	78.12
278.421	96.12
278.652	84.12
278.884	70.12
279.115	71.12
279.347	69.12
279.579	94.12
279.81	79.12
280.042	69.12
280.273	91.12
280.505	93.12
280.736	84.12
280.968	83.12
281.199	80.12
281.431	86.12
281.662	82.12
281.894	98.12
282.125	68.12
282.356	78.12
282.588	96.12
282.819	90.12
283.051	76.12
283.282	72.12
283.513	88.12
283.745	84.12
283.976	85.12
284.207	87.12
284.439	87.12
284.67	92.12
284.901	84.12
285.132	91.12
285.364	82.12
285.595	84.12
285.826	80.12
286.057	77.12
286.288	82.12
286.52	70.12
286.751	91.12
286.982	86.12
287.213	93.12
287.444	89.12
287.675	96.12
287.906	77.12
288.138	75.12
288.369	91.12
288.6	61.12
288.831	78.12
289.062	69.12
289.293	82.12
289.524	87.12
289.755	84.12
289.986	77.12
290.217	82.12
290.448	67.12
290.679	73.12
290.91	72.12
291.141	100.12
291.371	85.12
291.602	85.12
291.833	75.12
292.064	86.12
292.295	84.12
292.526	83.12
292.757	90.12
292.987	91.12
293.218	83.12
293.449	85.12
293.68	75.12
293.91	81.12
294.141	80.12
294.372	86.12
294.603	84.12
294.833	70.12
295.064	78.12
295.295	70.12
295.525	78.12
295.756	85.12
295.987	94.12
296.217	80.12
296.448	79.12
296.679	83.12
296.909	84.12
297.14	99.12
297.37	95.12
297.601	84.12
297.831	65.12
298.062	84.12
298.292	82.12
298.523	71.12
298.753	87.12
298.984	74.12
299.214	88.12
299.445	81.12
299.675	93.12
299.905	90.12
300.136	80.12
300.366	68.12
300.597	80.12
300.827	86.12
301.057	72.12
301.288	80.12
301.518	80.12
301.748	76.12
301.979	91.12
302.209	77.12
302.439	82.12
302.669	92.12
302.9	74.12
303.13	87.12
303.36	77.12
303.59	79.12
303.82	84.12
304.051	69.12
304.281	99.12
304.511	77.12
304.741	75.12
304.971	75.12
305.201	78.12
305.431	77.12
305.661	93.12
305.891	78.12
306.121	67.12
306.352	81.12
306.582	82.12
306.812	97.12
307.042	93.12
307.272	95.12
307.502	93.12
307.731	88.12
307.961	80.12
308.191	90.12
308.421	82.12
308.651	82.12
308.881	82.12
309.111	87.12
309.341	100.12
309.571	86.12
309.8	74.12
310.03	85.12
310.26	81.12
310.49	82.12
310.72	81.12
310.949	73.12
311.179	75.12
311.409	81.12
311.639	93.12
311.868	82.12
312.098	89.12
312.328	94.12
312.557	83.12
312.787	89.12
313.017	83.12
313.246	80.12
313.476	89.12
313.706	78.12
313.935	90.12
314.165	74.12
314.394	92.12
314.624	82.12
314.853	86.12
315.083	96.12
315.312	78.12
315.542	85.12
315.771	84.12
316.001	82.12
316.23	76.12
316.46	82.12
316.689	78.12
316.919	87.12
317.148	81.12
317.377	86.12
317.607	77.12
317.836	91.12
318.065	87.12
318.295	87.12
318.524	82.12
318.753	84.12
318.983	78.12
319.212	81.12
319.441	85.12
319.67	96.12
319.9	86.12
320.129	94.12
320.358	86.12
320.587	94.12
320.816	70.12
321.046	70.12
321.275	81.12
321.504	71.12
321.733	80.12
321.962	89.12
322.191	83.12
322.42	87.12
322.649	93.12
322.878	76.12
323.108	77.12
323.337	103.12
323.566	97.12
323.795	84.12
324.024	88.12
324.253	79.12
324.482	84.12
324.71	80.12
324.939	78.12
325.168	84.12
325.397	85.12
325.626	74.12
325.855	63.12
326.084	78.12
326.313	91.12
326.542	88.12
326.77	94.12
326.999	90.12
327.228	87.12
327.457	94.12
327.686	78.12
327.914	92.12
328.143	76.12
328.372	95.12
328.6	83.12
328.829	81.12
329.058	86.12
329.287	83.12
329.515	77.12
329.744	90.12
329.972	81.12
330.201	92.12
330.43	94.12
330.658	92.12
330.887	83.12
331.115	83.12
331.344	74.12
331.572	94.12
331.801	86.12
332.03	83.12
332.258	83.12
332.486	86.12
332.715	101.12
332.943	86.12
333.172	91.12
333.4	78.12
333.629	77.12
333.857	87.12
334.085	87.12
334.314	79.12
334.542	83.12
334.771	86.12
334.999	99.12
335.227	84.12
335.455	88.12
335.684	79.12
335.912	75.12
336.14	84.12
336.369	96.12
336.597	74.12
336.825	103.12
337.053	92.12
337.281	86.12
337.51	92.12
337.738	83.12
337.966	86.12
338.194	89.12
338.422	70.12
338.65	82.12
338.878	78.12
339.106	87.12
339.334	81.12
339.562	77.12
339.79	94.12
340.018	95.12
340.246	74.12
340.474	70.12
340.702	89.12
340.93	98.12
341.158	76.12
341.386	83.12
341.614	84.12
341.842	87.12
342.07	87.12
342.298	83.12
342.526	87.12
342.754	85.12
342.981	85.12
343.209	83.12
343.437	86.12
343.665	74.12
343.893	68.12
344.12	73.12
344.348	102.12
344.576	88.12
344.804	78.12
345.031	88.12
345.259	83.12
345.487	70.12
345.714	87.12
345.942	74.12
346.17	78.12
346.397	88.12
346.625	88.12
346.853	95.12
347.08	87.12
347.308	74.12
347.535	87.12
347.763	81.12
347.99	98.12
348.218	83.12
348.445	79.12
348.673	66.12
348.9	78.12
349.128	94.12
349.355	78.12
349.583	78.12
349.81	100.12
350.037	99.12
350.265	68.12
350.492	69.12
350.72	78.12
350.947	72.12
351.174	84.12
351.402	91.12
351.629	84.12
351.856	99.12
352.083	85.12
352.311	96.12
352.538	83.12
352.765	91.12
352.992	84.12
353.22	88.12
353.447	79.12
353.674	88.12
353.901	71.12
354.128	82.12
354.355	90.12
354.583	83.12
354.81	89.12
355.037	91.12
355.264	78.12
355.491	78.12
355.718	69.12
355.945	78.12
356.172	94.12
356.399	78.12
356.626	85.12
356.853	89.12
357.08	97.12
357.307	86.12
357.534	71.12
357.761	92.12
357.988	82.12
358.215	84.12
358.441	75.12
358.668	76.12
358.895	93.12
359.122	96.12
359.349	88.12
359.576	80.12
359.802	78.12
360.029	82.12
360.256	81.12
360.483	88.12
360.709	67.12
360.936	86.12
361.163	75.12
361.39	94.12
361.616	81.12
361.843	87.12
362.07	82.12
362.296	88.12
362.523	82.12
362.749	77.12
362.976	74.12
363.203	88.12
363.429	76.12
363.656	86.12
363.882	76.12
364.109	80.12
364.335	97.12
364.562	79.12
364.788	87.12
365.015	87.12
365.241	82.12
365.468	79.12
365.694	92.12
365.92	78.12
366.147	77.12
366.373	82.12
366.599	88.12
366.826	91.12
367.052	88.12
367.278	72.12
367.505	84.12
367.731	86.12
367.957	82.12
368.184	86.12
368.41	89.12
368.636	94.12
368.862	89.12
369.089	84.12
369.315	90.12
369.541	84.12
369.767	79.12
369.993	75.12
370.219	93.12
370.445	73.12
370.672	80.12
370.898	81.12
371.124	87.12
371.35	96.12
371.576	90.12
371.802	77.12
372.028	85.12
372.254	83.12
372.48	96.12
372.706	86.12
372.932	88.12
373.158	79.12
373.384	86.12
373.61	79.12
373.835	87.12
374.061	71.12
374.287	100.12
374.513	74.12
374.739	86.12
374.965	79.12
375.191	76.12
375.416	91.12
375.642	86.12
375.868	100.12
376.094	88.12
376.319	74.12
376.545	90.12
376.771	63.12
376.997	78.12
377.222	74.12
377.448	67.12
377.674	63.12
377.899	72.12
378.125	93.12
378.35	92.12
378.576	72.12
378.802	76.12
379.027	86.12
379.253	85.12
379.478	92.12
379.704	91.12
379.929	83.12
380.155	85.12
380.38	89.12
380.606	88.12
380.831	81.12
381.057	110.12
381.282	73.12
381.507	88.12
381.733	88.12
381.958	81.12
382.184	80.12
382.409	84.12
382.634	76.12
382.86	96.12
383.085	76.12
383.31	79.12
383.535	85.12
383.761	93.12
383.986	90.12
384.211	83.12
384.436	86.12
384.662	84.12
384.887	80.12
385.112	86.12
385.337	91.12
385.562	76.12
385.787	58.12
386.013	86.12
386.238	84.12
386.463	79.12
386.688	92.12
386.913	93.12
387.138	75.12
387.363	77.12
387.588	84.12
387.813	88.12
388.038	78.12
388.263	96.12
388.488	74.12
388.713	73.12
388.938	100.12
389.163	78.12
389.387	82.12
389.612	88.12
389.837	81.12
390.062	68.12
390.287	77.12
390.512	74.12
390.736	90.12
390.961	81.12
391.186	89.12
391.411	84.12
391.636	91.12
391.86	79.12
392.085	74.12
392.31	87.12
392.534	94.12
392.759	77.12
392.984	87.12
393.208	91.12
393.433	103.12
393.658	106.12
393.882	78.12
394.107	87.12
394.331	84.12
394.556	95.12
394.78	85.12
395.005	80.12
395.229	76.12
395.454	87.12
395.678	86.12
395.903	101.12
396.127	92.12
396.352	88.12
396.576	83.12
396.801	77.12
397.025	96.12
397.249	80.12
397.474	79.12
397.698	106.12
397.922	90.12
398.147	84.12
398.371	76.12
398.595	87.12
398.82	90.12
399.044	69.12
399.268	87.12
399.492	81.12
399.717	84.12
399.941	87.12
400.165	79.12
400.389	85.12
400.613	85.12
400.837	87.12
401.062	87.12
401.286	79.12
401.51	78.12
401.734	81.12
401.958	85.12
402.182	77.12
402.406	92.12
402.63	76.12
402.854	67.12
403.078	87.12
403.302	74.12
403.526	71.12
403.75	84.12
403.974	100.12
404.198	88.12
404.422	79.12
404.645	101.12
404.869	74.12
405.093	96.12
405.317	78.12
405.541	76.12
405.765	73.12
405.988	82.12
406.212	84.12
406.436	80.12
406.66	84.12
406.883	79.12
407.107	79.12
407.331	91.12
407.555	80.12
407.778	70.12
408.002	82.12
408.226	71.12
408.449	82.12
408.673	87.12
408.896	86.12
409.12	85.12
409.344	83.12
409.567	81.12
409.791	92.12
410.014	60.12
410.238	55.12
410.461	71.12
410.685	73.12
410.908	75.12
411.132	100.12
411.355	82.12
411.578	91.12
411.802	102.12
412.025	82.12
412.249	79.12
412.472	88.12
412.695	76.12
412.919	90.12
413.142	88.12
413.365	89.12
413.589	83.12
413.812	91.12
414.035	88.12
414.258	86.12
414.482	72.12
414.705	79.12
414.928	80.12
415.151	81.12
415.374	74.12
415.597	74.12
415.821	70.12
416.044	73.12
416.267	81.12
416.49	79.12
416.713	83.12
416.936	78.12
417.159	74.12
417.382	88.12
417.605	84.12
417.828	85.12
418.051	86.12
418.274	99.12
418.497	94.12
418.72	85.12
418.943	81.12
419.166	92.12
419.389	80.12
419.611	75.12
419.834	86.12
420.057	94.12
420.28	73.12
420.503	84.12
420.726	70.12
420.948	88.12
421.171	88.12
421.394	81.12
421.617	78.12
421.839	76.12
422.062	90.12
422.285	84.12
422.507	108.12
422.73	127.12
422.953	112.12
423.175	97.12
423.398	101.12
423.621	82.12
423.843	74.12
424.066	82.12
424.288	94.12
424.511	88.12
424.733	83.12
424.956	75.12
425.178	81.12
425.401	80.12
425.623	72.12
425.846	71.12
426.068	82.12
426.291	83.12
426.513	80.12
426.735	96.12
426.958	83.12
427.18	88.12
427.402	79.12
427.625	78.12
427.847	83.12
428.069	88.12
428.292	76.12
428.514	86.12
428.736	98.12
428.958	88.12
429.181	76.12
429.403	84.12
429.625	78.12
429.847	85.12
430.069	82.12
430.292	82.12
430.514	85.12
430.736	92.12
430.958	98.12
431.18	71.12
431.402	89.12
431.624	80.12
431.846	86.12
432.068	79.12
432.29	77.12
432.512	90.12
432.734	71.12
432.956	83.12
433.178	86.12
433.4	87.12
433.622	86.12
433.844	73.12
434.066	77.12
434.287	69.12
434.509	75.12
434.731	87.12
434.953	86.12
435.175	88.12
435.397	89.12
435.618	86.12
435.84	81.12
436.062	72.12
436.284	79.12
436.505	83.12
436.727	83.12
436.949	94.12
437.17	83.12
437.392	79.12
437.614	84.12
437.835	87.12
438.057	74.12
438.278	98.12
438.5	87.12
438.721	80.12
438.943	78.12
439.165	83.12
439.386	80.12
439.608	78.12
439.829	86.12
440.05	72.12
440.272	92.12
440.493	70.12
440.715	68.12
440.936	79.12
441.158	78.12
441.379	84.12
441.6	79.12
441.822	90.12
442.043	82.12
442.264	85.12
442.486	88.12
442.707	85.12
442.928	86.12
443.149	97.12
443.371	92.12
443.592	103.12
443.813	87.12
444.034	88.12
444.255	77.12
444.476	78.12
444.698	80.12
444.919	89.12
445.14	156.12
445.361	125.12
445.582	104.12
445.803	79.12
446.024	79.12
446.245	94.12
446.466	80.12
446.687	95.12
446.908	92.12
447.129	67.12
447.35	91.12
447.571	79.12
447.792	89.12
448.013	94.12
448.234	82.12
448.455	90.12
448.675	93.12
448.896	78.12
449.117	64.12
449.338	75.12
449.559	84.12
449.779	69.12
450	79.12
450.221	91.12
450.442	78.12
450.662	76.12
450.883	70.12
451.104	78.12
451.324	66.12
451.545	74.12
451.766	78.12
451.986	81.12
452.207	86.12
452.428	82.12
452.648	73.12
452.869	81.12
453.089	83.12
453.31	78.12
453.53	89.12
453.751	86.12
453.971	73.12
454.192	87.12
454.412	86.12
454.633	92.12
454.853	72.12
455.073	81.12
455.294	97.12
455.514	85.12
455.734	91.12
455.955	85.12
456.175	83.12
456.395	72.12
456.616	80.12
456.836	81.12
457.056	82.12
457.276	90.12
457.497	93.12
457.717	79.12
457.937	81.12
458.157	80.12
458.377	85.12
458.598	72.12
458.818	86.12
459.038	77.12
459.258	70.12
459.478	78.12
459.698	80.12
459.918	92.12
460.138	80.12
460.358	70.12
460.578	77.12
460.798	84.12
461.018	88.12
461.238	76.12
461.458	84.12
461.678	84.12
461.898	85.12
462.118	78.12
462.338	86.12
462.558	82.12
462.777	73.12
462.997	81.12
463.217	80.12
463.437	83.12
463.657	81.12
463.876	88.12
464.096	76.12
464.316	84.12
464.536	77.12
464.755	84.12
464.975	77.12
465.195	86.12
465.414	81.12
465.634	92.12
465.854	71.12
466.073	85.12
466.293	75.12
466.512	78.12
466.732	76.12
466.951	78.12
467.171	79.12
467.391	82.12
467.61	80.12
467.829	84.12
468.049	89.12
468.268	84.12
468.488	85.12
468.707	67.12
468.927	99.12
469.146	79.12
469.365	79.12
469.585	98.12
469.804	78.12
470.023	78.12
470.243	84.12
470.462	86.12
470.681	78.12
470.901	69.12
471.12	88.12
471.339	87.12
471.558	78.12
471.777	77.12
471.997	72.12
472.216	62.12
472.435	84.12
472.654	74.12
472.873	78.12
473.092	75.12
473.311	90.12
473.53	74.12
473.749	81.12
473.968	75.12
474.187	79.12
474.406	75.12
474.625	83.12
474.844	89.12
475.063	78.12
475.282	66.12
475.501	79.12
475.72	74.12
475.939	78.12
476.158	78.12
476.377	79.12
476.596	109.12
476.814	76.12
477.033	86.12
477.252	79.12
477.471	78.12
477.69	80.12
477.908	77.12
478.127	76.12
478.346	69.12
478.564	84.12
478.783	95.12
479.002	78.12
479.22	88.12
479.439	74.12
479.658	86.12
479.876	87.12
480.095	85.12
480.313	83.12
480.532	82.12
480.751	71.12
480.969	84.12
481.188	74.12
481.406	86.12
481.624	81.12
481.843	78.12
482.061	81.12
482.28	74.12
482.498	73.12
482.717	79.12
482.935	94.12
483.153	81.12
483.372	86.12
483.59	79.12
483.808	90.12
484.027	84.12
484.245	67.12
484.463	84.12
484.681	77.12
484.9	83.12
485.118	80.12
485.336	78.12
485.554	97.12
485.772	62.12
485.99	72.12
486.209	90.12
486.427	82.12
486.645	87.12
486.863	97.12
487.081	83.12
487.299	77.12
487.517	80.12
487.735	83.12
487.953	92.12
488.171	83.12
488.389	74.12
488.607	84.12
488.825	69.12
489.043	93.12
489.261	83.12
489.479	81.12
489.696	80.12
489.914	70.12
490.132	77.12
490.35	94.12
490.568	78.12
490.786	85.12
491.003	94.12
491.221	84.12
491.439	78.12
491.657	81.12
491.874	70.12
492.092	74.12
492.31	82.12
492.527	80.12
492.745	79.12
492.963	91.12
493.18	94.12
493.398	79.12
493.615	87.12
493.833	84.12
494.05	80.12
494.268	67.12
494.485	72.12
494.703	92.12
494.92	75.12
495.138	92.12
495.355	72.12
495.573	92.12
495.79	77.12
496.008	93.12
496.225	73.12
496.442	78.12
496.66	90.12
496.877	88.12
497.094	83.12
497.312	86.12
497.529	82.12
497.746	73.12
497.963	77.12
498.181	79.12
498.398	77.12
498.615	85.12
498.832	82.12
499.049	89.12
499.267	93.12
499.484	85.12
499.701	93.12
499.918	70.12
500.135	82.12
500.352	83.12
500.569	75.12
500.786	83.12
501.003	79.12
501.22	92.12
501.437	78.12
501.654	84.12
501.871	82.12
502.088	74.12
502.305	76.12
502.522	71.12
502.739	82.12
502.956	95.12
503.172	78.12
503.389	99.12
503.606	99.12
503.823	86.12
504.04	90.12
504.256	98.12
504.473	85.12
504.69	78.12
504.907	84.12
505.123	80.12
505.34	82.12
505.557	85.12
505.773	96.12
505.99	89.12
506.207	83.12
506.423	77.12
506.64	73.12
506.856	80.12
507.073	85.12
507.289	72.12
507.506	79.12
507.722	86.12
507.939	76.12
508.155	87.12
508.372	83.12
508.588	84.12
508.805	85.12
509.021	91.12
509.238	88.12
509.454	68.12
509.67	83.12
509.887	64.12
510.103	79.12
510.319	92.12
510.536	89.12
510.752	98.12
510.968	82.12
511.184	92.12
511.401	74.12
511.617	85.12
511.833	74.12
512.049	91.12
512.265	74.12
512.481	81.12
512.698	86.12
512.914	87.12
513.13	85.12
513.346	86.12
513.562	94.12
513.778	86.12
513.994	77.12
514.21	78.12
514.426	84.12
514.642	82.12
514.858	72.12
515.074	90.12
515.29	84.12
515.506	90.12
515.721	71.12
515.937	67.12
516.153	83.12
516.369	84.12
516.585	89.12
516.801	86.12
517.016	82.12
517.232	96.12
517.448	81.12
517.664	82.12
517.879	74.12
518.095	90.12
518.311	66.12
518.527	74.12
518.742	91.12
518.958	75.12
519.173	82.12
519.389	75.12
519.605	76.12
519.82	86.12
