Data from 1600_1_HRD10591_00013.txt Node
Date: Mon Jan 19 13:47:47 EST 2026
User: Yrep
Spectrometer: HR+D1059
Trigger mode: 1
Integration Time (sec): 1.000000E-1
Scans to average: 1
Electric dark correction enabled: true
Nonlinearity correction enabled: false
Boxcar width: 0
XAxis mode: Wavelengths
Number of Pixels in Spectrum: 2048
>>>>>Begin Spectral Data<<<<<
223.165	-25.69
223.4	-25.69
223.635	-25.69
223.869	-32.69
224.104	-9.69
224.338	-8.69
224.573	-1.69
224.808	-9.69
225.042	-12.69
225.277	9.31
225.511	6.31
225.746	4.31
225.98	3.31
226.215	7.31
226.449	12.31
226.683	24.31
226.918	16.31
227.152	17.31
227.387	37.31
227.621	34.31
227.856	39.31
228.09	41.31
228.324	63.31
228.559	59.31
228.793	54.31
229.027	63.31
229.262	65.31
229.496	76.31
229.73	72.31
229.964	75.31
230.199	71.31
230.433	74.31
230.667	74.31
230.901	61.31
231.136	81.31
231.37	62.31
231.604	78.31
231.838	79.31
232.072	85.31
232.306	65.31
232.541	87.31
232.775	70.31
233.009	86.31
233.243	66.31
233.477	70.31
233.711	82.31
233.945	74.31
234.179	75.31
234.413	81.31
234.647	81.31
234.881	90.31
235.115	92.31
235.349	82.31
235.583	83.31
235.817	76.31
236.051	70.31
236.285	79.31
236.519	73.31
236.753	71.31
236.987	86.31
237.221	71.31
237.455	63.31
237.689	77.31
237.922	85.31
238.156	80.31
238.39	79.31
238.624	79.31
238.858	86.31
239.091	64.31
239.325	74.31
239.559	69.31
239.793	69.31
240.027	66.31
240.26	94.31
240.494	81.31
240.728	86.31
240.961	73.31
241.195	83.31
241.429	81.31
241.662	66.31
241.896	63.31
242.13	71.31
242.363	73.31
242.597	79.31
242.83	74.31
243.064	66.31
243.298	89.31
243.531	74.31
243.765	70.31
243.998	85.31
244.232	79.31
244.465	79.31
244.699	78.31
244.932	85.31
245.166	62.31
245.399	73.31
245.633	69.31
245.866	83.31
246.099	91.31
246.333	84.31
246.566	77.31
246.8	67.31
247.033	72.31
247.266	80.31
247.5	83.31
247.733	70.31
247.966	82.31
248.2	72.31
248.433	81.31
248.666	72.31
248.899	80.31
249.133	92.31
249.366	76.31
249.599	71.31
249.832	93.31
250.066	93.31
250.299	88.31
250.532	87.31
250.765	83.31
250.998	99.31
251.231	85.31
251.465	58.31
251.698	80.31
251.931	78.31
252.164	80.31
252.397	67.31
252.63	84.31
252.863	81.31
253.096	95.31
253.329	70.31
253.562	77.31
253.795	79.31
254.028	70.31
254.261	83.31
254.494	92.31
254.727	100.31
254.96	71.31
255.193	77.31
255.426	88.31
255.659	80.31
255.892	78.31
256.124	76.31
256.357	80.31
256.59	92.31
256.823	95.31
257.056	79.31
257.289	84.31
257.521	63.31
257.754	77.31
257.987	84.31
258.22	83.31
258.452	74.31
258.685	88.31
258.918	81.31
259.151	68.31
259.383	83.31
259.616	70.31
259.849	95.31
260.081	88.31
260.314	96.31
260.547	76.31
260.779	85.31
261.012	83.31
261.244	90.31
261.477	77.31
261.71	79.31
261.942	77.31
262.175	82.31
262.407	67.31
262.64	87.31
262.872	79.31
263.105	95.31
263.337	84.31
263.57	98.31
263.802	81.31
264.035	74.31
264.267	77.31
264.499	83.31
264.732	90.31
264.964	82.31
265.197	85.31
265.429	72.31
265.661	80.31
265.894	81.31
266.126	81.31
266.358	77.31
266.591	75.31
266.823	93.31
267.055	82.31
267.287	79.31
267.52	75.31
267.752	80.31
267.984	84.31
268.216	82.31
268.448	84.31
268.681	91.31
268.913	86.31
269.145	90.31
269.377	81.31
269.609	75.31
269.841	71.31
270.073	73.31
270.306	84.31
270.538	81.31
270.77	76.31
271.002	87.31
271.234	97.31
271.466	87.31
271.698	82.31
271.93	90.31
272.162	87.31
272.394	83.31
272.626	78.31
272.858	87.31
273.09	88.31
273.322	82.31
273.553	82.31
273.785	72.31
274.017	83.31
274.249	71.31
274.481	72.31
274.713	95.31
274.945	91.31
275.176	103.31
275.408	70.31
275.64	94.31
275.872	77.31
276.104	84.31
276.335	86.31
276.567	85.31
276.799	82.31
277.031	72.31
277.262	74.31
277.494	80.31
277.726	85.31
277.957	93.31
278.189	77.31
278.421	69.31
278.652	81.31
278.884	90.31
279.115	75.31
279.347	77.31
279.579	89.31
279.81	90.31
280.042	70.31
280.273	94.31
280.505	93.31
280.736	75.31
280.968	84.31
281.199	91.31
281.431	88.31
281.662	80.31
281.894	86.31
282.125	92.31
282.356	93.31
282.588	77.31
282.819	82.31
283.051	86.31
283.282	80.31
283.513	72.31
283.745	71.31
283.976	83.31
284.207	76.31
284.439	79.31
284.67	91.31
284.901	82.31
285.132	89.31
285.364	76.31
285.595	81.31
285.826	89.31
286.057	100.31
286.288	85.31
286.52	73.31
286.751	79.31
286.982	87.31
287.213	87.31
287.444	95.31
287.675	96.31
287.906	97.31
288.138	68.31
288.369	90.31
288.6	92.31
288.831	82.31
289.062	85.31
289.293	69.31
289.524	85.31
289.755	93.31
289.986	71.31
290.217	71.31
290.448	93.31
290.679	79.31
290.91	81.31
291.141	80.31
291.371	80.31
291.602	81.31
291.833	73.31
292.064	95.31
292.295	91.31
292.526	74.31
292.757	89.31
292.987	84.31
293.218	91.31
293.449	80.31
293.68	71.31
293.91	75.31
294.141	89.31
294.372	86.31
294.603	86.31
294.833	89.31
295.064	76.31
295.295	78.31
295.525	97.31
295.756	83.31
295.987	79.31
296.217	85.31
296.448	87.31
296.679	92.31
296.909	95.31
297.14	92.31
297.37	74.31
297.601	82.31
297.831	75.31
298.062	88.31
298.292	77.31
298.523	92.31
298.753	93.31
298.984	95.31
299.214	95.31
299.445	87.31
299.675	78.31
299.905	81.31
300.136	79.31
300.366	104.31
300.597	71.31
300.827	73.31
301.057	97.31
301.288	93.31
301.518	92.31
301.748	85.31
301.979	69.31
302.209	88.31
302.439	90.31
302.669	93.31
302.9	84.31
303.13	99.31
303.36	79.31
303.59	85.31
303.82	80.31
304.051	83.31
304.281	91.31
304.511	79.31
304.741	70.31
304.971	77.31
305.201	99.31
305.431	85.31
305.661	92.31
305.891	87.31
306.121	74.31
306.352	82.31
306.582	90.31
306.812	84.31
307.042	95.31
307.272	94.31
307.502	88.31
307.731	91.31
307.961	77.31
308.191	81.31
308.421	96.31
308.651	88.31
308.881	84.31
309.111	101.31
309.341	87.31
309.571	85.31
309.8	78.31
310.03	79.31
310.26	65.31
310.49	81.31
310.72	71.31
310.949	91.31
311.179	94.31
311.409	89.31
311.639	87.31
311.868	88.31
312.098	76.31
312.328	89.31
312.557	91.31
312.787	77.31
313.017	85.31
313.246	91.31
313.476	86.31
313.706	96.31
313.935	88.31
314.165	93.31
314.394	79.31
314.624	89.31
314.853	84.31
315.083	93.31
315.312	88.31
315.542	82.31
315.771	87.31
316.001	91.31
316.23	87.31
316.46	85.31
316.689	90.31
316.919	70.31
317.148	74.31
317.377	83.31
317.607	90.31
317.836	85.31
318.065	85.31
318.295	88.31
318.524	74.31
318.753	79.31
318.983	82.31
319.212	77.31
319.441	83.31
319.67	101.31
319.9	80.31
320.129	84.31
320.358	85.31
320.587	96.31
320.816	80.31
321.046	91.31
321.275	83.31
321.504	79.31
321.733	86.31
321.962	84.31
322.191	91.31
322.42	78.31
322.649	80.31
322.878	96.31
323.108	91.31
323.337	82.31
323.566	115.31
323.795	93.31
324.024	84.31
324.253	95.31
324.482	98.31
324.71	83.31
324.939	91.31
325.168	92.31
325.397	89.31
325.626	83.31
325.855	79.31
326.084	84.31
326.313	83.31
326.542	92.31
326.77	87.31
326.999	85.31
327.228	74.31
327.457	81.31
327.686	86.31
327.914	82.31
328.143	94.31
328.372	95.31
328.6	92.31
328.829	83.31
329.058	87.31
329.287	83.31
329.515	87.31
329.744	71.31
329.972	79.31
330.201	99.31
330.43	85.31
330.658	73.31
330.887	86.31
331.115	87.31
331.344	80.31
331.572	95.31
331.801	89.31
332.03	87.31
332.258	82.31
332.486	81.31
332.715	84.31
332.943	83.31
333.172	79.31
333.4	71.31
333.629	100.31
333.857	89.31
334.085	88.31
334.314	84.31
334.542	72.31
334.771	83.31
334.999	87.31
335.227	94.31
335.455	85.31
335.684	85.31
335.912	99.31
336.14	91.31
336.369	86.31
336.597	67.31
336.825	73.31
337.053	81.31
337.281	101.31
337.51	73.31
337.738	88.31
337.966	91.31
338.194	96.31
338.422	92.31
338.65	71.31
338.878	83.31
339.106	76.31
339.334	91.31
339.562	87.31
339.79	83.31
340.018	80.31
340.246	103.31
340.474	76.31
340.702	83.31
340.93	72.31
341.158	71.31
341.386	85.31
341.614	80.31
341.842	85.31
342.07	87.31
342.298	86.31
342.526	84.31
342.754	92.31
342.981	83.31
343.209	83.31
343.437	95.31
343.665	99.31
343.893	83.31
344.12	79.31
344.348	83.31
344.576	89.31
344.804	79.31
345.031	87.31
345.259	93.31
345.487	72.31
345.714	73.31
345.942	87.31
346.17	71.31
346.397	84.31
346.625	91.31
346.853	92.31
347.08	71.31
347.308	89.31
347.535	86.31
347.763	69.31
347.99	86.31
348.218	79.31
348.445	86.31
348.673	83.31
348.9	88.31
349.128	92.31
349.355	85.31
349.583	82.31
349.81	84.31
350.037	71.31
350.265	91.31
350.492	79.31
350.72	65.31
350.947	80.31
351.174	75.31
351.402	75.31
351.629	94.31
351.856	73.31
352.083	73.31
352.311	97.31
352.538	72.31
352.765	90.31
352.992	72.31
353.22	78.31
353.447	83.31
353.674	65.31
353.901	81.31
354.128	80.31
354.355	66.31
354.583	77.31
354.81	91.31
355.037	83.31
355.264	91.31
355.491	97.31
355.718	81.31
355.945	84.31
356.172	79.31
356.399	75.31
356.626	80.31
356.853	93.31
357.08	92.31
357.307	84.31
357.534	84.31
357.761	88.31
357.988	93.31
358.215	101.31
358.441	82.31
358.668	90.31
358.895	81.31
359.122	92.31
359.349	83.31
359.576	93.31
359.802	81.31
360.029	73.31
360.256	91.31
360.483	79.31
360.709	74.31
360.936	99.31
361.163	81.31
361.39	90.31
361.616	89.31
361.843	85.31
362.07	82.31
362.296	99.31
362.523	86.31
362.749	68.31
362.976	77.31
363.203	91.31
363.429	80.31
363.656	86.31
363.882	79.31
364.109	95.31
364.335	85.31
364.562	85.31
364.788	88.31
365.015	84.31
365.241	82.31
365.468	74.31
365.694	91.31
365.92	91.31
366.147	81.31
366.373	89.31
366.599	80.31
366.826	74.31
367.052	84.31
367.278	82.31
367.505	92.31
367.731	87.31
367.957	81.31
368.184	73.31
368.41	83.31
368.636	81.31
368.862	79.31
369.089	79.31
369.315	84.31
369.541	95.31
369.767	88.31
369.993	86.31
370.219	86.31
370.445	81.31
370.672	85.31
370.898	87.31
371.124	83.31
371.35	84.31
371.576	79.31
371.802	77.31
372.028	76.31
372.254	80.31
372.48	84.31
372.706	70.31
372.932	82.31
373.158	86.31
373.384	68.31
373.61	94.31
373.835	98.31
374.061	82.31
374.287	93.31
374.513	92.31
374.739	70.31
374.965	92.31
375.191	71.31
375.416	86.31
375.642	85.31
375.868	89.31
376.094	83.31
376.319	90.31
376.545	72.31
376.771	85.31
376.997	71.31
377.222	83.31
377.448	86.31
377.674	83.31
377.899	89.31
378.125	70.31
378.35	80.31
378.576	83.31
378.802	86.31
379.027	71.31
379.253	71.31
379.478	91.31
379.704	83.31
379.929	95.31
380.155	77.31
380.38	85.31
380.606	77.31
380.831	84.31
381.057	84.31
381.282	78.31
381.507	96.31
381.733	87.31
381.958	83.31
382.184	87.31
382.409	92.31
382.634	94.31
382.86	87.31
383.085	103.31
383.31	91.31
383.535	91.31
383.761	83.31
383.986	79.31
384.211	71.31
384.436	77.31
384.662	90.31
384.887	95.31
385.112	94.31
385.337	85.31
385.562	87.31
385.787	92.31
386.013	94.31
386.238	92.31
386.463	87.31
386.688	87.31
386.913	72.31
387.138	77.31
387.363	83.31
387.588	82.31
387.813	89.31
388.038	80.31
388.263	87.31
388.488	88.31
388.713	80.31
388.938	81.31
389.163	73.31
389.387	82.31
389.612	88.31
389.837	85.31
390.062	74.31
390.287	88.31
390.512	80.31
390.736	85.31
390.961	83.31
391.186	78.31
391.411	81.31
391.636	72.31
391.86	79.31
392.085	91.31
392.31	87.31
392.534	95.31
392.759	94.31
392.984	77.31
393.208	96.31
393.433	99.31
393.658	102.31
393.882	74.31
394.107	93.31
394.331	80.31
394.556	88.31
394.78	83.31
395.005	79.31
395.229	80.31
395.454	84.31
395.678	85.31
395.903	85.31
396.127	99.31
396.352	77.31
396.576	83.31
396.801	91.31
397.025	81.31
397.249	79.31
397.474	90.31
397.698	84.31
397.922	84.31
398.147	77.31
398.371	82.31
398.595	74.31
398.82	82.31
399.044	80.31
399.268	87.31
399.492	77.31
399.717	73.31
399.941	91.31
400.165	90.31
400.389	74.31
400.613	81.31
400.837	100.31
401.062	92.31
401.286	87.31
401.51	79.31
401.734	74.31
401.958	82.31
402.182	78.31
402.406	61.31
402.63	72.31
402.854	81.31
403.078	85.31
403.302	81.31
403.526	83.31
403.75	77.31
403.974	93.31
404.198	81.31
404.422	92.31
404.645	84.31
404.869	82.31
405.093	86.31
405.317	74.31
405.541	72.31
405.765	87.31
405.988	91.31
406.212	80.31
406.436	78.31
406.66	72.31
406.883	97.31
407.107	81.31
407.331	81.31
407.555	82.31
407.778	77.31
408.002	94.31
408.226	91.31
408.449	81.31
408.673	70.31
408.896	79.31
409.12	77.31
409.344	65.31
409.567	71.31
409.791	80.31
410.014	82.31
410.238	84.31
410.461	70.31
410.685	83.31
410.908	72.31
411.132	79.31
411.355	82.31
411.578	87.31
411.802	84.31
412.025	68.31
412.249	91.31
412.472	78.31
412.695	89.31
412.919	63.31
413.142	66.31
413.365	93.31
413.589	77.31
413.812	89.31
414.035	71.31
414.258	79.31
414.482	79.31
414.705	95.31
414.928	80.31
415.151	71.31
415.374	87.31
415.597	91.31
415.821	71.31
416.044	85.31
416.267	75.31
416.49	91.31
416.713	93.31
416.936	86.31
417.159	77.31
417.382	83.31
417.605	70.31
417.828	79.31
418.051	69.31
418.274	77.31
418.497	74.31
418.72	94.31
418.943	70.31
419.166	79.31
419.389	70.31
419.611	78.31
419.834	81.31
420.057	80.31
420.28	92.31
420.503	73.31
420.726	91.31
420.948	79.31
421.171	68.31
421.394	78.31
421.617	75.31
421.839	91.31
422.062	69.31
422.285	76.31
422.507	84.31
422.73	109.31
422.953	104.31
423.175	79.31
423.398	87.31
423.621	88.31
423.843	79.31
424.066	68.31
424.288	85.31
424.511	80.31
424.733	86.31
424.956	91.31
425.178	68.31
425.401	98.31
425.623	72.31
425.846	79.31
426.068	84.31
426.291	80.31
426.513	67.31
426.735	72.31
426.958	81.31
427.18	93.31
427.402	91.31
427.625	89.31
427.847	97.31
428.069	70.31
428.292	72.31
428.514	85.31
428.736	83.31
428.958	66.31
429.181	89.31
429.403	85.31
429.625	85.31
429.847	74.31
430.069	100.31
430.292	81.31
430.514	85.31
430.736	91.31
430.958	85.31
431.18	70.31
431.402	86.31
431.624	79.31
431.846	80.31
432.068	84.31
432.29	80.31
432.512	82.31
432.734	79.31
432.956	74.31
433.178	94.31
433.4	81.31
433.622	81.31
433.844	80.31
434.066	92.31
434.287	76.31
434.509	89.31
434.731	80.31
434.953	87.31
435.175	79.31
435.397	84.31
435.618	65.31
435.84	78.31
436.062	93.31
436.284	88.31
436.505	85.31
436.727	78.31
436.949	72.31
437.17	93.31
437.392	85.31
437.614	87.31
437.835	89.31
438.057	78.31
438.278	79.31
438.5	86.31
438.721	87.31
438.943	88.31
439.165	103.31
439.386	91.31
439.608	74.31
439.829	89.31
440.05	85.31
440.272	86.31
440.493	81.31
440.715	88.31
440.936	79.31
441.158	82.31
441.379	77.31
441.6	86.31
441.822	78.31
442.043	74.31
442.264	80.31
442.486	104.31
442.707	80.31
442.928	93.31
443.149	86.31
443.371	96.31
443.592	88.31
443.813	65.31
444.034	70.31
444.255	75.31
444.476	87.31
444.698	84.31
444.919	71.31
445.14	175.31
445.361	139.31
445.582	91.31
445.803	96.31
446.024	81.31
446.245	83.31
446.466	83.31
446.687	78.31
446.908	83.31
447.129	93.31
447.35	88.31
447.571	78.31
447.792	85.31
448.013	92.31
448.234	67.31
448.455	74.31
448.675	85.31
448.896	83.31
449.117	87.31
449.338	72.31
449.559	84.31
449.779	92.31
450	72.31
450.221	81.31
450.442	83.31
450.662	88.31
450.883	59.31
451.104	78.31
451.324	74.31
451.545	89.31
451.766	81.31
451.986	79.31
452.207	85.31
452.428	83.31
452.648	74.31
452.869	70.31
453.089	97.31
453.31	77.31
453.53	79.31
453.751	78.31
453.971	78.31
454.192	88.31
454.412	94.31
454.633	78.31
454.853	86.31
455.073	67.31
455.294	74.31
455.514	91.31
455.734	91.31
455.955	79.31
456.175	81.31
456.395	99.31
456.616	87.31
456.836	87.31
457.056	78.31
457.276	86.31
457.497	78.31
457.717	91.31
457.937	83.31
458.157	69.31
458.377	80.31
458.598	80.31
458.818	73.31
459.038	84.31
459.258	83.31
459.478	79.31
459.698	77.31
459.918	87.31
460.138	98.31
460.358	79.31
460.578	84.31
460.798	82.31
461.018	80.31
461.238	77.31
461.458	74.31
461.678	83.31
461.898	78.31
462.118	79.31
462.338	68.31
462.558	91.31
462.777	83.31
462.997	88.31
463.217	70.31
463.437	81.31
463.657	70.31
463.876	87.31
464.096	78.31
464.316	68.31
464.536	71.31
464.755	77.31
464.975	73.31
465.195	69.31
465.414	88.31
465.634	80.31
465.854	88.31
466.073	86.31
466.293	81.31
466.512	83.31
466.732	96.31
466.951	81.31
467.171	81.31
467.391	95.31
467.61	88.31
467.829	65.31
468.049	98.31
468.268	86.31
468.488	86.31
468.707	79.31
468.927	83.31
469.146	80.31
469.365	84.31
469.585	85.31
469.804	73.31
470.023	79.31
470.243	80.31
470.462	88.31
470.681	83.31
470.901	99.31
471.12	83.31
471.339	105.31
471.558	85.31
471.777	71.31
471.997	85.31
472.216	80.31
472.435	90.31
472.654	81.31
472.873	84.31
473.092	81.31
473.311	79.31
473.53	77.31
473.749	84.31
473.968	76.31
474.187	59.31
474.406	89.31
474.625	97.31
474.844	78.31
475.063	79.31
475.282	94.31
475.501	83.31
475.72	96.31
475.939	82.31
476.158	85.31
476.377	94.31
476.596	77.31
476.814	87.31
477.033	78.31
477.252	72.31
477.471	85.31
477.69	75.31
477.908	86.31
478.127	79.31
478.346	83.31
478.564	88.31
478.783	74.31
479.002	78.31
479.22	83.31
479.439	82.31
479.658	84.31
479.876	71.31
480.095	69.31
480.313	81.31
480.532	84.31
480.751	87.31
480.969	84.31
481.188	92.31
481.406	82.31
481.624	77.31
481.843	73.31
482.061	85.31
482.28	83.31
482.498	85.31
482.717	87.31
482.935	80.31
483.153	89.31
483.372	86.31
483.59	71.31
483.808	89.31
484.027	91.31
484.245	76.31
484.463	86.31
484.681	83.31
484.9	89.31
485.118	76.31
485.336	103.31
485.554	83.31
485.772	71.31
485.99	94.31
486.209	79.31
486.427	96.31
486.645	64.31
486.863	86.31
487.081	83.31
487.299	89.31
487.517	83.31
487.735	79.31
487.953	76.31
488.171	102.31
488.389	100.31
488.607	88.31
488.825	101.31
489.043	82.31
489.261	76.31
489.479	84.31
489.696	80.31
489.914	93.31
490.132	79.31
490.35	83.31
490.568	91.31
490.786	87.31
491.003	76.31
491.221	74.31
491.439	78.31
491.657	99.31
491.874	95.31
492.092	75.31
492.31	94.31
492.527	74.31
492.745	74.31
492.963	83.31
493.18	76.31
493.398	78.31
493.615	90.31
493.833	87.31
494.05	75.31
494.268	86.31
494.485	95.31
494.703	82.31
494.92	98.31
495.138	76.31
495.355	87.31
495.573	90.31
495.79	83.31
496.008	90.31
496.225	90.31
496.442	86.31
496.66	85.31
496.877	79.31
497.094	101.31
497.312	76.31
497.529	85.31
497.746	83.31
497.963	71.31
498.181	81.31
498.398	83.31
498.615	83.31
498.832	80.31
499.049	80.31
499.267	90.31
499.484	71.31
499.701	88.31
499.918	85.31
500.135	79.31
500.352	84.31
500.569	89.31
500.786	96.31
501.003	100.31
501.22	87.31
501.437	85.31
501.654	72.31
501.871	84.31
502.088	79.31
502.305	90.31
502.522	84.31
502.739	100.31
502.956	80.31
503.172	87.31
503.389	87.31
503.606	82.31
503.823	78.31
504.04	90.31
504.256	95.31
504.473	86.31
504.69	89.31
504.907	86.31
505.123	75.31
505.34	83.31
505.557	86.31
505.773	79.31
505.99	84.31
506.207	84.31
506.423	85.31
506.64	79.31
506.856	75.31
507.073	80.31
507.289	83.31
507.506	72.31
507.722	82.31
507.939	81.31
508.155	83.31
508.372	73.31
508.588	80.31
508.805	84.31
509.021	81.31
509.238	96.31
509.454	84.31
509.67	86.31
509.887	85.31
510.103	93.31
510.319	77.31
510.536	87.31
510.752	80.31
510.968	85.31
511.184	77.31
511.401	92.31
511.617	83.31
511.833	83.31
512.049	88.31
512.265	86.31
512.481	92.31
512.698	80.31
512.914	90.31
513.13	77.31
513.346	82.31
513.562	83.31
513.778	96.31
513.994	89.31
514.21	70.31
514.426	83.31
514.642	80.31
514.858	96.31
515.074	82.31
515.29	71.31
515.506	83.31
515.721	80.31
515.937	88.31
516.153	80.31
516.369	87.31
516.585	91.31
516.801	83.31
517.016	80.31
517.232	88.31
517.448	71.31
517.664	86.31
517.879	79.31
518.095	75.31
518.311	80.31
518.527	77.31
518.742	89.31
518.958	79.31
519.173	77.31
519.389	89.31
519.605	94.31
519.82	85.31
520.036	79.31
