Data from 1600_1_HRD10591_00012.txt Node
Date: Mon Jan 19 13:47:47 EST 2026
User: Yrep
Spectrometer: HR+D1059
Trigger mode: 1
Integration Time (sec): 1.000000E-1
Scans to average: 1
Electric dark correction enabled: true
Nonlinearity correction enabled: false
Boxcar width: 0
XAxis mode: Wavelengths
Number of Pixels in Spectrum: 2048
>>>>>Begin Spectral Data<<<<<
223.165	-6.38
223.4	-6.38
223.635	-6.38
223.869	-17.38
224.104	-16.38
224.338	-13.38
224.573	-6.38
224.808	-9.38
225.042	3.62
225.277	-5.38
225.511	-11.38
225.746	-2.38
225.98	-5.38
226.215	10.62
226.449	8.62
226.683	22.62
226.918	10.62
227.152	37.62
227.387	28.62
227.621	37.62
227.856	33.62
228.09	39.62
228.324	45.62
228.559	50.62
228.793	61.62
229.027	55.62
229.262	59.62
229.496	79.62
229.73	55.62
229.964	66.62
230.199	52.62
230.433	70.62
230.667	79.62
230.901	74.62
231.136	71.62
231.37	79.62
231.604	64.62
231.838	82.62
232.072	86.62
232.306	76.62
232.541	78.62
232.775	83.62
233.009	62.62
233.243	91.62
233.477	82.62
233.711	74.62
233.945	79.62
234.179	82.62
234.413	74.62
234.647	86.62
234.881	78.62
235.115	75.62
235.349	79.62
235.583	66.62
235.817	67.62
236.051	78.62
236.285	70.62
236.519	72.62
236.753	86.62
236.987	64.62
237.221	86.62
237.455	81.62
237.689	71.62
237.922	72.62
238.156	68.62
238.39	65.62
238.624	82.62
238.858	72.62
239.091	67.62
239.325	69.62
239.559	83.62
239.793	68.62
240.027	66.62
240.26	74.62
240.494	73.62
240.728	65.62
240.961	80.62
241.195	69.62
241.429	65.62
241.662	65.62
241.896	65.62
242.13	57.62
242.363	61.62
242.597	71.62
242.83	63.62
243.064	74.62
243.298	84.62
243.531	81.62
243.765	82.62
243.998	86.62
244.232	79.62
244.465	61.62
244.699	74.62
244.932	72.62
245.166	63.62
245.399	73.62
245.633	77.62
245.866	83.62
246.099	73.62
246.333	71.62
246.566	86.62
246.8	73.62
247.033	69.62
247.266	63.62
247.5	71.62
247.733	77.62
247.966	89.62
248.2	61.62
248.433	71.62
248.666	75.62
248.899	85.62
249.133	67.62
249.366	87.62
249.599	87.62
249.832	73.62
250.066	80.62
250.299	67.62
250.532	69.62
250.765	56.62
250.998	81.62
251.231	77.62
251.465	64.62
251.698	73.62
251.931	71.62
252.164	67.62
252.397	78.62
252.63	79.62
252.863	73.62
253.096	79.62
253.329	72.62
253.562	63.62
253.795	81.62
254.028	85.62
254.261	79.62
254.494	75.62
254.727	65.62
254.96	72.62
255.193	82.62
255.426	67.62
255.659	80.62
255.892	88.62
256.124	79.62
256.357	72.62
256.59	70.62
256.823	67.62
257.056	74.62
257.289	58.62
257.521	77.62
257.754	63.62
257.987	71.62
258.22	87.62
258.452	73.62
258.685	87.62
258.918	81.62
259.151	70.62
259.383	57.62
259.616	73.62
259.849	78.62
260.081	89.62
260.314	54.62
260.547	80.62
260.779	79.62
261.012	81.62
261.244	77.62
261.477	85.62
261.71	86.62
261.942	76.62
262.175	90.62
262.407	78.62
262.64	90.62
262.872	85.62
263.105	71.62
263.337	79.62
263.57	95.62
263.802	85.62
264.035	82.62
264.267	85.62
264.499	80.62
264.732	72.62
264.964	92.62
265.197	64.62
265.429	78.62
265.661	77.62
265.894	73.62
266.126	79.62
266.358	71.62
266.591	75.62
266.823	85.62
267.055	77.62
267.287	80.62
267.52	57.62
267.752	74.62
267.984	69.62
268.216	79.62
268.448	83.62
268.681	75.62
268.913	61.62
269.145	91.62
269.377	79.62
269.609	82.62
269.841	78.62
270.073	76.62
270.306	66.62
270.538	60.62
270.77	87.62
271.002	75.62
271.234	74.62
271.466	82.62
271.698	80.62
271.93	84.62
272.162	78.62
272.394	67.62
272.626	67.62
272.858	72.62
273.09	84.62
273.322	94.62
273.553	69.62
273.785	73.62
274.017	70.62
274.249	81.62
274.481	74.62
274.713	91.62
274.945	83.62
275.176	81.62
275.408	87.62
275.64	75.62
275.872	76.62
276.104	67.62
276.335	77.62
276.567	75.62
276.799	83.62
277.031	76.62
277.262	77.62
277.494	78.62
277.726	83.62
277.957	80.62
278.189	76.62
278.421	76.62
278.652	70.62
278.884	58.62
279.115	79.62
279.347	85.62
279.579	96.62
279.81	77.62
280.042	78.62
280.273	80.62
280.505	64.62
280.736	79.62
280.968	79.62
281.199	74.62
281.431	61.62
281.662	72.62
281.894	86.62
282.125	78.62
282.356	81.62
282.588	77.62
282.819	81.62
283.051	74.62
283.282	85.62
283.513	88.62
283.745	79.62
283.976	86.62
284.207	77.62
284.439	75.62
284.67	65.62
284.901	85.62
285.132	82.62
285.364	67.62
285.595	73.62
285.826	76.62
286.057	68.62
286.288	75.62
286.52	70.62
286.751	58.62
286.982	69.62
287.213	77.62
287.444	84.62
287.675	81.62
287.906	89.62
288.138	82.62
288.369	86.62
288.6	89.62
288.831	82.62
289.062	65.62
289.293	81.62
289.524	77.62
289.755	78.62
289.986	69.62
290.217	82.62
290.448	83.62
290.679	76.62
290.91	61.62
291.141	89.62
291.371	87.62
291.602	82.62
291.833	67.62
292.064	81.62
292.295	79.62
292.526	84.62
292.757	69.62
292.987	64.62
293.218	74.62
293.449	81.62
293.68	75.62
293.91	77.62
294.141	67.62
294.372	75.62
294.603	86.62
294.833	80.62
295.064	93.62
295.295	80.62
295.525	73.62
295.756	88.62
295.987	72.62
296.217	82.62
296.448	70.62
296.679	75.62
296.909	63.62
297.14	84.62
297.37	85.62
297.601	79.62
297.831	80.62
298.062	77.62
298.292	88.62
298.523	89.62
298.753	77.62
298.984	66.62
299.214	85.62
299.445	76.62
299.675	79.62
299.905	85.62
300.136	77.62
300.366	86.62
300.597	83.62
300.827	75.62
301.057	71.62
301.288	67.62
301.518	72.62
301.748	66.62
301.979	93.62
302.209	82.62
302.439	77.62
302.669	86.62
302.9	74.62
303.13	72.62
303.36	67.62
303.59	75.62
303.82	85.62
304.051	71.62
304.281	78.62
304.511	83.62
304.741	85.62
304.971	75.62
305.201	78.62
305.431	68.62
305.661	63.62
305.891	79.62
306.121	71.62
306.352	73.62
306.582	93.62
306.812	81.62
307.042	66.62
307.272	77.62
307.502	77.62
307.731	82.62
307.961	89.62
308.191	72.62
308.421	83.62
308.651	71.62
308.881	78.62
309.111	81.62
309.341	73.62
309.571	98.62
309.8	79.62
310.03	75.62
310.26	73.62
310.49	76.62
310.72	77.62
310.949	81.62
311.179	82.62
311.409	80.62
311.639	81.62
311.868	73.62
312.098	75.62
312.328	66.62
312.557	79.62
312.787	70.62
313.017	74.62
313.246	86.62
313.476	73.62
313.706	71.62
313.935	85.62
314.165	86.62
314.394	70.62
314.624	82.62
314.853	88.62
315.083	84.62
315.312	71.62
315.542	74.62
315.771	78.62
316.001	60.62
316.23	84.62
316.46	76.62
316.689	85.62
316.919	79.62
317.148	73.62
317.377	84.62
317.607	80.62
317.836	81.62
318.065	68.62
318.295	88.62
318.524	71.62
318.753	94.62
318.983	68.62
319.212	65.62
319.441	94.62
319.67	64.62
319.9	75.62
320.129	81.62
320.358	81.62
320.587	72.62
320.816	81.62
321.046	92.62
321.275	93.62
321.504	76.62
321.733	79.62
321.962	86.62
322.191	101.62
322.42	67.62
322.649	87.62
322.878	77.62
323.108	73.62
323.337	80.62
323.566	87.62
323.795	93.62
324.024	89.62
324.253	94.62
324.482	71.62
324.71	72.62
324.939	72.62
325.168	71.62
325.397	79.62
325.626	82.62
325.855	85.62
326.084	92.62
326.313	72.62
326.542	66.62
326.77	93.62
326.999	69.62
327.228	81.62
327.457	82.62
327.686	97.62
327.914	64.62
328.143	80.62
328.372	77.62
328.6	82.62
328.829	82.62
329.058	98.62
329.287	81.62
329.515	83.62
329.744	86.62
329.972	75.62
330.201	78.62
330.43	86.62
330.658	61.62
330.887	79.62
331.115	89.62
331.344	87.62
331.572	80.62
331.801	84.62
332.03	83.62
332.258	84.62
332.486	79.62
332.715	76.62
332.943	72.62
333.172	94.62
333.4	77.62
333.629	70.62
333.857	93.62
334.085	71.62
334.314	80.62
334.542	94.62
334.771	66.62
334.999	78.62
335.227	79.62
335.455	65.62
335.684	83.62
335.912	86.62
336.14	77.62
336.369	87.62
336.597	77.62
336.825	92.62
337.053	84.62
337.281	78.62
337.51	83.62
337.738	89.62
337.966	73.62
338.194	82.62
338.422	83.62
338.65	68.62
338.878	85.62
339.106	92.62
339.334	71.62
339.562	77.62
339.79	81.62
340.018	91.62
340.246	71.62
340.474	70.62
340.702	91.62
340.93	77.62
341.158	86.62
341.386	75.62
341.614	87.62
341.842	86.62
342.07	72.62
342.298	79.62
342.526	93.62
342.754	83.62
342.981	81.62
343.209	74.62
343.437	83.62
343.665	90.62
343.893	75.62
344.12	85.62
344.348	85.62
344.576	73.62
344.804	86.62
345.031	70.62
345.259	71.62
345.487	78.62
345.714	89.62
345.942	86.62
346.17	93.62
346.397	88.62
346.625	72.62
346.853	75.62
347.08	77.62
347.308	81.62
347.535	71.62
347.763	86.62
347.99	78.62
348.218	74.62
348.445	77.62
348.673	95.62
348.9	85.62
349.128	77.62
349.355	82.62
349.583	72.62
349.81	77.62
350.037	78.62
350.265	81.62
350.492	85.62
350.72	76.62
350.947	95.62
351.174	84.62
351.402	81.62
351.629	82.62
351.856	96.62
352.083	70.62
352.311	92.62
352.538	78.62
352.765	87.62
352.992	80.62
353.22	77.62
353.447	89.62
353.674	82.62
353.901	81.62
354.128	81.62
354.355	66.62
354.583	80.62
354.81	79.62
355.037	71.62
355.264	76.62
355.491	89.62
355.718	78.62
355.945	79.62
356.172	76.62
356.399	70.62
356.626	73.62
356.853	71.62
357.08	70.62
357.307	82.62
357.534	76.62
357.761	89.62
357.988	75.62
358.215	73.62
358.441	89.62
358.668	80.62
358.895	85.62
359.122	56.62
359.349	75.62
359.576	84.62
359.802	77.62
360.029	67.62
360.256	73.62
360.483	67.62
360.709	86.62
360.936	79.62
361.163	80.62
361.39	81.62
361.616	67.62
361.843	73.62
362.07	83.62
362.296	65.62
362.523	97.62
362.749	79.62
362.976	75.62
363.203	73.62
363.429	73.62
363.656	75.62
363.882	88.62
364.109	68.62
364.335	81.62
364.562	87.62
364.788	82.62
365.015	80.62
365.241	67.62
365.468	82.62
365.694	89.62
365.92	82.62
366.147	74.62
366.373	72.62
366.599	72.62
366.826	67.62
367.052	89.62
367.278	77.62
367.505	83.62
367.731	95.62
367.957	77.62
368.184	74.62
368.41	66.62
368.636	81.62
368.862	78.62
369.089	94.62
369.315	87.62
369.541	73.62
369.767	72.62
369.993	74.62
370.219	88.62
370.445	78.62
370.672	73.62
370.898	81.62
371.124	76.62
371.35	65.62
371.576	80.62
371.802	88.62
372.028	87.62
372.254	75.62
372.48	67.62
372.706	80.62
372.932	92.62
373.158	70.62
373.384	80.62
373.61	82.62
373.835	80.62
374.061	74.62
374.287	79.62
374.513	94.62
374.739	89.62
374.965	79.62
375.191	71.62
375.416	89.62
375.642	83.62
375.868	101.62
376.094	69.62
376.319	77.62
376.545	84.62
376.771	66.62
376.997	82.62
377.222	81.62
377.448	63.62
377.674	80.62
377.899	83.62
378.125	67.62
378.35	81.62
378.576	76.62
378.802	78.62
379.027	84.62
379.253	88.62
379.478	81.62
379.704	71.62
379.929	70.62
380.155	73.62
380.38	76.62
380.606	77.62
380.831	77.62
381.057	83.62
381.282	77.62
381.507	88.62
381.733	87.62
381.958	77.62
382.184	71.62
382.409	67.62
382.634	87.62
382.86	83.62
383.085	90.62
383.31	85.62
383.535	92.62
383.761	67.62
383.986	75.62
384.211	80.62
384.436	64.62
384.662	74.62
384.887	74.62
385.112	85.62
385.337	86.62
385.562	91.62
385.787	68.62
386.013	77.62
386.238	93.62
386.463	79.62
386.688	78.62
386.913	64.62
387.138	66.62
387.363	70.62
387.588	74.62
387.813	79.62
388.038	76.62
388.263	82.62
388.488	84.62
388.713	71.62
388.938	67.62
389.163	90.62
389.387	84.62
389.612	80.62
389.837	70.62
390.062	73.62
390.287	73.62
390.512	79.62
390.736	81.62
390.961	67.62
391.186	87.62
391.411	88.62
391.636	75.62
391.86	75.62
392.085	72.62
392.31	81.62
392.534	72.62
392.759	91.62
392.984	84.62
393.208	107.62
393.433	92.62
393.658	93.62
393.882	77.62
394.107	66.62
394.331	77.62
394.556	76.62
394.78	82.62
395.005	74.62
395.229	88.62
395.454	77.62
395.678	66.62
395.903	101.62
396.127	96.62
396.352	94.62
396.576	77.62
396.801	87.62
397.025	98.62
397.249	78.62
397.474	79.62
397.698	84.62
397.922	85.62
398.147	65.62
398.371	66.62
398.595	81.62
398.82	85.62
399.044	71.62
399.268	78.62
399.492	75.62
399.717	79.62
399.941	63.62
400.165	84.62
400.389	68.62
400.613	79.62
400.837	70.62
401.062	84.62
401.286	68.62
401.51	96.62
401.734	74.62
401.958	90.62
402.182	75.62
402.406	83.62
402.63	71.62
402.854	61.62
403.078	79.62
403.302	83.62
403.526	65.62
403.75	78.62
403.974	75.62
404.198	69.62
404.422	64.62
404.645	90.62
404.869	68.62
405.093	65.62
405.317	71.62
405.541	59.62
405.765	88.62
405.988	74.62
406.212	78.62
406.436	67.62
406.66	72.62
406.883	75.62
407.107	68.62
407.331	73.62
407.555	80.62
407.778	93.62
408.002	91.62
408.226	66.62
408.449	80.62
408.673	78.62
408.896	82.62
409.12	75.62
409.344	73.62
409.567	67.62
409.791	97.62
410.014	97.62
410.238	74.62
410.461	83.62
410.685	81.62
410.908	86.62
411.132	73.62
411.355	69.62
411.578	64.62
411.802	56.62
412.025	81.62
412.249	77.62
412.472	82.62
412.695	73.62
412.919	81.62
413.142	65.62
413.365	85.62
413.589	85.62
413.812	80.62
414.035	83.62
414.258	94.62
414.482	68.62
414.705	77.62
414.928	83.62
415.151	77.62
415.374	70.62
415.597	73.62
415.821	77.62
416.044	73.62
416.267	78.62
416.49	85.62
416.713	73.62
416.936	80.62
417.159	80.62
417.382	66.62
417.605	81.62
417.828	74.62
418.051	85.62
418.274	68.62
418.497	69.62
418.72	67.62
418.943	78.62
419.166	74.62
419.389	79.62
419.611	85.62
419.834	75.62
420.057	76.62
420.28	75.62
420.503	85.62
420.726	71.62
420.948	76.62
421.171	75.62
421.394	76.62
421.617	64.62
421.839	73.62
422.062	75.62
422.285	79.62
422.507	113.62
422.73	107.62
422.953	105.62
423.175	91.62
423.398	86.62
423.621	82.62
423.843	71.62
424.066	74.62
424.288	79.62
424.511	65.62
424.733	84.62
424.956	64.62
425.178	80.62
425.401	74.62
425.623	87.62
425.846	76.62
426.068	78.62
426.291	67.62
426.513	77.62
426.735	85.62
426.958	79.62
427.18	85.62
427.402	76.62
427.625	77.62
427.847	79.62
428.069	80.62
428.292	95.62
428.514	66.62
428.736	93.62
428.958	80.62
429.181	76.62
429.403	82.62
429.625	71.62
429.847	78.62
430.069	80.62
430.292	73.62
430.514	90.62
430.736	70.62
430.958	83.62
431.18	74.62
431.402	83.62
431.624	70.62
431.846	77.62
432.068	82.62
432.29	73.62
432.512	67.62
432.734	75.62
432.956	74.62
433.178	62.62
433.4	71.62
433.622	80.62
433.844	81.62
434.066	74.62
434.287	63.62
434.509	71.62
434.731	69.62
434.953	73.62
435.175	73.62
435.397	95.62
435.618	70.62
435.84	73.62
436.062	73.62
436.284	79.62
436.505	76.62
436.727	79.62
436.949	83.62
437.17	62.62
437.392	68.62
437.614	77.62
437.835	68.62
438.057	72.62
438.278	65.62
438.5	93.62
438.721	84.62
438.943	83.62
439.165	83.62
439.386	82.62
439.608	76.62
439.829	84.62
440.05	83.62
440.272	55.62
440.493	89.62
440.715	78.62
440.936	73.62
441.158	76.62
441.379	69.62
441.6	86.62
441.822	76.62
442.043	77.62
442.264	80.62
442.486	77.62
442.707	88.62
442.928	79.62
443.149	77.62
443.371	88.62
443.592	88.62
443.813	107.62
444.034	89.62
444.255	84.62
444.476	65.62
444.698	77.62
444.919	73.62
445.14	160.62
445.361	125.62
445.582	86.62
445.803	91.62
446.024	68.62
446.245	65.62
446.466	71.62
446.687	94.62
446.908	67.62
447.129	81.62
447.35	77.62
447.571	61.62
447.792	90.62
448.013	61.62
448.234	69.62
448.455	73.62
448.675	70.62
448.896	69.62
449.117	96.62
449.338	74.62
449.559	69.62
449.779	71.62
450	77.62
450.221	88.62
450.442	87.62
450.662	85.62
450.883	74.62
451.104	68.62
451.324	80.62
451.545	69.62
451.766	67.62
451.986	63.62
452.207	85.62
452.428	83.62
452.648	71.62
452.869	75.62
453.089	78.62
453.31	70.62
453.53	79.62
453.751	74.62
453.971	76.62
454.192	87.62
454.412	77.62
454.633	88.62
454.853	71.62
455.073	91.62
455.294	81.62
455.514	82.62
455.734	67.62
455.955	79.62
456.175	78.62
456.395	81.62
456.616	68.62
456.836	77.62
457.056	68.62
457.276	75.62
457.497	67.62
457.717	80.62
457.937	82.62
458.157	78.62
458.377	82.62
458.598	84.62
458.818	80.62
459.038	76.62
459.258	84.62
459.478	79.62
459.698	86.62
459.918	85.62
460.138	85.62
460.358	69.62
460.578	64.62
460.798	75.62
461.018	67.62
461.238	84.62
461.458	75.62
461.678	75.62
461.898	65.62
462.118	75.62
462.338	78.62
462.558	77.62
462.777	75.62
462.997	89.62
463.217	65.62
463.437	81.62
463.657	73.62
463.876	76.62
464.096	80.62
464.316	76.62
464.536	69.62
464.755	69.62
464.975	83.62
465.195	77.62
465.414	87.62
465.634	61.62
465.854	62.62
466.073	76.62
466.293	81.62
466.512	91.62
466.732	85.62
466.951	71.62
467.171	69.62
467.391	78.62
467.61	85.62
467.829	81.62
468.049	75.62
468.268	73.62
468.488	70.62
468.707	81.62
468.927	65.62
469.146	59.62
469.365	70.62
469.585	55.62
469.804	75.62
470.023	78.62
470.243	79.62
470.462	73.62
470.681	90.62
470.901	79.62
471.12	77.62
471.339	83.62
471.558	81.62
471.777	73.62
471.997	83.62
472.216	80.62
472.435	81.62
472.654	82.62
472.873	80.62
473.092	76.62
473.311	59.62
473.53	81.62
473.749	76.62
473.968	87.62
474.187	65.62
474.406	68.62
474.625	82.62
474.844	64.62
475.063	75.62
475.282	63.62
475.501	67.62
475.72	78.62
475.939	73.62
476.158	79.62
476.377	77.62
476.596	56.62
476.814	66.62
477.033	75.62
477.252	66.62
477.471	91.62
477.69	70.62
477.908	75.62
478.127	76.62
478.346	79.62
478.564	90.62
478.783	76.62
479.002	75.62
479.22	79.62
479.439	80.62
479.658	83.62
479.876	82.62
480.095	74.62
480.313	83.62
480.532	78.62
480.751	87.62
480.969	78.62
481.188	59.62
481.406	81.62
481.624	80.62
481.843	87.62
482.061	64.62
482.28	73.62
482.498	81.62
482.717	71.62
482.935	73.62
483.153	77.62
483.372	72.62
483.59	73.62
483.808	78.62
484.027	81.62
484.245	88.62
484.463	98.62
484.681	84.62
484.9	75.62
485.118	93.62
485.336	77.62
485.554	89.62
485.772	83.62
485.99	89.62
486.209	71.62
486.427	81.62
486.645	78.62
486.863	70.62
487.081	68.62
487.299	84.62
487.517	73.62
487.735	85.62
487.953	89.62
488.171	74.62
488.389	70.62
488.607	63.62
488.825	69.62
489.043	75.62
489.261	88.62
489.479	68.62
489.696	98.62
489.914	83.62
490.132	76.62
490.35	69.62
490.568	77.62
490.786	63.62
491.003	79.62
491.221	86.62
491.439	74.62
491.657	76.62
491.874	77.62
492.092	81.62
492.31	72.62
492.527	80.62
492.745	74.62
492.963	73.62
493.18	71.62
493.398	79.62
493.615	79.62
493.833	74.62
494.05	76.62
494.268	95.62
494.485	75.62
494.703	81.62
494.92	81.62
495.138	74.62
495.355	87.62
495.573	81.62
495.79	83.62
496.008	67.62
496.225	94.62
496.442	71.62
496.66	74.62
496.877	81.62
497.094	70.62
497.312	70.62
497.529	79.62
497.746	76.62
497.963	88.62
498.181	67.62
498.398	85.62
498.615	87.62
498.832	77.62
499.049	83.62
499.267	75.62
499.484	76.62
499.701	78.62
499.918	82.62
500.135	82.62
500.352	83.62
500.569	77.62
500.786	75.62
501.003	78.62
501.22	69.62
501.437	70.62
501.654	66.62
501.871	82.62
502.088	78.62
502.305	72.62
502.522	75.62
502.739	77.62
502.956	73.62
503.172	81.62
503.389	73.62
503.606	76.62
503.823	71.62
504.04	86.62
504.256	97.62
504.473	82.62
504.69	82.62
504.907	90.62
505.123	85.62
505.34	79.62
505.557	79.62
505.773	72.62
505.99	83.62
506.207	81.62
506.423	70.62
506.64	75.62
506.856	85.62
507.073	83.62
507.289	85.62
507.506	63.62
507.722	85.62
507.939	73.62
508.155	77.62
508.372	83.62
508.588	81.62
508.805	76.62
509.021	68.62
509.238	67.62
509.454	84.62
509.67	84.62
509.887	56.62
510.103	68.62
510.319	61.62
510.536	81.62
510.752	80.62
510.968	79.62
511.184	83.62
511.401	66.62
511.617	78.62
511.833	69.62
512.049	80.62
512.265	82.62
512.481	76.62
512.698	66.62
512.914	87.62
513.13	77.62
513.346	79.62
513.562	78.62
513.778	87.62
513.994	80.62
514.21	76.62
514.426	71.62
514.642	77.62
514.858	76.62
515.074	64.62
515.29	82.62
515.506	79.62
515.721	76.62
515.937	82.62
516.153	78.62
516.369	70.62
516.585	73.62
516.801	71.62
517.016	82.62
517.232	79.62
517.448	91.62
517.664	77.62
517.879	85.62
518.095	86.62
518.311	79.62
518.527	78.62
518.742	75.62
518.958	80.62
519.173	74.62
519.389	81.62
519.605	63.62
519.82	92.62
520.036	68.62
520.251	80.62
