Data from 1600_1_HRD10591_00019.txt Node
Date: Mon Jan 19 13:47:50 EST 2026
User: Yrep
Spectrometer: HR+D1059
Trigger mode: 1
Integration Time (sec): 1.000000E-1
Scans to average: 1
Electric dark correction enabled: true
Nonlinearity correction enabled: false
Boxcar width: 0
XAxis mode: Wavelengths
Number of Pixels in Spectrum: 2048
>>>>>Begin Spectral Data<<<<<
223.165	-20.19
223.4	-20.19
223.635	-20.19
223.869	-12.19
224.104	-12.19
224.338	-17.19
224.573	-13.19
224.808	-10.19
225.042	-20.19
225.277	-3.19
225.511	-0.19
225.746	15.81
225.98	-2.19
226.215	13.81
226.449	15.81
226.683	4.81
226.918	22.81
227.152	37.81
227.387	48.81
227.621	53.81
227.856	53.81
228.09	65.81
228.324	44.81
228.559	60.81
228.793	57.81
229.027	59.81
229.262	73.81
229.496	81.81
229.73	84.81
229.964	66.81
230.199	75.81
230.433	71.81
230.667	57.81
230.901	81.81
231.136	65.81
231.37	69.81
231.604	89.81
231.838	82.81
232.072	73.81
232.306	77.81
232.541	78.81
232.775	87.81
233.009	77.81
233.243	85.81
233.477	67.81
233.711	89.81
233.945	87.81
234.179	83.81
234.413	92.81
234.647	76.81
234.881	83.81
235.115	85.81
235.349	84.81
235.583	73.81
235.817	83.81
236.051	76.81
236.285	84.81
236.519	92.81
236.753	87.81
236.987	72.81
237.221	68.81
237.455	71.81
237.689	75.81
237.922	70.81
238.156	75.81
238.39	74.81
238.624	70.81
238.858	72.81
239.091	71.81
239.325	74.81
239.559	65.81
239.793	72.81
240.027	79.81
240.26	81.81
240.494	78.81
240.728	81.81
240.961	71.81
241.195	90.81
241.429	72.81
241.662	64.81
241.896	79.81
242.13	69.81
242.363	86.81
242.597	77.81
242.83	89.81
243.064	83.81
243.298	58.81
243.531	82.81
243.765	71.81
243.998	69.81
244.232	82.81
244.465	77.81
244.699	77.81
244.932	84.81
245.166	76.81
245.399	83.81
245.633	87.81
245.866	74.81
246.099	79.81
246.333	81.81
246.566	87.81
246.8	68.81
247.033	73.81
247.266	85.81
247.5	71.81
247.733	95.81
247.966	67.81
248.2	68.81
248.433	74.81
248.666	81.81
248.899	72.81
249.133	77.81
249.366	70.81
249.599	85.81
249.832	80.81
250.066	75.81
250.299	79.81
250.532	82.81
250.765	77.81
250.998	89.81
251.231	78.81
251.465	66.81
251.698	71.81
251.931	83.81
252.164	82.81
252.397	84.81
252.63	68.81
252.863	83.81
253.096	82.81
253.329	78.81
253.562	66.81
253.795	83.81
254.028	77.81
254.261	77.81
254.494	90.81
254.727	71.81
254.96	65.81
255.193	70.81
255.426	82.81
255.659	71.81
255.892	79.81
256.124	81.81
256.357	80.81
256.59	83.81
256.823	84.81
257.056	83.81
257.289	90.81
257.521	81.81
257.754	87.81
257.987	75.81
258.22	94.81
258.452	81.81
258.685	95.81
258.918	67.81
259.151	70.81
259.383	85.81
259.616	87.81
259.849	70.81
260.081	79.81
260.314	79.81
260.547	80.81
260.779	84.81
261.012	98.81
261.244	79.81
261.477	90.81
261.71	86.81
261.942	92.81
262.175	85.81
262.407	80.81
262.64	76.81
262.872	84.81
263.105	91.81
263.337	71.81
263.57	96.81
263.802	102.81
264.035	91.81
264.267	89.81
264.499	75.81
264.732	92.81
264.964	87.81
265.197	86.81
265.429	76.81
265.661	84.81
265.894	73.81
266.126	90.81
266.358	83.81
266.591	81.81
266.823	73.81
267.055	98.81
267.287	79.81
267.52	87.81
267.752	73.81
267.984	93.81
268.216	88.81
268.448	84.81
268.681	79.81
268.913	90.81
269.145	81.81
269.377	71.81
269.609	80.81
269.841	73.81
270.073	87.81
270.306	82.81
270.538	93.81
270.77	96.81
271.002	79.81
271.234	84.81
271.466	92.81
271.698	92.81
271.93	94.81
272.162	105.81
272.394	99.81
272.626	82.81
272.858	86.81
273.09	77.81
273.322	89.81
273.553	85.81
273.785	78.81
274.017	76.81
274.249	80.81
274.481	87.81
274.713	65.81
274.945	87.81
275.176	67.81
275.408	93.81
275.64	87.81
275.872	80.81
276.104	78.81
276.335	82.81
276.567	85.81
276.799	77.81
277.031	92.81
277.262	90.81
277.494	75.81
277.726	79.81
277.957	69.81
278.189	75.81
278.421	75.81
278.652	97.81
278.884	79.81
279.115	97.81
279.347	86.81
279.579	75.81
279.81	82.81
280.042	86.81
280.273	74.81
280.505	77.81
280.736	87.81
280.968	69.81
281.199	84.81
281.431	88.81
281.662	85.81
281.894	92.81
282.125	80.81
282.356	79.81
282.588	78.81
282.819	78.81
283.051	68.81
283.282	77.81
283.513	85.81
283.745	93.81
283.976	77.81
284.207	80.81
284.439	92.81
284.67	84.81
284.901	96.81
285.132	86.81
285.364	91.81
285.595	93.81
285.826	78.81
286.057	80.81
286.288	81.81
286.52	91.81
286.751	81.81
286.982	95.81
287.213	81.81
287.444	71.81
287.675	80.81
287.906	78.81
288.138	75.81
288.369	73.81
288.6	88.81
288.831	78.81
289.062	82.81
289.293	79.81
289.524	90.81
289.755	81.81
289.986	82.81
290.217	83.81
290.448	93.81
290.679	79.81
290.91	68.81
291.141	87.81
291.371	95.81
291.602	83.81
291.833	77.81
292.064	86.81
292.295	69.81
292.526	91.81
292.757	71.81
292.987	78.81
293.218	76.81
293.449	79.81
293.68	79.81
293.91	64.81
294.141	82.81
294.372	87.81
294.603	87.81
294.833	96.81
295.064	94.81
295.295	90.81
295.525	72.81
295.756	77.81
295.987	85.81
296.217	74.81
296.448	83.81
296.679	80.81
296.909	95.81
297.14	81.81
297.37	92.81
297.601	79.81
297.831	86.81
298.062	60.81
298.292	91.81
298.523	100.81
298.753	77.81
298.984	88.81
299.214	69.81
299.445	82.81
299.675	88.81
299.905	79.81
300.136	76.81
300.366	92.81
300.597	78.81
300.827	81.81
301.057	86.81
301.288	81.81
301.518	73.81
301.748	89.81
301.979	92.81
302.209	83.81
302.439	89.81
302.669	72.81
302.9	93.81
303.13	84.81
303.36	88.81
303.59	68.81
303.82	88.81
304.051	79.81
304.281	71.81
304.511	83.81
304.741	71.81
304.971	97.81
305.201	90.81
305.431	80.81
305.661	73.81
305.891	85.81
306.121	84.81
306.352	81.81
306.582	88.81
306.812	81.81
307.042	89.81
307.272	91.81
307.502	86.81
307.731	93.81
307.961	80.81
308.191	82.81
308.421	88.81
308.651	84.81
308.881	85.81
309.111	58.81
309.341	84.81
309.571	83.81
309.8	85.81
310.03	89.81
310.26	71.81
310.49	94.81
310.72	97.81
310.949	86.81
311.179	79.81
311.409	68.81
311.639	78.81
311.868	71.81
312.098	96.81
312.328	78.81
312.557	85.81
312.787	77.81
313.017	89.81
313.246	98.81
313.476	97.81
313.706	92.81
313.935	106.81
314.165	83.81
314.394	81.81
314.624	75.81
314.853	79.81
315.083	90.81
315.312	79.81
315.542	76.81
315.771	86.81
316.001	78.81
316.23	83.81
316.46	97.81
316.689	75.81
316.919	91.81
317.148	76.81
317.377	87.81
317.607	80.81
317.836	77.81
318.065	83.81
318.295	84.81
318.524	77.81
318.753	83.81
318.983	79.81
319.212	97.81
319.441	75.81
319.67	87.81
319.9	85.81
320.129	88.81
320.358	85.81
320.587	89.81
320.816	87.81
321.046	85.81
321.275	77.81
321.504	89.81
321.733	95.81
321.962	105.81
322.191	77.81
322.42	69.81
322.649	81.81
322.878	65.81
323.108	94.81
323.337	87.81
323.566	93.81
323.795	75.81
324.024	75.81
324.253	81.81
324.482	95.81
324.71	86.81
324.939	75.81
325.168	95.81
325.397	83.81
325.626	82.81
325.855	70.81
326.084	86.81
326.313	79.81
326.542	81.81
326.77	83.81
326.999	92.81
327.228	90.81
327.457	80.81
327.686	85.81
327.914	100.81
328.143	89.81
328.372	77.81
328.6	72.81
328.829	75.81
329.058	93.81
329.287	96.81
329.515	60.81
329.744	70.81
329.972	69.81
330.201	80.81
330.43	82.81
330.658	93.81
330.887	87.81
331.115	82.81
331.344	72.81
331.572	82.81
331.801	87.81
332.03	87.81
332.258	78.81
332.486	71.81
332.715	87.81
332.943	79.81
333.172	90.81
333.4	72.81
333.629	84.81
333.857	74.81
334.085	90.81
334.314	85.81
334.542	97.81
334.771	97.81
334.999	87.81
335.227	94.81
335.455	72.81
335.684	76.81
335.912	95.81
336.14	91.81
336.369	60.81
336.597	77.81
336.825	72.81
337.053	76.81
337.281	65.81
337.51	90.81
337.738	70.81
337.966	87.81
338.194	82.81
338.422	90.81
338.65	85.81
338.878	80.81
339.106	69.81
339.334	90.81
339.562	87.81
339.79	93.81
340.018	80.81
340.246	74.81
340.474	87.81
340.702	79.81
340.93	82.81
341.158	79.81
341.386	77.81
341.614	72.81
341.842	66.81
342.07	69.81
342.298	73.81
342.526	79.81
342.754	87.81
342.981	98.81
343.209	73.81
343.437	98.81
343.665	85.81
343.893	69.81
344.12	85.81
344.348	85.81
344.576	69.81
344.804	72.81
345.031	90.81
345.259	82.81
345.487	92.81
345.714	77.81
345.942	92.81
346.17	78.81
346.397	84.81
346.625	80.81
346.853	71.81
347.08	73.81
347.308	69.81
347.535	95.81
347.763	76.81
347.99	74.81
348.218	89.81
348.445	93.81
348.673	79.81
348.9	83.81
349.128	92.81
349.355	79.81
349.583	90.81
349.81	81.81
350.037	83.81
350.265	71.81
350.492	73.81
350.72	77.81
350.947	73.81
351.174	85.81
351.402	81.81
351.629	89.81
351.856	95.81
352.083	78.81
352.311	94.81
352.538	88.81
352.765	87.81
352.992	92.81
353.22	83.81
353.447	86.81
353.674	77.81
353.901	85.81
354.128	82.81
354.355	77.81
354.583	62.81
354.81	91.81
355.037	82.81
355.264	69.81
355.491	66.81
355.718	83.81
355.945	85.81
356.172	86.81
356.399	79.81
356.626	74.81
356.853	82.81
357.08	93.81
357.307	85.81
357.534	91.81
357.761	99.81
357.988	73.81
358.215	71.81
358.441	89.81
358.668	64.81
358.895	76.81
359.122	72.81
359.349	78.81
359.576	88.81
359.802	80.81
360.029	75.81
360.256	94.81
360.483	67.81
360.709	91.81
360.936	75.81
361.163	82.81
361.39	84.81
361.616	74.81
361.843	68.81
362.07	86.81
362.296	76.81
362.523	68.81
362.749	90.81
362.976	86.81
363.203	96.81
363.429	81.81
363.656	77.81
363.882	79.81
364.109	105.81
364.335	95.81
364.562	72.81
364.788	79.81
365.015	99.81
365.241	75.81
365.468	84.81
365.694	70.81
365.92	72.81
366.147	82.81
366.373	78.81
366.599	84.81
366.826	84.81
367.052	91.81
367.278	74.81
367.505	88.81
367.731	99.81
367.957	101.81
368.184	95.81
368.41	75.81
368.636	67.81
368.862	75.81
369.089	85.81
369.315	90.81
369.541	95.81
369.767	71.81
369.993	88.81
370.219	88.81
370.445	91.81
370.672	78.81
370.898	81.81
371.124	73.81
371.35	83.81
371.576	72.81
371.802	80.81
372.028	74.81
372.254	70.81
372.48	91.81
372.706	79.81
372.932	87.81
373.158	88.81
373.384	78.81
373.61	76.81
373.835	81.81
374.061	93.81
374.287	80.81
374.513	75.81
374.739	77.81
374.965	88.81
375.191	92.81
375.416	74.81
375.642	82.81
375.868	79.81
376.094	81.81
376.319	78.81
376.545	85.81
376.771	81.81
376.997	81.81
377.222	78.81
377.448	92.81
377.674	86.81
377.899	86.81
378.125	94.81
378.35	76.81
378.576	85.81
378.802	84.81
379.027	72.81
379.253	78.81
379.478	66.81
379.704	73.81
379.929	79.81
380.155	83.81
380.38	90.81
380.606	72.81
380.831	73.81
381.057	81.81
381.282	81.81
381.507	80.81
381.733	71.81
381.958	79.81
382.184	93.81
382.409	87.81
382.634	78.81
382.86	71.81
383.085	77.81
383.31	73.81
383.535	90.81
383.761	74.81
383.986	78.81
384.211	83.81
384.436	89.81
384.662	79.81
384.887	73.81
385.112	83.81
385.337	80.81
385.562	90.81
385.787	89.81
386.013	83.81
386.238	75.81
386.463	76.81
386.688	94.81
386.913	77.81
387.138	81.81
387.363	77.81
387.588	84.81
387.813	90.81
388.038	85.81
388.263	89.81
388.488	80.81
388.713	92.81
388.938	77.81
389.163	76.81
389.387	79.81
389.612	88.81
389.837	85.81
390.062	96.81
390.287	79.81
390.512	76.81
390.736	80.81
390.961	87.81
391.186	91.81
391.411	82.81
391.636	82.81
391.86	86.81
392.085	87.81
392.31	88.81
392.534	78.81
392.759	94.81
392.984	76.81
393.208	90.81
393.433	94.81
393.658	93.81
393.882	77.81
394.107	74.81
394.331	74.81
394.556	70.81
394.78	79.81
395.005	87.81
395.229	70.81
395.454	82.81
395.678	91.81
395.903	95.81
396.127	98.81
396.352	81.81
396.576	78.81
396.801	79.81
397.025	83.81
397.249	73.81
397.474	81.81
397.698	72.81
397.922	81.81
398.147	70.81
398.371	79.81
398.595	65.81
398.82	90.81
399.044	75.81
399.268	90.81
399.492	85.81
399.717	80.81
399.941	70.81
400.165	82.81
400.389	86.81
400.613	90.81
400.837	89.81
401.062	86.81
401.286	79.81
401.51	75.81
401.734	70.81
401.958	90.81
402.182	85.81
402.406	90.81
402.63	72.81
402.854	72.81
403.078	67.81
403.302	78.81
403.526	83.81
403.75	86.81
403.974	91.81
404.198	81.81
404.422	96.81
404.645	83.81
404.869	68.81
405.093	96.81
405.317	76.81
405.541	79.81
405.765	70.81
405.988	87.81
406.212	80.81
406.436	89.81
406.66	77.81
406.883	95.81
407.107	71.81
407.331	81.81
407.555	86.81
407.778	69.81
408.002	67.81
408.226	81.81
408.449	83.81
408.673	75.81
408.896	78.81
409.12	80.81
409.344	83.81
409.567	74.81
409.791	75.81
410.014	78.81
410.238	76.81
410.461	72.81
410.685	75.81
410.908	83.81
411.132	80.81
411.355	80.81
411.578	74.81
411.802	67.81
412.025	63.81
412.249	85.81
412.472	81.81
412.695	86.81
412.919	74.81
413.142	81.81
413.365	85.81
413.589	85.81
413.812	68.81
414.035	82.81
414.258	93.81
414.482	77.81
414.705	71.81
414.928	70.81
415.151	97.81
415.374	70.81
415.597	91.81
415.821	86.81
416.044	82.81
416.267	89.81
416.49	91.81
416.713	63.81
416.936	82.81
417.159	74.81
417.382	66.81
417.605	63.81
417.828	81.81
418.051	74.81
418.274	75.81
418.497	83.81
418.72	64.81
418.943	97.81
419.166	83.81
419.389	79.81
419.611	72.81
419.834	73.81
420.057	70.81
420.28	77.81
420.503	81.81
420.726	83.81
420.948	91.81
421.171	82.81
421.394	78.81
421.617	80.81
421.839	81.81
422.062	70.81
422.285	81.81
422.507	89.81
422.73	100.81
422.953	93.81
423.175	77.81
423.398	85.81
423.621	76.81
423.843	82.81
424.066	79.81
424.288	82.81
424.511	77.81
424.733	84.81
424.956	77.81
425.178	69.81
425.401	73.81
425.623	84.81
425.846	85.81
426.068	83.81
426.291	87.81
426.513	85.81
426.735	86.81
426.958	83.81
427.18	90.81
427.402	80.81
427.625	69.81
427.847	68.81
428.069	77.81
428.292	81.81
428.514	87.81
428.736	87.81
428.958	73.81
429.181	95.81
429.403	81.81
429.625	91.81
429.847	82.81
430.069	80.81
430.292	74.81
430.514	90.81
430.736	83.81
430.958	84.81
431.18	89.81
431.402	95.81
431.624	80.81
431.846	63.81
432.068	86.81
432.29	81.81
432.512	83.81
432.734	89.81
432.956	87.81
433.178	89.81
433.4	73.81
433.622	79.81
433.844	91.81
434.066	85.81
434.287	77.81
434.509	87.81
434.731	76.81
434.953	79.81
435.175	71.81
435.397	81.81
435.618	79.81
435.84	75.81
436.062	98.81
436.284	87.81
436.505	77.81
436.727	65.81
436.949	71.81
437.17	75.81
437.392	80.81
437.614	75.81
437.835	79.81
438.057	74.81
438.278	89.81
438.5	71.81
438.721	73.81
438.943	95.81
439.165	86.81
439.386	91.81
439.608	84.81
439.829	86.81
440.05	82.81
440.272	70.81
440.493	69.81
440.715	78.81
440.936	83.81
441.158	88.81
441.379	82.81
441.6	77.81
441.822	82.81
442.043	84.81
442.264	77.81
442.486	74.81
442.707	78.81
442.928	81.81
443.149	73.81
443.371	78.81
443.592	80.81
443.813	81.81
444.034	81.81
444.255	94.81
444.476	78.81
444.698	82.81
444.919	83.81
445.14	158.81
445.361	120.81
445.582	92.81
445.803	70.81
446.024	83.81
446.245	82.81
446.466	75.81
446.687	77.81
446.908	78.81
447.129	77.81
447.35	86.81
447.571	88.81
447.792	69.81
448.013	73.81
448.234	84.81
448.455	77.81
448.675	87.81
448.896	77.81
449.117	77.81
449.338	87.81
449.559	76.81
449.779	84.81
450	77.81
450.221	86.81
450.442	85.81
450.662	89.81
450.883	83.81
451.104	95.81
451.324	83.81
451.545	72.81
451.766	68.81
451.986	78.81
452.207	86.81
452.428	93.81
452.648	80.81
452.869	89.81
453.089	97.81
453.31	75.81
453.53	77.81
453.751	83.81
453.971	97.81
454.192	71.81
454.412	75.81
454.633	78.81
454.853	72.81
455.073	83.81
455.294	87.81
455.514	80.81
455.734	90.81
455.955	79.81
456.175	102.81
456.395	83.81
456.616	80.81
456.836	76.81
457.056	86.81
457.276	75.81
457.497	90.81
457.717	71.81
457.937	77.81
458.157	72.81
458.377	89.81
458.598	83.81
458.818	77.81
459.038	71.81
459.258	73.81
459.478	79.81
459.698	84.81
459.918	74.81
460.138	82.81
460.358	76.81
460.578	97.81
460.798	89.81
461.018	75.81
461.238	79.81
461.458	89.81
461.678	72.81
461.898	82.81
462.118	85.81
462.338	91.81
462.558	80.81
462.777	79.81
462.997	76.81
463.217	76.81
463.437	77.81
463.657	83.81
463.876	65.81
464.096	85.81
464.316	74.81
464.536	78.81
464.755	77.81
464.975	77.81
465.195	74.81
465.414	81.81
465.634	89.81
465.854	88.81
466.073	83.81
466.293	79.81
466.512	84.81
466.732	90.81
466.951	82.81
467.171	90.81
467.391	77.81
467.61	64.81
467.829	85.81
468.049	70.81
468.268	67.81
468.488	74.81
468.707	68.81
468.927	76.81
469.146	69.81
469.365	89.81
469.585	77.81
469.804	82.81
470.023	61.81
470.243	83.81
470.462	85.81
470.681	69.81
470.901	83.81
471.12	71.81
471.339	76.81
471.558	71.81
471.777	69.81
471.997	71.81
472.216	72.81
472.435	75.81
472.654	60.81
472.873	77.81
473.092	84.81
473.311	80.81
473.53	78.81
473.749	71.81
473.968	65.81
474.187	68.81
474.406	90.81
474.625	78.81
474.844	84.81
475.063	71.81
475.282	79.81
475.501	71.81
475.72	80.81
475.939	89.81
476.158	84.81
476.377	65.81
476.596	69.81
476.814	98.81
477.033	80.81
477.252	85.81
477.471	80.81
477.69	82.81
477.908	84.81
478.127	92.81
478.346	76.81
478.564	87.81
478.783	78.81
479.002	76.81
479.22	86.81
479.439	74.81
479.658	68.81
479.876	77.81
480.095	90.81
480.313	77.81
480.532	89.81
480.751	79.81
480.969	82.81
481.188	91.81
481.406	91.81
481.624	81.81
481.843	71.81
482.061	68.81
482.28	83.81
482.498	77.81
482.717	65.81
482.935	77.81
483.153	82.81
483.372	92.81
483.59	89.81
483.808	77.81
484.027	80.81
484.245	92.81
484.463	86.81
484.681	84.81
484.9	79.81
485.118	78.81
485.336	78.81
485.554	84.81
485.772	81.81
485.99	69.81
486.209	95.81
486.427	81.81
486.645	76.81
486.863	83.81
487.081	69.81
487.299	84.81
487.517	91.81
487.735	90.81
487.953	101.81
488.171	84.81
488.389	83.81
488.607	74.81
488.825	62.81
489.043	92.81
489.261	82.81
489.479	79.81
489.696	63.81
489.914	81.81
490.132	71.81
490.35	85.81
490.568	76.81
490.786	78.81
491.003	95.81
491.221	82.81
491.439	67.81
491.657	70.81
491.874	85.81
492.092	94.81
492.31	89.81
492.527	88.81
492.745	77.81
492.963	77.81
493.18	90.81
493.398	82.81
493.615	61.81
493.833	93.81
494.05	82.81
494.268	92.81
494.485	89.81
494.703	89.81
494.92	82.81
495.138	91.81
495.355	81.81
495.573	75.81
495.79	89.81
496.008	85.81
496.225	78.81
496.442	79.81
496.66	79.81
496.877	77.81
497.094	93.81
497.312	81.81
497.529	65.81
497.746	86.81
497.963	78.81
498.181	81.81
498.398	92.81
498.615	84.81
498.832	91.81
499.049	89.81
499.267	92.81
499.484	84.81
499.701	75.81
499.918	86.81
500.135	78.81
500.352	86.81
500.569	81.81
500.786	87.81
501.003	86.81
501.22	81.81
501.437	76.81
501.654	79.81
501.871	81.81
502.088	70.81
502.305	85.81
502.522	74.81
502.739	78.81
502.956	86.81
503.172	74.81
503.389	71.81
503.606	78.81
503.823	78.81
504.04	95.81
504.256	94.81
504.473	95.81
504.69	86.81
504.907	85.81
505.123	78.81
505.34	86.81
505.557	73.81
505.773	78.81
505.99	68.81
506.207	78.81
506.423	81.81
506.64	77.81
506.856	83.81
507.073	75.81
507.289	92.81
507.506	81.81
507.722	71.81
507.939	74.81
508.155	89.81
508.372	90.81
508.588	74.81
508.805	78.81
509.021	82.81
509.238	77.81
509.454	87.81
509.67	95.81
509.887	81.81
510.103	91.81
510.319	85.81
510.536	85.81
510.752	69.81
510.968	89.81
511.184	80.81
511.401	67.81
511.617	79.81
511.833	81.81
512.049	89.81
512.265	80.81
512.481	70.81
512.698	65.81
512.914	84.81
513.13	101.81
513.346	69.81
513.562	79.81
513.778	89.81
513.994	96.81
514.21	86.81
514.426	88.81
514.642	80.81
514.858	71.81
515.074	84.81
515.29	71.81
515.506	72.81
515.721	71.81
515.937	85.81
516.153	79.81
516.369	81.81
516.585	88.81
516.801	78.81
517.016	78.81
517.232	81.81
517.448	75.81
517.664	86.81
517.879	89.81
518.095	90.81
518.311	84.81
518.527	77.81
518.742	69.81
518.958	90.81
519.173	86.81
519.389	80.81
519.605	89.81
519.82	77.81
520.036	89.81
