Data from 1600_1_HRD10591_00050.txt Node
Date: Mon Jan 19 13:48:06 EST 2026
User: Yrep
Spectrometer: HR+D1059
Trigger mode: 1
Integration Time (sec): 1.000000E-1
Scans to average: 1
Electric dark correction enabled: true
Nonlinearity correction enabled: false
Boxcar width: 0
XAxis mode: Wavelengths
Number of Pixels in Spectrum: 2048
>>>>>Begin Spectral Data<<<<<
223.165	-4.88
223.4	-4.88
223.635	-4.88
223.869	-23.88
224.104	-18.88
224.338	-19.88
224.573	-18.88
224.808	-2.88
225.042	-13.88
225.277	-8.88
225.511	-9.88
225.746	-2.88
225.98	13.12
226.215	13.12
226.449	16.12
226.683	24.12
226.918	27.12
227.152	31.12
227.387	46.12
227.621	46.12
227.856	30.12
228.09	46.12
228.324	42.12
228.559	62.12
228.793	59.12
229.027	51.12
229.262	72.12
229.496	71.12
229.73	68.12
229.964	73.12
230.199	72.12
230.433	73.12
230.667	74.12
230.901	83.12
231.136	72.12
231.37	62.12
231.604	66.12
231.838	74.12
232.072	76.12
232.306	86.12
232.541	96.12
232.775	82.12
233.009	79.12
233.243	77.12
233.477	84.12
233.711	89.12
233.945	76.12
234.179	74.12
234.413	68.12
234.647	76.12
234.881	73.12
235.115	71.12
235.349	89.12
235.583	68.12
235.817	89.12
236.051	81.12
236.285	78.12
236.519	79.12
236.753	80.12
236.987	81.12
237.221	70.12
237.455	57.12
237.689	71.12
237.922	73.12
238.156	62.12
238.39	73.12
238.624	87.12
238.858	69.12
239.091	74.12
239.325	60.12
239.559	72.12
239.793	63.12
240.027	76.12
240.26	91.12
240.494	63.12
240.728	63.12
240.961	79.12
241.195	79.12
241.429	83.12
241.662	73.12
241.896	77.12
242.13	85.12
242.363	66.12
242.597	83.12
242.83	83.12
243.064	92.12
243.298	83.12
243.531	59.12
243.765	69.12
243.998	72.12
244.232	67.12
244.465	68.12
244.699	83.12
244.932	84.12
245.166	68.12
245.399	89.12
245.633	76.12
245.866	69.12
246.099	79.12
246.333	71.12
246.566	72.12
246.8	75.12
247.033	71.12
247.266	79.12
247.5	87.12
247.733	83.12
247.966	72.12
248.2	78.12
248.433	79.12
248.666	70.12
248.899	76.12
249.133	70.12
249.366	82.12
249.599	74.12
249.832	65.12
250.066	87.12
250.299	67.12
250.532	64.12
250.765	73.12
250.998	79.12
251.231	95.12
251.465	72.12
251.698	63.12
251.931	72.12
252.164	77.12
252.397	85.12
252.63	80.12
252.863	79.12
253.096	89.12
253.329	85.12
253.562	76.12
253.795	79.12
254.028	78.12
254.261	78.12
254.494	74.12
254.727	78.12
254.96	76.12
255.193	86.12
255.426	68.12
255.659	81.12
255.892	85.12
256.124	80.12
256.357	63.12
256.59	93.12
256.823	92.12
257.056	58.12
257.289	65.12
257.521	87.12
257.754	84.12
257.987	84.12
258.22	84.12
258.452	80.12
258.685	90.12
258.918	71.12
259.151	77.12
259.383	73.12
259.616	75.12
259.849	87.12
260.081	87.12
260.314	76.12
260.547	74.12
260.779	91.12
261.012	81.12
261.244	82.12
261.477	86.12
261.71	78.12
261.942	86.12
262.175	83.12
262.407	76.12
262.64	75.12
262.872	76.12
263.105	90.12
263.337	82.12
263.57	84.12
263.802	80.12
264.035	89.12
264.267	83.12
264.499	89.12
264.732	74.12
264.964	87.12
265.197	77.12
265.429	87.12
265.661	92.12
265.894	89.12
266.126	84.12
266.358	86.12
266.591	74.12
266.823	76.12
267.055	89.12
267.287	79.12
267.52	81.12
267.752	85.12
267.984	94.12
268.216	81.12
268.448	83.12
268.681	77.12
268.913	74.12
269.145	73.12
269.377	59.12
269.609	72.12
269.841	77.12
270.073	74.12
270.306	73.12
270.538	79.12
270.77	81.12
271.002	88.12
271.234	84.12
271.466	83.12
271.698	75.12
271.93	71.12
272.162	87.12
272.394	79.12
272.626	89.12
272.858	73.12
273.09	84.12
273.322	65.12
273.553	92.12
273.785	79.12
274.017	87.12
274.249	89.12
274.481	73.12
274.713	81.12
274.945	86.12
275.176	84.12
275.408	90.12
275.64	79.12
275.872	86.12
276.104	73.12
276.335	89.12
276.567	95.12
276.799	97.12
277.031	84.12
277.262	75.12
277.494	83.12
277.726	89.12
277.957	84.12
278.189	83.12
278.421	81.12
278.652	87.12
278.884	95.12
279.115	85.12
279.347	87.12
279.579	91.12
279.81	78.12
280.042	81.12
280.273	80.12
280.505	88.12
280.736	76.12
280.968	79.12
281.199	85.12
281.431	64.12
281.662	80.12
281.894	79.12
282.125	83.12
282.356	72.12
282.588	70.12
282.819	74.12
283.051	82.12
283.282	84.12
283.513	102.12
283.745	81.12
283.976	76.12
284.207	88.12
284.439	77.12
284.67	92.12
284.901	91.12
285.132	79.12
285.364	80.12
285.595	76.12
285.826	80.12
286.057	91.12
286.288	82.12
286.52	83.12
286.751	84.12
286.982	80.12
287.213	70.12
287.444	86.12
287.675	82.12
287.906	79.12
288.138	82.12
288.369	80.12
288.6	92.12
288.831	90.12
289.062	92.12
289.293	90.12
289.524	90.12
289.755	75.12
289.986	82.12
290.217	74.12
290.448	78.12
290.679	87.12
290.91	69.12
291.141	77.12
291.371	83.12
291.602	99.12
291.833	89.12
292.064	82.12
292.295	83.12
292.526	84.12
292.757	82.12
292.987	77.12
293.218	74.12
293.449	92.12
293.68	95.12
293.91	102.12
294.141	93.12
294.372	75.12
294.603	91.12
294.833	88.12
295.064	89.12
295.295	87.12
295.525	94.12
295.756	73.12
295.987	73.12
296.217	83.12
296.448	72.12
296.679	86.12
296.909	93.12
297.14	93.12
297.37	79.12
297.601	90.12
297.831	87.12
298.062	89.12
298.292	86.12
298.523	76.12
298.753	82.12
298.984	87.12
299.214	83.12
299.445	84.12
299.675	83.12
299.905	81.12
300.136	82.12
300.366	75.12
300.597	54.12
300.827	78.12
301.057	93.12
301.288	83.12
301.518	86.12
301.748	82.12
301.979	78.12
302.209	87.12
302.439	84.12
302.669	87.12
302.9	89.12
303.13	108.12
303.36	78.12
303.59	75.12
303.82	87.12
304.051	77.12
304.281	94.12
304.511	81.12
304.741	72.12
304.971	79.12
305.201	87.12
305.431	93.12
305.661	111.12
305.891	97.12
306.121	84.12
306.352	87.12
306.582	93.12
306.812	85.12
307.042	76.12
307.272	87.12
307.502	92.12
307.731	91.12
307.961	91.12
308.191	85.12
308.421	90.12
308.651	87.12
308.881	73.12
309.111	80.12
309.341	79.12
309.571	97.12
309.8	86.12
310.03	85.12
310.26	85.12
310.49	95.12
310.72	83.12
310.949	80.12
311.179	90.12
311.409	90.12
311.639	88.12
311.868	82.12
312.098	80.12
312.328	92.12
312.557	85.12
312.787	87.12
313.017	101.12
313.246	100.12
313.476	88.12
313.706	83.12
313.935	95.12
314.165	77.12
314.394	89.12
314.624	84.12
314.853	98.12
315.083	89.12
315.312	79.12
315.542	83.12
315.771	85.12
316.001	80.12
316.23	82.12
316.46	85.12
316.689	97.12
316.919	85.12
317.148	76.12
317.377	84.12
317.607	70.12
317.836	78.12
318.065	84.12
318.295	86.12
318.524	78.12
318.753	79.12
318.983	94.12
319.212	81.12
319.441	84.12
319.67	83.12
319.9	82.12
320.129	104.12
320.358	102.12
320.587	90.12
320.816	92.12
321.046	83.12
321.275	73.12
321.504	82.12
321.733	81.12
321.962	80.12
322.191	86.12
322.42	88.12
322.649	97.12
322.878	86.12
323.108	79.12
323.337	87.12
323.566	80.12
323.795	85.12
324.024	77.12
324.253	88.12
324.482	70.12
324.71	70.12
324.939	79.12
325.168	85.12
325.397	73.12
325.626	86.12
325.855	76.12
326.084	84.12
326.313	77.12
326.542	83.12
326.77	96.12
326.999	99.12
327.228	79.12
327.457	82.12
327.686	91.12
327.914	93.12
328.143	92.12
328.372	79.12
328.6	93.12
328.829	92.12
329.058	93.12
329.287	72.12
329.515	81.12
329.744	71.12
329.972	73.12
330.201	67.12
330.43	78.12
330.658	71.12
330.887	80.12
331.115	85.12
331.344	94.12
331.572	91.12
331.801	72.12
332.03	85.12
332.258	68.12
332.486	77.12
332.715	85.12
332.943	82.12
333.172	93.12
333.4	87.12
333.629	69.12
333.857	74.12
334.085	75.12
334.314	85.12
334.542	81.12
334.771	80.12
334.999	77.12
335.227	62.12
335.455	82.12
335.684	91.12
335.912	90.12
336.14	88.12
336.369	88.12
336.597	96.12
336.825	94.12
337.053	88.12
337.281	88.12
337.51	89.12
337.738	87.12
337.966	77.12
338.194	89.12
338.422	71.12
338.65	86.12
338.878	91.12
339.106	102.12
339.334	79.12
339.562	95.12
339.79	83.12
340.018	96.12
340.246	83.12
340.474	81.12
340.702	80.12
340.93	84.12
341.158	75.12
341.386	96.12
341.614	78.12
341.842	84.12
342.07	81.12
342.298	90.12
342.526	73.12
342.754	87.12
342.981	91.12
343.209	83.12
343.437	94.12
343.665	88.12
343.893	85.12
344.12	76.12
344.348	64.12
344.576	88.12
344.804	77.12
345.031	85.12
345.259	79.12
345.487	78.12
345.714	74.12
345.942	73.12
346.17	82.12
346.397	93.12
346.625	81.12
346.853	72.12
347.08	85.12
347.308	66.12
347.535	77.12
347.763	85.12
347.99	81.12
348.218	83.12
348.445	76.12
348.673	77.12
348.9	85.12
349.128	83.12
349.355	70.12
349.583	96.12
349.81	76.12
350.037	88.12
350.265	90.12
350.492	77.12
350.72	94.12
350.947	95.12
351.174	85.12
351.402	74.12
351.629	96.12
351.856	87.12
352.083	93.12
352.311	79.12
352.538	74.12
352.765	72.12
352.992	100.12
353.22	110.12
353.447	83.12
353.674	87.12
353.901	88.12
354.128	63.12
354.355	95.12
354.583	79.12
354.81	94.12
355.037	85.12
355.264	93.12
355.491	88.12
355.718	77.12
355.945	82.12
356.172	82.12
356.399	68.12
356.626	86.12
356.853	69.12
357.08	82.12
357.307	85.12
357.534	80.12
357.761	87.12
357.988	86.12
358.215	88.12
358.441	77.12
358.668	87.12
358.895	79.12
359.122	81.12
359.349	76.12
359.576	70.12
359.802	76.12
360.029	88.12
360.256	95.12
360.483	90.12
360.709	85.12
360.936	97.12
361.163	80.12
361.39	79.12
361.616	72.12
361.843	75.12
362.07	79.12
362.296	93.12
362.523	81.12
362.749	84.12
362.976	76.12
363.203	109.12
363.429	76.12
363.656	84.12
363.882	94.12
364.109	80.12
364.335	93.12
364.562	77.12
364.788	66.12
365.015	93.12
365.241	64.12
365.468	79.12
365.694	91.12
365.92	90.12
366.147	77.12
366.373	90.12
366.599	77.12
366.826	82.12
367.052	92.12
367.278	91.12
367.505	76.12
367.731	95.12
367.957	77.12
368.184	80.12
368.41	78.12
368.636	83.12
368.862	85.12
369.089	85.12
369.315	92.12
369.541	72.12
369.767	82.12
369.993	88.12
370.219	74.12
370.445	82.12
370.672	76.12
370.898	85.12
371.124	81.12
371.35	92.12
371.576	85.12
371.802	95.12
372.028	66.12
372.254	86.12
372.48	99.12
372.706	83.12
372.932	85.12
373.158	86.12
373.384	87.12
373.61	82.12
373.835	88.12
374.061	74.12
374.287	92.12
374.513	80.12
374.739	69.12
374.965	74.12
375.191	86.12
375.416	77.12
375.642	84.12
375.868	88.12
376.094	83.12
376.319	74.12
376.545	83.12
376.771	78.12
376.997	70.12
377.222	80.12
377.448	71.12
377.674	73.12
377.899	96.12
378.125	82.12
378.35	77.12
378.576	83.12
378.802	71.12
379.027	76.12
379.253	95.12
379.478	71.12
379.704	93.12
379.929	71.12
380.155	90.12
380.38	94.12
380.606	70.12
380.831	81.12
381.057	82.12
381.282	87.12
381.507	89.12
381.733	61.12
381.958	72.12
382.184	77.12
382.409	85.12
382.634	80.12
382.86	85.12
383.085	80.12
383.31	91.12
383.535	72.12
383.761	77.12
383.986	75.12
384.211	80.12
384.436	87.12
384.662	90.12
384.887	76.12
385.112	69.12
385.337	68.12
385.562	82.12
385.787	86.12
386.013	89.12
386.238	87.12
386.463	72.12
386.688	85.12
386.913	86.12
387.138	85.12
387.363	77.12
387.588	79.12
387.813	80.12
388.038	79.12
388.263	73.12
388.488	88.12
388.713	84.12
388.938	78.12
389.163	88.12
389.387	88.12
389.612	76.12
389.837	57.12
390.062	75.12
390.287	89.12
390.512	81.12
390.736	82.12
390.961	87.12
391.186	79.12
391.411	77.12
391.636	82.12
391.86	77.12
392.085	72.12
392.31	73.12
392.534	87.12
392.759	72.12
392.984	79.12
393.208	84.12
393.433	92.12
393.658	91.12
393.882	70.12
394.107	84.12
394.331	80.12
394.556	89.12
394.78	84.12
395.005	84.12
395.229	78.12
395.454	67.12
395.678	67.12
395.903	71.12
396.127	76.12
396.352	70.12
396.576	87.12
396.801	86.12
397.025	95.12
397.249	81.12
397.474	86.12
397.698	95.12
397.922	73.12
398.147	77.12
398.371	81.12
398.595	78.12
398.82	70.12
399.044	91.12
399.268	77.12
399.492	78.12
399.717	81.12
399.941	95.12
400.165	85.12
400.389	72.12
400.613	86.12
400.837	71.12
401.062	81.12
401.286	75.12
401.51	95.12
401.734	71.12
401.958	79.12
402.182	81.12
402.406	93.12
402.63	81.12
402.854	73.12
403.078	89.12
403.302	73.12
403.526	76.12
403.75	68.12
403.974	87.12
404.198	71.12
404.422	81.12
404.645	105.12
404.869	88.12
405.093	85.12
405.317	74.12
405.541	79.12
405.765	65.12
405.988	83.12
406.212	74.12
406.436	73.12
406.66	80.12
406.883	85.12
407.107	81.12
407.331	80.12
407.555	78.12
407.778	67.12
408.002	87.12
408.226	75.12
408.449	72.12
408.673	81.12
408.896	92.12
409.12	67.12
409.344	95.12
409.567	77.12
409.791	80.12
410.014	83.12
410.238	94.12
410.461	73.12
410.685	95.12
410.908	87.12
411.132	92.12
411.355	81.12
411.578	68.12
411.802	82.12
412.025	74.12
412.249	75.12
412.472	75.12
412.695	85.12
412.919	85.12
413.142	96.12
413.365	87.12
413.589	92.12
413.812	80.12
414.035	83.12
414.258	91.12
414.482	85.12
414.705	92.12
414.928	80.12
415.151	79.12
415.374	76.12
415.597	83.12
415.821	73.12
416.044	93.12
416.267	87.12
416.49	65.12
416.713	67.12
416.936	79.12
417.159	87.12
417.382	91.12
417.605	85.12
417.828	73.12
418.051	80.12
418.274	81.12
418.497	88.12
418.72	80.12
418.943	85.12
419.166	71.12
419.389	79.12
419.611	88.12
419.834	74.12
420.057	91.12
420.28	76.12
420.503	83.12
420.726	82.12
420.948	80.12
421.171	81.12
421.394	91.12
421.617	83.12
421.839	83.12
422.062	77.12
422.285	81.12
422.507	80.12
422.73	81.12
422.953	92.12
423.175	71.12
423.398	81.12
423.621	85.12
423.843	75.12
424.066	69.12
424.288	81.12
424.511	76.12
424.733	91.12
424.956	74.12
425.178	83.12
425.401	74.12
425.623	76.12
425.846	73.12
426.068	81.12
426.291	87.12
426.513	83.12
426.735	83.12
426.958	77.12
427.18	70.12
427.402	77.12
427.625	92.12
427.847	73.12
428.069	87.12
428.292	83.12
428.514	70.12
428.736	91.12
428.958	82.12
429.181	90.12
429.403	91.12
429.625	94.12
429.847	67.12
430.069	83.12
430.292	94.12
430.514	79.12
430.736	85.12
430.958	64.12
431.18	75.12
431.402	75.12
431.624	75.12
431.846	70.12
432.068	83.12
432.29	66.12
432.512	80.12
432.734	88.12
432.956	77.12
433.178	80.12
433.4	79.12
433.622	96.12
433.844	81.12
434.066	97.12
434.287	72.12
434.509	88.12
434.731	77.12
434.953	79.12
435.175	84.12
435.397	86.12
435.618	80.12
435.84	104.12
436.062	82.12
436.284	83.12
436.505	84.12
436.727	95.12
436.949	85.12
437.17	82.12
437.392	86.12
437.614	78.12
437.835	81.12
438.057	87.12
438.278	64.12
438.5	73.12
438.721	63.12
438.943	78.12
439.165	72.12
439.386	70.12
439.608	85.12
439.829	93.12
440.05	77.12
440.272	71.12
440.493	81.12
440.715	81.12
440.936	74.12
441.158	83.12
441.379	89.12
441.6	79.12
441.822	79.12
442.043	75.12
442.264	75.12
442.486	80.12
442.707	85.12
442.928	80.12
443.149	91.12
443.371	99.12
443.592	91.12
443.813	96.12
444.034	84.12
444.255	68.12
444.476	80.12
444.698	69.12
444.919	80.12
445.14	157.12
445.361	112.12
445.582	93.12
445.803	92.12
446.024	83.12
446.245	85.12
446.466	75.12
446.687	83.12
446.908	69.12
447.129	83.12
447.35	102.12
447.571	77.12
447.792	63.12
448.013	88.12
448.234	95.12
448.455	73.12
448.675	79.12
448.896	76.12
449.117	80.12
449.338	83.12
449.559	80.12
449.779	83.12
450	79.12
450.221	74.12
450.442	76.12
450.662	87.12
450.883	64.12
451.104	83.12
451.324	78.12
451.545	67.12
451.766	93.12
451.986	97.12
452.207	86.12
452.428	78.12
452.648	77.12
452.869	88.12
453.089	81.12
453.31	64.12
453.53	85.12
453.751	89.12
453.971	73.12
454.192	76.12
454.412	91.12
454.633	74.12
454.853	79.12
455.073	82.12
455.294	94.12
455.514	96.12
455.734	83.12
455.955	82.12
456.175	90.12
456.395	93.12
456.616	94.12
456.836	78.12
457.056	71.12
457.276	80.12
457.497	69.12
457.717	77.12
457.937	91.12
458.157	53.12
458.377	78.12
458.598	67.12
458.818	90.12
459.038	73.12
459.258	86.12
459.478	81.12
459.698	78.12
459.918	82.12
460.138	73.12
460.358	81.12
460.578	93.12
460.798	76.12
461.018	79.12
461.238	84.12
461.458	79.12
461.678	72.12
461.898	87.12
462.118	68.12
462.338	77.12
462.558	78.12
462.777	79.12
462.997	90.12
463.217	72.12
463.437	84.12
463.657	85.12
463.876	84.12
464.096	76.12
464.316	89.12
464.536	77.12
464.755	87.12
464.975	73.12
465.195	80.12
465.414	88.12
465.634	79.12
465.854	65.12
466.073	80.12
466.293	82.12
466.512	73.12
466.732	79.12
466.951	84.12
467.171	93.12
467.391	80.12
467.61	69.12
467.829	81.12
468.049	80.12
468.268	72.12
468.488	73.12
468.707	73.12
468.927	73.12
469.146	79.12
469.365	73.12
469.585	76.12
469.804	65.12
470.023	83.12
470.243	79.12
470.462	76.12
470.681	85.12
470.901	87.12
471.12	79.12
471.339	76.12
471.558	79.12
471.777	65.12
471.997	80.12
472.216	93.12
472.435	65.12
472.654	68.12
472.873	91.12
473.092	77.12
473.311	97.12
473.53	87.12
473.749	70.12
473.968	86.12
474.187	86.12
474.406	79.12
474.625	84.12
474.844	80.12
475.063	85.12
475.282	81.12
475.501	63.12
475.72	87.12
475.939	93.12
476.158	71.12
476.377	77.12
476.596	91.12
476.814	76.12
477.033	80.12
477.252	84.12
477.471	74.12
477.69	79.12
477.908	73.12
478.127	83.12
478.346	71.12
478.564	81.12
478.783	87.12
479.002	78.12
479.22	79.12
479.439	79.12
479.658	84.12
479.876	83.12
480.095	94.12
480.313	65.12
480.532	83.12
480.751	94.12
480.969	87.12
481.188	85.12
481.406	70.12
481.624	75.12
481.843	99.12
482.061	86.12
482.28	79.12
482.498	76.12
482.717	72.12
482.935	72.12
483.153	71.12
483.372	92.12
483.59	67.12
483.808	98.12
484.027	78.12
484.245	74.12
484.463	77.12
484.681	80.12
484.9	79.12
485.118	83.12
485.336	84.12
485.554	80.12
485.772	89.12
485.99	95.12
486.209	101.12
486.427	89.12
486.645	81.12
486.863	75.12
487.081	91.12
487.299	77.12
487.517	93.12
487.735	87.12
487.953	84.12
488.171	97.12
488.389	79.12
488.607	73.12
488.825	76.12
489.043	83.12
489.261	73.12
489.479	94.12
489.696	86.12
489.914	98.12
490.132	83.12
490.35	93.12
490.568	75.12
490.786	88.12
491.003	85.12
491.221	92.12
491.439	76.12
491.657	85.12
491.874	93.12
492.092	92.12
492.31	80.12
492.527	78.12
492.745	84.12
492.963	92.12
493.18	96.12
493.398	74.12
493.615	83.12
493.833	83.12
494.05	77.12
494.268	95.12
494.485	79.12
494.703	92.12
494.92	93.12
495.138	82.12
495.355	83.12
495.573	91.12
495.79	88.12
496.008	70.12
496.225	95.12
496.442	66.12
496.66	83.12
496.877	76.12
497.094	74.12
497.312	79.12
497.529	92.12
497.746	89.12
497.963	86.12
498.181	88.12
498.398	96.12
498.615	83.12
498.832	65.12
499.049	105.12
499.267	85.12
499.484	88.12
499.701	83.12
499.918	80.12
500.135	86.12
500.352	74.12
500.569	96.12
500.786	74.12
501.003	81.12
501.22	80.12
501.437	98.12
501.654	79.12
501.871	84.12
502.088	93.12
502.305	82.12
502.522	74.12
502.739	81.12
502.956	98.12
503.172	79.12
503.389	81.12
503.606	80.12
503.823	85.12
504.04	69.12
504.256	96.12
504.473	81.12
504.69	84.12
504.907	82.12
505.123	76.12
505.34	80.12
505.557	95.12
505.773	72.12
505.99	87.12
506.207	72.12
506.423	68.12
506.64	80.12
506.856	94.12
507.073	88.12
507.289	84.12
507.506	87.12
507.722	98.12
507.939	83.12
508.155	79.12
508.372	84.12
508.588	79.12
508.805	85.12
509.021	82.12
509.238	86.12
509.454	74.12
509.67	84.12
509.887	78.12
510.103	98.12
510.319	96.12
510.536	79.12
510.752	77.12
510.968	88.12
511.184	67.12
511.401	95.12
511.617	90.12
511.833	85.12
512.049	87.12
512.265	81.12
512.481	81.12
512.698	87.12
512.914	73.12
513.13	68.12
513.346	84.12
513.562	81.12
513.778	72.12
513.994	81.12
514.21	72.12
514.426	93.12
514.642	80.12
514.858	93.12
515.074	102.12
515.29	84.12
515.506	68.12
515.721	84.12
515.937	81.12
516.153	77.12
516.369	87.12
516.585	91.12
516.801	80.12
517.016	91.12
517.232	78.12
517.448	84.12
517.664	74.12
517.879	70.12
518.095	78.12
518.311	81.12
518.527	79.12
518.742	81.12
518.958	89.12
519.173	94.12
519.389	101.12
519.605	91.12
519.82	77.12
520.036	96.12
