Data from 1600_1_HRD10591_00011.txt Node
Date: Mon Jan 19 13:47:46 EST 2026
User: Yrep
Spectrometer: HR+D1059
Trigger mode: 1
Integration Time (sec): 1.000000E-1
Scans to average: 1
Electric dark correction enabled: true
Nonlinearity correction enabled: false
Boxcar width: 0
XAxis mode: Wavelengths
Number of Pixels in Spectrum: 2048
>>>>>Begin Spectral Data<<<<<
223.165	-22.12
223.4	-22.12
223.635	-22.12
223.869	-3.12
224.104	-30.12
224.338	-15.12
224.573	-13.12
224.808	-11.12
225.042	-3.12
225.277	-8.12
225.511	-5.12
225.746	3.88
225.98	1.88
226.215	12.88
226.449	11.88
226.683	25.88
226.918	24.88
227.152	29.88
227.387	44.88
227.621	34.88
227.856	64.88
228.09	61.88
228.324	48.88
228.559	60.88
228.793	55.88
229.027	72.88
229.262	57.88
229.496	61.88
229.73	69.88
229.964	75.88
230.199	55.88
230.433	74.88
230.667	88.88
230.901	70.88
231.136	79.88
231.37	72.88
231.604	84.88
231.838	72.88
232.072	73.88
232.306	57.88
232.541	74.88
232.775	84.88
233.009	89.88
233.243	83.88
233.477	77.88
233.711	83.88
233.945	74.88
234.179	94.88
234.413	74.88
234.647	92.88
234.881	87.88
235.115	69.88
235.349	81.88
235.583	79.88
235.817	78.88
236.051	77.88
236.285	72.88
236.519	72.88
236.753	80.88
236.987	68.88
237.221	88.88
237.455	84.88
237.689	81.88
237.922	87.88
238.156	89.88
238.39	73.88
238.624	82.88
238.858	73.88
239.091	74.88
239.325	62.88
239.559	64.88
239.793	80.88
240.027	78.88
240.26	87.88
240.494	77.88
240.728	84.88
240.961	91.88
241.195	72.88
241.429	77.88
241.662	84.88
241.896	58.88
242.13	69.88
242.363	71.88
242.597	80.88
242.83	73.88
243.064	80.88
243.298	96.88
243.531	72.88
243.765	86.88
243.998	88.88
244.232	75.88
244.465	71.88
244.699	91.88
244.932	81.88
245.166	85.88
245.399	72.88
245.633	79.88
245.866	82.88
246.099	74.88
246.333	71.88
246.566	92.88
246.8	88.88
247.033	85.88
247.266	59.88
247.5	78.88
247.733	85.88
247.966	70.88
248.2	64.88
248.433	72.88
248.666	77.88
248.899	84.88
249.133	65.88
249.366	88.88
249.599	82.88
249.832	70.88
250.066	90.88
250.299	84.88
250.532	89.88
250.765	72.88
250.998	92.88
251.231	86.88
251.465	92.88
251.698	88.88
251.931	72.88
252.164	85.88
252.397	77.88
252.63	82.88
252.863	80.88
253.096	74.88
253.329	75.88
253.562	84.88
253.795	88.88
254.028	84.88
254.261	67.88
254.494	91.88
254.727	92.88
254.96	89.88
255.193	99.88
255.426	75.88
255.659	82.88
255.892	71.88
256.124	84.88
256.357	80.88
256.59	74.88
256.823	76.88
257.056	96.88
257.289	92.88
257.521	84.88
257.754	74.88
257.987	76.88
258.22	76.88
258.452	88.88
258.685	84.88
258.918	76.88
259.151	74.88
259.383	75.88
259.616	89.88
259.849	75.88
260.081	93.88
260.314	76.88
260.547	88.88
260.779	84.88
261.012	76.88
261.244	61.88
261.477	90.88
261.71	74.88
261.942	84.88
262.175	91.88
262.407	82.88
262.64	78.88
262.872	87.88
263.105	77.88
263.337	72.88
263.57	80.88
263.802	85.88
264.035	81.88
264.267	77.88
264.499	76.88
264.732	89.88
264.964	78.88
265.197	78.88
265.429	77.88
265.661	89.88
265.894	82.88
266.126	94.88
266.358	89.88
266.591	89.88
266.823	83.88
267.055	92.88
267.287	78.88
267.52	83.88
267.752	102.88
267.984	99.88
268.216	88.88
268.448	84.88
268.681	62.88
268.913	79.88
269.145	87.88
269.377	78.88
269.609	94.88
269.841	92.88
270.073	86.88
270.306	80.88
270.538	84.88
270.77	84.88
271.002	98.88
271.234	82.88
271.466	88.88
271.698	86.88
271.93	85.88
272.162	86.88
272.394	76.88
272.626	70.88
272.858	84.88
273.09	92.88
273.322	96.88
273.553	102.88
273.785	87.88
274.017	87.88
274.249	85.88
274.481	95.88
274.713	108.88
274.945	84.88
275.176	84.88
275.408	95.88
275.64	88.88
275.872	96.88
276.104	79.88
276.335	83.88
276.567	79.88
276.799	86.88
277.031	78.88
277.262	85.88
277.494	78.88
277.726	71.88
277.957	92.88
278.189	85.88
278.421	93.88
278.652	93.88
278.884	92.88
279.115	72.88
279.347	85.88
279.579	93.88
279.81	83.88
280.042	77.88
280.273	101.88
280.505	70.88
280.736	69.88
280.968	83.88
281.199	82.88
281.431	78.88
281.662	82.88
281.894	92.88
282.125	76.88
282.356	84.88
282.588	87.88
282.819	76.88
283.051	82.88
283.282	90.88
283.513	92.88
283.745	84.88
283.976	70.88
284.207	92.88
284.439	95.88
284.67	96.88
284.901	101.88
285.132	84.88
285.364	69.88
285.595	93.88
285.826	87.88
286.057	79.88
286.288	86.88
286.52	90.88
286.751	88.88
286.982	91.88
287.213	82.88
287.444	88.88
287.675	86.88
287.906	82.88
288.138	80.88
288.369	94.88
288.6	97.88
288.831	94.88
289.062	88.88
289.293	80.88
289.524	72.88
289.755	74.88
289.986	85.88
290.217	93.88
290.448	88.88
290.679	92.88
290.91	93.88
291.141	86.88
291.371	86.88
291.602	97.88
291.833	77.88
292.064	97.88
292.295	86.88
292.526	88.88
292.757	85.88
292.987	94.88
293.218	83.88
293.449	84.88
293.68	95.88
293.91	84.88
294.141	82.88
294.372	89.88
294.603	101.88
294.833	85.88
295.064	95.88
295.295	89.88
295.525	80.88
295.756	84.88
295.987	85.88
296.217	73.88
296.448	84.88
296.679	80.88
296.909	86.88
297.14	100.88
297.37	88.88
297.601	112.88
297.831	79.88
298.062	91.88
298.292	91.88
298.523	99.88
298.753	84.88
298.984	96.88
299.214	93.88
299.445	88.88
299.675	97.88
299.905	102.88
300.136	89.88
300.366	93.88
300.597	79.88
300.827	88.88
301.057	90.88
301.288	95.88
301.518	104.88
301.748	93.88
301.979	105.88
302.209	98.88
302.439	77.88
302.669	86.88
302.9	90.88
303.13	85.88
303.36	73.88
303.59	92.88
303.82	94.88
304.051	103.88
304.281	96.88
304.511	91.88
304.741	78.88
304.971	94.88
305.201	90.88
305.431	86.88
305.661	83.88
305.891	84.88
306.121	100.88
306.352	82.88
306.582	84.88
306.812	73.88
307.042	88.88
307.272	96.88
307.502	104.88
307.731	85.88
307.961	96.88
308.191	80.88
308.421	83.88
308.651	89.88
308.881	82.88
309.111	89.88
309.341	80.88
309.571	88.88
309.8	92.88
310.03	82.88
310.26	97.88
310.49	86.88
310.72	95.88
310.949	80.88
311.179	92.88
311.409	71.88
311.639	91.88
311.868	92.88
312.098	88.88
312.328	79.88
312.557	84.88
312.787	86.88
313.017	92.88
313.246	84.88
313.476	83.88
313.706	96.88
313.935	95.88
314.165	89.88
314.394	88.88
314.624	95.88
314.853	82.88
315.083	94.88
315.312	91.88
315.542	76.88
315.771	86.88
316.001	90.88
316.23	97.88
316.46	74.88
316.689	78.88
316.919	88.88
317.148	84.88
317.377	80.88
317.607	79.88
317.836	90.88
318.065	85.88
318.295	79.88
318.524	85.88
318.753	89.88
318.983	75.88
319.212	97.88
319.441	82.88
319.67	98.88
319.9	70.88
320.129	70.88
320.358	79.88
320.587	86.88
320.816	78.88
321.046	80.88
321.275	85.88
321.504	76.88
321.733	81.88
321.962	82.88
322.191	86.88
322.42	76.88
322.649	91.88
322.878	93.88
323.108	97.88
323.337	81.88
323.566	95.88
323.795	83.88
324.024	92.88
324.253	89.88
324.482	89.88
324.71	90.88
324.939	104.88
325.168	81.88
325.397	84.88
325.626	82.88
325.855	83.88
326.084	90.88
326.313	85.88
326.542	87.88
326.77	74.88
326.999	92.88
327.228	82.88
327.457	78.88
327.686	74.88
327.914	87.88
328.143	86.88
328.372	75.88
328.6	81.88
328.829	78.88
329.058	85.88
329.287	83.88
329.515	80.88
329.744	81.88
329.972	82.88
330.201	66.88
330.43	89.88
330.658	88.88
330.887	90.88
331.115	89.88
331.344	106.88
331.572	93.88
331.801	99.88
332.03	90.88
332.258	87.88
332.486	88.88
332.715	88.88
332.943	82.88
333.172	97.88
333.4	73.88
333.629	82.88
333.857	72.88
334.085	77.88
334.314	83.88
334.542	82.88
334.771	89.88
334.999	79.88
335.227	83.88
335.455	71.88
335.684	78.88
335.912	93.88
336.14	83.88
336.369	82.88
336.597	95.88
336.825	92.88
337.053	94.88
337.281	89.88
337.51	80.88
337.738	94.88
337.966	90.88
338.194	92.88
338.422	76.88
338.65	86.88
338.878	89.88
339.106	83.88
339.334	104.88
339.562	88.88
339.79	89.88
340.018	86.88
340.246	89.88
340.474	82.88
340.702	85.88
340.93	85.88
341.158	77.88
341.386	73.88
341.614	78.88
341.842	92.88
342.07	90.88
342.298	77.88
342.526	74.88
342.754	75.88
342.981	74.88
343.209	82.88
343.437	92.88
343.665	93.88
343.893	93.88
344.12	91.88
344.348	90.88
344.576	88.88
344.804	68.88
345.031	77.88
345.259	87.88
345.487	93.88
345.714	92.88
345.942	94.88
346.17	90.88
346.397	86.88
346.625	90.88
346.853	88.88
347.08	80.88
347.308	75.88
347.535	88.88
347.763	88.88
347.99	88.88
348.218	92.88
348.445	81.88
348.673	88.88
348.9	80.88
349.128	86.88
349.355	88.88
349.583	96.88
349.81	74.88
350.037	88.88
350.265	81.88
350.492	82.88
350.72	82.88
350.947	71.88
351.174	90.88
351.402	89.88
351.629	80.88
351.856	90.88
352.083	96.88
352.311	80.88
352.538	78.88
352.765	95.88
352.992	92.88
353.22	90.88
353.447	92.88
353.674	78.88
353.901	93.88
354.128	89.88
354.355	85.88
354.583	101.88
354.81	93.88
355.037	82.88
355.264	78.88
355.491	80.88
355.718	94.88
355.945	90.88
356.172	87.88
356.399	100.88
356.626	93.88
356.853	90.88
357.08	86.88
357.307	80.88
357.534	82.88
357.761	95.88
357.988	93.88
358.215	90.88
358.441	76.88
358.668	94.88
358.895	88.88
359.122	93.88
359.349	74.88
359.576	82.88
359.802	91.88
360.029	90.88
360.256	92.88
360.483	80.88
360.709	84.88
360.936	88.88
361.163	95.88
361.39	93.88
361.616	75.88
361.843	80.88
362.07	92.88
362.296	81.88
362.523	89.88
362.749	91.88
362.976	80.88
363.203	89.88
363.429	81.88
363.656	81.88
363.882	82.88
364.109	93.88
364.335	84.88
364.562	73.88
364.788	78.88
365.015	82.88
365.241	76.88
365.468	93.88
365.694	85.88
365.92	78.88
366.147	82.88
366.373	88.88
366.599	70.88
366.826	78.88
367.052	86.88
367.278	86.88
367.505	87.88
367.731	98.88
367.957	78.88
368.184	82.88
368.41	85.88
368.636	62.88
368.862	85.88
369.089	92.88
369.315	68.88
369.541	88.88
369.767	72.88
369.993	88.88
370.219	82.88
370.445	95.88
370.672	82.88
370.898	89.88
371.124	77.88
371.35	78.88
371.576	82.88
371.802	87.88
372.028	84.88
372.254	88.88
372.48	84.88
372.706	86.88
372.932	88.88
373.158	82.88
373.384	95.88
373.61	78.88
373.835	78.88
374.061	78.88
374.287	88.88
374.513	92.88
374.739	88.88
374.965	87.88
375.191	83.88
375.416	87.88
375.642	89.88
375.868	80.88
376.094	80.88
376.319	93.88
376.545	92.88
376.771	76.88
376.997	85.88
377.222	78.88
377.448	82.88
377.674	89.88
377.899	82.88
378.125	97.88
378.35	81.88
378.576	87.88
378.802	92.88
379.027	84.88
379.253	73.88
379.478	80.88
379.704	95.88
379.929	85.88
380.155	85.88
380.38	87.88
380.606	94.88
380.831	101.88
381.057	97.88
381.282	78.88
381.507	85.88
381.733	78.88
381.958	84.88
382.184	95.88
382.409	77.88
382.634	88.88
382.86	82.88
383.085	88.88
383.31	80.88
383.535	79.88
383.761	83.88
383.986	78.88
384.211	96.88
384.436	93.88
384.662	91.88
384.887	87.88
385.112	86.88
385.337	88.88
385.562	97.88
385.787	78.88
386.013	82.88
386.238	93.88
386.463	82.88
386.688	91.88
386.913	83.88
387.138	78.88
387.363	95.88
387.588	82.88
387.813	73.88
388.038	94.88
388.263	97.88
388.488	91.88
388.713	87.88
388.938	74.88
389.163	90.88
389.387	90.88
389.612	80.88
389.837	95.88
390.062	73.88
390.287	84.88
390.512	81.88
390.736	82.88
390.961	87.88
391.186	92.88
391.411	84.88
391.636	76.88
391.86	81.88
392.085	83.88
392.31	90.88
392.534	102.88
392.759	81.88
392.984	92.88
393.208	82.88
393.433	94.88
393.658	82.88
393.882	97.88
394.107	90.88
394.331	87.88
394.556	84.88
394.78	93.88
395.005	84.88
395.229	77.88
395.454	69.88
395.678	70.88
395.903	87.88
396.127	90.88
396.352	92.88
396.576	73.88
396.801	86.88
397.025	88.88
397.249	88.88
397.474	75.88
397.698	82.88
397.922	82.88
398.147	88.88
398.371	83.88
398.595	89.88
398.82	80.88
399.044	86.88
399.268	76.88
399.492	72.88
399.717	94.88
399.941	82.88
400.165	86.88
400.389	83.88
400.613	83.88
400.837	67.88
401.062	76.88
401.286	95.88
401.51	73.88
401.734	80.88
401.958	79.88
402.182	94.88
402.406	77.88
402.63	78.88
402.854	92.88
403.078	71.88
403.302	93.88
403.526	86.88
403.75	87.88
403.974	80.88
404.198	72.88
404.422	79.88
404.645	84.88
404.869	91.88
405.093	90.88
405.317	65.88
405.541	93.88
405.765	74.88
405.988	89.88
406.212	85.88
406.436	92.88
406.66	86.88
406.883	82.88
407.107	78.88
407.331	81.88
407.555	78.88
407.778	98.88
408.002	81.88
408.226	87.88
408.449	75.88
408.673	89.88
408.896	72.88
409.12	69.88
409.344	88.88
409.567	89.88
409.791	82.88
410.014	84.88
410.238	89.88
410.461	99.88
410.685	94.88
410.908	77.88
411.132	87.88
411.355	80.88
411.578	65.88
411.802	72.88
412.025	81.88
412.249	74.88
412.472	87.88
412.695	99.88
412.919	71.88
413.142	81.88
413.365	79.88
413.589	92.88
413.812	85.88
414.035	87.88
414.258	85.88
414.482	68.88
414.705	90.88
414.928	89.88
415.151	90.88
415.374	89.88
415.597	84.88
415.821	93.88
416.044	79.88
416.267	88.88
416.49	84.88
416.713	88.88
416.936	88.88
417.159	80.88
417.382	88.88
417.605	78.88
417.828	88.88
418.051	87.88
418.274	94.88
418.497	80.88
418.72	77.88
418.943	84.88
419.166	87.88
419.389	86.88
419.611	86.88
419.834	78.88
420.057	86.88
420.28	73.88
420.503	89.88
420.726	85.88
420.948	71.88
421.171	89.88
421.394	85.88
421.617	79.88
421.839	82.88
422.062	79.88
422.285	85.88
422.507	89.88
422.73	91.88
422.953	91.88
423.175	82.88
423.398	76.88
423.621	68.88
423.843	67.88
424.066	86.88
424.288	80.88
424.511	79.88
424.733	93.88
424.956	84.88
425.178	68.88
425.401	97.88
425.623	83.88
425.846	88.88
426.068	94.88
426.291	78.88
426.513	87.88
426.735	78.88
426.958	82.88
427.18	82.88
427.402	79.88
427.625	84.88
427.847	83.88
428.069	79.88
428.292	89.88
428.514	67.88
428.736	86.88
428.958	82.88
429.181	81.88
429.403	77.88
429.625	83.88
429.847	87.88
430.069	81.88
430.292	90.88
430.514	90.88
430.736	84.88
430.958	80.88
431.18	92.88
431.402	75.88
431.624	80.88
431.846	86.88
432.068	79.88
432.29	87.88
432.512	88.88
432.734	82.88
432.956	79.88
433.178	89.88
433.4	76.88
433.622	100.88
433.844	87.88
434.066	84.88
434.287	72.88
434.509	90.88
434.731	76.88
434.953	78.88
435.175	84.88
435.397	77.88
435.618	81.88
435.84	80.88
436.062	74.88
436.284	84.88
436.505	82.88
436.727	87.88
436.949	75.88
437.17	83.88
437.392	84.88
437.614	77.88
437.835	82.88
438.057	74.88
438.278	80.88
438.5	74.88
438.721	89.88
438.943	81.88
439.165	95.88
439.386	88.88
439.608	78.88
439.829	75.88
440.05	74.88
440.272	85.88
440.493	71.88
440.715	80.88
440.936	85.88
441.158	80.88
441.379	87.88
441.6	78.88
441.822	92.88
442.043	92.88
442.264	89.88
442.486	82.88
442.707	80.88
442.928	81.88
443.149	76.88
443.371	95.88
443.592	89.88
443.813	101.88
444.034	101.88
444.255	79.88
444.476	76.88
444.698	79.88
444.919	79.88
445.14	172.88
445.361	120.88
445.582	67.88
445.803	87.88
446.024	96.88
446.245	88.88
446.466	79.88
446.687	86.88
446.908	70.88
447.129	90.88
447.35	83.88
447.571	81.88
447.792	86.88
448.013	89.88
448.234	90.88
448.455	78.88
448.675	77.88
448.896	86.88
449.117	79.88
449.338	82.88
449.559	89.88
449.779	82.88
450	79.88
450.221	95.88
450.442	85.88
450.662	87.88
450.883	86.88
451.104	85.88
451.324	81.88
451.545	81.88
451.766	79.88
451.986	87.88
452.207	88.88
452.428	80.88
452.648	79.88
452.869	72.88
453.089	74.88
453.31	78.88
453.53	66.88
453.751	78.88
453.971	80.88
454.192	87.88
454.412	85.88
454.633	88.88
454.853	72.88
455.073	79.88
455.294	80.88
455.514	85.88
455.734	85.88
455.955	83.88
456.175	73.88
456.395	81.88
456.616	88.88
456.836	77.88
457.056	91.88
457.276	85.88
457.497	87.88
457.717	89.88
457.937	82.88
458.157	79.88
458.377	78.88
458.598	96.88
458.818	79.88
459.038	86.88
459.258	82.88
459.478	84.88
459.698	83.88
459.918	76.88
460.138	80.88
460.358	74.88
460.578	80.88
460.798	75.88
461.018	74.88
461.238	76.88
461.458	76.88
461.678	83.88
461.898	66.88
462.118	71.88
462.338	84.88
462.558	84.88
462.777	79.88
462.997	82.88
463.217	86.88
463.437	86.88
463.657	92.88
463.876	80.88
464.096	86.88
464.316	84.88
464.536	87.88
464.755	75.88
464.975	73.88
465.195	90.88
465.414	78.88
465.634	82.88
465.854	63.88
466.073	79.88
466.293	86.88
466.512	105.88
466.732	79.88
466.951	101.88
467.171	86.88
467.391	89.88
467.61	96.88
467.829	76.88
468.049	82.88
468.268	74.88
468.488	80.88
468.707	97.88
468.927	86.88
469.146	78.88
469.365	83.88
469.585	68.88
469.804	87.88
470.023	87.88
470.243	85.88
470.462	77.88
470.681	87.88
470.901	92.88
471.12	76.88
471.339	73.88
471.558	88.88
471.777	76.88
471.997	95.88
472.216	82.88
472.435	78.88
472.654	96.88
472.873	98.88
473.092	95.88
473.311	79.88
473.53	73.88
473.749	87.88
473.968	91.88
474.187	96.88
474.406	74.88
474.625	86.88
474.844	82.88
475.063	89.88
475.282	85.88
475.501	84.88
475.72	78.88
475.939	73.88
476.158	84.88
476.377	84.88
476.596	84.88
476.814	93.88
477.033	71.88
477.252	70.88
477.471	77.88
477.69	82.88
477.908	86.88
478.127	82.88
478.346	80.88
478.564	96.88
478.783	93.88
479.002	89.88
479.22	80.88
479.439	74.88
479.658	88.88
479.876	70.88
480.095	89.88
480.313	91.88
480.532	88.88
480.751	74.88
480.969	81.88
481.188	89.88
481.406	82.88
481.624	73.88
481.843	76.88
482.061	76.88
482.28	81.88
482.498	90.88
482.717	66.88
482.935	72.88
483.153	73.88
483.372	94.88
483.59	77.88
483.808	84.88
484.027	87.88
484.245	72.88
484.463	90.88
484.681	103.88
484.9	88.88
485.118	89.88
485.336	94.88
485.554	76.88
485.772	91.88
485.99	76.88
486.209	89.88
486.427	70.88
486.645	97.88
486.863	76.88
487.081	80.88
487.299	84.88
487.517	94.88
487.735	73.88
487.953	96.88
488.171	90.88
488.389	78.88
488.607	67.88
488.825	96.88
489.043	85.88
489.261	88.88
489.479	89.88
489.696	72.88
489.914	73.88
490.132	90.88
490.35	86.88
490.568	82.88
490.786	87.88
491.003	84.88
491.221	75.88
491.439	96.88
491.657	89.88
491.874	72.88
492.092	74.88
492.31	92.88
492.527	83.88
492.745	77.88
492.963	89.88
493.18	89.88
493.398	85.88
493.615	86.88
493.833	80.88
494.05	75.88
494.268	88.88
494.485	72.88
494.703	92.88
494.92	76.88
495.138	71.88
495.355	85.88
495.573	78.88
495.79	84.88
496.008	108.88
496.225	77.88
496.442	80.88
496.66	85.88
496.877	83.88
497.094	80.88
497.312	68.88
497.529	92.88
497.746	73.88
497.963	84.88
498.181	86.88
498.398	68.88
498.615	89.88
498.832	70.88
499.049	90.88
499.267	93.88
499.484	91.88
499.701	68.88
499.918	78.88
500.135	92.88
500.352	91.88
500.569	86.88
500.786	97.88
501.003	88.88
501.22	80.88
501.437	82.88
501.654	67.88
501.871	80.88
502.088	75.88
502.305	85.88
502.522	80.88
502.739	85.88
502.956	83.88
503.172	90.88
503.389	80.88
503.606	80.88
503.823	87.88
504.04	77.88
504.256	82.88
504.473	85.88
504.69	80.88
504.907	88.88
505.123	90.88
505.34	69.88
505.557	90.88
505.773	80.88
505.99	88.88
506.207	81.88
506.423	84.88
506.64	82.88
506.856	90.88
507.073	83.88
507.289	76.88
507.506	69.88
507.722	88.88
507.939	85.88
508.155	81.88
508.372	76.88
508.588	98.88
508.805	90.88
509.021	85.88
509.238	74.88
509.454	84.88
509.67	82.88
509.887	75.88
510.103	78.88
510.319	81.88
510.536	76.88
510.752	84.88
510.968	88.88
511.184	73.88
511.401	76.88
511.617	79.88
511.833	73.88
512.049	70.88
512.265	86.88
512.481	87.88
512.698	82.88
512.914	83.88
513.13	89.88
513.346	90.88
513.562	75.88
513.778	72.88
513.994	73.88
514.21	74.88
514.426	89.88
514.642	92.88
514.858	95.88
515.074	91.88
515.29	85.88
515.506	93.88
515.721	84.88
515.937	80.88
516.153	72.88
516.369	74.88
516.585	92.88
516.801	85.88
517.016	100.88
517.232	94.88
517.448	80.88
517.664	73.88
517.879	72.88
518.095	87.88
518.311	84.88
518.527	76.88
518.742	85.88
518.958	86.88
519.173	70.88
519.389	89.88
519.605	80.88
519.82	97.88
