Data from 1600_1_HRD10591_00003.txt Node
Date: Mon Jan 19 13:47:42 EST 2026
User: Yrep
Spectrometer: HR+D1059
Trigger mode: 1
Integration Time (sec): 1.000000E-1
Scans to average: 1
Electric dark correction enabled: true
Nonlinearity correction enabled: false
Boxcar width: 0
XAxis mode: Wavelengths
Number of Pixels in Spectrum: 2048
>>>>>Begin Spectral Data<<<<<
223.165	-14.06
223.4	-14.06
223.635	-14.06
223.869	-21.06
224.104	-16.06
224.338	-17.06
224.573	-17.06
224.808	-4.06
225.042	1.94
225.277	-3.06
225.511	-9.06
225.746	-2.06
225.98	10.94
226.215	10.94
226.449	21.94
226.683	27.94
226.918	9.94
227.152	19.94
227.387	32.94
227.621	32.94
227.856	46.94
228.09	42.94
228.324	43.94
228.559	62.94
228.793	67.94
229.027	58.94
229.262	76.94
229.496	62.94
229.73	74.94
229.964	66.94
230.199	60.94
230.433	53.94
230.667	72.94
230.901	80.94
231.136	66.94
231.37	77.94
231.604	78.94
231.838	77.94
232.072	79.94
232.306	81.94
232.541	84.94
232.775	73.94
233.009	76.94
233.243	84.94
233.477	92.94
233.711	102.94
233.945	83.94
234.179	91.94
234.413	74.94
234.647	79.94
234.881	74.94
235.115	83.94
235.349	82.94
235.583	76.94
235.817	86.94
236.051	66.94
236.285	86.94
236.519	90.94
236.753	88.94
236.987	77.94
237.221	72.94
237.455	72.94
237.689	69.94
237.922	85.94
238.156	60.94
238.39	66.94
238.624	69.94
238.858	70.94
239.091	80.94
239.325	67.94
239.559	69.94
239.793	62.94
240.027	84.94
240.26	79.94
240.494	72.94
240.728	89.94
240.961	74.94
241.195	77.94
241.429	82.94
241.662	75.94
241.896	70.94
242.13	82.94
242.363	71.94
242.597	83.94
242.83	85.94
243.064	85.94
243.298	78.94
243.531	87.94
243.765	80.94
243.998	75.94
244.232	97.94
244.465	76.94
244.699	92.94
244.932	88.94
245.166	73.94
245.399	83.94
245.633	69.94
245.866	76.94
246.099	92.94
246.333	90.94
246.566	70.94
246.8	80.94
247.033	81.94
247.266	70.94
247.5	79.94
247.733	67.94
247.966	70.94
248.2	72.94
248.433	84.94
248.666	84.94
248.899	77.94
249.133	90.94
249.366	66.94
249.599	78.94
249.832	76.94
250.066	90.94
250.299	91.94
250.532	78.94
250.765	70.94
250.998	81.94
251.231	83.94
251.465	79.94
251.698	95.94
251.931	83.94
252.164	86.94
252.397	72.94
252.63	77.94
252.863	66.94
253.096	85.94
253.329	72.94
253.562	69.94
253.795	80.94
254.028	89.94
254.261	85.94
254.494	79.94
254.727	80.94
254.96	70.94
255.193	65.94
255.426	75.94
255.659	72.94
255.892	82.94
256.124	79.94
256.357	80.94
256.59	78.94
256.823	78.94
257.056	88.94
257.289	90.94
257.521	79.94
257.754	82.94
257.987	86.94
258.22	78.94
258.452	80.94
258.685	71.94
258.918	93.94
259.151	50.94
259.383	77.94
259.616	71.94
259.849	84.94
260.081	80.94
260.314	74.94
260.547	60.94
260.779	73.94
261.012	68.94
261.244	82.94
261.477	98.94
261.71	70.94
261.942	87.94
262.175	80.94
262.407	93.94
262.64	76.94
262.872	80.94
263.105	77.94
263.337	78.94
263.57	81.94
263.802	80.94
264.035	94.94
264.267	72.94
264.499	86.94
264.732	88.94
264.964	95.94
265.197	92.94
265.429	84.94
265.661	80.94
265.894	85.94
266.126	86.94
266.358	83.94
266.591	79.94
266.823	84.94
267.055	79.94
267.287	90.94
267.52	80.94
267.752	80.94
267.984	98.94
268.216	96.94
268.448	93.94
268.681	72.94
268.913	79.94
269.145	93.94
269.377	97.94
269.609	70.94
269.841	74.94
270.073	73.94
270.306	73.94
270.538	74.94
270.77	66.94
271.002	83.94
271.234	75.94
271.466	101.94
271.698	82.94
271.93	83.94
272.162	90.94
272.394	88.94
272.626	83.94
272.858	67.94
273.09	68.94
273.322	90.94
273.553	87.94
273.785	77.94
274.017	90.94
274.249	87.94
274.481	81.94
274.713	79.94
274.945	95.94
275.176	79.94
275.408	71.94
275.64	86.94
275.872	88.94
276.104	77.94
276.335	79.94
276.567	78.94
276.799	89.94
277.031	94.94
277.262	91.94
277.494	92.94
277.726	79.94
277.957	86.94
278.189	78.94
278.421	75.94
278.652	77.94
278.884	92.94
279.115	90.94
279.347	77.94
279.579	94.94
279.81	72.94
280.042	86.94
280.273	85.94
280.505	86.94
280.736	93.94
280.968	76.94
281.199	70.94
281.431	88.94
281.662	62.94
281.894	78.94
282.125	95.94
282.356	78.94
282.588	76.94
282.819	80.94
283.051	83.94
283.282	85.94
283.513	84.94
283.745	83.94
283.976	76.94
284.207	71.94
284.439	78.94
284.67	82.94
284.901	85.94
285.132	106.94
285.364	75.94
285.595	70.94
285.826	74.94
286.057	79.94
286.288	92.94
286.52	83.94
286.751	70.94
286.982	90.94
287.213	85.94
287.444	74.94
287.675	69.94
287.906	76.94
288.138	80.94
288.369	85.94
288.6	90.94
288.831	90.94
289.062	72.94
289.293	90.94
289.524	69.94
289.755	90.94
289.986	72.94
290.217	98.94
290.448	85.94
290.679	96.94
290.91	70.94
291.141	82.94
291.371	70.94
291.602	87.94
291.833	88.94
292.064	100.94
292.295	80.94
292.526	82.94
292.757	82.94
292.987	82.94
293.218	73.94
293.449	83.94
293.68	85.94
293.91	96.94
294.141	90.94
294.372	88.94
294.603	81.94
294.833	85.94
295.064	77.94
295.295	83.94
295.525	80.94
295.756	78.94
295.987	88.94
296.217	87.94
296.448	83.94
296.679	87.94
296.909	87.94
297.14	78.94
297.37	86.94
297.601	91.94
297.831	85.94
298.062	79.94
298.292	93.94
298.523	86.94
298.753	86.94
298.984	82.94
299.214	81.94
299.445	103.94
299.675	100.94
299.905	79.94
300.136	90.94
300.366	84.94
300.597	72.94
300.827	82.94
301.057	95.94
301.288	90.94
301.518	84.94
301.748	83.94
301.979	81.94
302.209	96.94
302.439	72.94
302.669	84.94
302.9	87.94
303.13	82.94
303.36	82.94
303.59	83.94
303.82	96.94
304.051	71.94
304.281	88.94
304.511	81.94
304.741	86.94
304.971	74.94
305.201	92.94
305.431	85.94
305.661	76.94
305.891	70.94
306.121	80.94
306.352	74.94
306.582	87.94
306.812	80.94
307.042	93.94
307.272	84.94
307.502	84.94
307.731	67.94
307.961	85.94
308.191	68.94
308.421	92.94
308.651	86.94
308.881	90.94
309.111	79.94
309.341	106.94
309.571	82.94
309.8	68.94
310.03	73.94
310.26	58.94
310.49	74.94
310.72	87.94
310.949	74.94
311.179	87.94
311.409	78.94
311.639	71.94
311.868	76.94
312.098	87.94
312.328	73.94
312.557	70.94
312.787	88.94
313.017	81.94
313.246	95.94
313.476	94.94
313.706	95.94
313.935	87.94
314.165	84.94
314.394	87.94
314.624	79.94
314.853	97.94
315.083	63.94
315.312	77.94
315.542	82.94
315.771	92.94
316.001	90.94
316.23	112.94
316.46	82.94
316.689	86.94
316.919	89.94
317.148	70.94
317.377	96.94
317.607	85.94
317.836	90.94
318.065	90.94
318.295	86.94
318.524	87.94
318.753	90.94
318.983	82.94
319.212	96.94
319.441	96.94
319.67	101.94
319.9	90.94
320.129	87.94
320.358	86.94
320.587	72.94
320.816	95.94
321.046	85.94
321.275	76.94
321.504	82.94
321.733	80.94
321.962	85.94
322.191	82.94
322.42	88.94
322.649	68.94
322.878	89.94
323.108	82.94
323.337	82.94
323.566	79.94
323.795	73.94
324.024	76.94
324.253	87.94
324.482	80.94
324.71	77.94
324.939	86.94
325.168	80.94
325.397	94.94
325.626	83.94
325.855	78.94
326.084	84.94
326.313	92.94
326.542	85.94
326.77	87.94
326.999	82.94
327.228	83.94
327.457	77.94
327.686	86.94
327.914	83.94
328.143	91.94
328.372	94.94
328.6	87.94
328.829	86.94
329.058	79.94
329.287	82.94
329.515	83.94
329.744	87.94
329.972	84.94
330.201	88.94
330.43	87.94
330.658	82.94
330.887	82.94
331.115	81.94
331.344	90.94
331.572	86.94
331.801	84.94
332.03	73.94
332.258	84.94
332.486	77.94
332.715	95.94
332.943	85.94
333.172	82.94
333.4	75.94
333.629	89.94
333.857	100.94
334.085	94.94
334.314	78.94
334.542	83.94
334.771	73.94
334.999	91.94
335.227	85.94
335.455	94.94
335.684	96.94
335.912	85.94
336.14	93.94
336.369	85.94
336.597	92.94
336.825	80.94
337.053	81.94
337.281	84.94
337.51	87.94
337.738	77.94
337.966	80.94
338.194	68.94
338.422	77.94
338.65	80.94
338.878	84.94
339.106	81.94
339.334	95.94
339.562	85.94
339.79	83.94
340.018	74.94
340.246	70.94
340.474	83.94
340.702	92.94
340.93	92.94
341.158	64.94
341.386	80.94
341.614	78.94
341.842	79.94
342.07	78.94
342.298	72.94
342.526	98.94
342.754	89.94
342.981	73.94
343.209	74.94
343.437	87.94
343.665	71.94
343.893	77.94
344.12	94.94
344.348	97.94
344.576	88.94
344.804	82.94
345.031	91.94
345.259	73.94
345.487	75.94
345.714	83.94
345.942	96.94
346.17	94.94
346.397	90.94
346.625	79.94
346.853	95.94
347.08	83.94
347.308	82.94
347.535	93.94
347.763	80.94
347.99	87.94
348.218	90.94
348.445	85.94
348.673	90.94
348.9	76.94
349.128	93.94
349.355	77.94
349.583	80.94
349.81	74.94
350.037	93.94
350.265	73.94
350.492	82.94
350.72	86.94
350.947	90.94
351.174	79.94
351.402	87.94
351.629	79.94
351.856	79.94
352.083	71.94
352.311	78.94
352.538	78.94
352.765	76.94
352.992	85.94
353.22	88.94
353.447	84.94
353.674	94.94
353.901	70.94
354.128	93.94
354.355	83.94
354.583	75.94
354.81	86.94
355.037	84.94
355.264	69.94
355.491	82.94
355.718	70.94
355.945	78.94
356.172	79.94
356.399	82.94
356.626	91.94
356.853	95.94
357.08	81.94
357.307	64.94
357.534	90.94
357.761	87.94
357.988	68.94
358.215	92.94
358.441	86.94
358.668	82.94
358.895	83.94
359.122	78.94
359.349	69.94
359.576	98.94
359.802	83.94
360.029	77.94
360.256	94.94
360.483	88.94
360.709	95.94
360.936	82.94
361.163	86.94
361.39	81.94
361.616	70.94
361.843	70.94
362.07	81.94
362.296	79.94
362.523	82.94
362.749	72.94
362.976	89.94
363.203	80.94
363.429	80.94
363.656	88.94
363.882	75.94
364.109	86.94
364.335	110.94
364.562	86.94
364.788	90.94
365.015	88.94
365.241	82.94
365.468	93.94
365.694	87.94
365.92	88.94
366.147	59.94
366.373	83.94
366.599	77.94
366.826	92.94
367.052	91.94
367.278	81.94
367.505	97.94
367.731	84.94
367.957	90.94
368.184	98.94
368.41	85.94
368.636	64.94
368.862	80.94
369.089	101.94
369.315	77.94
369.541	91.94
369.767	87.94
369.993	81.94
370.219	84.94
370.445	85.94
370.672	82.94
370.898	86.94
371.124	78.94
371.35	81.94
371.576	71.94
371.802	88.94
372.028	90.94
372.254	80.94
372.48	78.94
372.706	82.94
372.932	88.94
373.158	103.94
373.384	87.94
373.61	79.94
373.835	81.94
374.061	87.94
374.287	73.94
374.513	82.94
374.739	83.94
374.965	82.94
375.191	82.94
375.416	92.94
375.642	86.94
375.868	88.94
376.094	81.94
376.319	91.94
376.545	93.94
376.771	87.94
376.997	82.94
377.222	100.94
377.448	86.94
377.674	97.94
377.899	88.94
378.125	80.94
378.35	62.94
378.576	74.94
378.802	86.94
379.027	79.94
379.253	74.94
379.478	100.94
379.704	93.94
379.929	78.94
380.155	76.94
380.38	91.94
380.606	81.94
380.831	93.94
381.057	87.94
381.282	83.94
381.507	81.94
381.733	93.94
381.958	78.94
382.184	90.94
382.409	77.94
382.634	79.94
382.86	88.94
383.085	78.94
383.31	84.94
383.535	76.94
383.761	78.94
383.986	86.94
384.211	78.94
384.436	84.94
384.662	71.94
384.887	85.94
385.112	75.94
385.337	86.94
385.562	87.94
385.787	90.94
386.013	86.94
386.238	91.94
386.463	95.94
386.688	109.94
386.913	78.94
387.138	63.94
387.363	78.94
387.588	87.94
387.813	91.94
388.038	83.94
388.263	85.94
388.488	83.94
388.713	84.94
388.938	84.94
389.163	88.94
389.387	78.94
389.612	86.94
389.837	90.94
390.062	78.94
390.287	85.94
390.512	87.94
390.736	70.94
390.961	71.94
391.186	80.94
391.411	97.94
391.636	90.94
391.86	95.94
392.085	96.94
392.31	89.94
392.534	94.94
392.759	90.94
392.984	83.94
393.208	110.94
393.433	88.94
393.658	82.94
393.882	88.94
394.107	91.94
394.331	77.94
394.556	86.94
394.78	87.94
395.005	80.94
395.229	76.94
395.454	71.94
395.678	91.94
395.903	85.94
396.127	101.94
396.352	78.94
396.576	78.94
396.801	89.94
397.025	84.94
397.249	86.94
397.474	86.94
397.698	92.94
397.922	98.94
398.147	88.94
398.371	85.94
398.595	70.94
398.82	89.94
399.044	87.94
399.268	75.94
399.492	70.94
399.717	65.94
399.941	84.94
400.165	85.94
400.389	73.94
400.613	72.94
400.837	80.94
401.062	66.94
401.286	79.94
401.51	77.94
401.734	80.94
401.958	84.94
402.182	77.94
402.406	81.94
402.63	97.94
402.854	81.94
403.078	85.94
403.302	85.94
403.526	78.94
403.75	83.94
403.974	96.94
404.198	68.94
404.422	78.94
404.645	65.94
404.869	72.94
405.093	81.94
405.317	70.94
405.541	77.94
405.765	86.94
405.988	87.94
406.212	77.94
406.436	68.94
406.66	76.94
406.883	84.94
407.107	66.94
407.331	69.94
407.555	82.94
407.778	83.94
408.002	71.94
408.226	84.94
408.449	67.94
408.673	60.94
408.896	79.94
409.12	90.94
409.344	88.94
409.567	86.94
409.791	84.94
410.014	88.94
410.238	80.94
410.461	66.94
410.685	69.94
410.908	72.94
411.132	76.94
411.355	82.94
411.578	84.94
411.802	83.94
412.025	81.94
412.249	72.94
412.472	94.94
412.695	83.94
412.919	82.94
413.142	67.94
413.365	76.94
413.589	80.94
413.812	91.94
414.035	90.94
414.258	94.94
414.482	71.94
414.705	85.94
414.928	98.94
415.151	85.94
415.374	82.94
415.597	84.94
415.821	78.94
416.044	80.94
416.267	82.94
416.49	90.94
416.713	91.94
416.936	71.94
417.159	66.94
417.382	84.94
417.605	77.94
417.828	86.94
418.051	81.94
418.274	89.94
418.497	69.94
418.72	79.94
418.943	78.94
419.166	71.94
419.389	71.94
419.611	86.94
419.834	96.94
420.057	101.94
420.28	98.94
420.503	78.94
420.726	78.94
420.948	72.94
421.171	64.94
421.394	77.94
421.617	100.94
421.839	80.94
422.062	88.94
422.285	98.94
422.507	101.94
422.73	116.94
422.953	124.94
423.175	98.94
423.398	78.94
423.621	77.94
423.843	95.94
424.066	97.94
424.288	76.94
424.511	86.94
424.733	87.94
424.956	90.94
425.178	79.94
425.401	77.94
425.623	60.94
425.846	72.94
426.068	86.94
426.291	84.94
426.513	78.94
426.735	78.94
426.958	83.94
427.18	82.94
427.402	86.94
427.625	77.94
427.847	60.94
428.069	83.94
428.292	95.94
428.514	88.94
428.736	82.94
428.958	86.94
429.181	81.94
429.403	83.94
429.625	69.94
429.847	82.94
430.069	83.94
430.292	81.94
430.514	98.94
430.736	73.94
430.958	90.94
431.18	75.94
431.402	81.94
431.624	90.94
431.846	67.94
432.068	96.94
432.29	87.94
432.512	79.94
432.734	89.94
432.956	70.94
433.178	84.94
433.4	67.94
433.622	80.94
433.844	83.94
434.066	80.94
434.287	81.94
434.509	90.94
434.731	94.94
434.953	94.94
435.175	80.94
435.397	77.94
435.618	79.94
435.84	89.94
436.062	86.94
436.284	91.94
436.505	91.94
436.727	98.94
436.949	77.94
437.17	72.94
437.392	80.94
437.614	94.94
437.835	84.94
438.057	76.94
438.278	85.94
438.5	73.94
438.721	88.94
438.943	78.94
439.165	74.94
439.386	82.94
439.608	84.94
439.829	69.94
440.05	90.94
440.272	84.94
440.493	78.94
440.715	89.94
440.936	80.94
441.158	79.94
441.379	81.94
441.6	89.94
441.822	96.94
442.043	87.94
442.264	71.94
442.486	87.94
442.707	85.94
442.928	90.94
443.149	76.94
443.371	87.94
443.592	104.94
443.813	93.94
444.034	95.94
444.255	87.94
444.476	87.94
444.698	68.94
444.919	72.94
445.14	154.94
445.361	132.94
445.582	92.94
445.803	87.94
446.024	80.94
446.245	92.94
446.466	77.94
446.687	74.94
446.908	81.94
447.129	82.94
447.35	75.94
447.571	88.94
447.792	81.94
448.013	80.94
448.234	79.94
448.455	76.94
448.675	71.94
448.896	82.94
449.117	97.94
449.338	95.94
449.559	85.94
449.779	95.94
450	83.94
450.221	77.94
450.442	78.94
450.662	93.94
450.883	81.94
451.104	83.94
451.324	84.94
451.545	68.94
451.766	82.94
451.986	78.94
452.207	87.94
452.428	79.94
452.648	72.94
452.869	71.94
453.089	90.94
453.31	76.94
453.53	93.94
453.751	85.94
453.971	97.94
454.192	71.94
454.412	78.94
454.633	81.94
454.853	90.94
455.073	86.94
455.294	94.94
455.514	65.94
455.734	77.94
455.955	89.94
456.175	78.94
456.395	65.94
456.616	84.94
456.836	75.94
457.056	82.94
457.276	85.94
457.497	73.94
457.717	95.94
457.937	90.94
458.157	82.94
458.377	89.94
458.598	80.94
458.818	88.94
459.038	79.94
459.258	81.94
459.478	87.94
459.698	93.94
459.918	79.94
460.138	84.94
460.358	92.94
460.578	74.94
460.798	72.94
461.018	74.94
461.238	79.94
461.458	74.94
461.678	80.94
461.898	77.94
462.118	83.94
462.338	85.94
462.558	86.94
462.777	83.94
462.997	83.94
463.217	77.94
463.437	62.94
463.657	82.94
463.876	81.94
464.096	81.94
464.316	75.94
464.536	90.94
464.755	84.94
464.975	81.94
465.195	84.94
465.414	79.94
465.634	100.94
465.854	82.94
466.073	76.94
466.293	79.94
466.512	96.94
466.732	71.94
466.951	80.94
467.171	78.94
467.391	79.94
467.61	99.94
467.829	61.94
468.049	69.94
468.268	79.94
468.488	91.94
468.707	86.94
468.927	81.94
469.146	69.94
469.365	89.94
469.585	82.94
469.804	71.94
470.023	64.94
470.243	81.94
470.462	70.94
470.681	95.94
470.901	93.94
471.12	79.94
471.339	60.94
471.558	73.94
471.777	67.94
471.997	95.94
472.216	87.94
472.435	108.94
472.654	90.94
472.873	95.94
473.092	82.94
473.311	80.94
473.53	84.94
473.749	85.94
473.968	80.94
474.187	75.94
474.406	72.94
474.625	78.94
474.844	78.94
475.063	77.94
475.282	67.94
475.501	80.94
475.72	86.94
475.939	86.94
476.158	83.94
476.377	67.94
476.596	66.94
476.814	79.94
477.033	82.94
477.252	69.94
477.471	80.94
477.69	86.94
477.908	96.94
478.127	76.94
478.346	106.94
478.564	94.94
478.783	90.94
479.002	69.94
479.22	74.94
479.439	78.94
479.658	85.94
479.876	84.94
480.095	74.94
480.313	76.94
480.532	73.94
480.751	68.94
480.969	78.94
481.188	76.94
481.406	83.94
481.624	86.94
481.843	82.94
482.061	78.94
482.28	89.94
482.498	81.94
482.717	78.94
482.935	88.94
483.153	81.94
483.372	92.94
483.59	80.94
483.808	83.94
484.027	82.94
484.245	88.94
484.463	92.94
484.681	89.94
484.9	55.94
485.118	84.94
485.336	67.94
485.554	79.94
485.772	82.94
485.99	85.94
486.209	72.94
486.427	88.94
486.645	82.94
486.863	86.94
487.081	80.94
487.299	88.94
487.517	89.94
487.735	79.94
487.953	71.94
488.171	81.94
488.389	74.94
488.607	90.94
488.825	85.94
489.043	86.94
489.261	89.94
489.479	64.94
489.696	86.94
489.914	80.94
490.132	93.94
490.35	91.94
490.568	83.94
490.786	58.94
491.003	79.94
491.221	88.94
491.439	83.94
491.657	79.94
491.874	79.94
492.092	87.94
492.31	96.94
492.527	71.94
492.745	70.94
492.963	78.94
493.18	94.94
493.398	82.94
493.615	87.94
493.833	83.94
494.05	74.94
494.268	85.94
494.485	82.94
494.703	91.94
494.92	86.94
495.138	78.94
495.355	73.94
495.573	84.94
495.79	92.94
496.008	91.94
496.225	81.94
496.442	77.94
496.66	90.94
496.877	73.94
497.094	76.94
497.312	71.94
497.529	85.94
497.746	82.94
497.963	84.94
498.181	82.94
498.398	94.94
498.615	82.94
498.832	87.94
499.049	84.94
499.267	88.94
499.484	83.94
499.701	87.94
499.918	72.94
500.135	106.94
500.352	89.94
500.569	72.94
500.786	73.94
501.003	82.94
501.22	65.94
501.437	78.94
501.654	85.94
501.871	66.94
502.088	78.94
502.305	97.94
502.522	78.94
502.739	94.94
502.956	89.94
503.172	79.94
503.389	78.94
503.606	103.94
503.823	78.94
504.04	77.94
504.256	84.94
504.473	77.94
504.69	84.94
504.907	94.94
505.123	78.94
505.34	79.94
505.557	93.94
505.773	87.94
505.99	78.94
506.207	66.94
506.423	86.94
506.64	72.94
506.856	79.94
507.073	71.94
507.289	79.94
507.506	73.94
507.722	66.94
507.939	80.94
508.155	82.94
508.372	80.94
508.588	90.94
508.805	68.94
509.021	75.94
509.238	88.94
509.454	74.94
509.67	88.94
509.887	87.94
510.103	91.94
510.319	87.94
510.536	71.94
510.752	79.94
510.968	68.94
511.184	82.94
511.401	75.94
511.617	83.94
511.833	83.94
512.049	83.94
512.265	77.94
512.481	95.94
512.698	72.94
512.914	78.94
513.13	81.94
513.346	78.94
513.562	64.94
513.778	80.94
513.994	80.94
514.21	86.94
514.426	63.94
514.642	85.94
514.858	88.94
515.074	69.94
515.29	86.94
515.506	92.94
515.721	87.94
515.937	86.94
516.153	91.94
516.369	85.94
516.585	77.94
516.801	73.94
517.016	87.94
517.232	70.94
517.448	94.94
517.664	77.94
517.879	81.94
518.095	87.94
518.311	79.94
518.527	77.94
518.742	79.94
518.958	97.94
519.173	90.94
519.389	77.94
519.605	75.94
519.82	66.94
