Data from 1600_1_HRD10591_00042.txt Node
Date: Mon Jan 19 13:48:02 EST 2026
User: Yrep
Spectrometer: HR+D1059
Trigger mode: 1
Integration Time (sec): 1.000000E-1
Scans to average: 1
Electric dark correction enabled: true
Nonlinearity correction enabled: false
Boxcar width: 0
XAxis mode: Wavelengths
Number of Pixels in Spectrum: 2048
>>>>>Begin Spectral Data<<<<<
223.165	-23.94
223.4	-23.94
223.635	-23.94
223.869	-23.94
224.104	-13.94
224.338	-9.94
224.573	-17.94
224.808	-12.94
225.042	-6.94
225.277	-4.94
225.511	-3.94
225.746	9.06
225.98	7.06
226.215	6.06
226.449	12.06
226.683	24.06
226.918	30.06
227.152	30.06
227.387	37.06
227.621	37.06
227.856	48.06
228.09	56.06
228.324	52.06
228.559	61.06
228.793	66.06
229.027	61.06
229.262	67.06
229.496	65.06
229.73	66.06
229.964	80.06
230.199	73.06
230.433	76.06
230.667	71.06
230.901	81.06
231.136	77.06
231.37	77.06
231.604	82.06
231.838	70.06
232.072	81.06
232.306	87.06
232.541	84.06
232.775	87.06
233.009	80.06
233.243	85.06
233.477	89.06
233.711	77.06
233.945	96.06
234.179	79.06
234.413	85.06
234.647	87.06
234.881	76.06
235.115	88.06
235.349	83.06
235.583	94.06
235.817	78.06
236.051	71.06
236.285	77.06
236.519	81.06
236.753	84.06
236.987	72.06
237.221	78.06
237.455	83.06
237.689	74.06
237.922	79.06
238.156	83.06
238.39	79.06
238.624	74.06
238.858	71.06
239.091	77.06
239.325	80.06
239.559	89.06
239.793	81.06
240.027	77.06
240.26	83.06
240.494	67.06
240.728	75.06
240.961	89.06
241.195	85.06
241.429	77.06
241.662	79.06
241.896	79.06
242.13	59.06
242.363	70.06
242.597	81.06
242.83	79.06
243.064	73.06
243.298	84.06
243.531	83.06
243.765	82.06
243.998	87.06
244.232	88.06
244.465	80.06
244.699	68.06
244.932	79.06
245.166	85.06
245.399	73.06
245.633	81.06
245.866	84.06
246.099	84.06
246.333	72.06
246.566	66.06
246.8	83.06
247.033	82.06
247.266	78.06
247.5	63.06
247.733	80.06
247.966	67.06
248.2	86.06
248.433	73.06
248.666	76.06
248.899	81.06
249.133	82.06
249.366	69.06
249.599	91.06
249.832	87.06
250.066	79.06
250.299	82.06
250.532	79.06
250.765	71.06
250.998	72.06
251.231	68.06
251.465	90.06
251.698	91.06
251.931	78.06
252.164	72.06
252.397	73.06
252.63	72.06
252.863	73.06
253.096	83.06
253.329	77.06
253.562	83.06
253.795	83.06
254.028	73.06
254.261	80.06
254.494	79.06
254.727	91.06
254.96	86.06
255.193	93.06
255.426	81.06
255.659	73.06
255.892	80.06
256.124	77.06
256.357	71.06
256.59	85.06
256.823	72.06
257.056	81.06
257.289	70.06
257.521	93.06
257.754	74.06
257.987	87.06
258.22	85.06
258.452	77.06
258.685	92.06
258.918	78.06
259.151	93.06
259.383	69.06
259.616	81.06
259.849	97.06
260.081	87.06
260.314	93.06
260.547	96.06
260.779	77.06
261.012	79.06
261.244	66.06
261.477	71.06
261.71	90.06
261.942	79.06
262.175	80.06
262.407	84.06
262.64	81.06
262.872	76.06
263.105	81.06
263.337	89.06
263.57	94.06
263.802	77.06
264.035	84.06
264.267	97.06
264.499	78.06
264.732	88.06
264.964	80.06
265.197	83.06
265.429	86.06
265.661	85.06
265.894	65.06
266.126	71.06
266.358	66.06
266.591	98.06
266.823	84.06
267.055	94.06
267.287	78.06
267.52	74.06
267.752	84.06
267.984	79.06
268.216	83.06
268.448	78.06
268.681	84.06
268.913	75.06
269.145	91.06
269.377	82.06
269.609	67.06
269.841	91.06
270.073	84.06
270.306	81.06
270.538	78.06
270.77	95.06
271.002	83.06
271.234	91.06
271.466	92.06
271.698	84.06
271.93	73.06
272.162	71.06
272.394	83.06
272.626	88.06
272.858	77.06
273.09	87.06
273.322	82.06
273.553	84.06
273.785	95.06
274.017	90.06
274.249	78.06
274.481	78.06
274.713	75.06
274.945	85.06
275.176	84.06
275.408	87.06
275.64	89.06
275.872	62.06
276.104	85.06
276.335	81.06
276.567	76.06
276.799	82.06
277.031	72.06
277.262	84.06
277.494	85.06
277.726	79.06
277.957	79.06
278.189	92.06
278.421	64.06
278.652	79.06
278.884	77.06
279.115	84.06
279.347	83.06
279.579	88.06
279.81	86.06
280.042	81.06
280.273	96.06
280.505	79.06
280.736	83.06
280.968	94.06
281.199	77.06
281.431	80.06
281.662	94.06
281.894	72.06
282.125	97.06
282.356	76.06
282.588	75.06
282.819	83.06
283.051	95.06
283.282	68.06
283.513	91.06
283.745	86.06
283.976	75.06
284.207	70.06
284.439	78.06
284.67	85.06
284.901	87.06
285.132	89.06
285.364	81.06
285.595	96.06
285.826	85.06
286.057	76.06
286.288	89.06
286.52	94.06
286.751	85.06
286.982	101.06
287.213	81.06
287.444	86.06
287.675	77.06
287.906	99.06
288.138	89.06
288.369	83.06
288.6	72.06
288.831	74.06
289.062	87.06
289.293	83.06
289.524	86.06
289.755	72.06
289.986	89.06
290.217	73.06
290.448	80.06
290.679	81.06
290.91	77.06
291.141	82.06
291.371	69.06
291.602	82.06
291.833	78.06
292.064	101.06
292.295	76.06
292.526	89.06
292.757	77.06
292.987	84.06
293.218	80.06
293.449	70.06
293.68	89.06
293.91	93.06
294.141	70.06
294.372	91.06
294.603	91.06
294.833	84.06
295.064	81.06
295.295	83.06
295.525	83.06
295.756	83.06
295.987	87.06
296.217	82.06
296.448	88.06
296.679	97.06
296.909	89.06
297.14	87.06
297.37	70.06
297.601	88.06
297.831	80.06
298.062	81.06
298.292	85.06
298.523	93.06
298.753	74.06
298.984	77.06
299.214	78.06
299.445	89.06
299.675	90.06
299.905	89.06
300.136	87.06
300.366	82.06
300.597	83.06
300.827	70.06
301.057	93.06
301.288	87.06
301.518	86.06
301.748	106.06
301.979	76.06
302.209	92.06
302.439	94.06
302.669	93.06
302.9	89.06
303.13	89.06
303.36	88.06
303.59	92.06
303.82	80.06
304.051	92.06
304.281	77.06
304.511	75.06
304.741	80.06
304.971	84.06
305.201	83.06
305.431	80.06
305.661	89.06
305.891	83.06
306.121	90.06
306.352	84.06
306.582	72.06
306.812	82.06
307.042	91.06
307.272	77.06
307.502	92.06
307.731	89.06
307.961	76.06
308.191	96.06
308.421	92.06
308.651	79.06
308.881	88.06
309.111	93.06
309.341	93.06
309.571	68.06
309.8	103.06
310.03	85.06
310.26	90.06
310.49	85.06
310.72	81.06
310.949	95.06
311.179	74.06
311.409	69.06
311.639	88.06
311.868	86.06
312.098	90.06
312.328	87.06
312.557	73.06
312.787	83.06
313.017	73.06
313.246	69.06
313.476	86.06
313.706	111.06
313.935	85.06
314.165	74.06
314.394	77.06
314.624	87.06
314.853	91.06
315.083	91.06
315.312	82.06
315.542	80.06
315.771	81.06
316.001	80.06
316.23	76.06
316.46	78.06
316.689	90.06
316.919	82.06
317.148	89.06
317.377	94.06
317.607	75.06
317.836	75.06
318.065	78.06
318.295	82.06
318.524	89.06
318.753	89.06
318.983	88.06
319.212	95.06
319.441	75.06
319.67	72.06
319.9	96.06
320.129	79.06
320.358	104.06
320.587	99.06
320.816	95.06
321.046	91.06
321.275	80.06
321.504	93.06
321.733	92.06
321.962	89.06
322.191	93.06
322.42	64.06
322.649	84.06
322.878	83.06
323.108	91.06
323.337	83.06
323.566	83.06
323.795	77.06
324.024	91.06
324.253	86.06
324.482	87.06
324.71	80.06
324.939	76.06
325.168	92.06
325.397	84.06
325.626	82.06
325.855	88.06
326.084	88.06
326.313	91.06
326.542	81.06
326.77	87.06
326.999	71.06
327.228	81.06
327.457	73.06
327.686	81.06
327.914	91.06
328.143	77.06
328.372	75.06
328.6	81.06
328.829	76.06
329.058	81.06
329.287	91.06
329.515	74.06
329.744	77.06
329.972	88.06
330.201	81.06
330.43	81.06
330.658	91.06
330.887	95.06
331.115	80.06
331.344	83.06
331.572	85.06
331.801	80.06
332.03	82.06
332.258	75.06
332.486	78.06
332.715	91.06
332.943	92.06
333.172	95.06
333.4	95.06
333.629	109.06
333.857	88.06
334.085	88.06
334.314	97.06
334.542	73.06
334.771	76.06
334.999	83.06
335.227	85.06
335.455	86.06
335.684	96.06
335.912	83.06
336.14	92.06
336.369	97.06
336.597	87.06
336.825	77.06
337.053	75.06
337.281	88.06
337.51	72.06
337.738	92.06
337.966	87.06
338.194	83.06
338.422	85.06
338.65	91.06
338.878	92.06
339.106	86.06
339.334	83.06
339.562	87.06
339.79	84.06
340.018	86.06
340.246	96.06
340.474	91.06
340.702	84.06
340.93	91.06
341.158	88.06
341.386	82.06
341.614	76.06
341.842	78.06
342.07	74.06
342.298	86.06
342.526	80.06
342.754	88.06
342.981	73.06
343.209	77.06
343.437	94.06
343.665	87.06
343.893	84.06
344.12	83.06
344.348	95.06
344.576	74.06
344.804	82.06
345.031	84.06
345.259	81.06
345.487	80.06
345.714	90.06
345.942	76.06
346.17	95.06
346.397	97.06
346.625	84.06
346.853	75.06
347.08	79.06
347.308	82.06
347.535	89.06
347.763	82.06
347.99	84.06
348.218	81.06
348.445	83.06
348.673	87.06
348.9	82.06
349.128	72.06
349.355	84.06
349.583	79.06
349.81	79.06
350.037	95.06
350.265	89.06
350.492	79.06
350.72	88.06
350.947	76.06
351.174	86.06
351.402	83.06
351.629	84.06
351.856	88.06
352.083	78.06
352.311	79.06
352.538	79.06
352.765	94.06
352.992	94.06
353.22	93.06
353.447	91.06
353.674	91.06
353.901	83.06
354.128	80.06
354.355	86.06
354.583	92.06
354.81	84.06
355.037	82.06
355.264	83.06
355.491	87.06
355.718	91.06
355.945	84.06
356.172	92.06
356.399	89.06
356.626	82.06
356.853	92.06
357.08	82.06
357.307	81.06
357.534	85.06
357.761	82.06
357.988	85.06
358.215	74.06
358.441	81.06
358.668	92.06
358.895	78.06
359.122	91.06
359.349	77.06
359.576	101.06
359.802	102.06
360.029	79.06
360.256	87.06
360.483	94.06
360.709	88.06
360.936	83.06
361.163	78.06
361.39	76.06
361.616	89.06
361.843	74.06
362.07	94.06
362.296	85.06
362.523	80.06
362.749	80.06
362.976	88.06
363.203	91.06
363.429	88.06
363.656	85.06
363.882	82.06
364.109	87.06
364.335	93.06
364.562	81.06
364.788	77.06
365.015	96.06
365.241	99.06
365.468	77.06
365.694	93.06
365.92	72.06
366.147	71.06
366.373	100.06
366.599	72.06
366.826	71.06
367.052	87.06
367.278	81.06
367.505	90.06
367.731	80.06
367.957	71.06
368.184	102.06
368.41	90.06
368.636	72.06
368.862	88.06
369.089	87.06
369.315	83.06
369.541	87.06
369.767	76.06
369.993	67.06
370.219	89.06
370.445	79.06
370.672	83.06
370.898	80.06
371.124	72.06
371.35	74.06
371.576	89.06
371.802	85.06
372.028	79.06
372.254	85.06
372.48	73.06
372.706	83.06
372.932	79.06
373.158	95.06
373.384	73.06
373.61	76.06
373.835	89.06
374.061	71.06
374.287	71.06
374.513	79.06
374.739	95.06
374.965	78.06
375.191	85.06
375.416	82.06
375.642	99.06
375.868	88.06
376.094	86.06
376.319	77.06
376.545	76.06
376.771	80.06
376.997	91.06
377.222	88.06
377.448	60.06
377.674	98.06
377.899	91.06
378.125	77.06
378.35	74.06
378.576	79.06
378.802	88.06
379.027	83.06
379.253	83.06
379.478	73.06
379.704	80.06
379.929	79.06
380.155	87.06
380.38	87.06
380.606	74.06
380.831	85.06
381.057	89.06
381.282	87.06
381.507	95.06
381.733	89.06
381.958	87.06
382.184	85.06
382.409	80.06
382.634	88.06
382.86	89.06
383.085	92.06
383.31	76.06
383.535	89.06
383.761	82.06
383.986	100.06
384.211	84.06
384.436	72.06
384.662	77.06
384.887	82.06
385.112	94.06
385.337	83.06
385.562	76.06
385.787	87.06
386.013	88.06
386.238	64.06
386.463	73.06
386.688	84.06
386.913	82.06
387.138	96.06
387.363	91.06
387.588	83.06
387.813	86.06
388.038	86.06
388.263	68.06
388.488	85.06
388.713	79.06
388.938	83.06
389.163	65.06
389.387	89.06
389.612	93.06
389.837	75.06
390.062	87.06
390.287	92.06
390.512	95.06
390.736	85.06
390.961	73.06
391.186	82.06
391.411	79.06
391.636	73.06
391.86	82.06
392.085	80.06
392.31	80.06
392.534	91.06
392.759	88.06
392.984	86.06
393.208	93.06
393.433	107.06
393.658	91.06
393.882	92.06
394.107	87.06
394.331	101.06
394.556	83.06
394.78	95.06
395.005	73.06
395.229	83.06
395.454	81.06
395.678	77.06
395.903	83.06
396.127	91.06
396.352	95.06
396.576	83.06
396.801	97.06
397.025	112.06
397.249	93.06
397.474	86.06
397.698	77.06
397.922	101.06
398.147	81.06
398.371	85.06
398.595	86.06
398.82	81.06
399.044	81.06
399.268	86.06
399.492	71.06
399.717	79.06
399.941	79.06
400.165	80.06
400.389	76.06
400.613	74.06
400.837	92.06
401.062	81.06
401.286	87.06
401.51	80.06
401.734	87.06
401.958	85.06
402.182	80.06
402.406	80.06
402.63	78.06
402.854	83.06
403.078	70.06
403.302	81.06
403.526	73.06
403.75	90.06
403.974	79.06
404.198	82.06
404.422	82.06
404.645	103.06
404.869	84.06
405.093	79.06
405.317	80.06
405.541	83.06
405.765	88.06
405.988	89.06
406.212	89.06
406.436	87.06
406.66	92.06
406.883	79.06
407.107	71.06
407.331	76.06
407.555	76.06
407.778	84.06
408.002	81.06
408.226	75.06
408.449	88.06
408.673	81.06
408.896	65.06
409.12	81.06
409.344	86.06
409.567	68.06
409.791	91.06
410.014	91.06
410.238	84.06
410.461	83.06
410.685	77.06
410.908	82.06
411.132	93.06
411.355	85.06
411.578	78.06
411.802	73.06
412.025	82.06
412.249	73.06
412.472	71.06
412.695	78.06
412.919	99.06
413.142	78.06
413.365	77.06
413.589	87.06
413.812	80.06
414.035	79.06
414.258	75.06
414.482	71.06
414.705	76.06
414.928	72.06
415.151	81.06
415.374	89.06
415.597	74.06
415.821	86.06
416.044	78.06
416.267	78.06
416.49	72.06
416.713	91.06
416.936	63.06
417.159	85.06
417.382	73.06
417.605	71.06
417.828	92.06
418.051	83.06
418.274	74.06
418.497	98.06
418.72	80.06
418.943	79.06
419.166	81.06
419.389	76.06
419.611	73.06
419.834	70.06
420.057	88.06
420.28	81.06
420.503	84.06
420.726	85.06
420.948	83.06
421.171	80.06
421.394	69.06
421.617	73.06
421.839	90.06
422.062	79.06
422.285	82.06
422.507	122.06
422.73	127.06
422.953	132.06
423.175	99.06
423.398	78.06
423.621	76.06
423.843	79.06
424.066	64.06
424.288	79.06
424.511	79.06
424.733	83.06
424.956	79.06
425.178	71.06
425.401	87.06
425.623	77.06
425.846	85.06
426.068	84.06
426.291	79.06
426.513	69.06
426.735	68.06
426.958	85.06
427.18	73.06
427.402	87.06
427.625	95.06
427.847	88.06
428.069	81.06
428.292	81.06
428.514	84.06
428.736	85.06
428.958	77.06
429.181	101.06
429.403	82.06
429.625	63.06
429.847	93.06
430.069	101.06
430.292	103.06
430.514	94.06
430.736	93.06
430.958	90.06
431.18	79.06
431.402	87.06
431.624	78.06
431.846	94.06
432.068	88.06
432.29	80.06
432.512	91.06
432.734	68.06
432.956	68.06
433.178	80.06
433.4	92.06
433.622	84.06
433.844	93.06
434.066	86.06
434.287	85.06
434.509	93.06
434.731	93.06
434.953	88.06
435.175	79.06
435.397	77.06
435.618	70.06
435.84	71.06
436.062	87.06
436.284	89.06
436.505	84.06
436.727	76.06
436.949	76.06
437.17	71.06
437.392	75.06
437.614	88.06
437.835	80.06
438.057	74.06
438.278	93.06
438.5	76.06
438.721	89.06
438.943	80.06
439.165	80.06
439.386	80.06
439.608	80.06
439.829	77.06
440.05	86.06
440.272	98.06
440.493	97.06
440.715	79.06
440.936	69.06
441.158	72.06
441.379	73.06
441.6	72.06
441.822	91.06
442.043	81.06
442.264	86.06
442.486	92.06
442.707	89.06
442.928	87.06
443.149	93.06
443.371	96.06
443.592	102.06
443.813	94.06
444.034	74.06
444.255	87.06
444.476	87.06
444.698	76.06
444.919	81.06
445.14	150.06
445.361	116.06
445.582	97.06
445.803	105.06
446.024	66.06
446.245	81.06
446.466	95.06
446.687	95.06
446.908	84.06
447.129	73.06
447.35	77.06
447.571	80.06
447.792	78.06
448.013	68.06
448.234	85.06
448.455	81.06
448.675	70.06
448.896	68.06
449.117	71.06
449.338	88.06
449.559	85.06
449.779	85.06
450	79.06
450.221	88.06
450.442	93.06
450.662	79.06
450.883	82.06
451.104	74.06
451.324	68.06
451.545	88.06
451.766	84.06
451.986	88.06
452.207	80.06
452.428	95.06
452.648	93.06
452.869	85.06
453.089	80.06
453.31	83.06
453.53	67.06
453.751	91.06
453.971	78.06
454.192	89.06
454.412	86.06
454.633	68.06
454.853	92.06
455.073	97.06
455.294	82.06
455.514	77.06
455.734	83.06
455.955	83.06
456.175	81.06
456.395	74.06
456.616	83.06
456.836	77.06
457.056	93.06
457.276	88.06
457.497	79.06
457.717	81.06
457.937	81.06
458.157	91.06
458.377	97.06
458.598	85.06
458.818	86.06
459.038	71.06
459.258	63.06
459.478	71.06
459.698	81.06
459.918	73.06
460.138	81.06
460.358	89.06
460.578	83.06
460.798	73.06
461.018	85.06
461.238	80.06
461.458	81.06
461.678	92.06
461.898	93.06
462.118	88.06
462.338	83.06
462.558	97.06
462.777	64.06
462.997	73.06
463.217	63.06
463.437	77.06
463.657	75.06
463.876	79.06
464.096	82.06
464.316	77.06
464.536	95.06
464.755	92.06
464.975	94.06
465.195	84.06
465.414	87.06
465.634	78.06
465.854	82.06
466.073	74.06
466.293	87.06
466.512	81.06
466.732	81.06
466.951	89.06
467.171	86.06
467.391	80.06
467.61	85.06
467.829	86.06
468.049	85.06
468.268	95.06
468.488	82.06
468.707	81.06
468.927	75.06
469.146	72.06
469.365	83.06
469.585	84.06
469.804	96.06
470.023	80.06
470.243	78.06
470.462	86.06
470.681	83.06
470.901	81.06
471.12	77.06
471.339	88.06
471.558	73.06
471.777	80.06
471.997	97.06
472.216	81.06
472.435	83.06
472.654	82.06
472.873	90.06
473.092	83.06
473.311	77.06
473.53	70.06
473.749	77.06
473.968	79.06
474.187	83.06
474.406	85.06
474.625	107.06
474.844	93.06
475.063	79.06
475.282	72.06
475.501	86.06
475.72	100.06
475.939	83.06
476.158	87.06
476.377	73.06
476.596	87.06
476.814	76.06
477.033	87.06
477.252	83.06
477.471	69.06
477.69	85.06
477.908	77.06
478.127	85.06
478.346	74.06
478.564	87.06
478.783	90.06
479.002	96.06
479.22	79.06
479.439	71.06
479.658	78.06
479.876	67.06
480.095	71.06
480.313	89.06
480.532	74.06
480.751	85.06
480.969	81.06
481.188	72.06
481.406	81.06
481.624	83.06
481.843	81.06
482.061	92.06
482.28	94.06
482.498	84.06
482.717	83.06
482.935	92.06
483.153	85.06
483.372	73.06
483.59	80.06
483.808	85.06
484.027	86.06
484.245	79.06
484.463	82.06
484.681	83.06
484.9	77.06
485.118	80.06
485.336	95.06
485.554	84.06
485.772	83.06
485.99	85.06
486.209	84.06
486.427	80.06
486.645	70.06
486.863	75.06
487.081	87.06
487.299	79.06
487.517	68.06
487.735	102.06
487.953	87.06
488.171	92.06
488.389	80.06
488.607	86.06
488.825	86.06
489.043	72.06
489.261	74.06
489.479	87.06
489.696	79.06
489.914	94.06
490.132	86.06
490.35	86.06
490.568	80.06
490.786	73.06
491.003	97.06
491.221	72.06
491.439	76.06
491.657	77.06
491.874	89.06
492.092	73.06
492.31	75.06
492.527	87.06
492.745	77.06
492.963	79.06
493.18	85.06
493.398	88.06
493.615	77.06
493.833	82.06
494.05	72.06
494.268	78.06
494.485	80.06
494.703	103.06
494.92	75.06
495.138	79.06
495.355	96.06
495.573	77.06
495.79	92.06
496.008	90.06
496.225	77.06
496.442	75.06
496.66	80.06
496.877	77.06
497.094	87.06
497.312	77.06
497.529	79.06
497.746	81.06
497.963	77.06
498.181	94.06
498.398	79.06
498.615	100.06
498.832	107.06
499.049	87.06
499.267	93.06
499.484	84.06
499.701	84.06
499.918	71.06
500.135	88.06
500.352	72.06
500.569	97.06
500.786	94.06
501.003	83.06
501.22	73.06
501.437	83.06
501.654	83.06
501.871	79.06
502.088	92.06
502.305	80.06
502.522	83.06
502.739	80.06
502.956	79.06
503.172	90.06
503.389	75.06
503.606	73.06
503.823	96.06
504.04	79.06
504.256	81.06
504.473	87.06
504.69	91.06
504.907	73.06
505.123	77.06
505.34	92.06
505.557	102.06
505.773	75.06
505.99	88.06
506.207	77.06
506.423	78.06
506.64	78.06
506.856	83.06
507.073	98.06
507.289	88.06
507.506	73.06
507.722	90.06
507.939	83.06
508.155	77.06
508.372	93.06
508.588	84.06
508.805	80.06
509.021	86.06
509.238	89.06
509.454	81.06
509.67	83.06
509.887	80.06
510.103	84.06
510.319	87.06
510.536	77.06
510.752	72.06
510.968	83.06
511.184	96.06
511.401	98.06
511.617	77.06
511.833	83.06
512.049	86.06
512.265	91.06
512.481	84.06
512.698	89.06
512.914	85.06
513.13	93.06
513.346	73.06
513.562	99.06
513.778	84.06
513.994	81.06
514.21	71.06
514.426	92.06
514.642	88.06
514.858	85.06
515.074	79.06
515.29	82.06
515.506	89.06
515.721	99.06
515.937	89.06
516.153	88.06
516.369	80.06
516.585	86.06
516.801	79.06
517.016	65.06
517.232	81.06
517.448	85.06
517.664	92.06
517.879	75.06
518.095	81.06
518.311	79.06
518.527	93.06
518.742	96.06
518.958	86.06
519.173	68.06
519.389	79.06
519.605	78.06
519.82	82.06
