Data from 1600_1_HRD10591_00010.txt Node
Date: Mon Jan 19 13:47:46 EST 2026
User: Yrep
Spectrometer: HR+D1059
Trigger mode: 1
Integration Time (sec): 1.000000E-1
Scans to average: 1
Electric dark correction enabled: true
Nonlinearity correction enabled: false
Boxcar width: 0
XAxis mode: Wavelengths
Number of Pixels in Spectrum: 2048
>>>>>Begin Spectral Data<<<<<
223.165	-22.44
223.4	-22.44
223.635	-22.44
223.869	-31.44
224.104	-17.44
224.338	-13.44
224.573	-20.44
224.808	-12.44
225.042	-12.44
225.277	-10.44
225.511	12.56
225.746	-9.44
225.98	3.56
226.215	28.56
226.449	18.56
226.683	20.56
226.918	31.56
227.152	34.56
227.387	34.56
227.621	48.56
227.856	39.56
228.09	38.56
228.324	49.56
228.559	61.56
228.793	60.56
229.027	86.56
229.262	64.56
229.496	69.56
229.73	76.56
229.964	68.56
230.199	66.56
230.433	79.56
230.667	88.56
230.901	85.56
231.136	84.56
231.37	88.56
231.604	88.56
231.838	79.56
232.072	88.56
232.306	89.56
232.541	86.56
232.775	94.56
233.009	87.56
233.243	98.56
233.477	99.56
233.711	78.56
233.945	88.56
234.179	72.56
234.413	88.56
234.647	73.56
234.881	71.56
235.115	75.56
235.349	75.56
235.583	81.56
235.817	90.56
236.051	82.56
236.285	86.56
236.519	86.56
236.753	69.56
236.987	76.56
237.221	81.56
237.455	92.56
237.689	72.56
237.922	72.56
238.156	69.56
238.39	74.56
238.624	73.56
238.858	69.56
239.091	74.56
239.325	76.56
239.559	85.56
239.793	88.56
240.027	95.56
240.26	83.56
240.494	76.56
240.728	88.56
240.961	81.56
241.195	90.56
241.429	79.56
241.662	77.56
241.896	84.56
242.13	58.56
242.363	70.56
242.597	74.56
242.83	74.56
243.064	85.56
243.298	87.56
243.531	86.56
243.765	85.56
243.998	83.56
244.232	82.56
244.465	74.56
244.699	84.56
244.932	79.56
245.166	97.56
245.399	73.56
245.633	79.56
245.866	70.56
246.099	76.56
246.333	96.56
246.566	85.56
246.8	72.56
247.033	88.56
247.266	82.56
247.5	75.56
247.733	81.56
247.966	83.56
248.2	75.56
248.433	81.56
248.666	80.56
248.899	71.56
249.133	85.56
249.366	77.56
249.599	75.56
249.832	86.56
250.066	83.56
250.299	92.56
250.532	83.56
250.765	75.56
250.998	74.56
251.231	72.56
251.465	84.56
251.698	80.56
251.931	84.56
252.164	82.56
252.397	86.56
252.63	84.56
252.863	78.56
253.096	72.56
253.329	77.56
253.562	77.56
253.795	83.56
254.028	84.56
254.261	83.56
254.494	88.56
254.727	83.56
254.96	74.56
255.193	82.56
255.426	82.56
255.659	75.56
255.892	78.56
256.124	82.56
256.357	92.56
256.59	82.56
256.823	93.56
257.056	95.56
257.289	64.56
257.521	88.56
257.754	92.56
257.987	80.56
258.22	88.56
258.452	73.56
258.685	91.56
258.918	81.56
259.151	94.56
259.383	89.56
259.616	90.56
259.849	93.56
260.081	68.56
260.314	85.56
260.547	86.56
260.779	76.56
261.012	82.56
261.244	86.56
261.477	67.56
261.71	86.56
261.942	80.56
262.175	88.56
262.407	86.56
262.64	69.56
262.872	79.56
263.105	90.56
263.337	86.56
263.57	67.56
263.802	87.56
264.035	87.56
264.267	87.56
264.499	88.56
264.732	87.56
264.964	84.56
265.197	92.56
265.429	94.56
265.661	82.56
265.894	80.56
266.126	74.56
266.358	86.56
266.591	80.56
266.823	79.56
267.055	78.56
267.287	87.56
267.52	86.56
267.752	83.56
267.984	77.56
268.216	85.56
268.448	83.56
268.681	86.56
268.913	85.56
269.145	86.56
269.377	88.56
269.609	96.56
269.841	86.56
270.073	84.56
270.306	81.56
270.538	74.56
270.77	96.56
271.002	90.56
271.234	89.56
271.466	97.56
271.698	92.56
271.93	94.56
272.162	75.56
272.394	71.56
272.626	79.56
272.858	90.56
273.09	90.56
273.322	86.56
273.553	72.56
273.785	90.56
274.017	90.56
274.249	97.56
274.481	74.56
274.713	83.56
274.945	83.56
275.176	85.56
275.408	87.56
275.64	106.56
275.872	76.56
276.104	85.56
276.335	91.56
276.567	80.56
276.799	84.56
277.031	83.56
277.262	90.56
277.494	95.56
277.726	86.56
277.957	103.56
278.189	86.56
278.421	91.56
278.652	86.56
278.884	95.56
279.115	87.56
279.347	84.56
279.579	98.56
279.81	86.56
280.042	94.56
280.273	92.56
280.505	91.56
280.736	74.56
280.968	90.56
281.199	83.56
281.431	83.56
281.662	92.56
281.894	96.56
282.125	89.56
282.356	85.56
282.588	81.56
282.819	84.56
283.051	100.56
283.282	86.56
283.513	75.56
283.745	94.56
283.976	84.56
284.207	88.56
284.439	86.56
284.67	89.56
284.901	82.56
285.132	85.56
285.364	79.56
285.595	94.56
285.826	86.56
286.057	88.56
286.288	79.56
286.52	83.56
286.751	79.56
286.982	90.56
287.213	105.56
287.444	91.56
287.675	87.56
287.906	95.56
288.138	97.56
288.369	83.56
288.6	85.56
288.831	83.56
289.062	98.56
289.293	83.56
289.524	90.56
289.755	88.56
289.986	73.56
290.217	79.56
290.448	72.56
290.679	88.56
290.91	88.56
291.141	83.56
291.371	79.56
291.602	90.56
291.833	101.56
292.064	88.56
292.295	89.56
292.526	84.56
292.757	103.56
292.987	92.56
293.218	79.56
293.449	76.56
293.68	85.56
293.91	86.56
294.141	86.56
294.372	97.56
294.603	81.56
294.833	83.56
295.064	92.56
295.295	88.56
295.525	72.56
295.756	87.56
295.987	88.56
296.217	76.56
296.448	98.56
296.679	89.56
296.909	98.56
297.14	103.56
297.37	87.56
297.601	77.56
297.831	91.56
298.062	95.56
298.292	85.56
298.523	97.56
298.753	101.56
298.984	85.56
299.214	86.56
299.445	91.56
299.675	82.56
299.905	84.56
300.136	83.56
300.366	87.56
300.597	95.56
300.827	83.56
301.057	79.56
301.288	80.56
301.518	79.56
301.748	94.56
301.979	109.56
302.209	88.56
302.439	91.56
302.669	88.56
302.9	86.56
303.13	109.56
303.36	86.56
303.59	95.56
303.82	86.56
304.051	97.56
304.281	97.56
304.511	98.56
304.741	105.56
304.971	94.56
305.201	84.56
305.431	94.56
305.661	70.56
305.891	84.56
306.121	82.56
306.352	78.56
306.582	92.56
306.812	77.56
307.042	85.56
307.272	80.56
307.502	86.56
307.731	87.56
307.961	99.56
308.191	88.56
308.421	85.56
308.651	86.56
308.881	87.56
309.111	91.56
309.341	95.56
309.571	98.56
309.8	68.56
310.03	87.56
310.26	82.56
310.49	88.56
310.72	77.56
310.949	93.56
311.179	78.56
311.409	78.56
311.639	89.56
311.868	88.56
312.098	90.56
312.328	98.56
312.557	99.56
312.787	98.56
313.017	90.56
313.246	88.56
313.476	81.56
313.706	76.56
313.935	84.56
314.165	97.56
314.394	82.56
314.624	74.56
314.853	88.56
315.083	101.56
315.312	78.56
315.542	85.56
315.771	88.56
316.001	90.56
316.23	84.56
316.46	90.56
316.689	98.56
316.919	75.56
317.148	94.56
317.377	89.56
317.607	94.56
317.836	90.56
318.065	93.56
318.295	99.56
318.524	82.56
318.753	88.56
318.983	92.56
319.212	69.56
319.441	76.56
319.67	90.56
319.9	94.56
320.129	91.56
320.358	96.56
320.587	98.56
320.816	80.56
321.046	84.56
321.275	93.56
321.504	79.56
321.733	100.56
321.962	90.56
322.191	92.56
322.42	80.56
322.649	84.56
322.878	92.56
323.108	77.56
323.337	88.56
323.566	91.56
323.795	96.56
324.024	90.56
324.253	84.56
324.482	94.56
324.71	80.56
324.939	76.56
325.168	91.56
325.397	82.56
325.626	83.56
325.855	85.56
326.084	91.56
326.313	63.56
326.542	87.56
326.77	88.56
326.999	91.56
327.228	76.56
327.457	84.56
327.686	98.56
327.914	99.56
328.143	87.56
328.372	84.56
328.6	95.56
328.829	101.56
329.058	82.56
329.287	83.56
329.515	97.56
329.744	91.56
329.972	91.56
330.201	96.56
330.43	85.56
330.658	83.56
330.887	101.56
331.115	94.56
331.344	76.56
331.572	94.56
331.801	85.56
332.03	104.56
332.258	83.56
332.486	89.56
332.715	86.56
332.943	82.56
333.172	89.56
333.4	94.56
333.629	84.56
333.857	87.56
334.085	88.56
334.314	90.56
334.542	85.56
334.771	93.56
334.999	91.56
335.227	92.56
335.455	82.56
335.684	88.56
335.912	99.56
336.14	95.56
336.369	87.56
336.597	98.56
336.825	72.56
337.053	79.56
337.281	86.56
337.51	92.56
337.738	82.56
337.966	83.56
338.194	74.56
338.422	79.56
338.65	94.56
338.878	95.56
339.106	89.56
339.334	96.56
339.562	88.56
339.79	88.56
340.018	92.56
340.246	77.56
340.474	99.56
340.702	83.56
340.93	71.56
341.158	80.56
341.386	83.56
341.614	96.56
341.842	90.56
342.07	70.56
342.298	92.56
342.526	81.56
342.754	90.56
342.981	100.56
343.209	82.56
343.437	86.56
343.665	70.56
343.893	73.56
344.12	89.56
344.348	81.56
344.576	81.56
344.804	91.56
345.031	88.56
345.259	71.56
345.487	91.56
345.714	95.56
345.942	89.56
346.17	80.56
346.397	78.56
346.625	74.56
346.853	86.56
347.08	77.56
347.308	85.56
347.535	77.56
347.763	83.56
347.99	77.56
348.218	79.56
348.445	87.56
348.673	97.56
348.9	95.56
349.128	85.56
349.355	85.56
349.583	84.56
349.81	88.56
350.037	106.56
350.265	103.56
350.492	87.56
350.72	90.56
350.947	82.56
351.174	98.56
351.402	94.56
351.629	83.56
351.856	90.56
352.083	87.56
352.311	85.56
352.538	92.56
352.765	89.56
352.992	96.56
353.22	90.56
353.447	84.56
353.674	85.56
353.901	105.56
354.128	99.56
354.355	96.56
354.583	87.56
354.81	91.56
355.037	92.56
355.264	87.56
355.491	83.56
355.718	87.56
355.945	96.56
356.172	92.56
356.399	97.56
356.626	90.56
356.853	86.56
357.08	89.56
357.307	85.56
357.534	91.56
357.761	87.56
357.988	82.56
358.215	94.56
358.441	90.56
358.668	88.56
358.895	99.56
359.122	86.56
359.349	87.56
359.576	86.56
359.802	86.56
360.029	82.56
360.256	79.56
360.483	77.56
360.709	85.56
360.936	95.56
361.163	88.56
361.39	82.56
361.616	77.56
361.843	83.56
362.07	92.56
362.296	92.56
362.523	84.56
362.749	88.56
362.976	97.56
363.203	91.56
363.429	86.56
363.656	93.56
363.882	87.56
364.109	97.56
364.335	74.56
364.562	83.56
364.788	82.56
365.015	93.56
365.241	103.56
365.468	84.56
365.694	72.56
365.92	94.56
366.147	76.56
366.373	82.56
366.599	88.56
366.826	96.56
367.052	82.56
367.278	70.56
367.505	90.56
367.731	89.56
367.957	67.56
368.184	82.56
368.41	96.56
368.636	80.56
368.862	79.56
369.089	91.56
369.315	76.56
369.541	86.56
369.767	73.56
369.993	89.56
370.219	90.56
370.445	90.56
370.672	80.56
370.898	84.56
371.124	81.56
371.35	77.56
371.576	91.56
371.802	74.56
372.028	81.56
372.254	75.56
372.48	87.56
372.706	87.56
372.932	81.56
373.158	94.56
373.384	84.56
373.61	79.56
373.835	69.56
374.061	72.56
374.287	86.56
374.513	77.56
374.739	81.56
374.965	85.56
375.191	81.56
375.416	86.56
375.642	91.56
375.868	95.56
376.094	80.56
376.319	93.56
376.545	86.56
376.771	77.56
376.997	69.56
377.222	69.56
377.448	87.56
377.674	90.56
377.899	84.56
378.125	82.56
378.35	71.56
378.576	77.56
378.802	91.56
379.027	83.56
379.253	84.56
379.478	70.56
379.704	87.56
379.929	87.56
380.155	92.56
380.38	87.56
380.606	79.56
380.831	85.56
381.057	91.56
381.282	84.56
381.507	81.56
381.733	97.56
381.958	90.56
382.184	81.56
382.409	90.56
382.634	82.56
382.86	75.56
383.085	102.56
383.31	91.56
383.535	79.56
383.761	96.56
383.986	92.56
384.211	84.56
384.436	94.56
384.662	90.56
384.887	90.56
385.112	84.56
385.337	86.56
385.562	91.56
385.787	81.56
386.013	95.56
386.238	78.56
386.463	78.56
386.688	93.56
386.913	90.56
387.138	83.56
387.363	99.56
387.588	84.56
387.813	76.56
388.038	89.56
388.263	82.56
388.488	82.56
388.713	81.56
388.938	88.56
389.163	88.56
389.387	77.56
389.612	82.56
389.837	95.56
390.062	84.56
390.287	93.56
390.512	79.56
390.736	75.56
390.961	85.56
391.186	72.56
391.411	87.56
391.636	85.56
391.86	85.56
392.085	89.56
392.31	104.56
392.534	79.56
392.759	103.56
392.984	88.56
393.208	94.56
393.433	94.56
393.658	97.56
393.882	79.56
394.107	93.56
394.331	103.56
394.556	88.56
394.78	79.56
395.005	79.56
395.229	66.56
395.454	95.56
395.678	79.56
395.903	86.56
396.127	102.56
396.352	90.56
396.576	86.56
396.801	77.56
397.025	100.56
397.249	92.56
397.474	82.56
397.698	87.56
397.922	80.56
398.147	98.56
398.371	95.56
398.595	81.56
398.82	83.56
399.044	73.56
399.268	100.56
399.492	74.56
399.717	102.56
399.941	68.56
400.165	75.56
400.389	85.56
400.613	80.56
400.837	90.56
401.062	80.56
401.286	78.56
401.51	88.56
401.734	83.56
401.958	86.56
402.182	91.56
402.406	91.56
402.63	75.56
402.854	86.56
403.078	102.56
403.302	85.56
403.526	98.56
403.75	96.56
403.974	85.56
404.198	79.56
404.422	86.56
404.645	74.56
404.869	91.56
405.093	86.56
405.317	83.56
405.541	91.56
405.765	86.56
405.988	69.56
406.212	86.56
406.436	80.56
406.66	84.56
406.883	82.56
407.107	81.56
407.331	86.56
407.555	94.56
407.778	78.56
408.002	106.56
408.226	82.56
408.449	83.56
408.673	80.56
408.896	87.56
409.12	90.56
409.344	81.56
409.567	91.56
409.791	93.56
410.014	92.56
410.238	83.56
410.461	82.56
410.685	85.56
410.908	80.56
411.132	83.56
411.355	83.56
411.578	86.56
411.802	74.56
412.025	92.56
412.249	82.56
412.472	76.56
412.695	80.56
412.919	70.56
413.142	95.56
413.365	85.56
413.589	86.56
413.812	84.56
414.035	91.56
414.258	82.56
414.482	75.56
414.705	89.56
414.928	81.56
415.151	86.56
415.374	92.56
415.597	84.56
415.821	92.56
416.044	67.56
416.267	77.56
416.49	90.56
416.713	74.56
416.936	89.56
417.159	64.56
417.382	78.56
417.605	83.56
417.828	82.56
418.051	77.56
418.274	96.56
418.497	87.56
418.72	81.56
418.943	93.56
419.166	94.56
419.389	90.56
419.611	84.56
419.834	90.56
420.057	83.56
420.28	83.56
420.503	82.56
420.726	85.56
420.948	99.56
421.171	81.56
421.394	98.56
421.617	93.56
421.839	83.56
422.062	80.56
422.285	101.56
422.507	102.56
422.73	105.56
422.953	96.56
423.175	88.56
423.398	86.56
423.621	84.56
423.843	72.56
424.066	82.56
424.288	84.56
424.511	82.56
424.733	75.56
424.956	80.56
425.178	80.56
425.401	85.56
425.623	77.56
425.846	70.56
426.068	73.56
426.291	97.56
426.513	88.56
426.735	68.56
426.958	105.56
427.18	66.56
427.402	85.56
427.625	75.56
427.847	69.56
428.069	83.56
428.292	99.56
428.514	96.56
428.736	71.56
428.958	81.56
429.181	81.56
429.403	87.56
429.625	92.56
429.847	84.56
430.069	96.56
430.292	97.56
430.514	96.56
430.736	76.56
430.958	91.56
431.18	84.56
431.402	91.56
431.624	79.56
431.846	87.56
432.068	94.56
432.29	91.56
432.512	93.56
432.734	80.56
432.956	80.56
433.178	79.56
433.4	85.56
433.622	77.56
433.844	77.56
434.066	76.56
434.287	85.56
434.509	74.56
434.731	76.56
434.953	74.56
435.175	71.56
435.397	81.56
435.618	94.56
435.84	83.56
436.062	75.56
436.284	77.56
436.505	88.56
436.727	91.56
436.949	84.56
437.17	82.56
437.392	75.56
437.614	77.56
437.835	84.56
438.057	82.56
438.278	96.56
438.5	102.56
438.721	80.56
438.943	69.56
439.165	68.56
439.386	92.56
439.608	75.56
439.829	96.56
440.05	73.56
440.272	82.56
440.493	84.56
440.715	80.56
440.936	102.56
441.158	76.56
441.379	83.56
441.6	87.56
441.822	79.56
442.043	76.56
442.264	81.56
442.486	94.56
442.707	87.56
442.928	89.56
443.149	73.56
443.371	86.56
443.592	90.56
443.813	82.56
444.034	82.56
444.255	90.56
444.476	79.56
444.698	70.56
444.919	89.56
445.14	169.56
445.361	126.56
445.582	83.56
445.803	87.56
446.024	87.56
446.245	91.56
446.466	87.56
446.687	88.56
446.908	87.56
447.129	72.56
447.35	92.56
447.571	76.56
447.792	90.56
448.013	88.56
448.234	81.56
448.455	67.56
448.675	76.56
448.896	81.56
449.117	84.56
449.338	79.56
449.559	85.56
449.779	84.56
450	81.56
450.221	83.56
450.442	79.56
450.662	88.56
450.883	102.56
451.104	91.56
451.324	100.56
451.545	84.56
451.766	71.56
451.986	78.56
452.207	82.56
452.428	75.56
452.648	91.56
452.869	86.56
453.089	70.56
453.31	95.56
453.53	82.56
453.751	83.56
453.971	99.56
454.192	88.56
454.412	80.56
454.633	81.56
454.853	86.56
455.073	91.56
455.294	84.56
455.514	88.56
455.734	77.56
455.955	83.56
456.175	90.56
456.395	74.56
456.616	79.56
456.836	82.56
457.056	92.56
457.276	84.56
457.497	70.56
457.717	70.56
457.937	92.56
458.157	110.56
458.377	77.56
458.598	84.56
458.818	86.56
459.038	86.56
459.258	87.56
459.478	78.56
459.698	83.56
459.918	87.56
460.138	64.56
460.358	79.56
460.578	90.56
460.798	98.56
461.018	80.56
461.238	86.56
461.458	96.56
461.678	83.56
461.898	82.56
462.118	85.56
462.338	90.56
462.558	79.56
462.777	77.56
462.997	84.56
463.217	81.56
463.437	86.56
463.657	82.56
463.876	70.56
464.096	81.56
464.316	75.56
464.536	84.56
464.755	82.56
464.975	75.56
465.195	84.56
465.414	76.56
465.634	97.56
465.854	94.56
466.073	108.56
466.293	84.56
466.512	78.56
466.732	79.56
466.951	78.56
467.171	98.56
467.391	80.56
467.61	90.56
467.829	88.56
468.049	80.56
468.268	89.56
468.488	75.56
468.707	82.56
468.927	85.56
469.146	83.56
469.365	85.56
469.585	88.56
469.804	91.56
470.023	88.56
470.243	62.56
470.462	70.56
470.681	83.56
470.901	89.56
471.12	71.56
471.339	77.56
471.558	82.56
471.777	83.56
471.997	88.56
472.216	85.56
472.435	82.56
472.654	94.56
472.873	84.56
473.092	76.56
473.311	90.56
473.53	80.56
473.749	83.56
473.968	85.56
474.187	88.56
474.406	78.56
474.625	86.56
474.844	100.56
475.063	95.56
475.282	88.56
475.501	84.56
475.72	98.56
475.939	93.56
476.158	96.56
476.377	92.56
476.596	77.56
476.814	78.56
477.033	79.56
477.252	86.56
477.471	81.56
477.69	84.56
477.908	83.56
478.127	101.56
478.346	83.56
478.564	87.56
478.783	74.56
479.002	82.56
479.22	95.56
479.439	74.56
479.658	84.56
479.876	89.56
480.095	80.56
480.313	85.56
480.532	82.56
480.751	68.56
480.969	84.56
481.188	79.56
481.406	76.56
481.624	82.56
481.843	73.56
482.061	73.56
482.28	87.56
482.498	84.56
482.717	96.56
482.935	78.56
483.153	84.56
483.372	84.56
483.59	94.56
483.808	71.56
484.027	86.56
484.245	94.56
484.463	79.56
484.681	104.56
484.9	94.56
485.118	76.56
485.336	94.56
485.554	86.56
485.772	84.56
485.99	90.56
486.209	86.56
486.427	78.56
486.645	81.56
486.863	91.56
487.081	84.56
487.299	82.56
487.517	98.56
487.735	91.56
487.953	80.56
488.171	95.56
488.389	83.56
488.607	93.56
488.825	74.56
489.043	83.56
489.261	98.56
489.479	90.56
489.696	80.56
489.914	91.56
490.132	86.56
490.35	92.56
490.568	91.56
490.786	72.56
491.003	74.56
491.221	96.56
491.439	84.56
491.657	87.56
491.874	88.56
492.092	82.56
492.31	77.56
492.527	86.56
492.745	90.56
492.963	85.56
493.18	95.56
493.398	76.56
493.615	75.56
493.833	81.56
494.05	83.56
494.268	85.56
494.485	78.56
494.703	77.56
494.92	85.56
495.138	82.56
495.355	89.56
495.573	80.56
495.79	89.56
496.008	92.56
496.225	85.56
496.442	86.56
496.66	88.56
496.877	91.56
497.094	100.56
497.312	80.56
497.529	92.56
497.746	85.56
497.963	88.56
498.181	74.56
498.398	101.56
498.615	83.56
498.832	81.56
499.049	87.56
499.267	77.56
499.484	98.56
499.701	102.56
499.918	98.56
500.135	69.56
500.352	79.56
500.569	88.56
500.786	86.56
501.003	85.56
501.22	91.56
501.437	79.56
501.654	83.56
501.871	74.56
502.088	74.56
502.305	107.56
502.522	94.56
502.739	86.56
502.956	84.56
503.172	89.56
503.389	76.56
503.606	82.56
503.823	80.56
504.04	94.56
504.256	96.56
504.473	79.56
504.69	83.56
504.907	87.56
505.123	88.56
505.34	68.56
505.557	81.56
505.773	84.56
505.99	75.56
506.207	92.56
506.423	90.56
506.64	77.56
506.856	81.56
507.073	88.56
507.289	84.56
507.506	79.56
507.722	86.56
507.939	87.56
508.155	99.56
508.372	77.56
508.588	76.56
508.805	86.56
509.021	70.56
509.238	86.56
509.454	102.56
509.67	81.56
509.887	94.56
510.103	88.56
510.319	95.56
510.536	74.56
510.752	73.56
510.968	95.56
511.184	92.56
511.401	91.56
511.617	92.56
511.833	91.56
512.049	80.56
512.265	71.56
512.481	88.56
512.698	89.56
512.914	89.56
513.13	80.56
513.346	87.56
513.562	83.56
513.778	82.56
513.994	84.56
514.21	94.56
514.426	90.56
514.642	86.56
514.858	91.56
515.074	84.56
515.29	96.56
515.506	90.56
515.721	94.56
515.937	91.56
516.153	83.56
516.369	79.56
516.585	92.56
516.801	70.56
517.016	93.56
517.232	88.56
517.448	89.56
517.664	79.56
517.879	89.56
518.095	90.56
518.311	80.56
518.527	90.56
518.742	77.56
518.958	80.56
519.173	88.56
519.389	74.56
519.605	92.56
