Data from 1600_1_HRD10591_00008.txt Node
Date: Mon Jan 19 13:47:45 EST 2026
User: Yrep
Spectrometer: HR+D1059
Trigger mode: 1
Integration Time (sec): 1.000000E-1
Scans to average: 1
Electric dark correction enabled: true
Nonlinearity correction enabled: false
Boxcar width: 0
XAxis mode: Wavelengths
Number of Pixels in Spectrum: 2048
>>>>>Begin Spectral Data<<<<<
223.165	-20
223.4	-20
223.635	-20
223.869	-19
224.104	-26
224.338	-21
224.573	-22
224.808	-6
225.042	-8
225.277	-2
225.511	-2
225.746	9
225.98	1
226.215	16
226.449	24
226.683	15
226.918	32
227.152	29
227.387	46
227.621	50
227.856	55
228.09	60
228.324	68
228.559	60
228.793	51
229.027	68
229.262	74
229.496	53
229.73	60
229.964	76
230.199	74
230.433	80
230.667	75
230.901	85
231.136	80
231.37	69
231.604	92
231.838	89
232.072	77
232.306	80
232.541	96
232.775	85
233.009	71
233.243	95
233.477	77
233.711	78
233.945	75
234.179	83
234.413	82
234.647	88
234.881	93
235.115	76
235.349	82
235.583	87
235.817	70
236.051	85
236.285	80
236.519	76
236.753	73
236.987	74
237.221	98
237.455	74
237.689	81
237.922	82
238.156	75
238.39	85
238.624	83
238.858	81
239.091	89
239.325	69
239.559	81
239.793	78
240.027	82
240.26	65
240.494	78
240.728	79
240.961	72
241.195	73
241.429	85
241.662	73
241.896	69
242.13	81
242.363	81
242.597	76
242.83	72
243.064	80
243.298	87
243.531	82
243.765	79
243.998	63
244.232	81
244.465	70
244.699	83
244.932	81
245.166	71
245.399	70
245.633	73
245.866	86
246.099	77
246.333	85
246.566	74
246.8	88
247.033	85
247.266	74
247.5	94
247.733	92
247.966	79
248.2	72
248.433	80
248.666	84
248.899	96
249.133	83
249.366	82
249.599	75
249.832	98
250.066	89
250.299	75
250.532	71
250.765	75
250.998	72
251.231	84
251.465	89
251.698	80
251.931	64
252.164	66
252.397	71
252.63	88
252.863	72
253.096	78
253.329	82
253.562	90
253.795	97
254.028	82
254.261	78
254.494	75
254.727	82
254.96	81
255.193	84
255.426	84
255.659	81
255.892	77
256.124	78
256.357	86
256.59	69
256.823	86
257.056	88
257.289	93
257.521	74
257.754	80
257.987	69
258.22	81
258.452	92
258.685	93
258.918	74
259.151	76
259.383	84
259.616	92
259.849	87
260.081	94
260.314	92
260.547	69
260.779	76
261.012	82
261.244	78
261.477	84
261.71	74
261.942	93
262.175	90
262.407	92
262.64	87
262.872	89
263.105	79
263.337	88
263.57	87
263.802	85
264.035	84
264.267	90
264.499	80
264.732	85
264.964	94
265.197	75
265.429	89
265.661	81
265.894	80
266.126	93
266.358	86
266.591	88
266.823	83
267.055	85
267.287	89
267.52	87
267.752	87
267.984	85
268.216	73
268.448	87
268.681	80
268.913	87
269.145	79
269.377	90
269.609	79
269.841	83
270.073	85
270.306	74
270.538	94
270.77	90
271.002	100
271.234	90
271.466	94
271.698	79
271.93	83
272.162	82
272.394	98
272.626	97
272.858	83
273.09	65
273.322	72
273.553	81
273.785	81
274.017	93
274.249	96
274.481	88
274.713	81
274.945	75
275.176	86
275.408	78
275.64	77
275.872	85
276.104	73
276.335	78
276.567	91
276.799	81
277.031	87
277.262	77
277.494	80
277.726	84
277.957	81
278.189	98
278.421	79
278.652	77
278.884	86
279.115	95
279.347	72
279.579	70
279.81	93
280.042	90
280.273	97
280.505	94
280.736	88
280.968	85
281.199	93
281.431	85
281.662	80
281.894	84
282.125	89
282.356	86
282.588	93
282.819	78
283.051	89
283.282	88
283.513	100
283.745	87
283.976	75
284.207	87
284.439	88
284.67	91
284.901	89
285.132	95
285.364	93
285.595	90
285.826	85
286.057	83
286.288	83
286.52	79
286.751	94
286.982	86
287.213	83
287.444	116
287.675	88
287.906	97
288.138	81
288.369	69
288.6	84
288.831	86
289.062	102
289.293	84
289.524	85
289.755	78
289.986	75
290.217	86
290.448	77
290.679	85
290.91	77
291.141	80
291.371	87
291.602	86
291.833	82
292.064	90
292.295	85
292.526	84
292.757	92
292.987	88
293.218	100
293.449	95
293.68	80
293.91	80
294.141	90
294.372	76
294.603	72
294.833	92
295.064	94
295.295	73
295.525	73
295.756	81
295.987	86
296.217	90
296.448	82
296.679	61
296.909	92
297.14	96
297.37	72
297.601	97
297.831	88
298.062	72
298.292	86
298.523	89
298.753	76
298.984	91
299.214	86
299.445	79
299.675	85
299.905	85
300.136	83
300.366	83
300.597	85
300.827	89
301.057	77
301.288	86
301.518	94
301.748	78
301.979	105
302.209	86
302.439	85
302.669	94
302.9	87
303.13	91
303.36	73
303.59	86
303.82	101
304.051	98
304.281	88
304.511	82
304.741	69
304.971	73
305.201	80
305.431	85
305.661	89
305.891	88
306.121	88
306.352	78
306.582	79
306.812	87
307.042	80
307.272	86
307.502	88
307.731	83
307.961	92
308.191	77
308.421	82
308.651	96
308.881	85
309.111	100
309.341	90
309.571	87
309.8	94
310.03	86
310.26	95
310.49	87
310.72	89
310.949	87
311.179	79
311.409	92
311.639	91
311.868	97
312.098	99
312.328	82
312.557	90
312.787	81
313.017	80
313.246	76
313.476	85
313.706	98
313.935	75
314.165	88
314.394	97
314.624	97
314.853	81
315.083	73
315.312	87
315.542	86
315.771	88
316.001	84
316.23	81
316.46	89
316.689	85
316.919	84
317.148	75
317.377	77
317.607	85
317.836	101
318.065	86
318.295	74
318.524	86
318.753	79
318.983	97
319.212	95
319.441	100
319.67	94
319.9	84
320.129	96
320.358	93
320.587	84
320.816	79
321.046	71
321.275	87
321.504	74
321.733	78
321.962	80
322.191	94
322.42	82
322.649	83
322.878	81
323.108	93
323.337	84
323.566	95
323.795	96
324.024	90
324.253	81
324.482	86
324.71	78
324.939	71
325.168	89
325.397	86
325.626	90
325.855	99
326.084	96
326.313	103
326.542	80
326.77	94
326.999	73
327.228	88
327.457	82
327.686	87
327.914	80
328.143	84
328.372	80
328.6	100
328.829	91
329.058	89
329.287	84
329.515	81
329.744	94
329.972	82
330.201	93
330.43	86
330.658	93
330.887	81
331.115	80
331.344	74
331.572	90
331.801	91
332.03	104
332.258	83
332.486	83
332.715	95
332.943	88
333.172	81
333.4	94
333.629	80
333.857	72
334.085	99
334.314	87
334.542	79
334.771	93
334.999	89
335.227	99
335.455	90
335.684	87
335.912	87
336.14	82
336.369	86
336.597	77
336.825	83
337.053	86
337.281	85
337.51	85
337.738	92
337.966	84
338.194	96
338.422	92
338.65	103
338.878	101
339.106	83
339.334	92
339.562	85
339.79	84
340.018	85
340.246	77
340.474	94
340.702	101
340.93	89
341.158	85
341.386	91
341.614	77
341.842	74
342.07	87
342.298	92
342.526	83
342.754	77
342.981	94
343.209	87
343.437	88
343.665	98
343.893	76
344.12	90
344.348	97
344.576	82
344.804	84
345.031	84
345.259	79
345.487	89
345.714	83
345.942	86
346.17	75
346.397	88
346.625	72
346.853	96
347.08	98
347.308	84
347.535	102
347.763	99
347.99	86
348.218	95
348.445	77
348.673	77
348.9	71
349.128	92
349.355	84
349.583	85
349.81	88
350.037	70
350.265	70
350.492	76
350.72	81
350.947	81
351.174	91
351.402	90
351.629	87
351.856	89
352.083	88
352.311	88
352.538	77
352.765	88
352.992	98
353.22	84
353.447	87
353.674	83
353.901	86
354.128	95
354.355	97
354.583	90
354.81	103
355.037	99
355.264	96
355.491	90
355.718	92
355.945	79
356.172	84
356.399	87
356.626	85
356.853	89
357.08	74
357.307	73
357.534	82
357.761	88
357.988	92
358.215	82
358.441	81
358.668	92
358.895	81
359.122	75
359.349	78
359.576	83
359.802	82
360.029	102
360.256	79
360.483	78
360.709	87
360.936	74
361.163	80
361.39	80
361.616	78
361.843	82
362.07	86
362.296	90
362.523	88
362.749	90
362.976	82
363.203	94
363.429	85
363.656	92
363.882	67
364.109	90
364.335	90
364.562	93
364.788	78
365.015	81
365.241	82
365.468	75
365.694	103
365.92	99
366.147	83
366.373	82
366.599	74
366.826	74
367.052	93
367.278	84
367.505	84
367.731	84
367.957	94
368.184	92
368.41	89
368.636	79
368.862	81
369.089	91
369.315	80
369.541	82
369.767	79
369.993	93
370.219	81
370.445	78
370.672	68
370.898	94
371.124	86
371.35	75
371.576	73
371.802	80
372.028	86
372.254	85
372.48	74
372.706	76
372.932	93
373.158	72
373.384	90
373.61	78
373.835	97
374.061	85
374.287	91
374.513	73
374.739	85
374.965	82
375.191	88
375.416	85
375.642	75
375.868	90
376.094	90
376.319	83
376.545	92
376.771	78
376.997	91
377.222	86
377.448	95
377.674	73
377.899	91
378.125	77
378.35	81
378.576	87
378.802	71
379.027	86
379.253	87
379.478	90
379.704	69
379.929	70
380.155	81
380.38	93
380.606	74
380.831	71
381.057	90
381.282	81
381.507	90
381.733	78
381.958	75
382.184	87
382.409	81
382.634	84
382.86	89
383.085	81
383.31	75
383.535	99
383.761	78
383.986	73
384.211	80
384.436	89
384.662	93
384.887	89
385.112	94
385.337	82
385.562	82
385.787	70
386.013	86
386.238	81
386.463	73
386.688	88
386.913	77
387.138	85
387.363	98
387.588	81
387.813	76
388.038	84
388.263	77
388.488	90
388.713	78
388.938	81
389.163	85
389.387	80
389.612	75
389.837	82
390.062	80
390.287	94
390.512	73
390.736	72
390.961	66
391.186	92
391.411	88
391.636	85
391.86	74
392.085	88
392.31	84
392.534	82
392.759	93
392.984	99
393.208	89
393.433	85
393.658	84
393.882	83
394.107	84
394.331	75
394.556	72
394.78	87
395.005	83
395.229	81
395.454	98
395.678	95
395.903	87
396.127	97
396.352	96
396.576	86
396.801	98
397.025	88
397.249	95
397.474	97
397.698	71
397.922	101
398.147	82
398.371	69
398.595	68
398.82	85
399.044	83
399.268	81
399.492	79
399.717	72
399.941	73
400.165	91
400.389	75
400.613	88
400.837	97
401.062	83
401.286	83
401.51	90
401.734	80
401.958	83
402.182	87
402.406	83
402.63	76
402.854	83
403.078	78
403.302	96
403.526	81
403.75	73
403.974	84
404.198	83
404.422	82
404.645	98
404.869	94
405.093	83
405.317	84
405.541	86
405.765	74
405.988	81
406.212	81
406.436	81
406.66	78
406.883	84
407.107	83
407.331	79
407.555	92
407.778	81
408.002	74
408.226	82
408.449	82
408.673	91
408.896	91
409.12	78
409.344	85
409.567	82
409.791	82
410.014	90
410.238	81
410.461	69
410.685	68
410.908	82
411.132	83
411.355	92
411.578	91
411.802	82
412.025	80
412.249	94
412.472	90
412.695	93
412.919	79
413.142	77
413.365	73
413.589	81
413.812	83
414.035	75
414.258	70
414.482	86
414.705	84
414.928	67
415.151	78
415.374	82
415.597	73
415.821	78
416.044	85
416.267	89
416.49	84
416.713	66
416.936	74
417.159	75
417.382	87
417.605	84
417.828	75
418.051	65
418.274	87
418.497	81
418.72	75
418.943	87
419.166	90
419.389	87
419.611	94
419.834	78
420.057	86
420.28	86
420.503	85
420.726	73
420.948	81
421.171	81
421.394	85
421.617	96
421.839	78
422.062	78
422.285	81
422.507	78
422.73	101
422.953	89
423.175	91
423.398	73
423.621	81
423.843	74
424.066	79
424.288	92
424.511	84
424.733	92
424.956	82
425.178	70
425.401	87
425.623	84
425.846	77
426.068	85
426.291	93
426.513	73
426.735	85
426.958	71
427.18	84
427.402	68
427.625	67
427.847	96
428.069	86
428.292	88
428.514	69
428.736	78
428.958	84
429.181	66
429.403	84
429.625	79
429.847	82
430.069	84
430.292	82
430.514	70
430.736	100
430.958	78
431.18	70
431.402	80
431.624	73
431.846	76
432.068	87
432.29	75
432.512	88
432.734	75
432.956	92
433.178	88
433.4	74
433.622	102
433.844	75
434.066	88
434.287	79
434.509	88
434.731	95
434.953	82
435.175	91
435.397	76
435.618	71
435.84	78
436.062	100
436.284	88
436.505	78
436.727	80
436.949	82
437.17	88
437.392	81
437.614	97
437.835	82
438.057	85
438.278	85
438.5	103
438.721	84
438.943	73
439.165	88
439.386	80
439.608	85
439.829	78
440.05	87
440.272	75
440.493	78
440.715	82
440.936	83
441.158	64
441.379	78
441.6	82
441.822	87
442.043	73
442.264	72
442.486	75
442.707	87
442.928	82
443.149	79
443.371	95
443.592	70
443.813	87
444.034	88
444.255	81
444.476	81
444.698	81
444.919	89
445.14	178
445.361	128
445.582	98
445.803	84
446.024	82
446.245	79
446.466	80
446.687	95
446.908	84
447.129	73
447.35	91
447.571	76
447.792	80
448.013	102
448.234	80
448.455	82
448.675	84
448.896	74
449.117	94
449.338	81
449.559	94
449.779	90
450	88
450.221	80
450.442	77
450.662	72
450.883	74
451.104	88
451.324	82
451.545	93
451.766	88
451.986	94
452.207	93
452.428	75
452.648	75
452.869	75
453.089	79
453.31	84
453.53	81
453.751	80
453.971	93
454.192	90
454.412	77
454.633	82
454.853	84
455.073	82
455.294	83
455.514	75
455.734	79
455.955	80
456.175	94
456.395	86
456.616	77
456.836	74
457.056	75
457.276	74
457.497	91
457.717	81
457.937	81
458.157	88
458.377	79
458.598	85
458.818	94
459.038	89
459.258	94
459.478	84
459.698	81
459.918	86
460.138	84
460.358	73
460.578	89
460.798	81
461.018	90
461.238	93
461.458	94
461.678	92
461.898	87
462.118	82
462.338	81
462.558	78
462.777	74
462.997	77
463.217	73
463.437	85
463.657	84
463.876	84
464.096	74
464.316	72
464.536	71
464.755	77
464.975	89
465.195	95
465.414	78
465.634	88
465.854	81
466.073	83
466.293	72
466.512	86
466.732	87
466.951	88
467.171	88
467.391	92
467.61	94
467.829	85
468.049	80
468.268	79
468.488	86
468.707	74
468.927	87
469.146	86
469.365	74
469.585	80
469.804	78
470.023	82
470.243	90
470.462	78
470.681	75
470.901	84
471.12	80
471.339	82
471.558	80
471.777	84
471.997	71
472.216	88
472.435	71
472.654	73
472.873	104
473.092	84
473.311	85
473.53	85
473.749	80
473.968	89
474.187	90
474.406	81
474.625	87
474.844	95
475.063	80
475.282	77
475.501	79
475.72	80
475.939	89
476.158	94
476.377	79
476.596	66
476.814	73
477.033	91
477.252	81
477.471	84
477.69	68
477.908	75
478.127	88
478.346	84
478.564	73
478.783	72
479.002	80
479.22	76
479.439	84
479.658	83
479.876	81
480.095	72
480.313	77
480.532	90
480.751	71
480.969	84
481.188	71
481.406	87
481.624	80
481.843	69
482.061	70
482.28	74
482.498	75
482.717	86
482.935	98
483.153	80
483.372	68
483.59	72
483.808	100
484.027	89
484.245	80
484.463	80
484.681	87
484.9	93
485.118	82
485.336	85
485.554	72
485.772	92
485.99	88
486.209	84
486.427	92
486.645	100
486.863	85
487.081	82
487.299	96
487.517	82
487.735	75
487.953	86
488.171	89
488.389	87
488.607	81
488.825	89
489.043	68
489.261	91
489.479	83
489.696	81
489.914	72
490.132	78
490.35	80
490.568	73
490.786	87
491.003	76
491.221	84
491.439	75
491.657	87
491.874	88
492.092	88
492.31	83
492.527	86
492.745	78
492.963	87
493.18	103
493.398	84
493.615	78
493.833	90
494.05	81
494.268	82
494.485	87
494.703	85
494.92	66
495.138	92
495.355	89
495.573	88
495.79	95
496.008	88
496.225	86
496.442	84
496.66	78
496.877	80
497.094	89
497.312	95
497.529	85
497.746	100
497.963	75
498.181	74
498.398	97
498.615	79
498.832	80
499.049	85
499.267	80
499.484	90
499.701	82
499.918	87
500.135	88
500.352	88
500.569	92
500.786	92
501.003	96
501.22	81
501.437	81
501.654	72
501.871	87
502.088	65
502.305	72
502.522	72
502.739	75
502.956	82
503.172	84
503.389	85
503.606	77
503.823	72
504.04	97
504.256	94
504.473	72
504.69	84
504.907	78
505.123	91
505.34	81
505.557	82
505.773	73
505.99	87
506.207	86
506.423	83
506.64	75
506.856	85
507.073	93
507.289	80
507.506	82
507.722	83
507.939	96
508.155	95
508.372	82
508.588	91
508.805	83
509.021	97
509.238	81
509.454	100
509.67	92
509.887	90
510.103	73
510.319	98
510.536	104
510.752	96
510.968	93
511.184	91
511.401	94
511.617	79
511.833	90
512.049	97
512.265	89
512.481	85
512.698	83
512.914	92
513.13	89
513.346	90
513.562	85
513.778	89
513.994	69
514.21	84
514.426	95
514.642	97
514.858	88
515.074	80
515.29	81
515.506	88
515.721	88
515.937	97
516.153	75
516.369	66
516.585	84
516.801	82
517.016	89
517.232	80
517.448	71
517.664	87
517.879	84
518.095	79
518.311	88
518.527	76
518.742	95
518.958	75
519.173	83
519.389	87
519.605	90
519.82	83
520.036	93
520.251	89
520.467	92
520.682	96
520.898	91
521.113	71
521.329	86
521.544	78
521.76	88
521.975	73
522.19	94
522.406	84
522.621	90
522.836	95
523.052	76
523.267	79
523.482	97
523.698	85
523.913	80
524.128	75
524.343	80
524.559	88
524.774	83
524.989	88
525.204	89
525.419	88
525.634	85
525.849	74
526.064	72
526.28	95
526.495	96
526.71	93
526.925	87
527.14	97
527.355	73
527.57	95
527.785	94
527.999	98
528.214	90
528.429	87
528.644	83
528.859	88
529.074	84
529.289	113
529.503	86
529.718	62
529.933	75
530.148	81
530.363	87
530.577	94
530.792	82
531.007	70
531.221	87
531.436	97
531.651	82
531.865	80
532.08	92
532.295	90
532.509	98
532.724	96
532.938	89
533.153	81
533.367	78
533.582	79
533.796	83
534.011	93
534.225	85
534.44	80
534.654	88
534.868	82
535.083	84
535.297	82
535.511	94
535.726	88
535.94	74
536.154	79
536.369	103
536.583	79
536.797	80
537.011	78
537.225	95
537.44	74
537.654	81
537.868	76
538.082	94
538.296	89
538.51	92
538.724	78
538.938	85
539.153	88
539.367	87
539.581	90
539.795	78
540.009	84
540.222	101
540.436	85
540.65	104
540.864	109
541.078	96
541.292	84
541.506	92
541.72	91
541.934	89
542.147	89
542.361	84
542.575	88
542.789	89
543.002	90
543.216	78
543.43	86
543.644	81
543.857	80
544.071	90
544.285	87
544.498	93
544.712	85
544.925	93
545.139	86
545.352	94
545.566	87
545.779	78
545.993	81
546.206	85
546.42	81
546.633	86
546.847	108
547.06	93
547.274	85
547.487	97
547.7	94
547.914	96
548.127	98
548.34	113
548.554	93
548.767	96
548.98	86
549.193	89
549.407	101
549.62	87
549.833	89
550.046	92
550.259	98
550.473	104
550.686	104
550.899	101
551.112	97
551.325	100
551.538	109
551.751	95
551.964	112
552.177	115
552.39	99
552.603	84
552.816	103
553.029	95
553.242	98
553.455	103
553.667	94
553.88	89
554.093	100
554.306	122
554.519	98
554.732	102
554.944	103
555.157	88
555.37	93
555.583	92
555.795	93
556.008	105
556.221	106
556.433	97
556.646	117
556.859	97
557.071	84
557.284	94
557.496	92
557.709	99
557.921	90
558.134	93
558.346	84
558.559	83
558.771	106
558.984	97
559.196	111
559.409	82
559.621	98
559.833	103
560.046	91
560.258	84
560.47	95
560.683	94
560.895	86
561.107	86
561.32	87
561.532	84
561.744	89
561.956	84
562.168	105
562.381	86
562.593	85
562.805	93
563.017	81
563.229	95
563.441	70
563.653	96
563.865	94
564.077	94
564.289	77
564.501	89
564.713	86
564.925	79
565.137	88
565.349	88
565.561	86
565.773	76
565.985	87
566.197	93
566.408	91
566.62	82
566.832	81
567.044	87
567.255	96
567.467	88
567.679	78
567.891	100
568.102	74
568.314	89
568.526	92
568.737	92
568.949	90
569.161	78
569.372	80
569.584	82
569.795	81
570.007	74
570.218	83
570.43	70
570.641	93
570.853	85
571.064	92
571.276	81
571.487	98
571.698	85
571.91	82
572.121	95
572.333	89
572.544	81
572.755	90
572.966	71
573.178	89
573.389	88
573.6	79
573.811	81
574.023	89
574.234	85
574.445	68
574.656	84
574.867	80
575.078	86
575.289	109
575.501	82
575.712	87
575.923	88
576.134	92
576.345	101
576.556	100
576.767	92
576.978	100
577.188	95
577.399	84
577.61	88
577.821	89
578.032	82
578.243	90
578.454	75
578.665	92
578.875	96
579.086	81
579.297	86
579.508	82
579.718	95
579.929	90
580.14	92
580.35	77
580.561	83
580.772	99
580.982	90
581.193	100
581.403	102
581.614	77
581.825	90
582.035	92
582.246	80
582.456	78
582.667	86
582.877	95
583.087	77
583.298	89
583.508	81
583.719	70
583.929	84
584.139	86
584.35	85
584.56	104
584.77	86
584.981	87
585.191	90
585.401	78
585.611	72
585.821	97
586.032	75
586.242	92
586.452	95
586.662	88
586.872	87
587.082	82
587.292	90
587.502	83
587.713	96
587.923	98
588.133	78
588.343	100
588.553	94
588.762	97
588.972	82
589.182	150
589.392	105
589.602	117
589.812	137
