Data from 1600_1_HRD10591_00045.txt Node
Date: Mon Jan 19 13:48:03 EST 2026
User: Yrep
Spectrometer: HR+D1059
Trigger mode: 1
Integration Time (sec): 1.000000E-1
Scans to average: 1
Electric dark correction enabled: true
Nonlinearity correction enabled: false
Boxcar width: 0
XAxis mode: Wavelengths
Number of Pixels in Spectrum: 2048
>>>>>Begin Spectral Data<<<<<
223.165	-4.94
223.4	-4.94
223.635	-4.94
223.869	-18.94
224.104	-10.94
224.338	-15.94
224.573	-21.94
224.808	-9.94
225.042	-14.94
225.277	3.06
225.511	-23.94
225.746	14.06
225.98	4.06
226.215	9.06
226.449	14.06
226.683	23.06
226.918	27.06
227.152	27.06
227.387	49.06
227.621	36.06
227.856	49.06
228.09	54.06
228.324	48.06
228.559	77.06
228.793	70.06
229.027	51.06
229.262	66.06
229.496	64.06
229.73	62.06
229.964	84.06
230.199	70.06
230.433	69.06
230.667	86.06
230.901	80.06
231.136	75.06
231.37	73.06
231.604	85.06
231.838	89.06
232.072	88.06
232.306	76.06
232.541	70.06
232.775	89.06
233.009	88.06
233.243	68.06
233.477	83.06
233.711	86.06
233.945	71.06
234.179	80.06
234.413	80.06
234.647	88.06
234.881	87.06
235.115	81.06
235.349	78.06
235.583	87.06
235.817	80.06
236.051	79.06
236.285	87.06
236.519	88.06
236.753	82.06
236.987	75.06
237.221	76.06
237.455	73.06
237.689	74.06
237.922	83.06
238.156	78.06
238.39	82.06
238.624	79.06
238.858	79.06
239.091	83.06
239.325	77.06
239.559	69.06
239.793	79.06
240.027	85.06
240.26	71.06
240.494	76.06
240.728	76.06
240.961	74.06
241.195	79.06
241.429	77.06
241.662	79.06
241.896	60.06
242.13	59.06
242.363	89.06
242.597	72.06
242.83	83.06
243.064	78.06
243.298	87.06
243.531	82.06
243.765	78.06
243.998	83.06
244.232	70.06
244.465	74.06
244.699	85.06
244.932	83.06
245.166	78.06
245.399	85.06
245.633	81.06
245.866	83.06
246.099	79.06
246.333	79.06
246.566	69.06
246.8	92.06
247.033	80.06
247.266	62.06
247.5	80.06
247.733	87.06
247.966	74.06
248.2	76.06
248.433	88.06
248.666	87.06
248.899	73.06
249.133	69.06
249.366	82.06
249.599	82.06
249.832	69.06
250.066	97.06
250.299	78.06
250.532	90.06
250.765	81.06
250.998	82.06
251.231	77.06
251.465	86.06
251.698	86.06
251.931	84.06
252.164	85.06
252.397	81.06
252.63	84.06
252.863	82.06
253.096	87.06
253.329	102.06
253.562	77.06
253.795	84.06
254.028	76.06
254.261	73.06
254.494	94.06
254.727	92.06
254.96	91.06
255.193	97.06
255.426	80.06
255.659	77.06
255.892	89.06
256.124	79.06
256.357	82.06
256.59	87.06
256.823	88.06
257.056	81.06
257.289	83.06
257.521	90.06
257.754	95.06
257.987	102.06
258.22	81.06
258.452	81.06
258.685	80.06
258.918	77.06
259.151	94.06
259.383	95.06
259.616	90.06
259.849	80.06
260.081	89.06
260.314	91.06
260.547	79.06
260.779	90.06
261.012	94.06
261.244	78.06
261.477	70.06
261.71	73.06
261.942	72.06
262.175	87.06
262.407	81.06
262.64	86.06
262.872	84.06
263.105	93.06
263.337	88.06
263.57	92.06
263.802	91.06
264.035	82.06
264.267	85.06
264.499	75.06
264.732	80.06
264.964	64.06
265.197	81.06
265.429	88.06
265.661	91.06
265.894	98.06
266.126	91.06
266.358	82.06
266.591	94.06
266.823	93.06
267.055	91.06
267.287	85.06
267.52	84.06
267.752	85.06
267.984	82.06
268.216	88.06
268.448	90.06
268.681	80.06
268.913	95.06
269.145	92.06
269.377	94.06
269.609	73.06
269.841	78.06
270.073	88.06
270.306	97.06
270.538	94.06
270.77	80.06
271.002	80.06
271.234	91.06
271.466	83.06
271.698	80.06
271.93	82.06
272.162	86.06
272.394	85.06
272.626	82.06
272.858	82.06
273.09	83.06
273.322	89.06
273.553	80.06
273.785	79.06
274.017	80.06
274.249	95.06
274.481	91.06
274.713	88.06
274.945	99.06
275.176	86.06
275.408	82.06
275.64	86.06
275.872	84.06
276.104	83.06
276.335	91.06
276.567	84.06
276.799	77.06
277.031	92.06
277.262	95.06
277.494	101.06
277.726	66.06
277.957	85.06
278.189	79.06
278.421	80.06
278.652	83.06
278.884	83.06
279.115	75.06
279.347	91.06
279.579	101.06
279.81	88.06
280.042	81.06
280.273	78.06
280.505	79.06
280.736	100.06
280.968	92.06
281.199	85.06
281.431	86.06
281.662	86.06
281.894	71.06
282.125	84.06
282.356	88.06
282.588	87.06
282.819	80.06
283.051	97.06
283.282	98.06
283.513	99.06
283.745	103.06
283.976	88.06
284.207	78.06
284.439	88.06
284.67	75.06
284.901	84.06
285.132	83.06
285.364	76.06
285.595	78.06
285.826	87.06
286.057	87.06
286.288	95.06
286.52	95.06
286.751	75.06
286.982	82.06
287.213	92.06
287.444	87.06
287.675	91.06
287.906	79.06
288.138	87.06
288.369	79.06
288.6	89.06
288.831	87.06
289.062	97.06
289.293	77.06
289.524	80.06
289.755	79.06
289.986	78.06
290.217	91.06
290.448	80.06
290.679	88.06
290.91	97.06
291.141	86.06
291.371	88.06
291.602	94.06
291.833	82.06
292.064	78.06
292.295	87.06
292.526	94.06
292.757	75.06
292.987	92.06
293.218	86.06
293.449	90.06
293.68	79.06
293.91	80.06
294.141	92.06
294.372	89.06
294.603	85.06
294.833	83.06
295.064	93.06
295.295	90.06
295.525	88.06
295.756	86.06
295.987	95.06
296.217	87.06
296.448	71.06
296.679	83.06
296.909	86.06
297.14	92.06
297.37	77.06
297.601	82.06
297.831	103.06
298.062	88.06
298.292	78.06
298.523	86.06
298.753	95.06
298.984	76.06
299.214	74.06
299.445	78.06
299.675	86.06
299.905	98.06
300.136	90.06
300.366	88.06
300.597	82.06
300.827	86.06
301.057	88.06
301.288	94.06
301.518	95.06
301.748	95.06
301.979	104.06
302.209	95.06
302.439	89.06
302.669	90.06
302.9	103.06
303.13	90.06
303.36	96.06
303.59	90.06
303.82	79.06
304.051	83.06
304.281	97.06
304.511	83.06
304.741	87.06
304.971	88.06
305.201	91.06
305.431	88.06
305.661	89.06
305.891	83.06
306.121	82.06
306.352	93.06
306.582	101.06
306.812	79.06
307.042	84.06
307.272	98.06
307.502	86.06
307.731	90.06
307.961	88.06
308.191	77.06
308.421	90.06
308.651	96.06
308.881	86.06
309.111	94.06
309.341	91.06
309.571	80.06
309.8	90.06
310.03	88.06
310.26	86.06
310.49	80.06
310.72	98.06
310.949	89.06
311.179	86.06
311.409	88.06
311.639	70.06
311.868	89.06
312.098	89.06
312.328	92.06
312.557	90.06
312.787	93.06
313.017	78.06
313.246	97.06
313.476	76.06
313.706	85.06
313.935	82.06
314.165	83.06
314.394	98.06
314.624	88.06
314.853	95.06
315.083	90.06
315.312	80.06
315.542	90.06
315.771	84.06
316.001	99.06
316.23	89.06
316.46	91.06
316.689	83.06
316.919	78.06
317.148	83.06
317.377	91.06
317.607	89.06
317.836	81.06
318.065	87.06
318.295	84.06
318.524	73.06
318.753	80.06
318.983	87.06
319.212	78.06
319.441	76.06
319.67	90.06
319.9	85.06
320.129	101.06
320.358	81.06
320.587	75.06
320.816	87.06
321.046	83.06
321.275	96.06
321.504	87.06
321.733	72.06
321.962	91.06
322.191	90.06
322.42	95.06
322.649	95.06
322.878	90.06
323.108	83.06
323.337	85.06
323.566	85.06
323.795	98.06
324.024	88.06
324.253	86.06
324.482	83.06
324.71	104.06
324.939	86.06
325.168	94.06
325.397	71.06
325.626	83.06
325.855	63.06
326.084	88.06
326.313	74.06
326.542	97.06
326.77	87.06
326.999	78.06
327.228	74.06
327.457	94.06
327.686	96.06
327.914	85.06
328.143	100.06
328.372	94.06
328.6	97.06
328.829	87.06
329.058	92.06
329.287	89.06
329.515	87.06
329.744	88.06
329.972	77.06
330.201	99.06
330.43	95.06
330.658	85.06
330.887	96.06
331.115	89.06
331.344	86.06
331.572	89.06
331.801	100.06
332.03	80.06
332.258	96.06
332.486	86.06
332.715	90.06
332.943	103.06
333.172	80.06
333.4	86.06
333.629	98.06
333.857	79.06
334.085	73.06
334.314	89.06
334.542	81.06
334.771	90.06
334.999	81.06
335.227	71.06
335.455	81.06
335.684	99.06
335.912	91.06
336.14	80.06
336.369	93.06
336.597	83.06
336.825	80.06
337.053	98.06
337.281	90.06
337.51	84.06
337.738	96.06
337.966	89.06
338.194	81.06
338.422	94.06
338.65	96.06
338.878	82.06
339.106	90.06
339.334	74.06
339.562	75.06
339.79	100.06
340.018	84.06
340.246	83.06
340.474	94.06
340.702	85.06
340.93	88.06
341.158	82.06
341.386	60.06
341.614	92.06
341.842	84.06
342.07	83.06
342.298	74.06
342.526	85.06
342.754	93.06
342.981	91.06
343.209	85.06
343.437	106.06
343.665	82.06
343.893	90.06
344.12	103.06
344.348	80.06
344.576	73.06
344.804	78.06
345.031	79.06
345.259	81.06
345.487	94.06
345.714	96.06
345.942	90.06
346.17	101.06
346.397	91.06
346.625	88.06
346.853	76.06
347.08	82.06
347.308	76.06
347.535	90.06
347.763	76.06
347.99	99.06
348.218	82.06
348.445	76.06
348.673	97.06
348.9	87.06
349.128	84.06
349.355	80.06
349.583	96.06
349.81	88.06
350.037	79.06
350.265	79.06
350.492	83.06
350.72	83.06
350.947	97.06
351.174	87.06
351.402	98.06
351.629	95.06
351.856	90.06
352.083	90.06
352.311	81.06
352.538	71.06
352.765	81.06
352.992	98.06
353.22	82.06
353.447	82.06
353.674	81.06
353.901	92.06
354.128	90.06
354.355	69.06
354.583	72.06
354.81	76.06
355.037	87.06
355.264	92.06
355.491	86.06
355.718	98.06
355.945	96.06
356.172	78.06
356.399	79.06
356.626	71.06
356.853	80.06
357.08	86.06
357.307	99.06
357.534	86.06
357.761	90.06
357.988	100.06
358.215	83.06
358.441	94.06
358.668	86.06
358.895	85.06
359.122	98.06
359.349	95.06
359.576	77.06
359.802	68.06
360.029	88.06
360.256	90.06
360.483	100.06
360.709	100.06
360.936	84.06
361.163	87.06
361.39	97.06
361.616	73.06
361.843	80.06
362.07	80.06
362.296	95.06
362.523	89.06
362.749	92.06
362.976	95.06
363.203	96.06
363.429	79.06
363.656	103.06
363.882	75.06
364.109	91.06
364.335	101.06
364.562	90.06
364.788	82.06
365.015	86.06
365.241	84.06
365.468	76.06
365.694	74.06
365.92	68.06
366.147	96.06
366.373	86.06
366.599	78.06
366.826	85.06
367.052	77.06
367.278	88.06
367.505	94.06
367.731	102.06
367.957	92.06
368.184	94.06
368.41	74.06
368.636	100.06
368.862	101.06
369.089	78.06
369.315	88.06
369.541	95.06
369.767	106.06
369.993	87.06
370.219	90.06
370.445	69.06
370.672	91.06
370.898	82.06
371.124	90.06
371.35	89.06
371.576	87.06
371.802	96.06
372.028	90.06
372.254	81.06
372.48	92.06
372.706	87.06
372.932	87.06
373.158	98.06
373.384	87.06
373.61	67.06
373.835	84.06
374.061	77.06
374.287	96.06
374.513	81.06
374.739	79.06
374.965	92.06
375.191	91.06
375.416	84.06
375.642	92.06
375.868	89.06
376.094	89.06
376.319	82.06
376.545	94.06
376.771	81.06
376.997	98.06
377.222	90.06
377.448	82.06
377.674	80.06
377.899	76.06
378.125	84.06
378.35	78.06
378.576	82.06
378.802	73.06
379.027	83.06
379.253	82.06
379.478	96.06
379.704	83.06
379.929	73.06
380.155	88.06
380.38	96.06
380.606	91.06
380.831	91.06
381.057	92.06
381.282	68.06
381.507	79.06
381.733	90.06
381.958	92.06
382.184	84.06
382.409	79.06
382.634	89.06
382.86	86.06
383.085	86.06
383.31	76.06
383.535	91.06
383.761	84.06
383.986	82.06
384.211	88.06
384.436	74.06
384.662	84.06
384.887	80.06
385.112	80.06
385.337	74.06
385.562	76.06
385.787	84.06
386.013	85.06
386.238	76.06
386.463	79.06
386.688	95.06
386.913	87.06
387.138	84.06
387.363	73.06
387.588	86.06
387.813	90.06
388.038	92.06
388.263	89.06
388.488	94.06
388.713	86.06
388.938	84.06
389.163	88.06
389.387	87.06
389.612	77.06
389.837	88.06
390.062	86.06
390.287	92.06
390.512	87.06
390.736	85.06
390.961	82.06
391.186	86.06
391.411	89.06
391.636	87.06
391.86	75.06
392.085	80.06
392.31	80.06
392.534	83.06
392.759	94.06
392.984	78.06
393.208	92.06
393.433	94.06
393.658	86.06
393.882	69.06
394.107	84.06
394.331	92.06
394.556	83.06
394.78	82.06
395.005	77.06
395.229	87.06
395.454	89.06
395.678	74.06
395.903	92.06
396.127	88.06
396.352	88.06
396.576	100.06
396.801	88.06
397.025	85.06
397.249	93.06
397.474	88.06
397.698	91.06
397.922	79.06
398.147	66.06
398.371	89.06
398.595	81.06
398.82	98.06
399.044	77.06
399.268	68.06
399.492	90.06
399.717	85.06
399.941	85.06
400.165	85.06
400.389	79.06
400.613	75.06
400.837	94.06
401.062	86.06
401.286	74.06
401.51	95.06
401.734	77.06
401.958	88.06
402.182	91.06
402.406	84.06
402.63	82.06
402.854	92.06
403.078	77.06
403.302	76.06
403.526	82.06
403.75	85.06
403.974	91.06
404.198	83.06
404.422	89.06
404.645	91.06
404.869	103.06
405.093	86.06
405.317	101.06
405.541	89.06
405.765	88.06
405.988	82.06
406.212	92.06
406.436	93.06
406.66	89.06
406.883	82.06
407.107	86.06
407.331	78.06
407.555	87.06
407.778	88.06
408.002	76.06
408.226	82.06
408.449	76.06
408.673	82.06
408.896	93.06
409.12	86.06
409.344	90.06
409.567	88.06
409.791	83.06
410.014	87.06
410.238	81.06
410.461	82.06
410.685	76.06
410.908	77.06
411.132	87.06
411.355	93.06
411.578	91.06
411.802	80.06
412.025	80.06
412.249	76.06
412.472	83.06
412.695	81.06
412.919	80.06
413.142	80.06
413.365	84.06
413.589	70.06
413.812	84.06
414.035	98.06
414.258	88.06
414.482	79.06
414.705	89.06
414.928	79.06
415.151	82.06
415.374	80.06
415.597	90.06
415.821	86.06
416.044	82.06
416.267	76.06
416.49	89.06
416.713	83.06
416.936	96.06
417.159	70.06
417.382	94.06
417.605	82.06
417.828	79.06
418.051	86.06
418.274	88.06
418.497	88.06
418.72	87.06
418.943	88.06
419.166	82.06
419.389	84.06
419.611	90.06
419.834	76.06
420.057	67.06
420.28	73.06
420.503	92.06
420.726	83.06
420.948	74.06
421.171	90.06
421.394	78.06
421.617	76.06
421.839	85.06
422.062	89.06
422.285	86.06
422.507	87.06
422.73	103.06
422.953	114.06
423.175	88.06
423.398	90.06
423.621	88.06
423.843	90.06
424.066	76.06
424.288	74.06
424.511	92.06
424.733	68.06
424.956	77.06
425.178	68.06
425.401	90.06
425.623	80.06
425.846	92.06
426.068	79.06
426.291	96.06
426.513	99.06
426.735	80.06
426.958	82.06
427.18	80.06
427.402	83.06
427.625	69.06
427.847	82.06
428.069	74.06
428.292	83.06
428.514	84.06
428.736	76.06
428.958	83.06
429.181	80.06
429.403	75.06
429.625	83.06
429.847	94.06
430.069	77.06
430.292	84.06
430.514	94.06
430.736	92.06
430.958	89.06
431.18	80.06
431.402	85.06
431.624	72.06
431.846	80.06
432.068	94.06
432.29	96.06
432.512	88.06
432.734	86.06
432.956	80.06
433.178	85.06
433.4	86.06
433.622	71.06
433.844	82.06
434.066	82.06
434.287	83.06
434.509	85.06
434.731	82.06
434.953	79.06
435.175	87.06
435.397	82.06
435.618	74.06
435.84	86.06
436.062	84.06
436.284	71.06
436.505	72.06
436.727	81.06
436.949	86.06
437.17	92.06
437.392	70.06
437.614	88.06
437.835	74.06
438.057	80.06
438.278	85.06
438.5	76.06
438.721	77.06
438.943	94.06
439.165	86.06
439.386	79.06
439.608	77.06
439.829	76.06
440.05	86.06
440.272	94.06
440.493	75.06
440.715	89.06
440.936	81.06
441.158	81.06
441.379	84.06
441.6	83.06
441.822	75.06
442.043	84.06
442.264	85.06
442.486	88.06
442.707	102.06
442.928	101.06
443.149	94.06
443.371	86.06
443.592	102.06
443.813	91.06
444.034	95.06
444.255	95.06
444.476	102.06
444.698	90.06
444.919	80.06
445.14	155.06
445.361	128.06
445.582	98.06
445.803	94.06
446.024	81.06
446.245	84.06
446.466	90.06
446.687	91.06
446.908	80.06
447.129	95.06
447.35	70.06
447.571	86.06
447.792	80.06
448.013	92.06
448.234	89.06
448.455	83.06
448.675	75.06
448.896	82.06
449.117	93.06
449.338	81.06
449.559	89.06
449.779	87.06
450	81.06
450.221	86.06
450.442	89.06
450.662	89.06
450.883	79.06
451.104	66.06
451.324	82.06
451.545	90.06
451.766	80.06
451.986	91.06
452.207	84.06
452.428	82.06
452.648	76.06
452.869	83.06
453.089	90.06
453.31	76.06
453.53	84.06
453.751	83.06
453.971	82.06
454.192	88.06
454.412	74.06
454.633	77.06
454.853	84.06
455.073	79.06
455.294	84.06
455.514	74.06
455.734	102.06
455.955	86.06
456.175	86.06
456.395	91.06
456.616	94.06
456.836	90.06
457.056	82.06
457.276	67.06
457.497	71.06
457.717	91.06
457.937	86.06
458.157	91.06
458.377	79.06
458.598	82.06
458.818	88.06
459.038	99.06
459.258	86.06
459.478	89.06
459.698	88.06
459.918	82.06
460.138	80.06
460.358	74.06
460.578	93.06
460.798	91.06
461.018	86.06
461.238	84.06
461.458	92.06
461.678	92.06
461.898	90.06
462.118	84.06
462.338	97.06
462.558	81.06
462.777	75.06
462.997	80.06
463.217	97.06
463.437	95.06
463.657	92.06
463.876	101.06
464.096	81.06
464.316	74.06
464.536	76.06
464.755	98.06
464.975	91.06
465.195	86.06
465.414	97.06
465.634	90.06
465.854	87.06
466.073	76.06
466.293	76.06
466.512	74.06
466.732	83.06
466.951	73.06
467.171	88.06
467.391	82.06
467.61	87.06
467.829	76.06
468.049	77.06
468.268	78.06
468.488	85.06
468.707	80.06
468.927	82.06
469.146	72.06
469.365	94.06
469.585	82.06
469.804	93.06
470.023	97.06
470.243	88.06
470.462	72.06
470.681	99.06
470.901	80.06
471.12	98.06
471.339	86.06
471.558	72.06
471.777	92.06
471.997	66.06
472.216	95.06
472.435	86.06
472.654	72.06
472.873	90.06
473.092	96.06
473.311	101.06
473.53	90.06
473.749	90.06
473.968	90.06
474.187	88.06
474.406	79.06
474.625	76.06
474.844	74.06
475.063	88.06
475.282	87.06
475.501	87.06
475.72	82.06
475.939	90.06
476.158	80.06
476.377	88.06
476.596	82.06
476.814	83.06
477.033	90.06
477.252	76.06
477.471	78.06
477.69	81.06
477.908	90.06
478.127	82.06
478.346	85.06
478.564	90.06
478.783	104.06
479.002	83.06
479.22	93.06
479.439	88.06
479.658	95.06
479.876	84.06
480.095	75.06
480.313	94.06
480.532	94.06
480.751	93.06
480.969	91.06
481.188	69.06
481.406	83.06
481.624	86.06
481.843	79.06
482.061	90.06
482.28	80.06
482.498	84.06
482.717	78.06
482.935	81.06
483.153	88.06
483.372	92.06
483.59	83.06
483.808	87.06
484.027	74.06
484.245	80.06
484.463	86.06
484.681	85.06
484.9	96.06
485.118	98.06
485.336	86.06
485.554	90.06
485.772	89.06
485.99	86.06
486.209	89.06
486.427	69.06
486.645	88.06
486.863	89.06
487.081	81.06
487.299	87.06
487.517	82.06
487.735	92.06
487.953	94.06
488.171	101.06
488.389	94.06
488.607	86.06
488.825	88.06
489.043	83.06
489.261	74.06
489.479	94.06
489.696	94.06
489.914	81.06
490.132	88.06
490.35	103.06
490.568	81.06
490.786	93.06
491.003	79.06
491.221	82.06
491.439	79.06
491.657	77.06
491.874	74.06
492.092	88.06
492.31	79.06
492.527	84.06
492.745	83.06
492.963	84.06
493.18	95.06
493.398	81.06
493.615	86.06
493.833	80.06
494.05	84.06
494.268	87.06
494.485	90.06
494.703	84.06
494.92	86.06
495.138	88.06
495.355	90.06
495.573	93.06
495.79	102.06
496.008	95.06
496.225	95.06
496.442	59.06
496.66	84.06
496.877	86.06
497.094	90.06
497.312	90.06
497.529	91.06
497.746	86.06
497.963	94.06
498.181	94.06
498.398	94.06
498.615	74.06
498.832	84.06
499.049	83.06
499.267	97.06
499.484	84.06
499.701	81.06
499.918	75.06
500.135	98.06
500.352	82.06
500.569	84.06
500.786	81.06
501.003	87.06
501.22	82.06
501.437	100.06
501.654	90.06
501.871	91.06
502.088	86.06
502.305	101.06
502.522	79.06
502.739	77.06
502.956	86.06
503.172	91.06
503.389	90.06
503.606	87.06
503.823	71.06
504.04	84.06
504.256	82.06
504.473	76.06
504.69	90.06
504.907	90.06
505.123	87.06
505.34	86.06
505.557	75.06
505.773	74.06
505.99	86.06
506.207	80.06
506.423	86.06
506.64	88.06
506.856	90.06
507.073	94.06
507.289	89.06
507.506	82.06
507.722	91.06
507.939	85.06
508.155	76.06
508.372	97.06
508.588	97.06
508.805	93.06
509.021	92.06
509.238	71.06
509.454	89.06
509.67	90.06
509.887	95.06
510.103	88.06
510.319	91.06
510.536	99.06
510.752	91.06
510.968	79.06
511.184	86.06
511.401	91.06
511.617	89.06
511.833	80.06
512.049	88.06
512.265	77.06
512.481	81.06
512.698	97.06
512.914	94.06
513.13	89.06
513.346	93.06
513.562	92.06
513.778	82.06
513.994	105.06
514.21	86.06
514.426	82.06
514.642	84.06
514.858	95.06
515.074	80.06
515.29	87.06
515.506	86.06
515.721	84.06
515.937	97.06
516.153	80.06
516.369	88.06
516.585	86.06
516.801	94.06
517.016	89.06
517.232	69.06
517.448	82.06
517.664	79.06
517.879	84.06
518.095	82.06
518.311	80.06
518.527	82.06
518.742	96.06
518.958	87.06
519.173	107.06
519.389	95.06
519.605	94.06
