Data from 1600_1_HRD10591_00022.txt Node
Date: Mon Jan 19 13:47:52 EST 2026
User: Yrep
Spectrometer: HR+D1059
Trigger mode: 1
Integration Time (sec): 1.000000E-1
Scans to average: 1
Electric dark correction enabled: true
Nonlinearity correction enabled: false
Boxcar width: 0
XAxis mode: Wavelengths
Number of Pixels in Spectrum: 2048
>>>>>Begin Spectral Data<<<<<
223.165	-25.12
223.4	-25.12
223.635	-25.12
223.869	-16.12
224.104	-21.12
224.338	-19.12
224.573	-10.12
224.808	-12.12
225.042	-8.12
225.277	-4.12
225.511	-1.12
225.746	1.88
225.98	14.88
226.215	7.88
226.449	17.88
226.683	9.88
226.918	27.88
227.152	36.88
227.387	50.88
227.621	51.88
227.856	56.88
228.09	48.88
228.324	56.88
228.559	76.88
228.793	65.88
229.027	77.88
229.262	65.88
229.496	73.88
229.73	75.88
229.964	62.88
230.199	62.88
230.433	76.88
230.667	62.88
230.901	100.88
231.136	73.88
231.37	79.88
231.604	83.88
231.838	70.88
232.072	84.88
232.306	76.88
232.541	89.88
232.775	85.88
233.009	101.88
233.243	85.88
233.477	86.88
233.711	93.88
233.945	89.88
234.179	76.88
234.413	87.88
234.647	84.88
234.881	78.88
235.115	87.88
235.349	83.88
235.583	89.88
235.817	101.88
236.051	90.88
236.285	90.88
236.519	75.88
236.753	76.88
236.987	69.88
237.221	74.88
237.455	90.88
237.689	79.88
237.922	75.88
238.156	60.88
238.39	72.88
238.624	84.88
238.858	63.88
239.091	79.88
239.325	87.88
239.559	78.88
239.793	81.88
240.027	85.88
240.26	82.88
240.494	65.88
240.728	81.88
240.961	74.88
241.195	78.88
241.429	70.88
241.662	72.88
241.896	87.88
242.13	80.88
242.363	81.88
242.597	87.88
242.83	77.88
243.064	61.88
243.298	81.88
243.531	76.88
243.765	72.88
243.998	79.88
244.232	80.88
244.465	76.88
244.699	85.88
244.932	72.88
245.166	93.88
245.399	82.88
245.633	80.88
245.866	79.88
246.099	75.88
246.333	81.88
246.566	70.88
246.8	67.88
247.033	67.88
247.266	75.88
247.5	79.88
247.733	87.88
247.966	93.88
248.2	78.88
248.433	75.88
248.666	72.88
248.899	75.88
249.133	70.88
249.366	94.88
249.599	94.88
249.832	66.88
250.066	92.88
250.299	64.88
250.532	72.88
250.765	84.88
250.998	88.88
251.231	67.88
251.465	83.88
251.698	82.88
251.931	75.88
252.164	65.88
252.397	63.88
252.63	88.88
252.863	71.88
253.096	85.88
253.329	79.88
253.562	74.88
253.795	88.88
254.028	76.88
254.261	77.88
254.494	73.88
254.727	86.88
254.96	77.88
255.193	78.88
255.426	80.88
255.659	72.88
255.892	86.88
256.124	67.88
256.357	83.88
256.59	75.88
256.823	100.88
257.056	79.88
257.289	90.88
257.521	77.88
257.754	91.88
257.987	75.88
258.22	87.88
258.452	74.88
258.685	98.88
258.918	81.88
259.151	96.88
259.383	83.88
259.616	76.88
259.849	70.88
260.081	72.88
260.314	74.88
260.547	74.88
260.779	88.88
261.012	86.88
261.244	82.88
261.477	83.88
261.71	85.88
261.942	88.88
262.175	85.88
262.407	81.88
262.64	91.88
262.872	83.88
263.105	82.88
263.337	83.88
263.57	81.88
263.802	70.88
264.035	75.88
264.267	88.88
264.499	91.88
264.732	90.88
264.964	66.88
265.197	95.88
265.429	89.88
265.661	93.88
265.894	96.88
266.126	97.88
266.358	74.88
266.591	87.88
266.823	93.88
267.055	89.88
267.287	87.88
267.52	71.88
267.752	88.88
267.984	82.88
268.216	72.88
268.448	89.88
268.681	95.88
268.913	93.88
269.145	79.88
269.377	84.88
269.609	91.88
269.841	97.88
270.073	83.88
270.306	82.88
270.538	79.88
270.77	84.88
271.002	76.88
271.234	77.88
271.466	81.88
271.698	88.88
271.93	81.88
272.162	81.88
272.394	81.88
272.626	66.88
272.858	89.88
273.09	90.88
273.322	86.88
273.553	89.88
273.785	98.88
274.017	82.88
274.249	89.88
274.481	88.88
274.713	72.88
274.945	83.88
275.176	81.88
275.408	82.88
275.64	75.88
275.872	84.88
276.104	69.88
276.335	98.88
276.567	82.88
276.799	73.88
277.031	96.88
277.262	88.88
277.494	90.88
277.726	93.88
277.957	74.88
278.189	89.88
278.421	84.88
278.652	78.88
278.884	83.88
279.115	65.88
279.347	79.88
279.579	89.88
279.81	86.88
280.042	75.88
280.273	81.88
280.505	87.88
280.736	68.88
280.968	87.88
281.199	84.88
281.431	88.88
281.662	89.88
281.894	80.88
282.125	87.88
282.356	95.88
282.588	77.88
282.819	86.88
283.051	87.88
283.282	87.88
283.513	85.88
283.745	76.88
283.976	82.88
284.207	97.88
284.439	71.88
284.67	81.88
284.901	77.88
285.132	90.88
285.364	93.88
285.595	84.88
285.826	79.88
286.057	84.88
286.288	87.88
286.52	89.88
286.751	92.88
286.982	88.88
287.213	94.88
287.444	90.88
287.675	83.88
287.906	76.88
288.138	89.88
288.369	81.88
288.6	80.88
288.831	94.88
289.062	69.88
289.293	90.88
289.524	78.88
289.755	79.88
289.986	83.88
290.217	58.88
290.448	89.88
290.679	93.88
290.91	89.88
291.141	93.88
291.371	67.88
291.602	81.88
291.833	82.88
292.064	75.88
292.295	86.88
292.526	86.88
292.757	89.88
292.987	81.88
293.218	96.88
293.449	95.88
293.68	93.88
293.91	83.88
294.141	88.88
294.372	74.88
294.603	87.88
294.833	83.88
295.064	93.88
295.295	89.88
295.525	87.88
295.756	90.88
295.987	101.88
296.217	97.88
296.448	71.88
296.679	91.88
296.909	88.88
297.14	85.88
297.37	88.88
297.601	87.88
297.831	95.88
298.062	81.88
298.292	87.88
298.523	83.88
298.753	95.88
298.984	79.88
299.214	84.88
299.445	70.88
299.675	89.88
299.905	87.88
300.136	85.88
300.366	86.88
300.597	73.88
300.827	91.88
301.057	87.88
301.288	85.88
301.518	82.88
301.748	77.88
301.979	94.88
302.209	79.88
302.439	83.88
302.669	69.88
302.9	85.88
303.13	84.88
303.36	91.88
303.59	75.88
303.82	83.88
304.051	82.88
304.281	102.88
304.511	76.88
304.741	98.88
304.971	72.88
305.201	88.88
305.431	98.88
305.661	93.88
305.891	93.88
306.121	79.88
306.352	78.88
306.582	81.88
306.812	85.88
307.042	87.88
307.272	90.88
307.502	74.88
307.731	91.88
307.961	96.88
308.191	85.88
308.421	95.88
308.651	99.88
308.881	93.88
309.111	91.88
309.341	76.88
309.571	95.88
309.8	82.88
310.03	81.88
310.26	87.88
310.49	78.88
310.72	84.88
310.949	88.88
311.179	87.88
311.409	86.88
311.639	90.88
311.868	85.88
312.098	84.88
312.328	76.88
312.557	101.88
312.787	93.88
313.017	88.88
313.246	101.88
313.476	92.88
313.706	82.88
313.935	84.88
314.165	87.88
314.394	81.88
314.624	77.88
314.853	83.88
315.083	97.88
315.312	96.88
315.542	98.88
315.771	80.88
316.001	98.88
316.23	80.88
316.46	93.88
316.689	82.88
316.919	86.88
317.148	73.88
317.377	92.88
317.607	81.88
317.836	96.88
318.065	82.88
318.295	97.88
318.524	75.88
318.753	87.88
318.983	83.88
319.212	92.88
319.441	71.88
319.67	85.88
319.9	91.88
320.129	88.88
320.358	83.88
320.587	72.88
320.816	87.88
321.046	85.88
321.275	103.88
321.504	80.88
321.733	87.88
321.962	91.88
322.191	89.88
322.42	90.88
322.649	79.88
322.878	81.88
323.108	79.88
323.337	82.88
323.566	90.88
323.795	83.88
324.024	82.88
324.253	81.88
324.482	85.88
324.71	90.88
324.939	91.88
325.168	84.88
325.397	85.88
325.626	88.88
325.855	86.88
326.084	81.88
326.313	88.88
326.542	95.88
326.77	81.88
326.999	80.88
327.228	87.88
327.457	84.88
327.686	78.88
327.914	94.88
328.143	87.88
328.372	86.88
328.6	82.88
328.829	78.88
329.058	91.88
329.287	85.88
329.515	75.88
329.744	89.88
329.972	86.88
330.201	79.88
330.43	98.88
330.658	84.88
330.887	97.88
331.115	77.88
331.344	97.88
331.572	96.88
331.801	85.88
332.03	104.88
332.258	91.88
332.486	93.88
332.715	83.88
332.943	79.88
333.172	89.88
333.4	85.88
333.629	97.88
333.857	85.88
334.085	73.88
334.314	97.88
334.542	81.88
334.771	93.88
334.999	78.88
335.227	73.88
335.455	79.88
335.684	75.88
335.912	93.88
336.14	88.88
336.369	76.88
336.597	81.88
336.825	84.88
337.053	85.88
337.281	69.88
337.51	96.88
337.738	80.88
337.966	87.88
338.194	75.88
338.422	95.88
338.65	82.88
338.878	88.88
339.106	81.88
339.334	75.88
339.562	84.88
339.79	78.88
340.018	91.88
340.246	88.88
340.474	76.88
340.702	96.88
340.93	81.88
341.158	82.88
341.386	82.88
341.614	86.88
341.842	81.88
342.07	70.88
342.298	87.88
342.526	90.88
342.754	85.88
342.981	65.88
343.209	97.88
343.437	91.88
343.665	84.88
343.893	92.88
344.12	93.88
344.348	94.88
344.576	83.88
344.804	93.88
345.031	72.88
345.259	81.88
345.487	77.88
345.714	81.88
345.942	72.88
346.17	85.88
346.397	75.88
346.625	89.88
346.853	80.88
347.08	78.88
347.308	78.88
347.535	94.88
347.763	69.88
347.99	66.88
348.218	79.88
348.445	75.88
348.673	79.88
348.9	71.88
349.128	86.88
349.355	85.88
349.583	84.88
349.81	86.88
350.037	73.88
350.265	88.88
350.492	85.88
350.72	86.88
350.947	82.88
351.174	96.88
351.402	85.88
351.629	93.88
351.856	98.88
352.083	83.88
352.311	86.88
352.538	80.88
352.765	79.88
352.992	97.88
353.22	77.88
353.447	95.88
353.674	90.88
353.901	86.88
354.128	85.88
354.355	82.88
354.583	99.88
354.81	93.88
355.037	93.88
355.264	88.88
355.491	86.88
355.718	91.88
355.945	94.88
356.172	80.88
356.399	88.88
356.626	79.88
356.853	85.88
357.08	88.88
357.307	79.88
357.534	94.88
357.761	88.88
357.988	89.88
358.215	70.88
358.441	83.88
358.668	79.88
358.895	80.88
359.122	91.88
359.349	85.88
359.576	90.88
359.802	75.88
360.029	83.88
360.256	74.88
360.483	75.88
360.709	88.88
360.936	89.88
361.163	75.88
361.39	96.88
361.616	88.88
361.843	103.88
362.07	116.88
362.296	76.88
362.523	81.88
362.749	76.88
362.976	79.88
363.203	84.88
363.429	76.88
363.656	65.88
363.882	80.88
364.109	91.88
364.335	77.88
364.562	93.88
364.788	80.88
365.015	77.88
365.241	84.88
365.468	79.88
365.694	95.88
365.92	101.88
366.147	84.88
366.373	86.88
366.599	82.88
366.826	84.88
367.052	88.88
367.278	84.88
367.505	86.88
367.731	82.88
367.957	82.88
368.184	85.88
368.41	81.88
368.636	84.88
368.862	86.88
369.089	84.88
369.315	84.88
369.541	84.88
369.767	70.88
369.993	79.88
370.219	97.88
370.445	76.88
370.672	77.88
370.898	88.88
371.124	86.88
371.35	89.88
371.576	80.88
371.802	76.88
372.028	83.88
372.254	74.88
372.48	80.88
372.706	91.88
372.932	79.88
373.158	83.88
373.384	87.88
373.61	91.88
373.835	95.88
374.061	88.88
374.287	87.88
374.513	89.88
374.739	73.88
374.965	93.88
375.191	80.88
375.416	82.88
375.642	87.88
375.868	79.88
376.094	96.88
376.319	83.88
376.545	82.88
376.771	88.88
376.997	90.88
377.222	90.88
377.448	88.88
377.674	85.88
377.899	83.88
378.125	100.88
378.35	74.88
378.576	89.88
378.802	83.88
379.027	96.88
379.253	80.88
379.478	81.88
379.704	81.88
379.929	70.88
380.155	70.88
380.38	94.88
380.606	81.88
380.831	91.88
381.057	79.88
381.282	89.88
381.507	74.88
381.733	79.88
381.958	71.88
382.184	95.88
382.409	87.88
382.634	103.88
382.86	85.88
383.085	82.88
383.31	66.88
383.535	93.88
383.761	73.88
383.986	71.88
384.211	74.88
384.436	64.88
384.662	88.88
384.887	83.88
385.112	81.88
385.337	79.88
385.562	90.88
385.787	76.88
386.013	90.88
386.238	85.88
386.463	97.88
386.688	84.88
386.913	90.88
387.138	72.88
387.363	87.88
387.588	86.88
387.813	76.88
388.038	66.88
388.263	96.88
388.488	74.88
388.713	85.88
388.938	77.88
389.163	90.88
389.387	87.88
389.612	82.88
389.837	88.88
390.062	79.88
390.287	83.88
390.512	82.88
390.736	92.88
390.961	93.88
391.186	74.88
391.411	93.88
391.636	83.88
391.86	76.88
392.085	84.88
392.31	93.88
392.534	86.88
392.759	95.88
392.984	83.88
393.208	85.88
393.433	112.88
393.658	78.88
393.882	72.88
394.107	77.88
394.331	96.88
394.556	91.88
394.78	90.88
395.005	79.88
395.229	93.88
395.454	74.88
395.678	86.88
395.903	83.88
396.127	99.88
396.352	98.88
396.576	86.88
396.801	85.88
397.025	91.88
397.249	69.88
397.474	93.88
397.698	83.88
397.922	89.88
398.147	93.88
398.371	75.88
398.595	93.88
398.82	73.88
399.044	89.88
399.268	75.88
399.492	87.88
399.717	89.88
399.941	89.88
400.165	82.88
400.389	81.88
400.613	73.88
400.837	79.88
401.062	97.88
401.286	74.88
401.51	81.88
401.734	97.88
401.958	101.88
402.182	78.88
402.406	69.88
402.63	92.88
402.854	87.88
403.078	76.88
403.302	94.88
403.526	79.88
403.75	99.88
403.974	75.88
404.198	76.88
404.422	83.88
404.645	83.88
404.869	76.88
405.093	97.88
405.317	82.88
405.541	98.88
405.765	99.88
405.988	86.88
406.212	71.88
406.436	72.88
406.66	91.88
406.883	78.88
407.107	81.88
407.331	85.88
407.555	79.88
407.778	89.88
408.002	83.88
408.226	83.88
408.449	89.88
408.673	83.88
408.896	80.88
409.12	67.88
409.344	75.88
409.567	95.88
409.791	84.88
410.014	81.88
410.238	86.88
410.461	85.88
410.685	84.88
410.908	85.88
411.132	90.88
411.355	68.88
411.578	83.88
411.802	79.88
412.025	87.88
412.249	95.88
412.472	87.88
412.695	75.88
412.919	80.88
413.142	87.88
413.365	78.88
413.589	90.88
413.812	86.88
414.035	91.88
414.258	87.88
414.482	93.88
414.705	90.88
414.928	103.88
415.151	85.88
415.374	74.88
415.597	69.88
415.821	94.88
416.044	79.88
416.267	96.88
416.49	89.88
416.713	92.88
416.936	86.88
417.159	88.88
417.382	87.88
417.605	82.88
417.828	85.88
418.051	73.88
418.274	83.88
418.497	94.88
418.72	82.88
418.943	103.88
419.166	83.88
419.389	87.88
419.611	81.88
419.834	85.88
420.057	84.88
420.28	82.88
420.503	81.88
420.726	89.88
420.948	98.88
421.171	83.88
421.394	81.88
421.617	72.88
421.839	79.88
422.062	87.88
422.285	81.88
422.507	101.88
422.73	95.88
422.953	98.88
423.175	87.88
423.398	91.88
423.621	84.88
423.843	81.88
424.066	78.88
424.288	82.88
424.511	86.88
424.733	81.88
424.956	79.88
425.178	76.88
425.401	70.88
425.623	83.88
425.846	85.88
426.068	84.88
426.291	75.88
426.513	78.88
426.735	86.88
426.958	86.88
427.18	74.88
427.402	86.88
427.625	65.88
427.847	82.88
428.069	79.88
428.292	74.88
428.514	77.88
428.736	88.88
428.958	87.88
429.181	83.88
429.403	90.88
429.625	80.88
429.847	84.88
430.069	94.88
430.292	93.88
430.514	86.88
430.736	74.88
430.958	92.88
431.18	79.88
431.402	78.88
431.624	95.88
431.846	75.88
432.068	71.88
432.29	88.88
432.512	87.88
432.734	95.88
432.956	87.88
433.178	90.88
433.4	75.88
433.622	82.88
433.844	87.88
434.066	86.88
434.287	78.88
434.509	72.88
434.731	79.88
434.953	91.88
435.175	79.88
435.397	82.88
435.618	87.88
435.84	81.88
436.062	79.88
436.284	73.88
436.505	91.88
436.727	94.88
436.949	89.88
437.17	81.88
437.392	75.88
437.614	66.88
437.835	88.88
438.057	104.88
438.278	75.88
438.5	73.88
438.721	85.88
438.943	89.88
439.165	86.88
439.386	85.88
439.608	88.88
439.829	73.88
440.05	87.88
440.272	89.88
440.493	86.88
440.715	87.88
440.936	85.88
441.158	89.88
441.379	95.88
441.6	81.88
441.822	83.88
442.043	67.88
442.264	74.88
442.486	75.88
442.707	82.88
442.928	87.88
443.149	93.88
443.371	100.88
443.592	83.88
443.813	97.88
444.034	91.88
444.255	82.88
444.476	77.88
444.698	88.88
444.919	82.88
445.14	155.88
445.361	115.88
445.582	100.88
445.803	79.88
446.024	77.88
446.245	93.88
446.466	87.88
446.687	70.88
446.908	90.88
447.129	90.88
447.35	83.88
447.571	97.88
447.792	81.88
448.013	90.88
448.234	87.88
448.455	88.88
448.675	92.88
448.896	78.88
449.117	88.88
449.338	99.88
449.559	86.88
449.779	87.88
450	84.88
450.221	92.88
450.442	74.88
450.662	89.88
450.883	75.88
451.104	85.88
451.324	93.88
451.545	94.88
451.766	80.88
451.986	99.88
452.207	80.88
452.428	86.88
452.648	83.88
452.869	87.88
453.089	87.88
453.31	95.88
453.53	82.88
453.751	83.88
453.971	88.88
454.192	70.88
454.412	85.88
454.633	86.88
454.853	91.88
455.073	88.88
455.294	85.88
455.514	89.88
455.734	73.88
455.955	80.88
456.175	73.88
456.395	78.88
456.616	77.88
456.836	89.88
457.056	84.88
457.276	87.88
457.497	84.88
457.717	90.88
457.937	77.88
458.157	84.88
458.377	90.88
458.598	93.88
458.818	93.88
459.038	95.88
459.258	86.88
459.478	77.88
459.698	81.88
459.918	75.88
460.138	88.88
460.358	77.88
460.578	70.88
460.798	77.88
461.018	82.88
461.238	89.88
461.458	77.88
461.678	71.88
461.898	73.88
462.118	83.88
462.338	79.88
462.558	81.88
462.777	77.88
462.997	91.88
463.217	91.88
463.437	90.88
463.657	84.88
463.876	87.88
464.096	79.88
464.316	60.88
464.536	92.88
464.755	97.88
464.975	95.88
465.195	91.88
465.414	78.88
465.634	89.88
465.854	80.88
466.073	82.88
466.293	84.88
466.512	75.88
466.732	85.88
466.951	85.88
467.171	83.88
467.391	97.88
467.61	81.88
467.829	91.88
468.049	77.88
468.268	71.88
468.488	80.88
468.707	69.88
468.927	82.88
469.146	82.88
469.365	94.88
469.585	86.88
469.804	86.88
470.023	72.88
470.243	94.88
470.462	97.88
470.681	85.88
470.901	76.88
471.12	88.88
471.339	82.88
471.558	88.88
471.777	79.88
471.997	88.88
472.216	77.88
472.435	76.88
472.654	72.88
472.873	85.88
473.092	98.88
473.311	78.88
473.53	81.88
473.749	95.88
473.968	80.88
474.187	85.88
474.406	81.88
474.625	84.88
474.844	81.88
475.063	81.88
475.282	69.88
475.501	81.88
475.72	85.88
475.939	75.88
476.158	90.88
476.377	79.88
476.596	82.88
476.814	82.88
477.033	76.88
477.252	93.88
477.471	85.88
477.69	76.88
477.908	73.88
478.127	89.88
478.346	71.88
478.564	82.88
478.783	80.88
479.002	89.88
479.22	97.88
479.439	95.88
479.658	78.88
479.876	83.88
480.095	70.88
480.313	85.88
480.532	90.88
480.751	85.88
480.969	81.88
481.188	77.88
481.406	81.88
481.624	79.88
481.843	64.88
482.061	77.88
482.28	78.88
482.498	79.88
482.717	87.88
482.935	89.88
483.153	86.88
483.372	77.88
483.59	83.88
483.808	97.88
484.027	88.88
484.245	74.88
484.463	78.88
484.681	85.88
484.9	73.88
485.118	91.88
485.336	74.88
485.554	81.88
485.772	79.88
485.99	96.88
486.209	85.88
486.427	79.88
486.645	86.88
486.863	92.88
487.081	72.88
487.299	89.88
487.517	88.88
487.735	78.88
487.953	89.88
488.171	77.88
488.389	85.88
488.607	79.88
488.825	97.88
489.043	102.88
489.261	85.88
489.479	79.88
489.696	70.88
489.914	73.88
490.132	81.88
490.35	82.88
490.568	92.88
490.786	89.88
491.003	86.88
491.221	86.88
491.439	76.88
491.657	79.88
491.874	81.88
492.092	76.88
492.31	76.88
492.527	99.88
492.745	83.88
492.963	92.88
493.18	85.88
493.398	82.88
493.615	78.88
493.833	77.88
494.05	85.88
494.268	75.88
494.485	83.88
494.703	89.88
494.92	78.88
495.138	85.88
495.355	76.88
495.573	91.88
495.79	87.88
496.008	90.88
496.225	88.88
496.442	87.88
496.66	84.88
496.877	79.88
497.094	87.88
497.312	72.88
497.529	75.88
497.746	83.88
497.963	74.88
498.181	69.88
498.398	86.88
498.615	90.88
498.832	76.88
499.049	87.88
499.267	86.88
499.484	74.88
499.701	74.88
499.918	91.88
500.135	86.88
500.352	93.88
500.569	71.88
500.786	75.88
501.003	84.88
501.22	83.88
501.437	81.88
501.654	76.88
501.871	81.88
502.088	79.88
502.305	98.88
502.522	91.88
502.739	81.88
502.956	93.88
503.172	88.88
503.389	74.88
503.606	82.88
503.823	85.88
504.04	81.88
504.256	84.88
504.473	96.88
504.69	82.88
504.907	99.88
505.123	74.88
505.34	71.88
505.557	72.88
505.773	89.88
505.99	75.88
506.207	79.88
506.423	79.88
506.64	90.88
506.856	96.88
507.073	79.88
507.289	71.88
507.506	81.88
507.722	80.88
507.939	89.88
508.155	89.88
508.372	81.88
508.588	85.88
508.805	95.88
509.021	86.88
509.238	79.88
509.454	79.88
509.67	75.88
509.887	86.88
510.103	92.88
510.319	87.88
510.536	76.88
510.752	81.88
510.968	85.88
511.184	83.88
511.401	77.88
511.617	87.88
511.833	90.88
512.049	80.88
512.265	95.88
512.481	92.88
512.698	79.88
512.914	83.88
513.13	75.88
513.346	70.88
513.562	88.88
513.778	81.88
513.994	87.88
514.21	83.88
514.426	83.88
514.642	100.88
514.858	85.88
515.074	83.88
515.29	76.88
515.506	72.88
515.721	81.88
515.937	73.88
516.153	77.88
516.369	80.88
516.585	82.88
516.801	72.88
517.016	89.88
517.232	81.88
517.448	71.88
517.664	91.88
517.879	88.88
518.095	75.88
518.311	84.88
518.527	98.88
518.742	93.88
518.958	92.88
519.173	93.88
519.389	75.88
519.605	79.88
519.82	70.88
520.036	94.88
