Data from 1600_1_HRD10591_00037.txt Node
Date: Mon Jan 19 13:47:59 EST 2026
User: Yrep
Spectrometer: HR+D1059
Trigger mode: 1
Integration Time (sec): 1.000000E-1
Scans to average: 1
Electric dark correction enabled: true
Nonlinearity correction enabled: false
Boxcar width: 0
XAxis mode: Wavelengths
Number of Pixels in Spectrum: 2048
>>>>>Begin Spectral Data<<<<<
223.165	-29.38
223.4	-29.38
223.635	-29.38
223.869	-35.38
224.104	-15.38
224.338	-19.38
224.573	-1.38
224.808	-5.38
225.042	-12.38
225.277	0.62
225.511	3.62
225.746	6.62
225.98	11.62
226.215	10.62
226.449	3.62
226.683	23.62
226.918	30.62
227.152	27.62
227.387	28.62
227.621	47.62
227.856	33.62
228.09	36.62
228.324	41.62
228.559	56.62
228.793	70.62
229.027	66.62
229.262	58.62
229.496	61.62
229.73	68.62
229.964	79.62
230.199	78.62
230.433	82.62
230.667	84.62
230.901	80.62
231.136	81.62
231.37	90.62
231.604	80.62
231.838	74.62
232.072	74.62
232.306	85.62
232.541	90.62
232.775	82.62
233.009	96.62
233.243	82.62
233.477	85.62
233.711	81.62
233.945	86.62
234.179	89.62
234.413	75.62
234.647	91.62
234.881	81.62
235.115	84.62
235.349	94.62
235.583	81.62
235.817	71.62
236.051	80.62
236.285	85.62
236.519	92.62
236.753	85.62
236.987	84.62
237.221	80.62
237.455	80.62
237.689	72.62
237.922	75.62
238.156	100.62
238.39	74.62
238.624	80.62
238.858	91.62
239.091	86.62
239.325	88.62
239.559	74.62
239.793	82.62
240.027	77.62
240.26	86.62
240.494	83.62
240.728	70.62
240.961	69.62
241.195	97.62
241.429	80.62
241.662	84.62
241.896	73.62
242.13	62.62
242.363	87.62
242.597	88.62
242.83	81.62
243.064	74.62
243.298	83.62
243.531	81.62
243.765	80.62
243.998	83.62
244.232	83.62
244.465	88.62
244.699	67.62
244.932	60.62
245.166	77.62
245.399	75.62
245.633	72.62
245.866	80.62
246.099	73.62
246.333	88.62
246.566	86.62
246.8	84.62
247.033	85.62
247.266	73.62
247.5	77.62
247.733	72.62
247.966	71.62
248.2	71.62
248.433	95.62
248.666	79.62
248.899	88.62
249.133	94.62
249.366	74.62
249.599	79.62
249.832	89.62
250.066	88.62
250.299	84.62
250.532	82.62
250.765	90.62
250.998	87.62
251.231	84.62
251.465	83.62
251.698	74.62
251.931	74.62
252.164	85.62
252.397	85.62
252.63	84.62
252.863	81.62
253.096	78.62
253.329	92.62
253.562	73.62
253.795	69.62
254.028	90.62
254.261	94.62
254.494	86.62
254.727	87.62
254.96	85.62
255.193	76.62
255.426	91.62
255.659	98.62
255.892	80.62
256.124	84.62
256.357	85.62
256.59	71.62
256.823	79.62
257.056	88.62
257.289	80.62
257.521	84.62
257.754	90.62
257.987	82.62
258.22	81.62
258.452	79.62
258.685	77.62
258.918	64.62
259.151	83.62
259.383	90.62
259.616	93.62
259.849	96.62
260.081	90.62
260.314	88.62
260.547	98.62
260.779	93.62
261.012	88.62
261.244	77.62
261.477	82.62
261.71	75.62
261.942	84.62
262.175	88.62
262.407	75.62
262.64	80.62
262.872	95.62
263.105	92.62
263.337	91.62
263.57	88.62
263.802	78.62
264.035	89.62
264.267	92.62
264.499	88.62
264.732	86.62
264.964	94.62
265.197	72.62
265.429	81.62
265.661	80.62
265.894	81.62
266.126	97.62
266.358	95.62
266.591	76.62
266.823	94.62
267.055	78.62
267.287	79.62
267.52	75.62
267.752	87.62
267.984	70.62
268.216	66.62
268.448	95.62
268.681	82.62
268.913	87.62
269.145	86.62
269.377	84.62
269.609	89.62
269.841	101.62
270.073	94.62
270.306	72.62
270.538	93.62
270.77	94.62
271.002	74.62
271.234	100.62
271.466	87.62
271.698	87.62
271.93	84.62
272.162	88.62
272.394	57.62
272.626	67.62
272.858	78.62
273.09	79.62
273.322	84.62
273.553	81.62
273.785	79.62
274.017	86.62
274.249	93.62
274.481	88.62
274.713	87.62
274.945	92.62
275.176	86.62
275.408	90.62
275.64	88.62
275.872	72.62
276.104	85.62
276.335	79.62
276.567	63.62
276.799	76.62
277.031	88.62
277.262	78.62
277.494	80.62
277.726	85.62
277.957	82.62
278.189	80.62
278.421	82.62
278.652	74.62
278.884	93.62
279.115	90.62
279.347	84.62
279.579	87.62
279.81	80.62
280.042	94.62
280.273	100.62
280.505	89.62
280.736	69.62
280.968	89.62
281.199	94.62
281.431	92.62
281.662	78.62
281.894	83.62
282.125	79.62
282.356	87.62
282.588	85.62
282.819	84.62
283.051	82.62
283.282	83.62
283.513	83.62
283.745	83.62
283.976	72.62
284.207	100.62
284.439	90.62
284.67	98.62
284.901	97.62
285.132	74.62
285.364	75.62
285.595	92.62
285.826	80.62
286.057	81.62
286.288	76.62
286.52	75.62
286.751	86.62
286.982	83.62
287.213	88.62
287.444	84.62
287.675	85.62
287.906	96.62
288.138	76.62
288.369	89.62
288.6	89.62
288.831	72.62
289.062	86.62
289.293	78.62
289.524	81.62
289.755	85.62
289.986	82.62
290.217	115.62
290.448	90.62
290.679	84.62
290.91	92.62
291.141	85.62
291.371	95.62
291.602	94.62
291.833	75.62
292.064	76.62
292.295	78.62
292.526	91.62
292.757	78.62
292.987	86.62
293.218	80.62
293.449	84.62
293.68	90.62
293.91	92.62
294.141	95.62
294.372	87.62
294.603	83.62
294.833	76.62
295.064	74.62
295.295	85.62
295.525	73.62
295.756	88.62
295.987	88.62
296.217	82.62
296.448	97.62
296.679	87.62
296.909	92.62
297.14	82.62
297.37	93.62
297.601	81.62
297.831	76.62
298.062	83.62
298.292	85.62
298.523	84.62
298.753	79.62
298.984	67.62
299.214	87.62
299.445	80.62
299.675	76.62
299.905	99.62
300.136	79.62
300.366	93.62
300.597	90.62
300.827	75.62
301.057	83.62
301.288	89.62
301.518	85.62
301.748	74.62
301.979	93.62
302.209	78.62
302.439	94.62
302.669	72.62
302.9	95.62
303.13	84.62
303.36	80.62
303.59	79.62
303.82	90.62
304.051	85.62
304.281	86.62
304.511	88.62
304.741	96.62
304.971	90.62
305.201	74.62
305.431	73.62
305.661	80.62
305.891	90.62
306.121	91.62
306.352	86.62
306.582	81.62
306.812	87.62
307.042	92.62
307.272	87.62
307.502	80.62
307.731	83.62
307.961	89.62
308.191	67.62
308.421	92.62
308.651	92.62
308.881	77.62
309.111	92.62
309.341	80.62
309.571	77.62
309.8	85.62
310.03	85.62
310.26	85.62
310.49	90.62
310.72	80.62
310.949	86.62
311.179	68.62
311.409	98.62
311.639	82.62
311.868	83.62
312.098	72.62
312.328	90.62
312.557	93.62
312.787	89.62
313.017	83.62
313.246	65.62
313.476	79.62
313.706	77.62
313.935	95.62
314.165	96.62
314.394	85.62
314.624	83.62
314.853	93.62
315.083	84.62
315.312	88.62
315.542	95.62
315.771	92.62
316.001	98.62
316.23	81.62
316.46	70.62
316.689	78.62
316.919	74.62
317.148	81.62
317.377	96.62
317.607	86.62
317.836	84.62
318.065	79.62
318.295	80.62
318.524	79.62
318.753	97.62
318.983	86.62
319.212	93.62
319.441	98.62
319.67	94.62
319.9	84.62
320.129	96.62
320.358	101.62
320.587	82.62
320.816	80.62
321.046	78.62
321.275	93.62
321.504	80.62
321.733	88.62
321.962	89.62
322.191	82.62
322.42	89.62
322.649	74.62
322.878	88.62
323.108	88.62
323.337	61.62
323.566	78.62
323.795	95.62
324.024	88.62
324.253	89.62
324.482	80.62
324.71	90.62
324.939	98.62
325.168	78.62
325.397	85.62
325.626	76.62
325.855	87.62
326.084	84.62
326.313	84.62
326.542	71.62
326.77	70.62
326.999	85.62
327.228	79.62
327.457	89.62
327.686	78.62
327.914	89.62
328.143	80.62
328.372	85.62
328.6	76.62
328.829	76.62
329.058	76.62
329.287	97.62
329.515	94.62
329.744	104.62
329.972	83.62
330.201	85.62
330.43	71.62
330.658	86.62
330.887	90.62
331.115	72.62
331.344	95.62
331.572	92.62
331.801	86.62
332.03	89.62
332.258	89.62
332.486	91.62
332.715	95.62
332.943	82.62
333.172	76.62
333.4	78.62
333.629	85.62
333.857	71.62
334.085	70.62
334.314	89.62
334.542	78.62
334.771	87.62
334.999	81.62
335.227	83.62
335.455	74.62
335.684	94.62
335.912	88.62
336.14	89.62
336.369	88.62
336.597	84.62
336.825	67.62
337.053	74.62
337.281	97.62
337.51	80.62
337.738	84.62
337.966	88.62
338.194	73.62
338.422	83.62
338.65	92.62
338.878	90.62
339.106	84.62
339.334	81.62
339.562	84.62
339.79	89.62
340.018	88.62
340.246	91.62
340.474	82.62
340.702	81.62
340.93	70.62
341.158	79.62
341.386	73.62
341.614	93.62
341.842	86.62
342.07	72.62
342.298	86.62
342.526	84.62
342.754	98.62
342.981	72.62
343.209	90.62
343.437	95.62
343.665	81.62
343.893	80.62
344.12	78.62
344.348	90.62
344.576	86.62
344.804	90.62
345.031	82.62
345.259	87.62
345.487	80.62
345.714	93.62
345.942	85.62
346.17	83.62
346.397	91.62
346.625	82.62
346.853	77.62
347.08	84.62
347.308	82.62
347.535	78.62
347.763	78.62
347.99	72.62
348.218	86.62
348.445	87.62
348.673	85.62
348.9	82.62
349.128	76.62
349.355	88.62
349.583	86.62
349.81	69.62
350.037	95.62
350.265	81.62
350.492	84.62
350.72	82.62
350.947	84.62
351.174	84.62
351.402	78.62
351.629	88.62
351.856	84.62
352.083	76.62
352.311	75.62
352.538	84.62
352.765	106.62
352.992	80.62
353.22	67.62
353.447	82.62
353.674	91.62
353.901	90.62
354.128	86.62
354.355	85.62
354.583	78.62
354.81	89.62
355.037	80.62
355.264	87.62
355.491	89.62
355.718	100.62
355.945	80.62
356.172	85.62
356.399	76.62
356.626	76.62
356.853	88.62
357.08	93.62
357.307	86.62
357.534	89.62
357.761	73.62
357.988	92.62
358.215	90.62
358.441	100.62
358.668	80.62
358.895	87.62
359.122	80.62
359.349	81.62
359.576	84.62
359.802	78.62
360.029	71.62
360.256	82.62
360.483	87.62
360.709	74.62
360.936	104.62
361.163	82.62
361.39	88.62
361.616	90.62
361.843	79.62
362.07	96.62
362.296	91.62
362.523	89.62
362.749	72.62
362.976	89.62
363.203	84.62
363.429	90.62
363.656	69.62
363.882	75.62
364.109	83.62
364.335	86.62
364.562	91.62
364.788	87.62
365.015	87.62
365.241	64.62
365.468	72.62
365.694	81.62
365.92	74.62
366.147	69.62
366.373	83.62
366.599	85.62
366.826	84.62
367.052	87.62
367.278	72.62
367.505	79.62
367.731	83.62
367.957	95.62
368.184	82.62
368.41	88.62
368.636	77.62
368.862	90.62
369.089	89.62
369.315	83.62
369.541	78.62
369.767	80.62
369.993	84.62
370.219	81.62
370.445	76.62
370.672	85.62
370.898	102.62
371.124	85.62
371.35	77.62
371.576	72.62
371.802	105.62
372.028	81.62
372.254	90.62
372.48	101.62
372.706	84.62
372.932	88.62
373.158	82.62
373.384	85.62
373.61	74.62
373.835	86.62
374.061	86.62
374.287	89.62
374.513	101.62
374.739	83.62
374.965	76.62
375.191	94.62
375.416	90.62
375.642	87.62
375.868	88.62
376.094	93.62
376.319	91.62
376.545	80.62
376.771	83.62
376.997	80.62
377.222	91.62
377.448	92.62
377.674	71.62
377.899	79.62
378.125	97.62
378.35	87.62
378.576	78.62
378.802	80.62
379.027	85.62
379.253	77.62
379.478	72.62
379.704	84.62
379.929	84.62
380.155	82.62
380.38	83.62
380.606	81.62
380.831	69.62
381.057	86.62
381.282	74.62
381.507	93.62
381.733	87.62
381.958	110.62
382.184	95.62
382.409	86.62
382.634	88.62
382.86	88.62
383.085	89.62
383.31	82.62
383.535	89.62
383.761	90.62
383.986	71.62
384.211	89.62
384.436	81.62
384.662	96.62
384.887	74.62
385.112	91.62
385.337	81.62
385.562	89.62
385.787	79.62
386.013	79.62
386.238	82.62
386.463	82.62
386.688	93.62
386.913	86.62
387.138	75.62
387.363	86.62
387.588	80.62
387.813	82.62
388.038	80.62
388.263	80.62
388.488	85.62
388.713	74.62
388.938	92.62
389.163	82.62
389.387	78.62
389.612	93.62
389.837	82.62
390.062	85.62
390.287	71.62
390.512	76.62
390.736	67.62
390.961	81.62
391.186	94.62
391.411	78.62
391.636	90.62
391.86	98.62
392.085	97.62
392.31	80.62
392.534	82.62
392.759	94.62
392.984	92.62
393.208	100.62
393.433	95.62
393.658	85.62
393.882	86.62
394.107	86.62
394.331	94.62
394.556	67.62
394.78	75.62
395.005	58.62
395.229	90.62
395.454	81.62
395.678	71.62
395.903	74.62
396.127	81.62
396.352	88.62
396.576	83.62
396.801	102.62
397.025	81.62
397.249	71.62
397.474	104.62
397.698	82.62
397.922	78.62
398.147	82.62
398.371	64.62
398.595	74.62
398.82	95.62
399.044	60.62
399.268	94.62
399.492	87.62
399.717	94.62
399.941	83.62
400.165	80.62
400.389	88.62
400.613	86.62
400.837	72.62
401.062	85.62
401.286	93.62
401.51	80.62
401.734	82.62
401.958	96.62
402.182	84.62
402.406	83.62
402.63	87.62
402.854	84.62
403.078	78.62
403.302	95.62
403.526	86.62
403.75	81.62
403.974	89.62
404.198	95.62
404.422	84.62
404.645	85.62
404.869	70.62
405.093	71.62
405.317	74.62
405.541	73.62
405.765	87.62
405.988	93.62
406.212	98.62
406.436	88.62
406.66	78.62
406.883	74.62
407.107	68.62
407.331	83.62
407.555	74.62
407.778	96.62
408.002	85.62
408.226	81.62
408.449	88.62
408.673	85.62
408.896	84.62
409.12	93.62
409.344	100.62
409.567	76.62
409.791	81.62
410.014	90.62
410.238	78.62
410.461	80.62
410.685	92.62
410.908	84.62
411.132	79.62
411.355	86.62
411.578	84.62
411.802	79.62
412.025	83.62
412.249	85.62
412.472	66.62
412.695	82.62
412.919	84.62
413.142	75.62
413.365	83.62
413.589	90.62
413.812	72.62
414.035	87.62
414.258	83.62
414.482	86.62
414.705	88.62
414.928	67.62
415.151	70.62
415.374	81.62
415.597	80.62
415.821	101.62
416.044	74.62
416.267	96.62
416.49	82.62
416.713	91.62
416.936	84.62
417.159	78.62
417.382	85.62
417.605	73.62
417.828	80.62
418.051	89.62
418.274	94.62
418.497	87.62
418.72	86.62
418.943	93.62
419.166	82.62
419.389	90.62
419.611	79.62
419.834	86.62
420.057	87.62
420.28	74.62
420.503	106.62
420.726	73.62
420.948	84.62
421.171	84.62
421.394	93.62
421.617	75.62
421.839	78.62
422.062	84.62
422.285	69.62
422.507	92.62
422.73	99.62
422.953	109.62
423.175	92.62
423.398	86.62
423.621	86.62
423.843	73.62
424.066	99.62
424.288	78.62
424.511	86.62
424.733	87.62
424.956	80.62
425.178	81.62
425.401	62.62
425.623	74.62
425.846	79.62
426.068	69.62
426.291	68.62
426.513	89.62
426.735	88.62
426.958	92.62
427.18	101.62
427.402	103.62
427.625	72.62
427.847	90.62
428.069	81.62
428.292	86.62
428.514	74.62
428.736	79.62
428.958	84.62
429.181	84.62
429.403	86.62
429.625	78.62
429.847	82.62
430.069	83.62
430.292	81.62
430.514	90.62
430.736	91.62
430.958	88.62
431.18	93.62
431.402	78.62
431.624	71.62
431.846	91.62
432.068	91.62
432.29	78.62
432.512	87.62
432.734	72.62
432.956	76.62
433.178	88.62
433.4	76.62
433.622	81.62
433.844	82.62
434.066	78.62
434.287	82.62
434.509	80.62
434.731	84.62
434.953	92.62
435.175	88.62
435.397	95.62
435.618	81.62
435.84	85.62
436.062	78.62
436.284	88.62
436.505	73.62
436.727	97.62
436.949	79.62
437.17	79.62
437.392	80.62
437.614	74.62
437.835	82.62
438.057	70.62
438.278	65.62
438.5	81.62
438.721	102.62
438.943	82.62
439.165	82.62
439.386	80.62
439.608	73.62
439.829	70.62
440.05	85.62
440.272	83.62
440.493	86.62
440.715	101.62
440.936	85.62
441.158	85.62
441.379	85.62
441.6	89.62
441.822	73.62
442.043	88.62
442.264	74.62
442.486	85.62
442.707	88.62
442.928	77.62
443.149	90.62
443.371	86.62
443.592	79.62
443.813	92.62
444.034	74.62
444.255	74.62
444.476	87.62
444.698	74.62
444.919	82.62
445.14	177.62
445.361	114.62
445.582	80.62
445.803	88.62
446.024	105.62
446.245	81.62
446.466	87.62
446.687	73.62
446.908	81.62
447.129	88.62
447.35	104.62
447.571	83.62
447.792	78.62
448.013	85.62
448.234	82.62
448.455	78.62
448.675	84.62
448.896	101.62
449.117	97.62
449.338	88.62
449.559	89.62
449.779	93.62
450	92.62
450.221	95.62
450.442	83.62
450.662	69.62
450.883	80.62
451.104	82.62
451.324	64.62
451.545	84.62
451.766	86.62
451.986	98.62
452.207	81.62
452.428	70.62
452.648	98.62
452.869	93.62
453.089	94.62
453.31	84.62
453.53	82.62
453.751	73.62
453.971	85.62
454.192	67.62
454.412	77.62
454.633	73.62
454.853	73.62
455.073	78.62
455.294	86.62
455.514	93.62
455.734	88.62
455.955	80.62
456.175	68.62
456.395	93.62
456.616	89.62
456.836	80.62
457.056	89.62
457.276	80.62
457.497	76.62
457.717	93.62
457.937	73.62
458.157	79.62
458.377	94.62
458.598	77.62
458.818	71.62
459.038	78.62
459.258	95.62
459.478	71.62
459.698	85.62
459.918	84.62
460.138	80.62
460.358	70.62
460.578	92.62
460.798	77.62
461.018	79.62
461.238	83.62
461.458	86.62
461.678	80.62
461.898	75.62
462.118	67.62
462.338	74.62
462.558	76.62
462.777	94.62
462.997	80.62
463.217	97.62
463.437	93.62
463.657	97.62
463.876	81.62
464.096	80.62
464.316	85.62
464.536	72.62
464.755	89.62
464.975	79.62
465.195	79.62
465.414	84.62
465.634	74.62
465.854	75.62
466.073	76.62
466.293	87.62
466.512	82.62
466.732	88.62
466.951	94.62
467.171	98.62
467.391	75.62
467.61	88.62
467.829	85.62
468.049	74.62
468.268	81.62
468.488	75.62
468.707	86.62
468.927	89.62
469.146	97.62
469.365	82.62
469.585	86.62
469.804	73.62
470.023	73.62
470.243	81.62
470.462	84.62
470.681	77.62
470.901	91.62
471.12	93.62
471.339	84.62
471.558	72.62
471.777	82.62
471.997	86.62
472.216	78.62
472.435	93.62
472.654	94.62
472.873	67.62
473.092	77.62
473.311	91.62
473.53	89.62
473.749	84.62
473.968	66.62
474.187	85.62
474.406	84.62
474.625	85.62
474.844	88.62
475.063	74.62
475.282	82.62
475.501	82.62
475.72	94.62
475.939	92.62
476.158	86.62
476.377	77.62
476.596	78.62
476.814	77.62
477.033	64.62
477.252	88.62
477.471	84.62
477.69	91.62
477.908	82.62
478.127	85.62
478.346	89.62
478.564	84.62
478.783	76.62
479.002	86.62
479.22	89.62
479.439	77.62
479.658	68.62
479.876	88.62
480.095	80.62
480.313	73.62
480.532	83.62
480.751	85.62
480.969	87.62
481.188	77.62
481.406	84.62
481.624	66.62
481.843	73.62
482.061	89.62
482.28	84.62
482.498	81.62
482.717	77.62
482.935	82.62
483.153	78.62
483.372	80.62
483.59	84.62
483.808	72.62
484.027	91.62
484.245	94.62
484.463	76.62
484.681	92.62
484.9	71.62
485.118	85.62
485.336	84.62
485.554	80.62
485.772	95.62
485.99	71.62
486.209	83.62
486.427	79.62
486.645	73.62
486.863	88.62
487.081	78.62
487.299	97.62
487.517	87.62
487.735	80.62
487.953	78.62
488.171	74.62
488.389	85.62
488.607	93.62
488.825	99.62
489.043	91.62
489.261	92.62
489.479	88.62
489.696	85.62
489.914	89.62
490.132	92.62
490.35	88.62
490.568	75.62
490.786	81.62
491.003	94.62
491.221	82.62
491.439	79.62
491.657	74.62
491.874	80.62
492.092	84.62
492.31	88.62
492.527	78.62
492.745	85.62
492.963	77.62
493.18	85.62
493.398	87.62
493.615	91.62
493.833	85.62
494.05	69.62
494.268	100.62
494.485	88.62
494.703	82.62
494.92	80.62
495.138	74.62
495.355	84.62
495.573	86.62
495.79	90.62
496.008	93.62
496.225	85.62
496.442	81.62
496.66	81.62
496.877	77.62
497.094	100.62
497.312	79.62
497.529	82.62
497.746	76.62
497.963	76.62
498.181	70.62
498.398	73.62
498.615	80.62
498.832	94.62
499.049	83.62
499.267	92.62
499.484	83.62
499.701	76.62
499.918	86.62
500.135	77.62
500.352	66.62
500.569	84.62
500.786	89.62
501.003	87.62
501.22	99.62
501.437	92.62
501.654	96.62
501.871	88.62
502.088	74.62
502.305	101.62
502.522	74.62
502.739	84.62
502.956	89.62
503.172	85.62
503.389	87.62
503.606	87.62
503.823	87.62
504.04	73.62
504.256	90.62
504.473	94.62
504.69	83.62
504.907	96.62
505.123	79.62
505.34	93.62
505.557	85.62
505.773	85.62
505.99	85.62
506.207	73.62
506.423	95.62
506.64	93.62
506.856	78.62
507.073	85.62
507.289	90.62
507.506	80.62
507.722	79.62
507.939	85.62
508.155	98.62
508.372	89.62
508.588	93.62
508.805	92.62
509.021	96.62
509.238	65.62
509.454	76.62
509.67	78.62
509.887	78.62
510.103	87.62
510.319	94.62
510.536	83.62
510.752	82.62
510.968	68.62
511.184	80.62
511.401	82.62
511.617	97.62
511.833	80.62
512.049	86.62
512.265	83.62
512.481	78.62
512.698	77.62
512.914	81.62
513.13	92.62
513.346	80.62
513.562	75.62
513.778	75.62
513.994	88.62
514.21	76.62
514.426	80.62
514.642	85.62
514.858	81.62
515.074	85.62
515.29	90.62
515.506	82.62
515.721	89.62
515.937	83.62
516.153	83.62
516.369	82.62
516.585	79.62
516.801	79.62
517.016	97.62
517.232	81.62
517.448	84.62
517.664	76.62
517.879	79.62
518.095	98.62
518.311	87.62
518.527	86.62
518.742	92.62
518.958	77.62
519.173	84.62
519.389	90.62
519.605	70.62
519.82	83.62
