Data from 1600_1_HRD10591_00039.txt Node
Date: Mon Jan 19 13:48:00 EST 2026
User: Yrep
Spectrometer: HR+D1059
Trigger mode: 1
Integration Time (sec): 1.000000E-1
Scans to average: 1
Electric dark correction enabled: true
Nonlinearity correction enabled: false
Boxcar width: 0
XAxis mode: Wavelengths
Number of Pixels in Spectrum: 2048
>>>>>Begin Spectral Data<<<<<
223.165	-3.81
223.4	-3.81
223.635	-3.81
223.869	-19.81
224.104	-14.81
224.338	-10.81
224.573	-17.81
224.808	-14.81
225.042	-11.81
225.277	-11.81
225.511	1.19
225.746	5.19
225.98	-3.81
226.215	20.19
226.449	10.19
226.683	24.19
226.918	20.19
227.152	28.19
227.387	32.19
227.621	49.19
227.856	52.19
228.09	57.19
228.324	56.19
228.559	52.19
228.793	58.19
229.027	41.19
229.262	58.19
229.496	44.19
229.73	56.19
229.964	78.19
230.199	86.19
230.433	80.19
230.667	70.19
230.901	65.19
231.136	67.19
231.37	70.19
231.604	64.19
231.838	74.19
232.072	72.19
232.306	85.19
232.541	96.19
232.775	73.19
233.009	78.19
233.243	81.19
233.477	82.19
233.711	73.19
233.945	75.19
234.179	63.19
234.413	84.19
234.647	80.19
234.881	88.19
235.115	77.19
235.349	74.19
235.583	66.19
235.817	72.19
236.051	62.19
236.285	69.19
236.519	72.19
236.753	81.19
236.987	88.19
237.221	63.19
237.455	61.19
237.689	86.19
237.922	73.19
238.156	67.19
238.39	76.19
238.624	77.19
238.858	67.19
239.091	74.19
239.325	86.19
239.559	78.19
239.793	76.19
240.027	90.19
240.26	76.19
240.494	77.19
240.728	76.19
240.961	73.19
241.195	76.19
241.429	66.19
241.662	73.19
241.896	64.19
242.13	84.19
242.363	72.19
242.597	76.19
242.83	67.19
243.064	90.19
243.298	69.19
243.531	78.19
243.765	73.19
243.998	69.19
244.232	77.19
244.465	71.19
244.699	84.19
244.932	60.19
245.166	69.19
245.399	83.19
245.633	80.19
245.866	73.19
246.099	74.19
246.333	64.19
246.566	85.19
246.8	68.19
247.033	75.19
247.266	80.19
247.5	66.19
247.733	61.19
247.966	58.19
248.2	71.19
248.433	76.19
248.666	68.19
248.899	85.19
249.133	86.19
249.366	85.19
249.599	80.19
249.832	84.19
250.066	80.19
250.299	70.19
250.532	62.19
250.765	90.19
250.998	68.19
251.231	76.19
251.465	66.19
251.698	76.19
251.931	68.19
252.164	77.19
252.397	80.19
252.63	64.19
252.863	76.19
253.096	86.19
253.329	91.19
253.562	85.19
253.795	71.19
254.028	82.19
254.261	83.19
254.494	85.19
254.727	73.19
254.96	53.19
255.193	68.19
255.426	76.19
255.659	75.19
255.892	85.19
256.124	72.19
256.357	81.19
256.59	91.19
256.823	63.19
257.056	76.19
257.289	74.19
257.521	86.19
257.754	82.19
257.987	81.19
258.22	85.19
258.452	83.19
258.685	80.19
258.918	83.19
259.151	88.19
259.383	72.19
259.616	72.19
259.849	85.19
260.081	68.19
260.314	78.19
260.547	76.19
260.779	77.19
261.012	68.19
261.244	86.19
261.477	91.19
261.71	89.19
261.942	81.19
262.175	76.19
262.407	84.19
262.64	78.19
262.872	85.19
263.105	80.19
263.337	82.19
263.57	58.19
263.802	77.19
264.035	101.19
264.267	67.19
264.499	60.19
264.732	76.19
264.964	69.19
265.197	62.19
265.429	77.19
265.661	89.19
265.894	80.19
266.126	76.19
266.358	83.19
266.591	78.19
266.823	93.19
267.055	77.19
267.287	69.19
267.52	68.19
267.752	68.19
267.984	67.19
268.216	86.19
268.448	65.19
268.681	70.19
268.913	92.19
269.145	79.19
269.377	72.19
269.609	88.19
269.841	87.19
270.073	90.19
270.306	79.19
270.538	80.19
270.77	84.19
271.002	71.19
271.234	79.19
271.466	87.19
271.698	76.19
271.93	89.19
272.162	85.19
272.394	83.19
272.626	67.19
272.858	81.19
273.09	92.19
273.322	100.19
273.553	69.19
273.785	82.19
274.017	76.19
274.249	84.19
274.481	73.19
274.713	84.19
274.945	89.19
275.176	76.19
275.408	85.19
275.64	94.19
275.872	76.19
276.104	85.19
276.335	68.19
276.567	85.19
276.799	81.19
277.031	78.19
277.262	89.19
277.494	80.19
277.726	71.19
277.957	71.19
278.189	76.19
278.421	91.19
278.652	76.19
278.884	74.19
279.115	86.19
279.347	78.19
279.579	97.19
279.81	101.19
280.042	84.19
280.273	72.19
280.505	79.19
280.736	82.19
280.968	82.19
281.199	77.19
281.431	67.19
281.662	74.19
281.894	94.19
282.125	78.19
282.356	79.19
282.588	79.19
282.819	81.19
283.051	70.19
283.282	79.19
283.513	93.19
283.745	85.19
283.976	75.19
284.207	81.19
284.439	74.19
284.67	85.19
284.901	76.19
285.132	76.19
285.364	76.19
285.595	79.19
285.826	88.19
286.057	73.19
286.288	71.19
286.52	68.19
286.751	81.19
286.982	74.19
287.213	84.19
287.444	92.19
287.675	92.19
287.906	84.19
288.138	71.19
288.369	68.19
288.6	76.19
288.831	80.19
289.062	79.19
289.293	78.19
289.524	86.19
289.755	92.19
289.986	84.19
290.217	80.19
290.448	76.19
290.679	73.19
290.91	92.19
291.141	90.19
291.371	90.19
291.602	81.19
291.833	89.19
292.064	83.19
292.295	98.19
292.526	81.19
292.757	76.19
292.987	62.19
293.218	74.19
293.449	77.19
293.68	73.19
293.91	94.19
294.141	93.19
294.372	83.19
294.603	74.19
294.833	76.19
295.064	76.19
295.295	80.19
295.525	80.19
295.756	93.19
295.987	80.19
296.217	79.19
296.448	83.19
296.679	83.19
296.909	79.19
297.14	97.19
297.37	84.19
297.601	74.19
297.831	85.19
298.062	81.19
298.292	93.19
298.523	112.19
298.753	95.19
298.984	84.19
299.214	75.19
299.445	78.19
299.675	82.19
299.905	93.19
300.136	87.19
300.366	82.19
300.597	80.19
300.827	83.19
301.057	86.19
301.288	88.19
301.518	74.19
301.748	88.19
301.979	90.19
302.209	81.19
302.439	79.19
302.669	79.19
302.9	81.19
303.13	79.19
303.36	77.19
303.59	77.19
303.82	88.19
304.051	83.19
304.281	86.19
304.511	72.19
304.741	75.19
304.971	85.19
305.201	89.19
305.431	91.19
305.661	65.19
305.891	82.19
306.121	77.19
306.352	88.19
306.582	75.19
306.812	80.19
307.042	71.19
307.272	90.19
307.502	86.19
307.731	74.19
307.961	82.19
308.191	74.19
308.421	92.19
308.651	80.19
308.881	73.19
309.111	75.19
309.341	90.19
309.571	94.19
309.8	73.19
310.03	83.19
310.26	86.19
310.49	82.19
310.72	90.19
310.949	85.19
311.179	91.19
311.409	92.19
311.639	83.19
311.868	86.19
312.098	81.19
312.328	82.19
312.557	82.19
312.787	73.19
313.017	72.19
313.246	80.19
313.476	94.19
313.706	78.19
313.935	70.19
314.165	82.19
314.394	92.19
314.624	81.19
314.853	82.19
315.083	89.19
315.312	85.19
315.542	72.19
315.771	83.19
316.001	81.19
316.23	73.19
316.46	82.19
316.689	85.19
316.919	90.19
317.148	91.19
317.377	94.19
317.607	86.19
317.836	76.19
318.065	78.19
318.295	81.19
318.524	95.19
318.753	91.19
318.983	91.19
319.212	94.19
319.441	92.19
319.67	78.19
319.9	74.19
320.129	80.19
320.358	77.19
320.587	80.19
320.816	79.19
321.046	78.19
321.275	81.19
321.504	79.19
321.733	82.19
321.962	81.19
322.191	78.19
322.42	76.19
322.649	86.19
322.878	77.19
323.108	83.19
323.337	95.19
323.566	84.19
323.795	74.19
324.024	84.19
324.253	69.19
324.482	88.19
324.71	84.19
324.939	86.19
325.168	102.19
325.397	85.19
325.626	82.19
325.855	75.19
326.084	85.19
326.313	68.19
326.542	78.19
326.77	76.19
326.999	81.19
327.228	78.19
327.457	86.19
327.686	81.19
327.914	87.19
328.143	66.19
328.372	84.19
328.6	81.19
328.829	83.19
329.058	86.19
329.287	74.19
329.515	80.19
329.744	73.19
329.972	63.19
330.201	75.19
330.43	60.19
330.658	70.19
330.887	71.19
331.115	89.19
331.344	89.19
331.572	84.19
331.801	83.19
332.03	82.19
332.258	87.19
332.486	84.19
332.715	90.19
332.943	82.19
333.172	73.19
333.4	73.19
333.629	84.19
333.857	85.19
334.085	91.19
334.314	93.19
334.542	66.19
334.771	78.19
334.999	74.19
335.227	84.19
335.455	92.19
335.684	74.19
335.912	80.19
336.14	81.19
336.369	77.19
336.597	92.19
336.825	80.19
337.053	89.19
337.281	78.19
337.51	85.19
337.738	81.19
337.966	82.19
338.194	89.19
338.422	86.19
338.65	86.19
338.878	89.19
339.106	89.19
339.334	86.19
339.562	88.19
339.79	79.19
340.018	78.19
340.246	90.19
340.474	86.19
340.702	80.19
340.93	78.19
341.158	81.19
341.386	101.19
341.614	83.19
341.842	73.19
342.07	80.19
342.298	81.19
342.526	73.19
342.754	69.19
342.981	82.19
343.209	68.19
343.437	94.19
343.665	69.19
343.893	91.19
344.12	76.19
344.348	84.19
344.576	77.19
344.804	74.19
345.031	80.19
345.259	104.19
345.487	76.19
345.714	74.19
345.942	83.19
346.17	82.19
346.397	104.19
346.625	78.19
346.853	74.19
347.08	84.19
347.308	78.19
347.535	80.19
347.763	88.19
347.99	86.19
348.218	86.19
348.445	82.19
348.673	73.19
348.9	80.19
349.128	101.19
349.355	73.19
349.583	80.19
349.81	66.19
350.037	81.19
350.265	90.19
350.492	81.19
350.72	85.19
350.947	85.19
351.174	73.19
351.402	80.19
351.629	91.19
351.856	82.19
352.083	84.19
352.311	67.19
352.538	96.19
352.765	92.19
352.992	82.19
353.22	68.19
353.447	70.19
353.674	59.19
353.901	70.19
354.128	79.19
354.355	83.19
354.583	84.19
354.81	83.19
355.037	91.19
355.264	82.19
355.491	76.19
355.718	88.19
355.945	90.19
356.172	71.19
356.399	76.19
356.626	85.19
356.853	78.19
357.08	86.19
357.307	94.19
357.534	80.19
357.761	78.19
357.988	87.19
358.215	87.19
358.441	86.19
358.668	90.19
358.895	82.19
359.122	78.19
359.349	77.19
359.576	78.19
359.802	78.19
360.029	86.19
360.256	87.19
360.483	70.19
360.709	88.19
360.936	89.19
361.163	68.19
361.39	76.19
361.616	75.19
361.843	80.19
362.07	87.19
362.296	92.19
362.523	86.19
362.749	88.19
362.976	78.19
363.203	80.19
363.429	83.19
363.656	88.19
363.882	86.19
364.109	78.19
364.335	85.19
364.562	89.19
364.788	76.19
365.015	73.19
365.241	84.19
365.468	92.19
365.694	75.19
365.92	72.19
366.147	74.19
366.373	78.19
366.599	75.19
366.826	92.19
367.052	81.19
367.278	69.19
367.505	88.19
367.731	79.19
367.957	95.19
368.184	88.19
368.41	82.19
368.636	78.19
368.862	78.19
369.089	80.19
369.315	74.19
369.541	81.19
369.767	85.19
369.993	80.19
370.219	83.19
370.445	71.19
370.672	75.19
370.898	66.19
371.124	82.19
371.35	89.19
371.576	89.19
371.802	97.19
372.028	82.19
372.254	86.19
372.48	84.19
372.706	87.19
372.932	74.19
373.158	72.19
373.384	95.19
373.61	89.19
373.835	78.19
374.061	74.19
374.287	81.19
374.513	78.19
374.739	80.19
374.965	74.19
375.191	76.19
375.416	62.19
375.642	78.19
375.868	88.19
376.094	79.19
376.319	77.19
376.545	78.19
376.771	81.19
376.997	69.19
377.222	68.19
377.448	74.19
377.674	80.19
377.899	74.19
378.125	80.19
378.35	84.19
378.576	86.19
378.802	87.19
379.027	82.19
379.253	84.19
379.478	71.19
379.704	83.19
379.929	71.19
380.155	75.19
380.38	86.19
380.606	84.19
380.831	71.19
381.057	70.19
381.282	72.19
381.507	82.19
381.733	86.19
381.958	67.19
382.184	76.19
382.409	81.19
382.634	79.19
382.86	82.19
383.085	79.19
383.31	72.19
383.535	78.19
383.761	90.19
383.986	83.19
384.211	79.19
384.436	65.19
384.662	60.19
384.887	64.19
385.112	77.19
385.337	80.19
385.562	85.19
385.787	91.19
386.013	72.19
386.238	70.19
386.463	82.19
386.688	85.19
386.913	84.19
387.138	84.19
387.363	84.19
387.588	77.19
387.813	97.19
388.038	84.19
388.263	90.19
388.488	78.19
388.713	65.19
388.938	80.19
389.163	64.19
389.387	72.19
389.612	82.19
389.837	88.19
390.062	68.19
390.287	83.19
390.512	87.19
390.736	78.19
390.961	84.19
391.186	84.19
391.411	70.19
391.636	99.19
391.86	88.19
392.085	79.19
392.31	92.19
392.534	80.19
392.759	85.19
392.984	76.19
393.208	82.19
393.433	88.19
393.658	87.19
393.882	71.19
394.107	89.19
394.331	91.19
394.556	86.19
394.78	84.19
395.005	83.19
395.229	85.19
395.454	69.19
395.678	88.19
395.903	90.19
396.127	78.19
396.352	75.19
396.576	83.19
396.801	82.19
397.025	76.19
397.249	92.19
397.474	68.19
397.698	78.19
397.922	87.19
398.147	64.19
398.371	80.19
398.595	70.19
398.82	80.19
399.044	86.19
399.268	79.19
399.492	72.19
399.717	91.19
399.941	82.19
400.165	91.19
400.389	87.19
400.613	93.19
400.837	78.19
401.062	76.19
401.286	90.19
401.51	80.19
401.734	79.19
401.958	79.19
402.182	75.19
402.406	83.19
402.63	76.19
402.854	84.19
403.078	69.19
403.302	79.19
403.526	82.19
403.75	74.19
403.974	83.19
404.198	82.19
404.422	71.19
404.645	83.19
404.869	82.19
405.093	82.19
405.317	81.19
405.541	77.19
405.765	88.19
405.988	90.19
406.212	88.19
406.436	61.19
406.66	85.19
406.883	82.19
407.107	80.19
407.331	87.19
407.555	78.19
407.778	66.19
408.002	76.19
408.226	73.19
408.449	73.19
408.673	93.19
408.896	80.19
409.12	88.19
409.344	84.19
409.567	84.19
409.791	74.19
410.014	70.19
410.238	84.19
410.461	69.19
410.685	84.19
410.908	76.19
411.132	74.19
411.355	82.19
411.578	81.19
411.802	87.19
412.025	88.19
412.249	93.19
412.472	97.19
412.695	71.19
412.919	80.19
413.142	64.19
413.365	77.19
413.589	91.19
413.812	69.19
414.035	80.19
414.258	84.19
414.482	82.19
414.705	77.19
414.928	84.19
415.151	74.19
415.374	76.19
415.597	75.19
415.821	83.19
416.044	79.19
416.267	82.19
416.49	78.19
416.713	70.19
416.936	71.19
417.159	83.19
417.382	80.19
417.605	76.19
417.828	83.19
418.051	70.19
418.274	92.19
418.497	93.19
418.72	70.19
418.943	84.19
419.166	75.19
419.389	82.19
419.611	78.19
419.834	74.19
420.057	79.19
420.28	82.19
420.503	66.19
420.726	66.19
420.948	67.19
421.171	82.19
421.394	94.19
421.617	76.19
421.839	86.19
422.062	68.19
422.285	76.19
422.507	80.19
422.73	70.19
422.953	89.19
423.175	74.19
423.398	71.19
423.621	74.19
423.843	84.19
424.066	59.19
424.288	95.19
424.511	82.19
424.733	61.19
424.956	82.19
425.178	91.19
425.401	79.19
425.623	83.19
425.846	80.19
426.068	68.19
426.291	76.19
426.513	80.19
426.735	88.19
426.958	84.19
427.18	68.19
427.402	85.19
427.625	88.19
427.847	69.19
428.069	76.19
428.292	82.19
428.514	90.19
428.736	83.19
428.958	85.19
429.181	81.19
429.403	74.19
429.625	81.19
429.847	55.19
430.069	82.19
430.292	84.19
430.514	81.19
430.736	85.19
430.958	75.19
431.18	78.19
431.402	90.19
431.624	82.19
431.846	83.19
432.068	82.19
432.29	70.19
432.512	83.19
432.734	86.19
432.956	82.19
433.178	92.19
433.4	76.19
433.622	92.19
433.844	84.19
434.066	76.19
434.287	73.19
434.509	93.19
434.731	71.19
434.953	93.19
435.175	81.19
435.397	78.19
435.618	82.19
435.84	79.19
436.062	78.19
436.284	77.19
436.505	82.19
436.727	77.19
436.949	79.19
437.17	81.19
437.392	75.19
437.614	70.19
437.835	70.19
438.057	64.19
438.278	86.19
438.5	83.19
438.721	66.19
438.943	77.19
439.165	74.19
439.386	82.19
439.608	75.19
439.829	80.19
440.05	76.19
440.272	70.19
440.493	71.19
440.715	60.19
440.936	68.19
441.158	75.19
441.379	80.19
441.6	90.19
441.822	80.19
442.043	78.19
442.264	88.19
442.486	84.19
442.707	76.19
442.928	88.19
443.149	86.19
443.371	71.19
443.592	65.19
443.813	86.19
444.034	83.19
444.255	88.19
444.476	83.19
444.698	85.19
444.919	90.19
445.14	154.19
445.361	123.19
445.582	88.19
445.803	76.19
446.024	78.19
446.245	76.19
446.466	83.19
446.687	69.19
446.908	77.19
447.129	69.19
447.35	71.19
447.571	66.19
447.792	72.19
448.013	84.19
448.234	82.19
448.455	64.19
448.675	86.19
448.896	89.19
449.117	73.19
449.338	77.19
449.559	69.19
449.779	78.19
450	64.19
450.221	70.19
450.442	76.19
450.662	80.19
450.883	73.19
451.104	81.19
451.324	85.19
451.545	72.19
451.766	86.19
451.986	78.19
452.207	98.19
452.428	81.19
452.648	83.19
452.869	77.19
453.089	88.19
453.31	86.19
453.53	74.19
453.751	69.19
453.971	70.19
454.192	92.19
454.412	77.19
454.633	77.19
454.853	81.19
455.073	78.19
455.294	78.19
455.514	69.19
455.734	61.19
455.955	92.19
456.175	81.19
456.395	80.19
456.616	76.19
456.836	85.19
457.056	77.19
457.276	76.19
457.497	82.19
457.717	78.19
457.937	70.19
458.157	86.19
458.377	76.19
458.598	72.19
458.818	93.19
459.038	72.19
459.258	86.19
459.478	79.19
459.698	76.19
459.918	68.19
460.138	75.19
460.358	74.19
460.578	82.19
460.798	77.19
461.018	64.19
461.238	60.19
461.458	76.19
461.678	64.19
461.898	76.19
462.118	73.19
462.338	86.19
462.558	81.19
462.777	81.19
462.997	70.19
463.217	77.19
463.437	87.19
463.657	67.19
463.876	82.19
464.096	86.19
464.316	87.19
464.536	86.19
464.755	77.19
464.975	81.19
465.195	69.19
465.414	71.19
465.634	82.19
465.854	82.19
466.073	75.19
466.293	80.19
466.512	59.19
466.732	60.19
466.951	66.19
467.171	79.19
467.391	82.19
467.61	68.19
467.829	89.19
468.049	80.19
468.268	64.19
468.488	62.19
468.707	83.19
468.927	82.19
469.146	79.19
469.365	85.19
469.585	83.19
469.804	96.19
470.023	88.19
470.243	73.19
470.462	86.19
470.681	76.19
470.901	60.19
471.12	62.19
471.339	64.19
471.558	81.19
471.777	82.19
471.997	80.19
472.216	78.19
472.435	74.19
472.654	69.19
472.873	78.19
473.092	78.19
473.311	79.19
473.53	96.19
473.749	79.19
473.968	71.19
474.187	91.19
474.406	72.19
474.625	77.19
474.844	93.19
475.063	80.19
475.282	63.19
475.501	82.19
475.72	80.19
475.939	61.19
476.158	70.19
476.377	88.19
476.596	82.19
476.814	86.19
477.033	66.19
477.252	74.19
477.471	88.19
477.69	88.19
477.908	85.19
478.127	80.19
478.346	99.19
478.564	76.19
478.783	75.19
479.002	83.19
479.22	92.19
479.439	85.19
479.658	81.19
479.876	68.19
480.095	86.19
480.313	83.19
480.532	76.19
480.751	63.19
480.969	72.19
481.188	80.19
481.406	74.19
481.624	81.19
481.843	81.19
482.061	94.19
482.28	85.19
482.498	71.19
482.717	72.19
482.935	74.19
483.153	73.19
483.372	80.19
483.59	98.19
483.808	76.19
484.027	85.19
484.245	88.19
484.463	75.19
484.681	86.19
484.9	79.19
485.118	82.19
485.336	79.19
485.554	68.19
485.772	89.19
485.99	93.19
486.209	81.19
486.427	70.19
486.645	77.19
486.863	75.19
487.081	68.19
487.299	80.19
487.517	81.19
487.735	78.19
487.953	90.19
488.171	63.19
488.389	80.19
488.607	81.19
488.825	86.19
489.043	78.19
489.261	75.19
489.479	77.19
489.696	77.19
489.914	67.19
490.132	92.19
490.35	76.19
490.568	84.19
490.786	76.19
491.003	76.19
491.221	71.19
491.439	84.19
491.657	61.19
491.874	90.19
492.092	86.19
492.31	90.19
492.527	97.19
492.745	74.19
492.963	79.19
493.18	68.19
493.398	67.19
493.615	86.19
493.833	78.19
494.05	88.19
494.268	84.19
494.485	85.19
494.703	78.19
494.92	72.19
495.138	84.19
495.355	76.19
495.573	78.19
495.79	85.19
496.008	85.19
496.225	81.19
496.442	83.19
496.66	73.19
496.877	80.19
497.094	90.19
497.312	84.19
497.529	82.19
497.746	82.19
497.963	81.19
498.181	79.19
498.398	85.19
498.615	91.19
498.832	73.19
499.049	62.19
499.267	72.19
499.484	86.19
499.701	96.19
499.918	92.19
500.135	76.19
500.352	80.19
500.569	80.19
500.786	65.19
501.003	78.19
501.22	69.19
501.437	81.19
501.654	86.19
501.871	87.19
502.088	76.19
502.305	92.19
502.522	93.19
502.739	75.19
502.956	84.19
503.172	95.19
503.389	84.19
503.606	85.19
503.823	82.19
504.04	76.19
504.256	81.19
504.473	74.19
504.69	69.19
504.907	88.19
505.123	90.19
505.34	79.19
505.557	84.19
505.773	90.19
505.99	74.19
506.207	76.19
506.423	90.19
506.64	86.19
506.856	84.19
507.073	80.19
507.289	83.19
507.506	76.19
507.722	88.19
507.939	81.19
508.155	85.19
508.372	78.19
508.588	63.19
508.805	98.19
509.021	78.19
509.238	81.19
509.454	78.19
509.67	82.19
509.887	74.19
510.103	93.19
510.319	77.19
510.536	76.19
510.752	76.19
510.968	82.19
511.184	71.19
511.401	88.19
511.617	85.19
511.833	82.19
512.049	89.19
512.265	86.19
512.481	88.19
512.698	74.19
512.914	79.19
513.13	82.19
513.346	84.19
513.562	85.19
513.778	76.19
513.994	77.19
514.21	73.19
514.426	74.19
514.642	77.19
514.858	76.19
515.074	88.19
515.29	80.19
515.506	89.19
515.721	73.19
515.937	96.19
516.153	82.19
516.369	82.19
516.585	73.19
516.801	69.19
517.016	83.19
517.232	76.19
517.448	74.19
517.664	78.19
517.879	93.19
518.095	76.19
518.311	78.19
518.527	84.19
518.742	84.19
518.958	87.19
519.173	77.19
519.389	85.19
519.605	81.19
519.82	92.19
520.036	81.19
520.251	68.19
