Data from 1600_1_HRD10591_00021.txt Node
Date: Mon Jan 19 13:47:51 EST 2026
User: Yrep
Spectrometer: HR+D1059
Trigger mode: 1
Integration Time (sec): 1.000000E-1
Scans to average: 1
Electric dark correction enabled: true
Nonlinearity correction enabled: false
Boxcar width: 0
XAxis mode: Wavelengths
Number of Pixels in Spectrum: 2048
>>>>>Begin Spectral Data<<<<<
223.165	-27.5
223.4	-27.5
223.635	-27.5
223.869	-17.5
224.104	-35.5
224.338	-9.5
224.573	-25.5
224.808	-23.5
225.042	2.5
225.277	-4.5
225.511	-0.5
225.746	9.5
225.98	15.5
226.215	22.5
226.449	8.5
226.683	20.5
226.918	38.5
227.152	26.5
227.387	26.5
227.621	47.5
227.856	47.5
228.09	46.5
228.324	25.5
228.559	62.5
228.793	53.5
229.027	64.5
229.262	68.5
229.496	60.5
229.73	67.5
229.964	67.5
230.199	66.5
230.433	61.5
230.667	87.5
230.901	84.5
231.136	95.5
231.37	77.5
231.604	86.5
231.838	79.5
232.072	81.5
232.306	67.5
232.541	84.5
232.775	81.5
233.009	80.5
233.243	89.5
233.477	70.5
233.711	95.5
233.945	76.5
234.179	95.5
234.413	81.5
234.647	62.5
234.881	82.5
235.115	84.5
235.349	95.5
235.583	80.5
235.817	73.5
236.051	81.5
236.285	94.5
236.519	71.5
236.753	72.5
236.987	64.5
237.221	76.5
237.455	73.5
237.689	75.5
237.922	79.5
238.156	70.5
238.39	75.5
238.624	59.5
238.858	68.5
239.091	67.5
239.325	73.5
239.559	75.5
239.793	67.5
240.027	77.5
240.26	79.5
240.494	84.5
240.728	72.5
240.961	66.5
241.195	75.5
241.429	86.5
241.662	84.5
241.896	89.5
242.13	74.5
242.363	60.5
242.597	77.5
242.83	74.5
243.064	80.5
243.298	79.5
243.531	84.5
243.765	83.5
243.998	83.5
244.232	77.5
244.465	82.5
244.699	69.5
244.932	69.5
245.166	75.5
245.399	72.5
245.633	73.5
245.866	83.5
246.099	78.5
246.333	67.5
246.566	82.5
246.8	90.5
247.033	83.5
247.266	68.5
247.5	67.5
247.733	80.5
247.966	74.5
248.2	70.5
248.433	77.5
248.666	86.5
248.899	85.5
249.133	79.5
249.366	81.5
249.599	95.5
249.832	78.5
250.066	69.5
250.299	73.5
250.532	86.5
250.765	87.5
250.998	81.5
251.231	73.5
251.465	93.5
251.698	86.5
251.931	89.5
252.164	86.5
252.397	86.5
252.63	73.5
252.863	74.5
253.096	82.5
253.329	58.5
253.562	70.5
253.795	89.5
254.028	96.5
254.261	80.5
254.494	81.5
254.727	79.5
254.96	78.5
255.193	72.5
255.426	85.5
255.659	86.5
255.892	91.5
256.124	82.5
256.357	79.5
256.59	86.5
256.823	70.5
257.056	72.5
257.289	84.5
257.521	70.5
257.754	82.5
257.987	71.5
258.22	93.5
258.452	78.5
258.685	82.5
258.918	67.5
259.151	87.5
259.383	76.5
259.616	87.5
259.849	83.5
260.081	85.5
260.314	68.5
260.547	68.5
260.779	85.5
261.012	70.5
261.244	78.5
261.477	76.5
261.71	80.5
261.942	73.5
262.175	89.5
262.407	79.5
262.64	67.5
262.872	67.5
263.105	74.5
263.337	91.5
263.57	80.5
263.802	78.5
264.035	80.5
264.267	95.5
264.499	71.5
264.732	70.5
264.964	93.5
265.197	83.5
265.429	85.5
265.661	74.5
265.894	72.5
266.126	79.5
266.358	72.5
266.591	94.5
266.823	83.5
267.055	91.5
267.287	83.5
267.52	60.5
267.752	88.5
267.984	83.5
268.216	84.5
268.448	85.5
268.681	76.5
268.913	72.5
269.145	90.5
269.377	76.5
269.609	88.5
269.841	77.5
270.073	82.5
270.306	91.5
270.538	85.5
270.77	81.5
271.002	93.5
271.234	94.5
271.466	81.5
271.698	84.5
271.93	85.5
272.162	102.5
272.394	84.5
272.626	82.5
272.858	79.5
273.09	74.5
273.322	70.5
273.553	82.5
273.785	74.5
274.017	75.5
274.249	79.5
274.481	79.5
274.713	82.5
274.945	68.5
275.176	90.5
275.408	90.5
275.64	87.5
275.872	82.5
276.104	82.5
276.335	78.5
276.567	75.5
276.799	75.5
277.031	77.5
277.262	85.5
277.494	72.5
277.726	92.5
277.957	81.5
278.189	82.5
278.421	84.5
278.652	82.5
278.884	80.5
279.115	79.5
279.347	82.5
279.579	76.5
279.81	89.5
280.042	89.5
280.273	73.5
280.505	94.5
280.736	93.5
280.968	75.5
281.199	80.5
281.431	87.5
281.662	96.5
281.894	97.5
282.125	78.5
282.356	78.5
282.588	83.5
282.819	97.5
283.051	99.5
283.282	77.5
283.513	86.5
283.745	87.5
283.976	78.5
284.207	94.5
284.439	86.5
284.67	80.5
284.901	86.5
285.132	83.5
285.364	72.5
285.595	76.5
285.826	84.5
286.057	69.5
286.288	76.5
286.52	86.5
286.751	78.5
286.982	79.5
287.213	72.5
287.444	88.5
287.675	83.5
287.906	75.5
288.138	80.5
288.369	71.5
288.6	78.5
288.831	76.5
289.062	83.5
289.293	89.5
289.524	96.5
289.755	88.5
289.986	82.5
290.217	72.5
290.448	70.5
290.679	81.5
290.91	91.5
291.141	72.5
291.371	82.5
291.602	77.5
291.833	81.5
292.064	87.5
292.295	83.5
292.526	95.5
292.757	100.5
292.987	90.5
293.218	88.5
293.449	90.5
293.68	82.5
293.91	91.5
294.141	90.5
294.372	94.5
294.603	72.5
294.833	81.5
295.064	80.5
295.295	80.5
295.525	94.5
295.756	86.5
295.987	82.5
296.217	72.5
296.448	82.5
296.679	82.5
296.909	86.5
297.14	97.5
297.37	88.5
297.601	80.5
297.831	72.5
298.062	80.5
298.292	76.5
298.523	86.5
298.753	100.5
298.984	82.5
299.214	89.5
299.445	79.5
299.675	81.5
299.905	73.5
300.136	80.5
300.366	86.5
300.597	78.5
300.827	82.5
301.057	75.5
301.288	81.5
301.518	76.5
301.748	76.5
301.979	92.5
302.209	85.5
302.439	68.5
302.669	80.5
302.9	90.5
303.13	85.5
303.36	84.5
303.59	78.5
303.82	91.5
304.051	79.5
304.281	78.5
304.511	88.5
304.741	86.5
304.971	83.5
305.201	85.5
305.431	94.5
305.661	89.5
305.891	90.5
306.121	79.5
306.352	85.5
306.582	82.5
306.812	75.5
307.042	82.5
307.272	74.5
307.502	69.5
307.731	86.5
307.961	84.5
308.191	81.5
308.421	84.5
308.651	86.5
308.881	76.5
309.111	82.5
309.341	84.5
309.571	78.5
309.8	77.5
310.03	80.5
310.26	80.5
310.49	70.5
310.72	89.5
310.949	89.5
311.179	81.5
311.409	73.5
311.639	79.5
311.868	94.5
312.098	84.5
312.328	97.5
312.557	85.5
312.787	90.5
313.017	83.5
313.246	71.5
313.476	81.5
313.706	78.5
313.935	99.5
314.165	79.5
314.394	73.5
314.624	81.5
314.853	90.5
315.083	104.5
315.312	103.5
315.542	76.5
315.771	78.5
316.001	84.5
316.23	91.5
316.46	72.5
316.689	79.5
316.919	63.5
317.148	88.5
317.377	90.5
317.607	94.5
317.836	79.5
318.065	80.5
318.295	86.5
318.524	82.5
318.753	77.5
318.983	89.5
319.212	93.5
319.441	81.5
319.67	85.5
319.9	84.5
320.129	90.5
320.358	92.5
320.587	84.5
320.816	97.5
321.046	92.5
321.275	81.5
321.504	87.5
321.733	85.5
321.962	85.5
322.191	83.5
322.42	98.5
322.649	94.5
322.878	84.5
323.108	77.5
323.337	87.5
323.566	95.5
323.795	75.5
324.024	93.5
324.253	88.5
324.482	74.5
324.71	85.5
324.939	101.5
325.168	84.5
325.397	86.5
325.626	82.5
325.855	85.5
326.084	83.5
326.313	75.5
326.542	72.5
326.77	77.5
326.999	84.5
327.228	88.5
327.457	81.5
327.686	90.5
327.914	92.5
328.143	90.5
328.372	94.5
328.6	78.5
328.829	98.5
329.058	78.5
329.287	78.5
329.515	73.5
329.744	90.5
329.972	66.5
330.201	83.5
330.43	86.5
330.658	80.5
330.887	86.5
331.115	88.5
331.344	79.5
331.572	90.5
331.801	88.5
332.03	66.5
332.258	87.5
332.486	73.5
332.715	74.5
332.943	89.5
333.172	87.5
333.4	71.5
333.629	87.5
333.857	92.5
334.085	88.5
334.314	75.5
334.542	85.5
334.771	78.5
334.999	97.5
335.227	78.5
335.455	90.5
335.684	96.5
335.912	77.5
336.14	76.5
336.369	82.5
336.597	85.5
336.825	88.5
337.053	83.5
337.281	71.5
337.51	77.5
337.738	83.5
337.966	78.5
338.194	90.5
338.422	102.5
338.65	78.5
338.878	80.5
339.106	85.5
339.334	82.5
339.562	88.5
339.79	73.5
340.018	88.5
340.246	86.5
340.474	81.5
340.702	82.5
340.93	97.5
341.158	93.5
341.386	97.5
341.614	88.5
341.842	78.5
342.07	85.5
342.298	98.5
342.526	81.5
342.754	81.5
342.981	91.5
343.209	86.5
343.437	82.5
343.665	75.5
343.893	87.5
344.12	87.5
344.348	82.5
344.576	66.5
344.804	86.5
345.031	88.5
345.259	86.5
345.487	77.5
345.714	85.5
345.942	95.5
346.17	95.5
346.397	92.5
346.625	78.5
346.853	83.5
347.08	82.5
347.308	82.5
347.535	81.5
347.763	95.5
347.99	82.5
348.218	84.5
348.445	79.5
348.673	83.5
348.9	86.5
349.128	95.5
349.355	86.5
349.583	91.5
349.81	78.5
350.037	73.5
350.265	85.5
350.492	83.5
350.72	90.5
350.947	65.5
351.174	88.5
351.402	85.5
351.629	81.5
351.856	83.5
352.083	78.5
352.311	71.5
352.538	93.5
352.765	85.5
352.992	100.5
353.22	74.5
353.447	82.5
353.674	88.5
353.901	77.5
354.128	66.5
354.355	91.5
354.583	97.5
354.81	74.5
355.037	87.5
355.264	85.5
355.491	84.5
355.718	79.5
355.945	84.5
356.172	80.5
356.399	73.5
356.626	84.5
356.853	76.5
357.08	82.5
357.307	78.5
357.534	85.5
357.761	86.5
357.988	83.5
358.215	84.5
358.441	72.5
358.668	85.5
358.895	81.5
359.122	79.5
359.349	83.5
359.576	85.5
359.802	88.5
360.029	73.5
360.256	79.5
360.483	75.5
360.709	77.5
360.936	86.5
361.163	90.5
361.39	95.5
361.616	88.5
361.843	79.5
362.07	80.5
362.296	79.5
362.523	79.5
362.749	66.5
362.976	101.5
363.203	76.5
363.429	84.5
363.656	73.5
363.882	74.5
364.109	83.5
364.335	86.5
364.562	80.5
364.788	83.5
365.015	83.5
365.241	83.5
365.468	95.5
365.694	89.5
365.92	78.5
366.147	73.5
366.373	80.5
366.599	76.5
366.826	72.5
367.052	80.5
367.278	71.5
367.505	73.5
367.731	90.5
367.957	86.5
368.184	93.5
368.41	88.5
368.636	64.5
368.862	67.5
369.089	85.5
369.315	84.5
369.541	92.5
369.767	81.5
369.993	71.5
370.219	82.5
370.445	78.5
370.672	86.5
370.898	90.5
371.124	88.5
371.35	88.5
371.576	80.5
371.802	81.5
372.028	77.5
372.254	75.5
372.48	73.5
372.706	80.5
372.932	74.5
373.158	83.5
373.384	80.5
373.61	83.5
373.835	91.5
374.061	73.5
374.287	88.5
374.513	85.5
374.739	78.5
374.965	80.5
375.191	89.5
375.416	86.5
375.642	80.5
375.868	79.5
376.094	68.5
376.319	74.5
376.545	86.5
376.771	79.5
376.997	84.5
377.222	79.5
377.448	91.5
377.674	86.5
377.899	88.5
378.125	75.5
378.35	98.5
378.576	88.5
378.802	76.5
379.027	87.5
379.253	91.5
379.478	81.5
379.704	73.5
379.929	92.5
380.155	70.5
380.38	81.5
380.606	66.5
380.831	79.5
381.057	80.5
381.282	76.5
381.507	95.5
381.733	106.5
381.958	86.5
382.184	90.5
382.409	74.5
382.634	87.5
382.86	79.5
383.085	94.5
383.31	84.5
383.535	83.5
383.761	91.5
383.986	69.5
384.211	80.5
384.436	82.5
384.662	93.5
384.887	86.5
385.112	68.5
385.337	84.5
385.562	76.5
385.787	81.5
386.013	88.5
386.238	91.5
386.463	88.5
386.688	88.5
386.913	78.5
387.138	79.5
387.363	82.5
387.588	76.5
387.813	94.5
388.038	79.5
388.263	76.5
388.488	68.5
388.713	75.5
388.938	80.5
389.163	86.5
389.387	78.5
389.612	76.5
389.837	62.5
390.062	74.5
390.287	77.5
390.512	91.5
390.736	79.5
390.961	77.5
391.186	91.5
391.411	77.5
391.636	86.5
391.86	69.5
392.085	89.5
392.31	74.5
392.534	87.5
392.759	85.5
392.984	86.5
393.208	71.5
393.433	88.5
393.658	81.5
393.882	73.5
394.107	87.5
394.331	70.5
394.556	88.5
394.78	86.5
395.005	79.5
395.229	101.5
395.454	81.5
395.678	79.5
395.903	73.5
396.127	85.5
396.352	90.5
396.576	66.5
396.801	78.5
397.025	92.5
397.249	88.5
397.474	72.5
397.698	93.5
397.922	82.5
398.147	88.5
398.371	74.5
398.595	86.5
398.82	72.5
399.044	86.5
399.268	80.5
399.492	80.5
399.717	80.5
399.941	84.5
400.165	85.5
400.389	82.5
400.613	90.5
400.837	84.5
401.062	82.5
401.286	90.5
401.51	82.5
401.734	76.5
401.958	82.5
402.182	76.5
402.406	80.5
402.63	80.5
402.854	72.5
403.078	84.5
403.302	81.5
403.526	79.5
403.75	75.5
403.974	85.5
404.198	93.5
404.422	78.5
404.645	89.5
404.869	84.5
405.093	84.5
405.317	83.5
405.541	77.5
405.765	80.5
405.988	78.5
406.212	78.5
406.436	85.5
406.66	79.5
406.883	65.5
407.107	79.5
407.331	69.5
407.555	79.5
407.778	76.5
408.002	88.5
408.226	67.5
408.449	86.5
408.673	85.5
408.896	73.5
409.12	69.5
409.344	73.5
409.567	69.5
409.791	94.5
410.014	74.5
410.238	80.5
410.461	86.5
410.685	67.5
410.908	84.5
411.132	71.5
411.355	84.5
411.578	87.5
411.802	85.5
412.025	79.5
412.249	84.5
412.472	74.5
412.695	93.5
412.919	87.5
413.142	76.5
413.365	94.5
413.589	86.5
413.812	63.5
414.035	87.5
414.258	87.5
414.482	79.5
414.705	76.5
414.928	78.5
415.151	83.5
415.374	78.5
415.597	69.5
415.821	67.5
416.044	69.5
416.267	82.5
416.49	85.5
416.713	86.5
416.936	87.5
417.159	86.5
417.382	80.5
417.605	83.5
417.828	70.5
418.051	92.5
418.274	86.5
418.497	87.5
418.72	83.5
418.943	87.5
419.166	67.5
419.389	85.5
419.611	71.5
419.834	81.5
420.057	85.5
420.28	71.5
420.503	83.5
420.726	78.5
420.948	75.5
421.171	75.5
421.394	86.5
421.617	78.5
421.839	82.5
422.062	84.5
422.285	90.5
422.507	101.5
422.73	97.5
422.953	101.5
423.175	85.5
423.398	73.5
423.621	74.5
423.843	78.5
424.066	57.5
424.288	92.5
424.511	89.5
424.733	74.5
424.956	86.5
425.178	84.5
425.401	79.5
425.623	76.5
425.846	101.5
426.068	92.5
426.291	78.5
426.513	94.5
426.735	81.5
426.958	89.5
427.18	87.5
427.402	85.5
427.625	61.5
427.847	85.5
428.069	70.5
428.292	84.5
428.514	82.5
428.736	99.5
428.958	89.5
429.181	80.5
429.403	83.5
429.625	80.5
429.847	86.5
430.069	78.5
430.292	78.5
430.514	97.5
430.736	89.5
430.958	83.5
431.18	85.5
431.402	75.5
431.624	64.5
431.846	97.5
432.068	94.5
432.29	86.5
432.512	77.5
432.734	80.5
432.956	77.5
433.178	79.5
433.4	72.5
433.622	81.5
433.844	75.5
434.066	83.5
434.287	88.5
434.509	72.5
434.731	74.5
434.953	76.5
435.175	83.5
435.397	79.5
435.618	76.5
435.84	83.5
436.062	73.5
436.284	75.5
436.505	83.5
436.727	92.5
436.949	87.5
437.17	71.5
437.392	72.5
437.614	87.5
437.835	73.5
438.057	88.5
438.278	89.5
438.5	80.5
438.721	74.5
438.943	100.5
439.165	98.5
439.386	84.5
439.608	72.5
439.829	88.5
440.05	78.5
440.272	78.5
440.493	85.5
440.715	79.5
440.936	75.5
441.158	83.5
441.379	82.5
441.6	65.5
441.822	78.5
442.043	83.5
442.264	94.5
442.486	81.5
442.707	88.5
442.928	81.5
443.149	85.5
443.371	77.5
443.592	87.5
443.813	91.5
444.034	75.5
444.255	85.5
444.476	77.5
444.698	83.5
444.919	65.5
445.14	150.5
445.361	119.5
445.582	85.5
445.803	71.5
446.024	79.5
446.245	93.5
446.466	81.5
446.687	80.5
446.908	75.5
447.129	82.5
447.35	70.5
447.571	77.5
447.792	73.5
448.013	77.5
448.234	91.5
448.455	81.5
448.675	76.5
448.896	82.5
449.117	87.5
449.338	74.5
449.559	81.5
449.779	72.5
450	72.5
450.221	87.5
450.442	76.5
450.662	84.5
450.883	91.5
451.104	85.5
451.324	96.5
451.545	78.5
451.766	93.5
451.986	80.5
452.207	78.5
452.428	82.5
452.648	89.5
452.869	86.5
453.089	83.5
453.31	87.5
453.53	72.5
453.751	84.5
453.971	66.5
454.192	80.5
454.412	85.5
454.633	88.5
454.853	81.5
455.073	71.5
455.294	67.5
455.514	80.5
455.734	82.5
455.955	78.5
456.175	81.5
456.395	79.5
456.616	85.5
456.836	81.5
457.056	80.5
457.276	72.5
457.497	77.5
457.717	72.5
457.937	78.5
458.157	81.5
458.377	82.5
458.598	83.5
458.818	90.5
459.038	86.5
459.258	80.5
459.478	66.5
459.698	83.5
459.918	92.5
460.138	78.5
460.358	87.5
460.578	87.5
460.798	81.5
461.018	76.5
461.238	80.5
461.458	78.5
461.678	72.5
461.898	74.5
462.118	78.5
462.338	70.5
462.558	73.5
462.777	77.5
462.997	79.5
463.217	68.5
463.437	73.5
463.657	88.5
463.876	77.5
464.096	74.5
464.316	84.5
464.536	82.5
464.755	82.5
464.975	84.5
465.195	90.5
465.414	74.5
465.634	77.5
465.854	77.5
466.073	82.5
466.293	83.5
466.512	81.5
466.732	71.5
466.951	89.5
467.171	62.5
467.391	70.5
467.61	85.5
467.829	75.5
468.049	90.5
468.268	83.5
468.488	88.5
468.707	75.5
468.927	72.5
469.146	79.5
469.365	86.5
469.585	68.5
469.804	74.5
470.023	73.5
470.243	86.5
470.462	96.5
470.681	71.5
470.901	86.5
471.12	82.5
471.339	89.5
471.558	78.5
471.777	89.5
471.997	86.5
472.216	90.5
472.435	82.5
472.654	93.5
472.873	87.5
473.092	84.5
473.311	99.5
473.53	76.5
473.749	75.5
473.968	81.5
474.187	87.5
474.406	96.5
474.625	83.5
474.844	81.5
475.063	83.5
475.282	86.5
475.501	92.5
475.72	79.5
475.939	79.5
476.158	75.5
476.377	65.5
476.596	81.5
476.814	81.5
477.033	75.5
477.252	80.5
477.471	74.5
477.69	68.5
477.908	80.5
478.127	91.5
478.346	86.5
478.564	95.5
478.783	82.5
479.002	88.5
479.22	92.5
479.439	90.5
479.658	75.5
479.876	75.5
480.095	65.5
480.313	85.5
480.532	73.5
480.751	93.5
480.969	87.5
481.188	83.5
481.406	88.5
481.624	83.5
481.843	78.5
482.061	78.5
482.28	80.5
482.498	96.5
482.717	78.5
482.935	84.5
483.153	95.5
483.372	81.5
483.59	76.5
483.808	76.5
484.027	79.5
484.245	82.5
484.463	84.5
484.681	82.5
484.9	82.5
485.118	85.5
485.336	80.5
485.554	78.5
485.772	88.5
485.99	82.5
486.209	78.5
486.427	88.5
486.645	76.5
486.863	86.5
487.081	84.5
487.299	72.5
487.517	86.5
487.735	93.5
487.953	78.5
488.171	79.5
488.389	91.5
488.607	77.5
488.825	77.5
489.043	84.5
489.261	85.5
489.479	74.5
489.696	86.5
489.914	76.5
490.132	83.5
490.35	92.5
490.568	75.5
490.786	88.5
491.003	83.5
491.221	80.5
491.439	72.5
491.657	76.5
491.874	78.5
492.092	76.5
492.31	81.5
492.527	73.5
492.745	81.5
492.963	81.5
493.18	71.5
493.398	90.5
493.615	78.5
493.833	82.5
494.05	82.5
494.268	70.5
494.485	94.5
494.703	77.5
494.92	76.5
495.138	73.5
495.355	74.5
495.573	85.5
495.79	72.5
496.008	74.5
496.225	75.5
496.442	90.5
496.66	93.5
496.877	77.5
497.094	90.5
497.312	90.5
497.529	80.5
497.746	78.5
497.963	82.5
498.181	80.5
498.398	87.5
498.615	75.5
498.832	84.5
499.049	96.5
499.267	85.5
499.484	86.5
499.701	87.5
499.918	82.5
500.135	77.5
500.352	85.5
500.569	68.5
500.786	93.5
501.003	80.5
501.22	88.5
501.437	81.5
501.654	78.5
501.871	80.5
502.088	90.5
502.305	83.5
502.522	81.5
502.739	93.5
502.956	89.5
503.172	87.5
503.389	87.5
503.606	84.5
503.823	88.5
504.04	76.5
504.256	85.5
504.473	98.5
504.69	70.5
504.907	86.5
505.123	79.5
505.34	82.5
505.557	73.5
505.773	90.5
505.99	87.5
506.207	81.5
506.423	84.5
506.64	79.5
506.856	80.5
507.073	93.5
507.289	85.5
507.506	63.5
507.722	78.5
507.939	69.5
508.155	80.5
508.372	84.5
508.588	74.5
508.805	83.5
509.021	78.5
509.238	80.5
509.454	79.5
509.67	93.5
509.887	87.5
510.103	92.5
510.319	76.5
510.536	89.5
510.752	91.5
510.968	84.5
511.184	96.5
511.401	82.5
511.617	71.5
511.833	92.5
512.049	81.5
512.265	90.5
512.481	94.5
512.698	79.5
512.914	87.5
513.13	84.5
513.346	82.5
513.562	87.5
513.778	97.5
513.994	90.5
514.21	70.5
514.426	68.5
514.642	85.5
514.858	89.5
515.074	96.5
515.29	81.5
515.506	72.5
515.721	83.5
515.937	94.5
516.153	84.5
516.369	74.5
516.585	85.5
516.801	87.5
517.016	83.5
517.232	84.5
517.448	85.5
517.664	80.5
517.879	86.5
518.095	84.5
518.311	78.5
518.527	90.5
518.742	91.5
518.958	68.5
519.173	88.5
519.389	85.5
519.605	78.5
519.82	80.5
520.036	77.5
520.251	70.5
520.467	96.5
520.682	94.5
520.898	76.5
521.113	61.5
521.329	72.5
521.544	87.5
521.76	78.5
521.975	80.5
522.19	88.5
522.406	98.5
522.621	84.5
522.836	93.5
523.052	88.5
523.267	82.5
523.482	88.5
523.698	74.5
523.913	74.5
524.128	85.5
524.343	96.5
524.559	95.5
524.774	80.5
524.989	77.5
525.204	77.5
525.419	73.5
525.634	82.5
525.849	92.5
526.064	96.5
526.28	88.5
526.495	92.5
526.71	103.5
526.925	92.5
527.14	102.5
527.355	78.5
527.57	85.5
527.785	69.5
527.999	87.5
528.214	79.5
528.429	85.5
528.644	100.5
528.859	72.5
529.074	80.5
529.289	78.5
529.503	90.5
529.718	94.5
529.933	85.5
530.148	96.5
530.363	63.5
530.577	76.5
530.792	82.5
531.007	91.5
531.221	67.5
531.436	87.5
531.651	98.5
531.865	70.5
532.08	79.5
532.295	87.5
532.509	77.5
532.724	94.5
532.938	86.5
533.153	84.5
533.367	81.5
533.582	78.5
533.796	79.5
534.011	86.5
534.225	82.5
534.44	62.5
534.654	88.5
534.868	86.5
535.083	84.5
535.297	79.5
535.511	90.5
535.726	83.5
535.94	68.5
536.154	101.5
536.369	87.5
536.583	82.5
536.797	79.5
537.011	80.5
537.225	82.5
537.44	87.5
537.654	94.5
537.868	86.5
538.082	94.5
538.296	80.5
538.51	84.5
538.724	78.5
538.938	79.5
539.153	76.5
539.367	87.5
539.581	80.5
539.795	82.5
540.009	91.5
540.222	92.5
540.436	92.5
