Data from 1600_1_HRD10591_00027.txt Node
Date: Mon Jan 19 13:47:54 EST 2026
User: Yrep
Spectrometer: HR+D1059
Trigger mode: 1
Integration Time (sec): 1.000000E-1
Scans to average: 1
Electric dark correction enabled: true
Nonlinearity correction enabled: false
Boxcar width: 0
XAxis mode: Wavelengths
Number of Pixels in Spectrum: 2048
>>>>>Begin Spectral Data<<<<<
223.165	-22.06
223.4	-22.06
223.635	-22.06
223.869	-13.06
224.104	-12.06
224.338	-2.06
224.573	-19.06
224.808	-12.06
225.042	0.94
225.277	-3.06
225.511	0.94
225.746	-7.06
225.98	-1.06
226.215	-4.06
226.449	17.94
226.683	13.94
226.918	26.94
227.152	34.94
227.387	46.94
227.621	34.94
227.856	36.94
228.09	50.94
228.324	58.94
228.559	65.94
228.793	63.94
229.027	62.94
229.262	66.94
229.496	51.94
229.73	73.94
229.964	68.94
230.199	81.94
230.433	75.94
230.667	78.94
230.901	85.94
231.136	77.94
231.37	84.94
231.604	87.94
231.838	92.94
232.072	80.94
232.306	84.94
232.541	85.94
232.775	80.94
233.009	80.94
233.243	89.94
233.477	78.94
233.711	89.94
233.945	79.94
234.179	85.94
234.413	87.94
234.647	83.94
234.881	82.94
235.115	72.94
235.349	92.94
235.583	81.94
235.817	86.94
236.051	83.94
236.285	69.94
236.519	88.94
236.753	78.94
236.987	77.94
237.221	81.94
237.455	77.94
237.689	81.94
237.922	73.94
238.156	68.94
238.39	73.94
238.624	76.94
238.858	78.94
239.091	77.94
239.325	91.94
239.559	84.94
239.793	81.94
240.027	71.94
240.26	83.94
240.494	65.94
240.728	74.94
240.961	72.94
241.195	70.94
241.429	84.94
241.662	66.94
241.896	77.94
242.13	81.94
242.363	73.94
242.597	77.94
242.83	76.94
243.064	71.94
243.298	71.94
243.531	82.94
243.765	82.94
243.998	85.94
244.232	69.94
244.465	67.94
244.699	88.94
244.932	80.94
245.166	84.94
245.399	62.94
245.633	75.94
245.866	90.94
246.099	90.94
246.333	81.94
246.566	81.94
246.8	70.94
247.033	77.94
247.266	82.94
247.5	82.94
247.733	72.94
247.966	71.94
248.2	82.94
248.433	68.94
248.666	71.94
248.899	81.94
249.133	78.94
249.366	81.94
249.599	87.94
249.832	74.94
250.066	87.94
250.299	100.94
250.532	92.94
250.765	66.94
250.998	78.94
251.231	84.94
251.465	82.94
251.698	77.94
251.931	74.94
252.164	83.94
252.397	82.94
252.63	83.94
252.863	87.94
253.096	80.94
253.329	85.94
253.562	81.94
253.795	72.94
254.028	84.94
254.261	76.94
254.494	83.94
254.727	88.94
254.96	85.94
255.193	75.94
255.426	78.94
255.659	94.94
255.892	74.94
256.124	92.94
256.357	90.94
256.59	85.94
256.823	84.94
257.056	93.94
257.289	76.94
257.521	80.94
257.754	89.94
257.987	75.94
258.22	95.94
258.452	84.94
258.685	88.94
258.918	84.94
259.151	72.94
259.383	81.94
259.616	71.94
259.849	78.94
260.081	101.94
260.314	86.94
260.547	78.94
260.779	78.94
261.012	94.94
261.244	78.94
261.477	89.94
261.71	86.94
261.942	82.94
262.175	85.94
262.407	87.94
262.64	79.94
262.872	84.94
263.105	76.94
263.337	82.94
263.57	97.94
263.802	90.94
264.035	67.94
264.267	99.94
264.499	79.94
264.732	72.94
264.964	87.94
265.197	88.94
265.429	82.94
265.661	78.94
265.894	95.94
266.126	83.94
266.358	83.94
266.591	66.94
266.823	80.94
267.055	85.94
267.287	80.94
267.52	74.94
267.752	70.94
267.984	78.94
268.216	88.94
268.448	92.94
268.681	86.94
268.913	71.94
269.145	82.94
269.377	92.94
269.609	75.94
269.841	66.94
270.073	78.94
270.306	77.94
270.538	95.94
270.77	76.94
271.002	81.94
271.234	89.94
271.466	96.94
271.698	89.94
271.93	66.94
272.162	81.94
272.394	86.94
272.626	72.94
272.858	79.94
273.09	81.94
273.322	81.94
273.553	69.94
273.785	92.94
274.017	93.94
274.249	79.94
274.481	74.94
274.713	92.94
274.945	82.94
275.176	76.94
275.408	86.94
275.64	87.94
275.872	80.94
276.104	86.94
276.335	87.94
276.567	96.94
276.799	79.94
277.031	84.94
277.262	84.94
277.494	77.94
277.726	82.94
277.957	84.94
278.189	72.94
278.421	90.94
278.652	73.94
278.884	82.94
279.115	94.94
279.347	84.94
279.579	84.94
279.81	95.94
280.042	80.94
280.273	85.94
280.505	78.94
280.736	82.94
280.968	80.94
281.199	87.94
281.431	100.94
281.662	92.94
281.894	84.94
282.125	93.94
282.356	89.94
282.588	86.94
282.819	101.94
283.051	83.94
283.282	89.94
283.513	85.94
283.745	87.94
283.976	89.94
284.207	74.94
284.439	91.94
284.67	78.94
284.901	80.94
285.132	84.94
285.364	97.94
285.595	82.94
285.826	96.94
286.057	84.94
286.288	84.94
286.52	79.94
286.751	80.94
286.982	73.94
287.213	90.94
287.444	80.94
287.675	82.94
287.906	80.94
288.138	78.94
288.369	76.94
288.6	89.94
288.831	93.94
289.062	78.94
289.293	90.94
289.524	97.94
289.755	93.94
289.986	82.94
290.217	94.94
290.448	90.94
290.679	88.94
290.91	85.94
291.141	88.94
291.371	98.94
291.602	83.94
291.833	92.94
292.064	86.94
292.295	92.94
292.526	82.94
292.757	75.94
292.987	80.94
293.218	87.94
293.449	77.94
293.68	82.94
293.91	80.94
294.141	93.94
294.372	94.94
294.603	84.94
294.833	101.94
295.064	79.94
295.295	85.94
295.525	81.94
295.756	88.94
295.987	90.94
296.217	89.94
296.448	94.94
296.679	95.94
296.909	88.94
297.14	93.94
297.37	86.94
297.601	103.94
297.831	84.94
298.062	82.94
298.292	88.94
298.523	94.94
298.753	96.94
298.984	83.94
299.214	85.94
299.445	80.94
299.675	72.94
299.905	86.94
300.136	77.94
300.366	81.94
300.597	87.94
300.827	70.94
301.057	90.94
301.288	72.94
301.518	92.94
301.748	83.94
301.979	108.94
302.209	89.94
302.439	85.94
302.669	79.94
302.9	84.94
303.13	76.94
303.36	80.94
303.59	108.94
303.82	95.94
304.051	110.94
304.281	96.94
304.511	85.94
304.741	94.94
304.971	81.94
305.201	88.94
305.431	85.94
305.661	93.94
305.891	84.94
306.121	84.94
306.352	84.94
306.582	65.94
306.812	89.94
307.042	92.94
307.272	87.94
307.502	85.94
307.731	76.94
307.961	83.94
308.191	92.94
308.421	79.94
308.651	90.94
308.881	90.94
309.111	83.94
309.341	98.94
309.571	82.94
309.8	98.94
310.03	88.94
310.26	71.94
310.49	84.94
310.72	80.94
310.949	71.94
311.179	83.94
311.409	83.94
311.639	82.94
311.868	81.94
312.098	93.94
312.328	84.94
312.557	83.94
312.787	79.94
313.017	96.94
313.246	89.94
313.476	84.94
313.706	87.94
313.935	84.94
314.165	86.94
314.394	78.94
314.624	86.94
314.853	96.94
315.083	87.94
315.312	80.94
315.542	83.94
315.771	90.94
316.001	77.94
316.23	89.94
316.46	93.94
316.689	91.94
316.919	92.94
317.148	84.94
317.377	89.94
317.607	73.94
317.836	80.94
318.065	74.94
318.295	88.94
318.524	81.94
318.753	84.94
318.983	78.94
319.212	88.94
319.441	98.94
319.67	87.94
319.9	85.94
320.129	89.94
320.358	79.94
320.587	95.94
320.816	85.94
321.046	84.94
321.275	90.94
321.504	90.94
321.733	81.94
321.962	78.94
322.191	85.94
322.42	80.94
322.649	72.94
322.878	80.94
323.108	97.94
323.337	89.94
323.566	82.94
323.795	77.94
324.024	83.94
324.253	91.94
324.482	82.94
324.71	95.94
324.939	94.94
325.168	82.94
325.397	88.94
325.626	86.94
325.855	96.94
326.084	84.94
326.313	84.94
326.542	81.94
326.77	67.94
326.999	81.94
327.228	79.94
327.457	82.94
327.686	78.94
327.914	72.94
328.143	82.94
328.372	86.94
328.6	84.94
328.829	82.94
329.058	85.94
329.287	97.94
329.515	85.94
329.744	94.94
329.972	96.94
330.201	90.94
330.43	90.94
330.658	88.94
330.887	82.94
331.115	94.94
331.344	73.94
331.572	79.94
331.801	80.94
332.03	89.94
332.258	85.94
332.486	72.94
332.715	90.94
332.943	84.94
333.172	102.94
333.4	85.94
333.629	89.94
333.857	81.94
334.085	102.94
334.314	72.94
334.542	82.94
334.771	93.94
334.999	80.94
335.227	84.94
335.455	85.94
335.684	104.94
335.912	84.94
336.14	74.94
336.369	88.94
336.597	78.94
336.825	92.94
337.053	71.94
337.281	81.94
337.51	88.94
337.738	81.94
337.966	85.94
338.194	79.94
338.422	99.94
338.65	101.94
338.878	93.94
339.106	89.94
339.334	77.94
339.562	82.94
339.79	82.94
340.018	88.94
340.246	76.94
340.474	92.94
340.702	90.94
340.93	85.94
341.158	78.94
341.386	85.94
341.614	77.94
341.842	77.94
342.07	89.94
342.298	102.94
342.526	84.94
342.754	90.94
342.981	87.94
343.209	78.94
343.437	93.94
343.665	90.94
343.893	95.94
344.12	93.94
344.348	80.94
344.576	80.94
344.804	81.94
345.031	82.94
345.259	81.94
345.487	84.94
345.714	83.94
345.942	84.94
346.17	78.94
346.397	93.94
346.625	84.94
346.853	83.94
347.08	79.94
347.308	81.94
347.535	66.94
347.763	82.94
347.99	95.94
348.218	90.94
348.445	79.94
348.673	74.94
348.9	80.94
349.128	85.94
349.355	100.94
349.583	78.94
349.81	87.94
350.037	86.94
350.265	88.94
350.492	88.94
350.72	82.94
350.947	104.94
351.174	73.94
351.402	86.94
351.629	82.94
351.856	81.94
352.083	72.94
352.311	84.94
352.538	87.94
352.765	86.94
352.992	83.94
353.22	80.94
353.447	90.94
353.674	83.94
353.901	80.94
354.128	86.94
354.355	66.94
354.583	80.94
354.81	100.94
355.037	79.94
355.264	77.94
355.491	80.94
355.718	83.94
355.945	84.94
356.172	87.94
356.399	88.94
356.626	81.94
356.853	79.94
357.08	82.94
357.307	90.94
357.534	78.94
357.761	76.94
357.988	82.94
358.215	96.94
358.441	90.94
358.668	83.94
358.895	90.94
359.122	87.94
359.349	80.94
359.576	90.94
359.802	85.94
360.029	97.94
360.256	81.94
360.483	82.94
360.709	70.94
360.936	88.94
361.163	93.94
361.39	80.94
361.616	98.94
361.843	63.94
362.07	84.94
362.296	84.94
362.523	74.94
362.749	78.94
362.976	82.94
363.203	82.94
363.429	85.94
363.656	84.94
363.882	89.94
364.109	83.94
364.335	100.94
364.562	75.94
364.788	76.94
365.015	86.94
365.241	73.94
365.468	97.94
365.694	97.94
365.92	89.94
366.147	77.94
366.373	74.94
366.599	74.94
366.826	85.94
367.052	82.94
367.278	95.94
367.505	86.94
367.731	92.94
367.957	88.94
368.184	86.94
368.41	75.94
368.636	88.94
368.862	78.94
369.089	87.94
369.315	101.94
369.541	92.94
369.767	80.94
369.993	88.94
370.219	76.94
370.445	74.94
370.672	80.94
370.898	84.94
371.124	92.94
371.35	98.94
371.576	94.94
371.802	80.94
372.028	86.94
372.254	66.94
372.48	86.94
372.706	74.94
372.932	88.94
373.158	88.94
373.384	85.94
373.61	106.94
373.835	81.94
374.061	88.94
374.287	71.94
374.513	83.94
374.739	85.94
374.965	77.94
375.191	73.94
375.416	78.94
375.642	88.94
375.868	80.94
376.094	69.94
376.319	74.94
376.545	71.94
376.771	81.94
376.997	83.94
377.222	72.94
377.448	90.94
377.674	71.94
377.899	74.94
378.125	89.94
378.35	77.94
378.576	75.94
378.802	80.94
379.027	71.94
379.253	94.94
379.478	92.94
379.704	92.94
379.929	74.94
380.155	82.94
380.38	80.94
380.606	84.94
380.831	84.94
381.057	76.94
381.282	77.94
381.507	72.94
381.733	84.94
381.958	80.94
382.184	90.94
382.409	85.94
382.634	80.94
382.86	93.94
383.085	83.94
383.31	88.94
383.535	90.94
383.761	82.94
383.986	93.94
384.211	86.94
384.436	61.94
384.662	89.94
384.887	87.94
385.112	79.94
385.337	81.94
385.562	85.94
385.787	90.94
386.013	84.94
386.238	73.94
386.463	76.94
386.688	80.94
386.913	75.94
387.138	72.94
387.363	71.94
387.588	82.94
387.813	75.94
388.038	91.94
388.263	84.94
388.488	91.94
388.713	81.94
388.938	74.94
389.163	97.94
389.387	82.94
389.612	74.94
389.837	79.94
390.062	100.94
390.287	87.94
390.512	100.94
390.736	60.94
390.961	80.94
391.186	92.94
391.411	80.94
391.636	78.94
391.86	87.94
392.085	78.94
392.31	82.94
392.534	70.94
392.759	100.94
392.984	82.94
393.208	80.94
393.433	91.94
393.658	92.94
393.882	83.94
394.107	85.94
394.331	90.94
394.556	84.94
394.78	89.94
395.005	66.94
395.229	80.94
395.454	85.94
395.678	88.94
395.903	81.94
396.127	96.94
396.352	102.94
396.576	101.94
396.801	100.94
397.025	91.94
397.249	84.94
397.474	89.94
397.698	80.94
397.922	73.94
398.147	82.94
398.371	86.94
398.595	79.94
398.82	69.94
399.044	85.94
399.268	88.94
399.492	86.94
399.717	74.94
399.941	78.94
400.165	97.94
400.389	84.94
400.613	76.94
400.837	85.94
401.062	91.94
401.286	88.94
401.51	71.94
401.734	76.94
401.958	81.94
402.182	86.94
402.406	68.94
402.63	78.94
402.854	74.94
403.078	81.94
403.302	93.94
403.526	65.94
403.75	83.94
403.974	70.94
404.198	83.94
404.422	87.94
404.645	86.94
404.869	87.94
405.093	84.94
405.317	73.94
405.541	82.94
405.765	89.94
405.988	87.94
406.212	85.94
406.436	79.94
406.66	72.94
406.883	67.94
407.107	72.94
407.331	89.94
407.555	85.94
407.778	74.94
408.002	85.94
408.226	88.94
408.449	75.94
408.673	80.94
408.896	94.94
409.12	84.94
409.344	70.94
409.567	71.94
409.791	82.94
410.014	82.94
410.238	95.94
410.461	74.94
410.685	77.94
410.908	75.94
411.132	90.94
411.355	79.94
411.578	81.94
411.802	93.94
412.025	87.94
412.249	72.94
412.472	77.94
412.695	83.94
412.919	85.94
413.142	85.94
413.365	76.94
413.589	80.94
413.812	83.94
414.035	84.94
414.258	89.94
414.482	69.94
414.705	68.94
414.928	86.94
415.151	73.94
415.374	92.94
415.597	76.94
415.821	77.94
416.044	74.94
416.267	85.94
416.49	74.94
416.713	79.94
416.936	84.94
417.159	85.94
417.382	79.94
417.605	79.94
417.828	86.94
418.051	75.94
418.274	80.94
418.497	71.94
418.72	74.94
418.943	74.94
419.166	70.94
419.389	81.94
419.611	97.94
419.834	80.94
420.057	80.94
420.28	69.94
420.503	76.94
420.726	84.94
420.948	69.94
421.171	66.94
421.394	82.94
421.617	71.94
421.839	86.94
422.062	71.94
422.285	87.94
422.507	97.94
422.73	94.94
422.953	101.94
423.175	94.94
423.398	79.94
423.621	79.94
423.843	81.94
424.066	65.94
424.288	71.94
424.511	85.94
424.733	84.94
424.956	88.94
425.178	58.94
425.401	81.94
425.623	82.94
425.846	78.94
426.068	80.94
426.291	89.94
426.513	76.94
426.735	94.94
426.958	99.94
427.18	81.94
427.402	82.94
427.625	87.94
427.847	79.94
428.069	89.94
428.292	77.94
428.514	85.94
428.736	84.94
428.958	74.94
429.181	75.94
429.403	85.94
429.625	88.94
429.847	91.94
430.069	73.94
430.292	79.94
430.514	88.94
430.736	84.94
430.958	96.94
431.18	94.94
431.402	80.94
431.624	86.94
431.846	88.94
432.068	95.94
432.29	84.94
432.512	87.94
432.734	80.94
432.956	84.94
433.178	67.94
433.4	80.94
433.622	78.94
433.844	97.94
434.066	78.94
434.287	73.94
434.509	81.94
434.731	74.94
434.953	83.94
435.175	65.94
435.397	100.94
435.618	87.94
435.84	84.94
436.062	87.94
436.284	87.94
436.505	86.94
436.727	82.94
436.949	78.94
437.17	60.94
437.392	88.94
437.614	77.94
437.835	73.94
438.057	83.94
438.278	87.94
438.5	84.94
438.721	89.94
438.943	90.94
439.165	80.94
439.386	83.94
439.608	81.94
439.829	89.94
440.05	83.94
440.272	87.94
440.493	90.94
440.715	80.94
440.936	94.94
441.158	83.94
441.379	78.94
441.6	77.94
441.822	78.94
442.043	77.94
442.264	77.94
442.486	84.94
442.707	89.94
442.928	84.94
443.149	87.94
443.371	75.94
443.592	75.94
443.813	81.94
444.034	86.94
444.255	86.94
444.476	80.94
444.698	82.94
444.919	83.94
445.14	152.94
445.361	128.94
445.582	86.94
445.803	78.94
446.024	84.94
446.245	86.94
446.466	87.94
446.687	80.94
446.908	75.94
447.129	80.94
447.35	82.94
447.571	83.94
447.792	64.94
448.013	89.94
448.234	95.94
448.455	88.94
448.675	84.94
448.896	76.94
449.117	72.94
449.338	79.94
449.559	92.94
449.779	71.94
450	74.94
450.221	66.94
450.442	82.94
450.662	91.94
450.883	74.94
451.104	76.94
451.324	82.94
451.545	75.94
451.766	87.94
451.986	72.94
452.207	84.94
452.428	78.94
452.648	92.94
452.869	84.94
453.089	82.94
453.31	94.94
453.53	89.94
453.751	72.94
453.971	73.94
454.192	91.94
454.412	88.94
454.633	90.94
454.853	80.94
455.073	69.94
455.294	87.94
455.514	65.94
455.734	66.94
455.955	64.94
456.175	78.94
456.395	81.94
456.616	89.94
456.836	86.94
457.056	86.94
457.276	80.94
457.497	84.94
457.717	91.94
457.937	89.94
458.157	83.94
458.377	91.94
458.598	81.94
458.818	88.94
459.038	69.94
459.258	65.94
459.478	76.94
459.698	75.94
459.918	69.94
460.138	85.94
460.358	72.94
460.578	97.94
460.798	73.94
461.018	89.94
461.238	65.94
461.458	83.94
461.678	78.94
461.898	72.94
462.118	80.94
462.338	84.94
462.558	89.94
462.777	93.94
462.997	57.94
463.217	74.94
463.437	74.94
463.657	92.94
463.876	88.94
464.096	74.94
464.316	91.94
464.536	85.94
464.755	84.94
464.975	74.94
465.195	73.94
465.414	84.94
465.634	97.94
465.854	81.94
466.073	76.94
466.293	85.94
466.512	90.94
466.732	82.94
466.951	90.94
467.171	71.94
467.391	67.94
467.61	83.94
467.829	81.94
468.049	80.94
468.268	78.94
468.488	76.94
468.707	85.94
468.927	85.94
469.146	75.94
469.365	74.94
469.585	83.94
469.804	86.94
470.023	74.94
470.243	85.94
470.462	77.94
470.681	91.94
470.901	78.94
471.12	82.94
471.339	77.94
471.558	81.94
471.777	94.94
471.997	82.94
472.216	89.94
472.435	86.94
472.654	76.94
472.873	93.94
473.092	87.94
473.311	76.94
473.53	74.94
473.749	75.94
473.968	88.94
474.187	91.94
474.406	81.94
474.625	87.94
474.844	75.94
475.063	80.94
475.282	83.94
475.501	84.94
475.72	87.94
475.939	88.94
476.158	85.94
476.377	84.94
476.596	84.94
476.814	79.94
477.033	89.94
477.252	81.94
477.471	62.94
477.69	78.94
477.908	76.94
478.127	97.94
478.346	86.94
478.564	81.94
478.783	79.94
479.002	80.94
479.22	89.94
479.439	88.94
479.658	78.94
479.876	90.94
480.095	83.94
480.313	65.94
480.532	86.94
480.751	79.94
480.969	87.94
481.188	78.94
481.406	78.94
481.624	88.94
481.843	74.94
482.061	88.94
482.28	90.94
482.498	81.94
482.717	93.94
482.935	87.94
483.153	81.94
483.372	82.94
483.59	88.94
483.808	81.94
484.027	74.94
484.245	61.94
484.463	80.94
484.681	98.94
484.9	89.94
485.118	74.94
485.336	74.94
485.554	77.94
485.772	78.94
485.99	79.94
486.209	78.94
486.427	82.94
486.645	88.94
486.863	83.94
487.081	93.94
487.299	82.94
487.517	82.94
487.735	70.94
487.953	89.94
488.171	81.94
488.389	98.94
488.607	94.94
488.825	87.94
489.043	78.94
489.261	71.94
489.479	80.94
489.696	75.94
489.914	80.94
490.132	86.94
490.35	76.94
490.568	87.94
490.786	84.94
491.003	89.94
491.221	92.94
491.439	69.94
491.657	89.94
491.874	90.94
492.092	82.94
492.31	93.94
492.527	82.94
492.745	83.94
492.963	71.94
493.18	82.94
493.398	84.94
493.615	85.94
493.833	82.94
494.05	82.94
494.268	79.94
494.485	90.94
494.703	86.94
494.92	94.94
495.138	80.94
495.355	90.94
495.573	84.94
495.79	79.94
496.008	84.94
496.225	75.94
496.442	95.94
496.66	77.94
496.877	76.94
497.094	77.94
497.312	82.94
497.529	91.94
497.746	78.94
497.963	84.94
498.181	96.94
498.398	90.94
498.615	81.94
498.832	74.94
499.049	80.94
499.267	62.94
499.484	86.94
499.701	83.94
499.918	79.94
500.135	82.94
500.352	85.94
500.569	80.94
500.786	89.94
501.003	97.94
501.22	79.94
501.437	82.94
501.654	64.94
501.871	80.94
502.088	94.94
502.305	88.94
502.522	82.94
502.739	94.94
502.956	77.94
503.172	83.94
503.389	88.94
503.606	95.94
503.823	66.94
504.04	91.94
504.256	94.94
504.473	90.94
504.69	78.94
504.907	95.94
505.123	90.94
505.34	92.94
505.557	80.94
505.773	73.94
505.99	85.94
506.207	82.94
506.423	72.94
506.64	87.94
506.856	70.94
507.073	85.94
507.289	76.94
507.506	89.94
507.722	88.94
507.939	94.94
508.155	74.94
508.372	87.94
508.588	76.94
508.805	83.94
509.021	86.94
509.238	96.94
509.454	78.94
509.67	71.94
509.887	72.94
510.103	93.94
510.319	80.94
510.536	77.94
510.752	82.94
510.968	76.94
511.184	84.94
511.401	74.94
511.617	65.94
511.833	92.94
512.049	86.94
512.265	80.94
512.481	81.94
512.698	89.94
512.914	55.94
513.13	94.94
513.346	100.94
513.562	93.94
513.778	96.94
513.994	71.94
514.21	94.94
514.426	82.94
514.642	77.94
514.858	83.94
515.074	93.94
515.29	90.94
515.506	90.94
515.721	78.94
515.937	100.94
516.153	83.94
516.369	86.94
516.585	76.94
516.801	71.94
517.016	89.94
517.232	83.94
517.448	82.94
517.664	92.94
517.879	86.94
518.095	90.94
518.311	89.94
518.527	85.94
518.742	77.94
518.958	79.94
519.173	86.94
519.389	87.94
519.605	101.94
519.82	96.94
