Data from 1600_1_HRD10591_00029.txt Node
Date: Mon Jan 19 13:47:55 EST 2026
User: Yrep
Spectrometer: HR+D1059
Trigger mode: 1
Integration Time (sec): 1.000000E-1
Scans to average: 1
Electric dark correction enabled: true
Nonlinearity correction enabled: false
Boxcar width: 0
XAxis mode: Wavelengths
Number of Pixels in Spectrum: 2048
>>>>>Begin Spectral Data<<<<<
223.165	-6.38
223.4	-6.38
223.635	-6.38
223.869	-18.38
224.104	-10.38
224.338	-24.38
224.573	-34.38
224.808	-8.38
225.042	-4.38
225.277	-8.38
225.511	-2.38
225.746	7.62
225.98	-14.38
226.215	20.62
226.449	10.62
226.683	10.62
226.918	37.62
227.152	44.62
227.387	33.62
227.621	36.62
227.856	54.62
228.09	46.62
228.324	50.62
228.559	71.62
228.793	64.62
229.027	65.62
229.262	73.62
229.496	63.62
229.73	63.62
229.964	75.62
230.199	68.62
230.433	77.62
230.667	85.62
230.901	85.62
231.136	88.62
231.37	80.62
231.604	85.62
231.838	78.62
232.072	77.62
232.306	83.62
232.541	72.62
232.775	81.62
233.009	81.62
233.243	81.62
233.477	77.62
233.711	83.62
233.945	88.62
234.179	86.62
234.413	74.62
234.647	86.62
234.881	89.62
235.115	63.62
235.349	92.62
235.583	88.62
235.817	78.62
236.051	81.62
236.285	91.62
236.519	69.62
236.753	65.62
236.987	59.62
237.221	66.62
237.455	77.62
237.689	78.62
237.922	75.62
238.156	74.62
238.39	62.62
238.624	61.62
238.858	76.62
239.091	68.62
239.325	87.62
239.559	75.62
239.793	71.62
240.027	74.62
240.26	75.62
240.494	81.62
240.728	73.62
240.961	74.62
241.195	75.62
241.429	73.62
241.662	85.62
241.896	84.62
242.13	75.62
242.363	80.62
242.597	78.62
242.83	71.62
243.064	75.62
243.298	91.62
243.531	63.62
243.765	66.62
243.998	91.62
244.232	95.62
244.465	83.62
244.699	74.62
244.932	80.62
245.166	79.62
245.399	77.62
245.633	83.62
245.866	81.62
246.099	77.62
246.333	75.62
246.566	81.62
246.8	83.62
247.033	85.62
247.266	89.62
247.5	68.62
247.733	67.62
247.966	79.62
248.2	73.62
248.433	87.62
248.666	83.62
248.899	79.62
249.133	81.62
249.366	69.62
249.599	48.62
249.832	80.62
250.066	70.62
250.299	92.62
250.532	79.62
250.765	83.62
250.998	72.62
251.231	79.62
251.465	72.62
251.698	72.62
251.931	95.62
252.164	65.62
252.397	71.62
252.63	79.62
252.863	71.62
253.096	91.62
253.329	88.62
253.562	87.62
253.795	80.62
254.028	82.62
254.261	70.62
254.494	80.62
254.727	86.62
254.96	85.62
255.193	82.62
255.426	73.62
255.659	69.62
255.892	84.62
256.124	72.62
256.357	76.62
256.59	78.62
256.823	74.62
257.056	86.62
257.289	81.62
257.521	77.62
257.754	81.62
257.987	79.62
258.22	89.62
258.452	87.62
258.685	79.62
258.918	84.62
259.151	83.62
259.383	73.62
259.616	78.62
259.849	96.62
260.081	81.62
260.314	82.62
260.547	79.62
260.779	73.62
261.012	82.62
261.244	69.62
261.477	79.62
261.71	89.62
261.942	76.62
262.175	83.62
262.407	65.62
262.64	75.62
262.872	69.62
263.105	97.62
263.337	83.62
263.57	83.62
263.802	86.62
264.035	96.62
264.267	74.62
264.499	81.62
264.732	80.62
264.964	91.62
265.197	71.62
265.429	73.62
265.661	92.62
265.894	82.62
266.126	99.62
266.358	67.62
266.591	70.62
266.823	74.62
267.055	88.62
267.287	91.62
267.52	83.62
267.752	83.62
267.984	88.62
268.216	77.62
268.448	78.62
268.681	90.62
268.913	76.62
269.145	77.62
269.377	86.62
269.609	88.62
269.841	67.62
270.073	76.62
270.306	85.62
270.538	67.62
270.77	67.62
271.002	76.62
271.234	82.62
271.466	85.62
271.698	96.62
271.93	67.62
272.162	90.62
272.394	74.62
272.626	95.62
272.858	83.62
273.09	92.62
273.322	93.62
273.553	85.62
273.785	86.62
274.017	86.62
274.249	86.62
274.481	76.62
274.713	68.62
274.945	84.62
275.176	86.62
275.408	73.62
275.64	82.62
275.872	73.62
276.104	91.62
276.335	86.62
276.567	86.62
276.799	82.62
277.031	86.62
277.262	70.62
277.494	83.62
277.726	92.62
277.957	71.62
278.189	80.62
278.421	90.62
278.652	80.62
278.884	85.62
279.115	81.62
279.347	70.62
279.579	75.62
279.81	83.62
280.042	94.62
280.273	76.62
280.505	77.62
280.736	83.62
280.968	70.62
281.199	86.62
281.431	77.62
281.662	76.62
281.894	80.62
282.125	82.62
282.356	96.62
282.588	92.62
282.819	87.62
283.051	87.62
283.282	80.62
283.513	98.62
283.745	97.62
283.976	83.62
284.207	72.62
284.439	89.62
284.67	85.62
284.901	87.62
285.132	88.62
285.364	79.62
285.595	87.62
285.826	85.62
286.057	99.62
286.288	75.62
286.52	84.62
286.751	78.62
286.982	76.62
287.213	82.62
287.444	91.62
287.675	87.62
287.906	75.62
288.138	89.62
288.369	81.62
288.6	82.62
288.831	72.62
289.062	84.62
289.293	91.62
289.524	82.62
289.755	88.62
289.986	83.62
290.217	86.62
290.448	85.62
290.679	80.62
290.91	92.62
291.141	64.62
291.371	83.62
291.602	75.62
291.833	81.62
292.064	88.62
292.295	87.62
292.526	73.62
292.757	82.62
292.987	81.62
293.218	81.62
293.449	88.62
293.68	84.62
293.91	91.62
294.141	87.62
294.372	79.62
294.603	93.62
294.833	97.62
295.064	80.62
295.295	75.62
295.525	75.62
295.756	80.62
295.987	83.62
296.217	82.62
296.448	87.62
296.679	89.62
296.909	82.62
297.14	97.62
297.37	101.62
297.601	79.62
297.831	78.62
298.062	80.62
298.292	86.62
298.523	82.62
298.753	85.62
298.984	88.62
299.214	90.62
299.445	76.62
299.675	76.62
299.905	85.62
300.136	83.62
300.366	80.62
300.597	93.62
300.827	83.62
301.057	81.62
301.288	83.62
301.518	75.62
301.748	81.62
301.979	81.62
302.209	87.62
302.439	80.62
302.669	77.62
302.9	85.62
303.13	81.62
303.36	93.62
303.59	86.62
303.82	87.62
304.051	78.62
304.281	94.62
304.511	87.62
304.741	76.62
304.971	83.62
305.201	86.62
305.431	99.62
305.661	100.62
305.891	73.62
306.121	89.62
306.352	81.62
306.582	76.62
306.812	69.62
307.042	83.62
307.272	70.62
307.502	82.62
307.731	91.62
307.961	99.62
308.191	83.62
308.421	96.62
308.651	103.62
308.881	78.62
309.111	64.62
309.341	80.62
309.571	94.62
309.8	90.62
310.03	85.62
310.26	76.62
310.49	85.62
310.72	89.62
310.949	87.62
311.179	72.62
311.409	85.62
311.639	86.62
311.868	88.62
312.098	89.62
312.328	88.62
312.557	83.62
312.787	86.62
313.017	92.62
313.246	73.62
313.476	91.62
313.706	71.62
313.935	79.62
314.165	91.62
314.394	80.62
314.624	91.62
314.853	74.62
315.083	88.62
315.312	90.62
315.542	90.62
315.771	77.62
316.001	88.62
316.23	85.62
316.46	72.62
316.689	72.62
316.919	91.62
317.148	90.62
317.377	87.62
317.607	95.62
317.836	89.62
318.065	84.62
318.295	88.62
318.524	68.62
318.753	79.62
318.983	84.62
319.212	83.62
319.441	80.62
319.67	95.62
319.9	81.62
320.129	99.62
320.358	77.62
320.587	71.62
320.816	79.62
321.046	73.62
321.275	85.62
321.504	79.62
321.733	97.62
321.962	78.62
322.191	80.62
322.42	101.62
322.649	89.62
322.878	77.62
323.108	86.62
323.337	87.62
323.566	91.62
323.795	72.62
324.024	81.62
324.253	87.62
324.482	91.62
324.71	93.62
324.939	82.62
325.168	80.62
325.397	87.62
325.626	74.62
325.855	77.62
326.084	84.62
326.313	80.62
326.542	78.62
326.77	71.62
326.999	87.62
327.228	96.62
327.457	84.62
327.686	74.62
327.914	75.62
328.143	85.62
328.372	94.62
328.6	85.62
328.829	93.62
329.058	84.62
329.287	83.62
329.515	86.62
329.744	79.62
329.972	80.62
330.201	90.62
330.43	76.62
330.658	71.62
330.887	86.62
331.115	87.62
331.344	75.62
331.572	71.62
331.801	79.62
332.03	74.62
332.258	73.62
332.486	88.62
332.715	81.62
332.943	88.62
333.172	87.62
333.4	93.62
333.629	77.62
333.857	87.62
334.085	86.62
334.314	99.62
334.542	78.62
334.771	87.62
334.999	72.62
335.227	72.62
335.455	93.62
335.684	87.62
335.912	86.62
336.14	87.62
336.369	77.62
336.597	79.62
336.825	73.62
337.053	102.62
337.281	82.62
337.51	85.62
337.738	79.62
337.966	83.62
338.194	77.62
338.422	73.62
338.65	85.62
338.878	81.62
339.106	88.62
339.334	88.62
339.562	87.62
339.79	76.62
340.018	87.62
340.246	80.62
340.474	86.62
340.702	83.62
340.93	71.62
341.158	81.62
341.386	91.62
341.614	80.62
341.842	67.62
342.07	71.62
342.298	77.62
342.526	76.62
342.754	87.62
342.981	86.62
343.209	76.62
343.437	98.62
343.665	83.62
343.893	83.62
344.12	76.62
344.348	72.62
344.576	84.62
344.804	71.62
345.031	73.62
345.259	95.62
345.487	87.62
345.714	82.62
345.942	69.62
346.17	85.62
346.397	74.62
346.625	83.62
346.853	89.62
347.08	82.62
347.308	80.62
347.535	80.62
347.763	75.62
347.99	80.62
348.218	82.62
348.445	78.62
348.673	92.62
348.9	86.62
349.128	96.62
349.355	66.62
349.583	72.62
349.81	80.62
350.037	81.62
350.265	79.62
350.492	71.62
350.72	81.62
350.947	80.62
351.174	87.62
351.402	73.62
351.629	97.62
351.856	89.62
352.083	77.62
352.311	96.62
352.538	85.62
352.765	81.62
352.992	83.62
353.22	81.62
353.447	86.62
353.674	82.62
353.901	84.62
354.128	73.62
354.355	84.62
354.583	89.62
354.81	71.62
355.037	97.62
355.264	81.62
355.491	86.62
355.718	93.62
355.945	85.62
356.172	77.62
356.399	72.62
356.626	68.62
356.853	71.62
357.08	82.62
357.307	67.62
357.534	93.62
357.761	91.62
357.988	81.62
358.215	71.62
358.441	79.62
358.668	68.62
358.895	91.62
359.122	79.62
359.349	75.62
359.576	85.62
359.802	101.62
360.029	79.62
360.256	85.62
360.483	78.62
360.709	86.62
360.936	87.62
361.163	79.62
361.39	80.62
361.616	82.62
361.843	92.62
362.07	75.62
362.296	76.62
362.523	84.62
362.749	85.62
362.976	81.62
363.203	84.62
363.429	76.62
363.656	88.62
363.882	91.62
364.109	85.62
364.335	100.62
364.562	83.62
364.788	69.62
365.015	81.62
365.241	95.62
365.468	82.62
365.694	86.62
365.92	80.62
366.147	81.62
366.373	70.62
366.599	80.62
366.826	70.62
367.052	93.62
367.278	76.62
367.505	80.62
367.731	92.62
367.957	85.62
368.184	81.62
368.41	69.62
368.636	88.62
368.862	81.62
369.089	76.62
369.315	97.62
369.541	80.62
369.767	82.62
369.993	91.62
370.219	77.62
370.445	71.62
370.672	87.62
370.898	66.62
371.124	85.62
371.35	94.62
371.576	81.62
371.802	87.62
372.028	83.62
372.254	88.62
372.48	75.62
372.706	73.62
372.932	79.62
373.158	85.62
373.384	72.62
373.61	76.62
373.835	95.62
374.061	85.62
374.287	83.62
374.513	77.62
374.739	77.62
374.965	83.62
375.191	73.62
375.416	84.62
375.642	86.62
375.868	81.62
376.094	72.62
376.319	73.62
376.545	110.62
376.771	86.62
376.997	65.62
377.222	90.62
377.448	85.62
377.674	95.62
377.899	68.62
378.125	84.62
378.35	81.62
378.576	88.62
378.802	70.62
379.027	97.62
379.253	83.62
379.478	89.62
379.704	81.62
379.929	82.62
380.155	95.62
380.38	79.62
380.606	78.62
380.831	73.62
381.057	94.62
381.282	79.62
381.507	81.62
381.733	87.62
381.958	88.62
382.184	70.62
382.409	73.62
382.634	87.62
382.86	77.62
383.085	86.62
383.31	77.62
383.535	89.62
383.761	83.62
383.986	83.62
384.211	86.62
384.436	77.62
384.662	77.62
384.887	79.62
385.112	71.62
385.337	76.62
385.562	79.62
385.787	77.62
386.013	89.62
386.238	76.62
386.463	72.62
386.688	83.62
386.913	82.62
387.138	79.62
387.363	78.62
387.588	83.62
387.813	90.62
388.038	72.62
388.263	92.62
388.488	79.62
388.713	78.62
388.938	89.62
389.163	77.62
389.387	79.62
389.612	80.62
389.837	83.62
390.062	77.62
390.287	87.62
390.512	82.62
390.736	90.62
390.961	81.62
391.186	79.62
391.411	86.62
391.636	80.62
391.86	85.62
392.085	88.62
392.31	81.62
392.534	95.62
392.759	75.62
392.984	82.62
393.208	79.62
393.433	89.62
393.658	82.62
393.882	83.62
394.107	87.62
394.331	87.62
394.556	97.62
394.78	93.62
395.005	83.62
395.229	88.62
395.454	86.62
395.678	92.62
395.903	96.62
396.127	76.62
396.352	86.62
396.576	83.62
396.801	81.62
397.025	74.62
397.249	75.62
397.474	87.62
397.698	85.62
397.922	82.62
398.147	83.62
398.371	71.62
398.595	75.62
398.82	85.62
399.044	78.62
399.268	79.62
399.492	85.62
399.717	85.62
399.941	70.62
400.165	65.62
400.389	84.62
400.613	75.62
400.837	77.62
401.062	74.62
401.286	82.62
401.51	85.62
401.734	78.62
401.958	87.62
402.182	87.62
402.406	66.62
402.63	82.62
402.854	84.62
403.078	74.62
403.302	79.62
403.526	76.62
403.75	95.62
403.974	83.62
404.198	95.62
404.422	70.62
404.645	90.62
404.869	83.62
405.093	79.62
405.317	66.62
405.541	72.62
405.765	81.62
405.988	86.62
406.212	88.62
406.436	84.62
406.66	89.62
406.883	71.62
407.107	79.62
407.331	79.62
407.555	77.62
407.778	88.62
408.002	89.62
408.226	78.62
408.449	96.62
408.673	88.62
408.896	73.62
409.12	87.62
409.344	72.62
409.567	67.62
409.791	76.62
410.014	74.62
410.238	83.62
410.461	78.62
410.685	77.62
410.908	75.62
411.132	83.62
411.355	78.62
411.578	86.62
411.802	71.62
412.025	80.62
412.249	81.62
412.472	85.62
412.695	75.62
412.919	86.62
413.142	75.62
413.365	87.62
413.589	95.62
413.812	79.62
414.035	76.62
414.258	91.62
414.482	76.62
414.705	82.62
414.928	94.62
415.151	87.62
415.374	77.62
415.597	75.62
415.821	62.62
416.044	77.62
416.267	77.62
416.49	92.62
416.713	84.62
416.936	80.62
417.159	89.62
417.382	79.62
417.605	79.62
417.828	76.62
418.051	76.62
418.274	87.62
418.497	89.62
418.72	69.62
418.943	84.62
419.166	86.62
419.389	79.62
419.611	93.62
419.834	77.62
420.057	94.62
420.28	79.62
420.503	82.62
420.726	87.62
420.948	85.62
421.171	77.62
421.394	78.62
421.617	83.62
421.839	68.62
422.062	87.62
422.285	79.62
422.507	81.62
422.73	103.62
422.953	82.62
423.175	84.62
423.398	79.62
423.621	84.62
423.843	75.62
424.066	70.62
424.288	76.62
424.511	70.62
424.733	77.62
424.956	87.62
425.178	78.62
425.401	73.62
425.623	79.62
425.846	78.62
426.068	84.62
426.291	73.62
426.513	83.62
426.735	91.62
426.958	77.62
427.18	82.62
427.402	85.62
427.625	84.62
427.847	89.62
428.069	94.62
428.292	75.62
428.514	90.62
428.736	89.62
428.958	91.62
429.181	89.62
429.403	82.62
429.625	79.62
429.847	88.62
430.069	79.62
430.292	87.62
430.514	85.62
430.736	73.62
430.958	76.62
431.18	74.62
431.402	67.62
431.624	86.62
431.846	80.62
432.068	85.62
432.29	78.62
432.512	96.62
432.734	79.62
432.956	71.62
433.178	87.62
433.4	69.62
433.622	73.62
433.844	72.62
434.066	77.62
434.287	87.62
434.509	79.62
434.731	61.62
434.953	77.62
435.175	83.62
435.397	83.62
435.618	77.62
435.84	66.62
436.062	83.62
436.284	82.62
436.505	77.62
436.727	86.62
436.949	81.62
437.17	89.62
437.392	77.62
437.614	89.62
437.835	87.62
438.057	85.62
438.278	67.62
438.5	73.62
438.721	86.62
438.943	88.62
439.165	90.62
439.386	83.62
439.608	86.62
439.829	67.62
440.05	73.62
440.272	85.62
440.493	96.62
440.715	75.62
440.936	65.62
441.158	95.62
441.379	85.62
441.6	91.62
441.822	70.62
442.043	77.62
442.264	85.62
442.486	87.62
442.707	85.62
442.928	81.62
443.149	82.62
443.371	95.62
443.592	91.62
443.813	83.62
444.034	76.62
444.255	88.62
444.476	73.62
444.698	89.62
444.919	81.62
445.14	151.62
445.361	114.62
445.582	72.62
445.803	88.62
446.024	77.62
446.245	87.62
446.466	77.62
446.687	93.62
446.908	72.62
447.129	79.62
447.35	82.62
447.571	79.62
447.792	74.62
448.013	73.62
448.234	87.62
448.455	85.62
448.675	93.62
448.896	80.62
449.117	83.62
449.338	79.62
449.559	69.62
449.779	81.62
450	84.62
450.221	75.62
450.442	79.62
450.662	94.62
450.883	86.62
451.104	79.62
451.324	83.62
451.545	81.62
451.766	74.62
451.986	70.62
452.207	79.62
452.428	87.62
452.648	87.62
452.869	83.62
453.089	72.62
453.31	85.62
453.53	86.62
453.751	92.62
453.971	65.62
454.192	64.62
454.412	77.62
454.633	77.62
454.853	88.62
455.073	80.62
455.294	85.62
455.514	81.62
455.734	87.62
455.955	81.62
456.175	87.62
456.395	69.62
456.616	98.62
456.836	64.62
457.056	88.62
457.276	74.62
457.497	98.62
457.717	82.62
457.937	79.62
458.157	80.62
458.377	76.62
458.598	85.62
458.818	71.62
459.038	77.62
459.258	87.62
459.478	63.62
459.698	81.62
459.918	87.62
460.138	85.62
460.358	70.62
460.578	92.62
460.798	65.62
461.018	79.62
461.238	83.62
461.458	83.62
461.678	80.62
461.898	94.62
462.118	89.62
462.338	72.62
462.558	84.62
462.777	79.62
462.997	85.62
463.217	67.62
463.437	74.62
463.657	66.62
463.876	73.62
464.096	81.62
464.316	73.62
464.536	79.62
464.755	78.62
464.975	81.62
465.195	83.62
465.414	88.62
465.634	91.62
465.854	83.62
466.073	85.62
466.293	78.62
466.512	76.62
466.732	85.62
466.951	91.62
467.171	68.62
467.391	89.62
467.61	79.62
467.829	83.62
468.049	83.62
468.268	82.62
468.488	90.62
468.707	81.62
468.927	68.62
469.146	87.62
469.365	80.62
469.585	83.62
469.804	74.62
470.023	90.62
470.243	94.62
470.462	71.62
470.681	95.62
470.901	74.62
471.12	83.62
471.339	85.62
471.558	78.62
471.777	75.62
471.997	100.62
472.216	71.62
472.435	87.62
472.654	81.62
472.873	87.62
473.092	91.62
473.311	95.62
473.53	88.62
473.749	81.62
473.968	68.62
474.187	87.62
474.406	85.62
474.625	105.62
474.844	86.62
475.063	93.62
475.282	79.62
475.501	79.62
475.72	89.62
475.939	86.62
476.158	83.62
476.377	70.62
476.596	79.62
476.814	71.62
477.033	84.62
477.252	85.62
477.471	77.62
477.69	96.62
477.908	81.62
478.127	82.62
478.346	89.62
478.564	85.62
478.783	63.62
479.002	67.62
479.22	87.62
479.439	78.62
479.658	81.62
479.876	74.62
480.095	68.62
480.313	79.62
480.532	80.62
480.751	79.62
480.969	93.62
481.188	80.62
481.406	81.62
481.624	80.62
481.843	83.62
482.061	69.62
482.28	74.62
482.498	86.62
482.717	78.62
482.935	89.62
483.153	87.62
483.372	88.62
483.59	107.62
483.808	83.62
484.027	92.62
484.245	83.62
484.463	79.62
484.681	91.62
484.9	89.62
485.118	93.62
485.336	74.62
485.554	77.62
485.772	96.62
485.99	72.62
486.209	82.62
486.427	77.62
486.645	88.62
486.863	89.62
487.081	74.62
487.299	76.62
487.517	93.62
487.735	71.62
487.953	90.62
488.171	95.62
488.389	81.62
488.607	81.62
488.825	86.62
489.043	92.62
489.261	86.62
489.479	78.62
489.696	63.62
489.914	70.62
490.132	76.62
490.35	73.62
490.568	77.62
490.786	71.62
491.003	66.62
491.221	94.62
491.439	84.62
491.657	82.62
491.874	87.62
492.092	84.62
492.31	68.62
492.527	87.62
492.745	91.62
492.963	84.62
493.18	78.62
493.398	83.62
493.615	96.62
493.833	74.62
494.05	79.62
494.268	77.62
494.485	83.62
494.703	87.62
494.92	79.62
495.138	91.62
495.355	80.62
495.573	92.62
495.79	65.62
496.008	81.62
496.225	96.62
496.442	88.62
496.66	72.62
496.877	79.62
497.094	88.62
497.312	81.62
497.529	84.62
497.746	81.62
497.963	96.62
498.181	71.62
498.398	82.62
498.615	79.62
498.832	79.62
499.049	64.62
499.267	79.62
499.484	70.62
499.701	100.62
499.918	82.62
500.135	87.62
500.352	89.62
500.569	87.62
500.786	73.62
501.003	81.62
501.22	78.62
501.437	80.62
501.654	87.62
501.871	88.62
502.088	91.62
502.305	87.62
502.522	77.62
502.739	84.62
502.956	89.62
503.172	82.62
503.389	72.62
503.606	79.62
503.823	81.62
504.04	89.62
504.256	83.62
504.473	86.62
504.69	86.62
504.907	94.62
505.123	67.62
505.34	78.62
505.557	83.62
505.773	76.62
505.99	84.62
506.207	82.62
506.423	67.62
506.64	70.62
506.856	94.62
507.073	86.62
507.289	69.62
507.506	84.62
507.722	77.62
507.939	77.62
508.155	80.62
508.372	80.62
508.588	88.62
508.805	85.62
509.021	72.62
509.238	74.62
509.454	77.62
509.67	89.62
509.887	87.62
510.103	98.62
510.319	82.62
510.536	85.62
510.752	76.62
510.968	90.62
511.184	86.62
511.401	77.62
511.617	69.62
511.833	98.62
512.049	95.62
512.265	77.62
512.481	90.62
512.698	77.62
512.914	72.62
513.13	92.62
513.346	70.62
513.562	79.62
513.778	85.62
513.994	93.62
514.21	84.62
514.426	88.62
514.642	70.62
514.858	82.62
515.074	85.62
515.29	91.62
515.506	68.62
515.721	87.62
515.937	93.62
516.153	82.62
516.369	100.62
516.585	83.62
516.801	83.62
517.016	73.62
517.232	71.62
517.448	90.62
517.664	81.62
517.879	90.62
518.095	83.62
518.311	76.62
518.527	81.62
518.742	84.62
518.958	89.62
519.173	79.62
519.389	77.62
519.605	79.62
519.82	76.62
520.036	96.62
