Data from 1600_1_HRD10591_00025.txt Node
Date: Mon Jan 19 13:47:53 EST 2026
User: Yrep
Spectrometer: HR+D1059
Trigger mode: 1
Integration Time (sec): 1.000000E-1
Scans to average: 1
Electric dark correction enabled: true
Nonlinearity correction enabled: false
Boxcar width: 0
XAxis mode: Wavelengths
Number of Pixels in Spectrum: 2048
>>>>>Begin Spectral Data<<<<<
223.165	-25.75
223.4	-25.75
223.635	-25.75
223.869	-17.75
224.104	-19.75
224.338	-10.75
224.573	-23.75
224.808	-15.75
225.042	1.25
225.277	-13.75
225.511	7.25
225.746	7.25
225.98	18.25
226.215	4.25
226.449	13.25
226.683	12.25
226.918	27.25
227.152	36.25
227.387	31.25
227.621	38.25
227.856	32.25
228.09	49.25
228.324	65.25
228.559	64.25
228.793	48.25
229.027	60.25
229.262	68.25
229.496	60.25
229.73	64.25
229.964	90.25
230.199	72.25
230.433	59.25
230.667	89.25
230.901	90.25
231.136	72.25
231.37	65.25
231.604	75.25
231.838	87.25
232.072	78.25
232.306	73.25
232.541	79.25
232.775	74.25
233.009	72.25
233.243	81.25
233.477	84.25
233.711	81.25
233.945	81.25
234.179	79.25
234.413	70.25
234.647	68.25
234.881	75.25
235.115	82.25
235.349	77.25
235.583	83.25
235.817	75.25
236.051	76.25
236.285	76.25
236.519	75.25
236.753	69.25
236.987	74.25
237.221	73.25
237.455	80.25
237.689	65.25
237.922	70.25
238.156	66.25
238.39	65.25
238.624	74.25
238.858	84.25
239.091	69.25
239.325	79.25
239.559	74.25
239.793	76.25
240.027	81.25
240.26	65.25
240.494	63.25
240.728	80.25
240.961	78.25
241.195	69.25
241.429	82.25
241.662	78.25
241.896	72.25
242.13	79.25
242.363	61.25
242.597	63.25
242.83	77.25
243.064	60.25
243.298	68.25
243.531	81.25
243.765	94.25
243.998	76.25
244.232	81.25
244.465	82.25
244.699	83.25
244.932	71.25
245.166	68.25
245.399	73.25
245.633	80.25
245.866	76.25
246.099	77.25
246.333	80.25
246.566	84.25
246.8	72.25
247.033	62.25
247.266	63.25
247.5	82.25
247.733	69.25
247.966	67.25
248.2	76.25
248.433	64.25
248.666	82.25
248.899	67.25
249.133	67.25
249.366	83.25
249.599	77.25
249.832	91.25
250.066	83.25
250.299	73.25
250.532	80.25
250.765	85.25
250.998	79.25
251.231	70.25
251.465	75.25
251.698	88.25
251.931	85.25
252.164	85.25
252.397	67.25
252.63	73.25
252.863	77.25
253.096	82.25
253.329	80.25
253.562	82.25
253.795	81.25
254.028	79.25
254.261	80.25
254.494	80.25
254.727	77.25
254.96	82.25
255.193	79.25
255.426	73.25
255.659	81.25
255.892	78.25
256.124	63.25
256.357	63.25
256.59	87.25
256.823	82.25
257.056	80.25
257.289	76.25
257.521	71.25
257.754	77.25
257.987	68.25
258.22	87.25
258.452	73.25
258.685	92.25
258.918	84.25
259.151	68.25
259.383	74.25
259.616	68.25
259.849	76.25
260.081	70.25
260.314	86.25
260.547	79.25
260.779	83.25
261.012	72.25
261.244	69.25
261.477	92.25
261.71	81.25
261.942	69.25
262.175	79.25
262.407	89.25
262.64	80.25
262.872	82.25
263.105	72.25
263.337	87.25
263.57	90.25
263.802	76.25
264.035	95.25
264.267	65.25
264.499	75.25
264.732	78.25
264.964	78.25
265.197	91.25
265.429	87.25
265.661	84.25
265.894	82.25
266.126	83.25
266.358	83.25
266.591	83.25
266.823	71.25
267.055	68.25
267.287	76.25
267.52	78.25
267.752	87.25
267.984	86.25
268.216	79.25
268.448	86.25
268.681	84.25
268.913	59.25
269.145	77.25
269.377	74.25
269.609	85.25
269.841	85.25
270.073	80.25
270.306	79.25
270.538	75.25
270.77	77.25
271.002	83.25
271.234	71.25
271.466	78.25
271.698	83.25
271.93	76.25
272.162	82.25
272.394	85.25
272.626	65.25
272.858	80.25
273.09	86.25
273.322	70.25
273.553	91.25
273.785	81.25
274.017	76.25
274.249	96.25
274.481	82.25
274.713	76.25
274.945	77.25
275.176	74.25
275.408	89.25
275.64	92.25
275.872	85.25
276.104	83.25
276.335	81.25
276.567	64.25
276.799	69.25
277.031	66.25
277.262	80.25
277.494	82.25
277.726	75.25
277.957	85.25
278.189	78.25
278.421	73.25
278.652	84.25
278.884	77.25
279.115	76.25
279.347	79.25
279.579	75.25
279.81	92.25
280.042	73.25
280.273	82.25
280.505	70.25
280.736	83.25
280.968	82.25
281.199	83.25
281.431	81.25
281.662	90.25
281.894	74.25
282.125	77.25
282.356	90.25
282.588	85.25
282.819	88.25
283.051	72.25
283.282	77.25
283.513	78.25
283.745	72.25
283.976	87.25
284.207	92.25
284.439	96.25
284.67	82.25
284.901	88.25
285.132	92.25
285.364	84.25
285.595	77.25
285.826	94.25
286.057	93.25
286.288	78.25
286.52	75.25
286.751	72.25
286.982	80.25
287.213	81.25
287.444	89.25
287.675	85.25
287.906	78.25
288.138	76.25
288.369	92.25
288.6	89.25
288.831	76.25
289.062	87.25
289.293	80.25
289.524	88.25
289.755	91.25
289.986	66.25
290.217	87.25
290.448	81.25
290.679	83.25
290.91	89.25
291.141	81.25
291.371	80.25
291.602	79.25
291.833	87.25
292.064	75.25
292.295	81.25
292.526	76.25
292.757	93.25
292.987	78.25
293.218	77.25
293.449	86.25
293.68	82.25
293.91	85.25
294.141	80.25
294.372	91.25
294.603	90.25
294.833	79.25
295.064	76.25
295.295	91.25
295.525	80.25
295.756	81.25
295.987	88.25
296.217	74.25
296.448	81.25
296.679	75.25
296.909	86.25
297.14	90.25
297.37	85.25
297.601	87.25
297.831	75.25
298.062	83.25
298.292	73.25
298.523	78.25
298.753	73.25
298.984	74.25
299.214	85.25
299.445	75.25
299.675	84.25
299.905	85.25
300.136	79.25
300.366	73.25
300.597	77.25
300.827	92.25
301.057	74.25
301.288	79.25
301.518	68.25
301.748	84.25
301.979	87.25
302.209	80.25
302.439	91.25
302.669	84.25
302.9	84.25
303.13	81.25
303.36	79.25
303.59	79.25
303.82	77.25
304.051	76.25
304.281	76.25
304.511	80.25
304.741	83.25
304.971	78.25
305.201	77.25
305.431	84.25
305.661	81.25
305.891	81.25
306.121	84.25
306.352	82.25
306.582	82.25
306.812	83.25
307.042	90.25
307.272	90.25
307.502	83.25
307.731	91.25
307.961	77.25
308.191	82.25
308.421	83.25
308.651	82.25
308.881	93.25
309.111	78.25
309.341	78.25
309.571	72.25
309.8	102.25
310.03	91.25
310.26	78.25
310.49	82.25
310.72	96.25
310.949	89.25
311.179	62.25
311.409	90.25
311.639	93.25
311.868	83.25
312.098	68.25
312.328	79.25
312.557	84.25
312.787	78.25
313.017	96.25
313.246	78.25
313.476	84.25
313.706	79.25
313.935	99.25
314.165	87.25
314.394	87.25
314.624	78.25
314.853	83.25
315.083	84.25
315.312	77.25
315.542	89.25
315.771	78.25
316.001	83.25
316.23	86.25
316.46	85.25
316.689	73.25
316.919	84.25
317.148	93.25
317.377	92.25
317.607	71.25
317.836	89.25
318.065	85.25
318.295	86.25
318.524	81.25
318.753	78.25
318.983	86.25
319.212	79.25
319.441	83.25
319.67	75.25
319.9	85.25
320.129	82.25
320.358	84.25
320.587	82.25
320.816	95.25
321.046	82.25
321.275	96.25
321.504	71.25
321.733	80.25
321.962	86.25
322.191	98.25
322.42	82.25
322.649	102.25
322.878	81.25
323.108	87.25
323.337	108.25
323.566	82.25
323.795	92.25
324.024	90.25
324.253	81.25
324.482	76.25
324.71	78.25
324.939	92.25
325.168	78.25
325.397	74.25
325.626	86.25
325.855	92.25
326.084	90.25
326.313	84.25
326.542	74.25
326.77	75.25
326.999	82.25
327.228	93.25
327.457	86.25
327.686	94.25
327.914	72.25
328.143	82.25
328.372	67.25
328.6	69.25
328.829	87.25
329.058	78.25
329.287	96.25
329.515	80.25
329.744	76.25
329.972	84.25
330.201	80.25
330.43	84.25
330.658	95.25
330.887	85.25
331.115	77.25
331.344	97.25
331.572	80.25
331.801	95.25
332.03	85.25
332.258	70.25
332.486	101.25
332.715	70.25
332.943	90.25
333.172	82.25
333.4	68.25
333.629	99.25
333.857	85.25
334.085	81.25
334.314	93.25
334.542	80.25
334.771	86.25
334.999	88.25
335.227	92.25
335.455	88.25
335.684	91.25
335.912	91.25
336.14	83.25
336.369	86.25
336.597	79.25
336.825	76.25
337.053	75.25
337.281	67.25
337.51	87.25
337.738	93.25
337.966	75.25
338.194	84.25
338.422	76.25
338.65	92.25
338.878	89.25
339.106	78.25
339.334	79.25
339.562	92.25
339.79	77.25
340.018	80.25
340.246	78.25
340.474	94.25
340.702	90.25
340.93	77.25
341.158	89.25
341.386	82.25
341.614	84.25
341.842	76.25
342.07	77.25
342.298	86.25
342.526	82.25
342.754	73.25
342.981	84.25
343.209	87.25
343.437	91.25
343.665	95.25
343.893	91.25
344.12	83.25
344.348	90.25
344.576	91.25
344.804	93.25
345.031	86.25
345.259	90.25
345.487	82.25
345.714	76.25
345.942	90.25
346.17	90.25
346.397	84.25
346.625	76.25
346.853	77.25
347.08	86.25
347.308	73.25
347.535	80.25
347.763	94.25
347.99	77.25
348.218	93.25
348.445	77.25
348.673	98.25
348.9	85.25
349.128	84.25
349.355	75.25
349.583	90.25
349.81	77.25
350.037	91.25
350.265	96.25
350.492	76.25
350.72	80.25
350.947	72.25
351.174	92.25
351.402	82.25
351.629	71.25
351.856	83.25
352.083	86.25
352.311	88.25
352.538	81.25
352.765	73.25
352.992	71.25
353.22	90.25
353.447	77.25
353.674	84.25
353.901	88.25
354.128	90.25
354.355	87.25
354.583	86.25
354.81	75.25
355.037	87.25
355.264	72.25
355.491	87.25
355.718	70.25
355.945	79.25
356.172	86.25
356.399	83.25
356.626	83.25
356.853	76.25
357.08	70.25
357.307	75.25
357.534	90.25
357.761	90.25
357.988	84.25
358.215	88.25
358.441	68.25
358.668	91.25
358.895	87.25
359.122	88.25
359.349	73.25
359.576	77.25
359.802	81.25
360.029	82.25
360.256	81.25
360.483	76.25
360.709	76.25
360.936	77.25
361.163	85.25
361.39	77.25
361.616	71.25
361.843	73.25
362.07	82.25
362.296	86.25
362.523	88.25
362.749	90.25
362.976	83.25
363.203	87.25
363.429	94.25
363.656	82.25
363.882	73.25
364.109	73.25
364.335	83.25
364.562	75.25
364.788	74.25
365.015	72.25
365.241	64.25
365.468	95.25
365.694	84.25
365.92	76.25
366.147	66.25
366.373	71.25
366.599	81.25
366.826	88.25
367.052	83.25
367.278	87.25
367.505	95.25
367.731	94.25
367.957	71.25
368.184	72.25
368.41	80.25
368.636	80.25
368.862	81.25
369.089	95.25
369.315	75.25
369.541	82.25
369.767	94.25
369.993	81.25
370.219	79.25
370.445	93.25
370.672	76.25
370.898	91.25
371.124	83.25
371.35	81.25
371.576	77.25
371.802	72.25
372.028	72.25
372.254	80.25
372.48	77.25
372.706	96.25
372.932	89.25
373.158	82.25
373.384	83.25
373.61	87.25
373.835	85.25
374.061	83.25
374.287	75.25
374.513	72.25
374.739	78.25
374.965	92.25
375.191	76.25
375.416	92.25
375.642	69.25
375.868	60.25
376.094	90.25
376.319	79.25
376.545	72.25
376.771	89.25
376.997	74.25
377.222	82.25
377.448	70.25
377.674	84.25
377.899	77.25
378.125	76.25
378.35	74.25
378.576	78.25
378.802	79.25
379.027	79.25
379.253	79.25
379.478	81.25
379.704	75.25
379.929	83.25
380.155	86.25
380.38	81.25
380.606	73.25
380.831	79.25
381.057	80.25
381.282	76.25
381.507	85.25
381.733	84.25
381.958	75.25
382.184	79.25
382.409	94.25
382.634	85.25
382.86	80.25
383.085	98.25
383.31	87.25
383.535	94.25
383.761	82.25
383.986	82.25
384.211	94.25
384.436	82.25
384.662	76.25
384.887	90.25
385.112	83.25
385.337	74.25
385.562	81.25
385.787	93.25
386.013	80.25
386.238	86.25
386.463	88.25
386.688	93.25
386.913	84.25
387.138	89.25
387.363	71.25
387.588	77.25
387.813	86.25
388.038	71.25
388.263	78.25
388.488	71.25
388.713	88.25
388.938	87.25
389.163	84.25
389.387	76.25
389.612	80.25
389.837	79.25
390.062	79.25
390.287	83.25
390.512	90.25
390.736	81.25
390.961	91.25
391.186	85.25
391.411	92.25
391.636	84.25
391.86	80.25
392.085	85.25
392.31	75.25
392.534	86.25
392.759	84.25
392.984	83.25
393.208	86.25
393.433	81.25
393.658	70.25
393.882	76.25
394.107	76.25
394.331	82.25
394.556	87.25
394.78	92.25
395.005	88.25
395.229	68.25
395.454	73.25
395.678	90.25
395.903	89.25
396.127	86.25
396.352	72.25
396.576	83.25
396.801	89.25
397.025	92.25
397.249	82.25
397.474	88.25
397.698	83.25
397.922	88.25
398.147	92.25
398.371	91.25
398.595	75.25
398.82	85.25
399.044	84.25
399.268	73.25
399.492	74.25
399.717	91.25
399.941	80.25
400.165	84.25
400.389	84.25
400.613	91.25
400.837	68.25
401.062	83.25
401.286	81.25
401.51	91.25
401.734	77.25
401.958	79.25
402.182	80.25
402.406	85.25
402.63	89.25
402.854	73.25
403.078	91.25
403.302	83.25
403.526	80.25
403.75	87.25
403.974	98.25
404.198	84.25
404.422	94.25
404.645	95.25
404.869	78.25
405.093	85.25
405.317	92.25
405.541	86.25
405.765	95.25
405.988	88.25
406.212	73.25
406.436	85.25
406.66	87.25
406.883	69.25
407.107	85.25
407.331	74.25
407.555	82.25
407.778	85.25
408.002	100.25
408.226	81.25
408.449	85.25
408.673	82.25
408.896	75.25
409.12	77.25
409.344	66.25
409.567	65.25
409.791	84.25
410.014	60.25
410.238	78.25
410.461	78.25
410.685	76.25
410.908	91.25
411.132	76.25
411.355	91.25
411.578	77.25
411.802	81.25
412.025	68.25
412.249	83.25
412.472	79.25
412.695	68.25
412.919	73.25
413.142	80.25
413.365	81.25
413.589	80.25
413.812	83.25
414.035	97.25
414.258	77.25
414.482	73.25
414.705	76.25
414.928	79.25
415.151	76.25
415.374	79.25
415.597	80.25
415.821	91.25
416.044	82.25
416.267	71.25
416.49	73.25
416.713	82.25
416.936	65.25
417.159	84.25
417.382	89.25
417.605	92.25
417.828	80.25
418.051	81.25
418.274	75.25
418.497	83.25
418.72	74.25
418.943	78.25
419.166	76.25
419.389	84.25
419.611	87.25
419.834	77.25
420.057	86.25
420.28	72.25
420.503	82.25
420.726	74.25
420.948	82.25
421.171	81.25
421.394	82.25
421.617	92.25
421.839	74.25
422.062	91.25
422.285	98.25
422.507	100.25
422.73	86.25
422.953	94.25
423.175	83.25
423.398	82.25
423.621	73.25
423.843	79.25
424.066	79.25
424.288	90.25
424.511	70.25
424.733	93.25
424.956	92.25
425.178	76.25
425.401	88.25
425.623	73.25
425.846	88.25
426.068	79.25
426.291	83.25
426.513	81.25
426.735	74.25
426.958	78.25
427.18	86.25
427.402	85.25
427.625	79.25
427.847	86.25
428.069	80.25
428.292	85.25
428.514	90.25
428.736	74.25
428.958	73.25
429.181	79.25
429.403	81.25
429.625	80.25
429.847	91.25
430.069	72.25
430.292	83.25
430.514	97.25
430.736	83.25
430.958	73.25
431.18	78.25
431.402	82.25
431.624	88.25
431.846	70.25
432.068	80.25
432.29	94.25
432.512	93.25
432.734	85.25
432.956	69.25
433.178	91.25
433.4	83.25
433.622	82.25
433.844	78.25
434.066	78.25
434.287	71.25
434.509	72.25
434.731	79.25
434.953	79.25
435.175	85.25
435.397	73.25
435.618	76.25
435.84	76.25
436.062	85.25
436.284	80.25
436.505	70.25
436.727	87.25
436.949	76.25
437.17	76.25
437.392	74.25
437.614	76.25
437.835	86.25
438.057	71.25
438.278	87.25
438.5	83.25
438.721	88.25
438.943	71.25
439.165	84.25
439.386	80.25
439.608	83.25
439.829	82.25
440.05	75.25
440.272	78.25
440.493	82.25
440.715	77.25
440.936	86.25
441.158	95.25
441.379	78.25
441.6	83.25
441.822	76.25
442.043	95.25
442.264	97.25
442.486	91.25
442.707	94.25
442.928	73.25
443.149	87.25
443.371	92.25
443.592	97.25
443.813	67.25
444.034	68.25
444.255	82.25
444.476	86.25
444.698	74.25
444.919	73.25
445.14	154.25
445.361	108.25
445.582	88.25
445.803	93.25
446.024	93.25
446.245	86.25
446.466	87.25
446.687	77.25
446.908	88.25
447.129	81.25
447.35	77.25
447.571	88.25
447.792	67.25
448.013	71.25
448.234	78.25
448.455	90.25
448.675	83.25
448.896	72.25
449.117	78.25
449.338	72.25
449.559	74.25
449.779	77.25
450	80.25
450.221	86.25
450.442	81.25
450.662	98.25
450.883	85.25
451.104	82.25
451.324	76.25
451.545	85.25
451.766	78.25
451.986	87.25
452.207	73.25
452.428	95.25
452.648	79.25
452.869	76.25
453.089	96.25
453.31	82.25
453.53	82.25
453.751	63.25
453.971	71.25
454.192	79.25
454.412	80.25
454.633	73.25
454.853	85.25
455.073	77.25
455.294	80.25
455.514	68.25
455.734	85.25
455.955	78.25
456.175	73.25
456.395	79.25
456.616	78.25
456.836	80.25
457.056	95.25
457.276	75.25
457.497	76.25
457.717	86.25
457.937	68.25
458.157	79.25
458.377	76.25
458.598	65.25
458.818	93.25
459.038	69.25
459.258	65.25
459.478	91.25
459.698	89.25
459.918	72.25
460.138	94.25
460.358	77.25
460.578	85.25
460.798	87.25
461.018	87.25
461.238	90.25
461.458	82.25
461.678	78.25
461.898	82.25
462.118	92.25
462.338	72.25
462.558	83.25
462.777	76.25
462.997	83.25
463.217	83.25
463.437	87.25
463.657	70.25
463.876	84.25
464.096	85.25
464.316	84.25
464.536	71.25
464.755	79.25
464.975	84.25
465.195	74.25
465.414	75.25
465.634	83.25
465.854	77.25
466.073	88.25
466.293	89.25
466.512	83.25
466.732	84.25
466.951	85.25
467.171	77.25
467.391	73.25
467.61	88.25
467.829	80.25
468.049	79.25
468.268	81.25
468.488	72.25
468.707	82.25
468.927	89.25
469.146	75.25
469.365	82.25
469.585	74.25
469.804	79.25
470.023	82.25
470.243	67.25
470.462	79.25
470.681	89.25
470.901	78.25
471.12	72.25
471.339	89.25
471.558	78.25
471.777	67.25
471.997	82.25
472.216	83.25
472.435	83.25
472.654	94.25
472.873	73.25
473.092	63.25
473.311	87.25
473.53	76.25
473.749	83.25
473.968	77.25
474.187	77.25
474.406	87.25
474.625	90.25
474.844	82.25
475.063	80.25
475.282	72.25
475.501	66.25
475.72	88.25
475.939	87.25
476.158	77.25
476.377	72.25
476.596	76.25
476.814	80.25
477.033	95.25
477.252	84.25
477.471	71.25
477.69	71.25
477.908	85.25
478.127	85.25
478.346	86.25
478.564	89.25
478.783	79.25
479.002	75.25
479.22	71.25
479.439	84.25
479.658	80.25
479.876	77.25
480.095	78.25
480.313	87.25
480.532	85.25
480.751	73.25
480.969	73.25
481.188	68.25
481.406	86.25
481.624	86.25
481.843	63.25
482.061	76.25
482.28	80.25
482.498	90.25
482.717	86.25
482.935	85.25
483.153	81.25
483.372	90.25
483.59	90.25
483.808	75.25
484.027	78.25
484.245	76.25
484.463	75.25
484.681	81.25
484.9	84.25
485.118	90.25
485.336	88.25
485.554	76.25
485.772	87.25
485.99	75.25
486.209	93.25
486.427	73.25
486.645	68.25
486.863	73.25
487.081	72.25
487.299	73.25
487.517	96.25
487.735	87.25
487.953	78.25
488.171	67.25
488.389	79.25
488.607	88.25
488.825	80.25
489.043	79.25
489.261	85.25
489.479	85.25
489.696	83.25
489.914	75.25
490.132	84.25
490.35	82.25
490.568	79.25
490.786	78.25
491.003	69.25
491.221	64.25
491.439	84.25
491.657	81.25
491.874	87.25
492.092	87.25
492.31	88.25
492.527	80.25
492.745	88.25
492.963	79.25
493.18	75.25
493.398	80.25
493.615	94.25
493.833	86.25
494.05	81.25
494.268	82.25
494.485	92.25
494.703	86.25
494.92	88.25
495.138	79.25
495.355	80.25
495.573	71.25
495.79	83.25
496.008	91.25
496.225	87.25
496.442	88.25
496.66	88.25
496.877	94.25
497.094	85.25
497.312	95.25
497.529	90.25
497.746	96.25
497.963	82.25
498.181	67.25
498.398	67.25
498.615	79.25
498.832	84.25
499.049	73.25
499.267	71.25
499.484	78.25
499.701	84.25
499.918	77.25
500.135	88.25
500.352	85.25
500.569	76.25
500.786	69.25
501.003	92.25
501.22	79.25
501.437	85.25
501.654	73.25
501.871	95.25
502.088	92.25
502.305	79.25
502.522	90.25
502.739	73.25
502.956	72.25
503.172	69.25
503.389	88.25
503.606	80.25
503.823	84.25
504.04	88.25
504.256	81.25
504.473	77.25
504.69	86.25
504.907	82.25
505.123	82.25
505.34	90.25
505.557	76.25
505.773	79.25
505.99	77.25
506.207	87.25
506.423	82.25
506.64	76.25
506.856	79.25
507.073	74.25
507.289	78.25
507.506	82.25
507.722	69.25
507.939	74.25
508.155	69.25
508.372	79.25
508.588	78.25
508.805	71.25
509.021	90.25
509.238	96.25
509.454	83.25
509.67	84.25
509.887	79.25
510.103	80.25
510.319	84.25
510.536	78.25
510.752	78.25
510.968	75.25
511.184	80.25
511.401	86.25
511.617	69.25
511.833	80.25
512.049	87.25
512.265	78.25
512.481	82.25
512.698	81.25
512.914	71.25
513.13	84.25
513.346	88.25
513.562	83.25
513.778	82.25
513.994	74.25
514.21	90.25
514.426	96.25
514.642	85.25
514.858	69.25
515.074	90.25
515.29	97.25
515.506	82.25
515.721	87.25
515.937	94.25
516.153	87.25
516.369	94.25
516.585	88.25
516.801	75.25
517.016	80.25
517.232	89.25
517.448	88.25
517.664	101.25
517.879	79.25
518.095	78.25
518.311	76.25
518.527	83.25
518.742	67.25
518.958	76.25
519.173	72.25
519.389	73.25
519.605	86.25
519.82	74.25
520.036	80.25
520.251	83.25
