Data from 1600_1_HRD10591_00001.txt Node
Date: Mon Jan 19 13:47:41 EST 2026
User: Yrep
Spectrometer: HR+D1059
Trigger mode: 1
Integration Time (sec): 1.000000E-1
Scans to average: 1
Electric dark correction enabled: true
Nonlinearity correction enabled: false
Boxcar width: 0
XAxis mode: Wavelengths
Number of Pixels in Spectrum: 2048
>>>>>Begin Spectral Data<<<<<
223.165	-8.69
223.4	-8.69
223.635	-8.69
223.869	-20.69
224.104	-24.69
224.338	-10.69
224.573	-23.69
224.808	-8.69
225.042	-8.69
225.277	-6.69
225.511	-3.69
225.746	3.31
225.98	2.31
226.215	22.31
226.449	8.31
226.683	19.31
226.918	34.31
227.152	26.31
227.387	38.31
227.621	32.31
227.856	42.31
228.09	65.31
228.324	52.31
228.559	58.31
228.793	54.31
229.027	57.31
229.262	61.31
229.496	63.31
229.73	80.31
229.964	61.31
230.199	71.31
230.433	89.31
230.667	71.31
230.901	70.31
231.136	73.31
231.37	82.31
231.604	81.31
231.838	86.31
232.072	83.31
232.306	76.31
232.541	86.31
232.775	80.31
233.009	78.31
233.243	79.31
233.477	77.31
233.711	79.31
233.945	75.31
234.179	77.31
234.413	82.31
234.647	84.31
234.881	85.31
235.115	76.31
235.349	77.31
235.583	80.31
235.817	67.31
236.051	87.31
236.285	85.31
236.519	84.31
236.753	84.31
236.987	76.31
237.221	68.31
237.455	74.31
237.689	71.31
237.922	76.31
238.156	79.31
238.39	59.31
238.624	73.31
238.858	75.31
239.091	77.31
239.325	79.31
239.559	66.31
239.793	65.31
240.027	73.31
240.26	70.31
240.494	73.31
240.728	96.31
240.961	81.31
241.195	65.31
241.429	71.31
241.662	83.31
241.896	82.31
242.13	80.31
242.363	71.31
242.597	63.31
242.83	78.31
243.064	75.31
243.298	89.31
243.531	76.31
243.765	71.31
243.998	65.31
244.232	83.31
244.465	59.31
244.699	67.31
244.932	72.31
245.166	79.31
245.399	71.31
245.633	59.31
245.866	89.31
246.099	63.31
246.333	92.31
246.566	96.31
246.8	68.31
247.033	79.31
247.266	71.31
247.5	77.31
247.733	76.31
247.966	80.31
248.2	72.31
248.433	70.31
248.666	79.31
248.899	84.31
249.133	83.31
249.366	85.31
249.599	83.31
249.832	83.31
250.066	83.31
250.299	88.31
250.532	79.31
250.765	65.31
250.998	80.31
251.231	73.31
251.465	73.31
251.698	67.31
251.931	87.31
252.164	72.31
252.397	83.31
252.63	79.31
252.863	67.31
253.096	87.31
253.329	83.31
253.562	89.31
253.795	82.31
254.028	81.31
254.261	91.31
254.494	92.31
254.727	71.31
254.96	74.31
255.193	70.31
255.426	78.31
255.659	71.31
255.892	74.31
256.124	72.31
256.357	81.31
256.59	87.31
256.823	80.31
257.056	69.31
257.289	90.31
257.521	79.31
257.754	88.31
257.987	69.31
258.22	89.31
258.452	77.31
258.685	80.31
258.918	72.31
259.151	66.31
259.383	81.31
259.616	74.31
259.849	74.31
260.081	86.31
260.314	63.31
260.547	75.31
260.779	84.31
261.012	74.31
261.244	81.31
261.477	79.31
261.71	66.31
261.942	79.31
262.175	79.31
262.407	84.31
262.64	74.31
262.872	74.31
263.105	67.31
263.337	79.31
263.57	70.31
263.802	80.31
264.035	97.31
264.267	83.31
264.499	77.31
264.732	90.31
264.964	82.31
265.197	81.31
265.429	75.31
265.661	87.31
265.894	84.31
266.126	77.31
266.358	77.31
266.591	76.31
266.823	89.31
267.055	86.31
267.287	73.31
267.52	73.31
267.752	92.31
267.984	95.31
268.216	78.31
268.448	95.31
268.681	80.31
268.913	69.31
269.145	73.31
269.377	93.31
269.609	75.31
269.841	91.31
270.073	79.31
270.306	72.31
270.538	75.31
270.77	77.31
271.002	81.31
271.234	89.31
271.466	78.31
271.698	59.31
271.93	87.31
272.162	81.31
272.394	79.31
272.626	77.31
272.858	71.31
273.09	83.31
273.322	70.31
273.553	83.31
273.785	85.31
274.017	85.31
274.249	84.31
274.481	81.31
274.713	84.31
274.945	83.31
275.176	73.31
275.408	77.31
275.64	79.31
275.872	59.31
276.104	87.31
276.335	85.31
276.567	79.31
276.799	79.31
277.031	78.31
277.262	65.31
277.494	81.31
277.726	83.31
277.957	82.31
278.189	79.31
278.421	82.31
278.652	85.31
278.884	91.31
279.115	81.31
279.347	102.31
279.579	89.31
279.81	79.31
280.042	77.31
280.273	77.31
280.505	78.31
280.736	87.31
280.968	93.31
281.199	88.31
281.431	89.31
281.662	74.31
281.894	87.31
282.125	82.31
282.356	86.31
282.588	76.31
282.819	87.31
283.051	100.31
283.282	81.31
283.513	88.31
283.745	101.31
283.976	89.31
284.207	88.31
284.439	78.31
284.67	81.31
284.901	101.31
285.132	87.31
285.364	89.31
285.595	99.31
285.826	90.31
286.057	93.31
286.288	65.31
286.52	86.31
286.751	74.31
286.982	68.31
287.213	85.31
287.444	83.31
287.675	87.31
287.906	89.31
288.138	83.31
288.369	87.31
288.6	78.31
288.831	93.31
289.062	88.31
289.293	92.31
289.524	78.31
289.755	78.31
289.986	91.31
290.217	86.31
290.448	88.31
290.679	74.31
290.91	95.31
291.141	74.31
291.371	84.31
291.602	77.31
291.833	80.31
292.064	73.31
292.295	103.31
292.526	78.31
292.757	83.31
292.987	81.31
293.218	77.31
293.449	89.31
293.68	87.31
293.91	84.31
294.141	73.31
294.372	98.31
294.603	89.31
294.833	93.31
295.064	86.31
295.295	79.31
295.525	85.31
295.756	82.31
295.987	77.31
296.217	77.31
296.448	93.31
296.679	80.31
296.909	79.31
297.14	85.31
297.37	94.31
297.601	81.31
297.831	84.31
298.062	82.31
298.292	81.31
298.523	75.31
298.753	78.31
298.984	83.31
299.214	79.31
299.445	91.31
299.675	90.31
299.905	89.31
300.136	80.31
300.366	76.31
300.597	88.31
300.827	66.31
301.057	82.31
301.288	80.31
301.518	78.31
301.748	80.31
301.979	89.31
302.209	81.31
302.439	97.31
302.669	74.31
302.9	74.31
303.13	88.31
303.36	71.31
303.59	94.31
303.82	73.31
304.051	81.31
304.281	86.31
304.511	98.31
304.741	83.31
304.971	91.31
305.201	82.31
305.431	87.31
305.661	90.31
305.891	97.31
306.121	83.31
306.352	74.31
306.582	77.31
306.812	82.31
307.042	84.31
307.272	88.31
307.502	81.31
307.731	98.31
307.961	93.31
308.191	86.31
308.421	77.31
308.651	83.31
308.881	86.31
309.111	97.31
309.341	89.31
309.571	68.31
309.8	89.31
310.03	89.31
310.26	77.31
310.49	80.31
310.72	88.31
310.949	70.31
311.179	73.31
311.409	72.31
311.639	73.31
311.868	83.31
312.098	85.31
312.328	71.31
312.557	87.31
312.787	78.31
313.017	81.31
313.246	72.31
313.476	81.31
313.706	84.31
313.935	86.31
314.165	89.31
314.394	88.31
314.624	68.31
314.853	86.31
315.083	94.31
315.312	94.31
315.542	80.31
315.771	86.31
316.001	87.31
316.23	81.31
316.46	91.31
316.689	92.31
316.919	96.31
317.148	102.31
317.377	92.31
317.607	88.31
317.836	80.31
318.065	94.31
318.295	88.31
318.524	89.31
318.753	89.31
318.983	88.31
319.212	98.31
319.441	89.31
319.67	84.31
319.9	69.31
320.129	84.31
320.358	80.31
320.587	83.31
320.816	87.31
321.046	96.31
321.275	88.31
321.504	91.31
321.733	89.31
321.962	86.31
322.191	100.31
322.42	94.31
322.649	81.31
322.878	86.31
323.108	90.31
323.337	80.31
323.566	82.31
323.795	80.31
324.024	83.31
324.253	83.31
324.482	94.31
324.71	87.31
324.939	91.31
325.168	98.31
325.397	86.31
325.626	83.31
325.855	91.31
326.084	81.31
326.313	83.31
326.542	88.31
326.77	71.31
326.999	99.31
327.228	91.31
327.457	92.31
327.686	85.31
327.914	87.31
328.143	81.31
328.372	91.31
328.6	73.31
328.829	79.31
329.058	90.31
329.287	69.31
329.515	92.31
329.744	100.31
329.972	96.31
330.201	82.31
330.43	97.31
330.658	88.31
330.887	79.31
331.115	91.31
331.344	88.31
331.572	81.31
331.801	96.31
332.03	65.31
332.258	77.31
332.486	92.31
332.715	88.31
332.943	86.31
333.172	82.31
333.4	83.31
333.629	86.31
333.857	87.31
334.085	84.31
334.314	107.31
334.542	89.31
334.771	91.31
334.999	88.31
335.227	78.31
335.455	67.31
335.684	85.31
335.912	76.31
336.14	88.31
336.369	94.31
336.597	68.31
336.825	65.31
337.053	86.31
337.281	94.31
337.51	84.31
337.738	77.31
337.966	86.31
338.194	79.31
338.422	72.31
338.65	74.31
338.878	72.31
339.106	84.31
339.334	86.31
339.562	100.31
339.79	95.31
340.018	91.31
340.246	91.31
340.474	84.31
340.702	95.31
340.93	86.31
341.158	83.31
341.386	98.31
341.614	89.31
341.842	79.31
342.07	90.31
342.298	85.31
342.526	85.31
342.754	80.31
342.981	78.31
343.209	93.31
343.437	103.31
343.665	93.31
343.893	102.31
344.12	91.31
344.348	72.31
344.576	86.31
344.804	97.31
345.031	86.31
345.259	87.31
345.487	76.31
345.714	85.31
345.942	85.31
346.17	79.31
346.397	77.31
346.625	76.31
346.853	88.31
347.08	91.31
347.308	89.31
347.535	84.31
347.763	85.31
347.99	88.31
348.218	82.31
348.445	90.31
348.673	82.31
348.9	97.31
349.128	81.31
349.355	96.31
349.583	77.31
349.81	69.31
350.037	89.31
350.265	94.31
350.492	83.31
350.72	74.31
350.947	87.31
351.174	94.31
351.402	85.31
351.629	91.31
351.856	80.31
352.083	86.31
352.311	93.31
352.538	84.31
352.765	75.31
352.992	87.31
353.22	85.31
353.447	92.31
353.674	96.31
353.901	69.31
354.128	65.31
354.355	91.31
354.583	74.31
354.81	72.31
355.037	89.31
355.264	101.31
355.491	82.31
355.718	89.31
355.945	95.31
356.172	82.31
356.399	95.31
356.626	81.31
356.853	86.31
357.08	91.31
357.307	99.31
357.534	82.31
357.761	89.31
357.988	79.31
358.215	92.31
358.441	89.31
358.668	101.31
358.895	76.31
359.122	99.31
359.349	89.31
359.576	67.31
359.802	87.31
360.029	89.31
360.256	82.31
360.483	80.31
360.709	84.31
360.936	90.31
361.163	102.31
361.39	80.31
361.616	72.31
361.843	95.31
362.07	82.31
362.296	81.31
362.523	103.31
362.749	85.31
362.976	95.31
363.203	90.31
363.429	90.31
363.656	77.31
363.882	77.31
364.109	89.31
364.335	96.31
364.562	88.31
364.788	87.31
365.015	85.31
365.241	102.31
365.468	99.31
365.694	88.31
365.92	85.31
366.147	90.31
366.373	95.31
366.599	76.31
366.826	82.31
367.052	95.31
367.278	81.31
367.505	71.31
367.731	76.31
367.957	77.31
368.184	79.31
368.41	89.31
368.636	87.31
368.862	82.31
369.089	93.31
369.315	82.31
369.541	76.31
369.767	76.31
369.993	79.31
370.219	77.31
370.445	87.31
370.672	82.31
370.898	84.31
371.124	74.31
371.35	80.31
371.576	84.31
371.802	76.31
372.028	76.31
372.254	87.31
372.48	77.31
372.706	83.31
372.932	93.31
373.158	94.31
373.384	96.31
373.61	91.31
373.835	87.31
374.061	86.31
374.287	78.31
374.513	79.31
374.739	88.31
374.965	96.31
375.191	91.31
375.416	91.31
375.642	75.31
375.868	85.31
376.094	71.31
376.319	83.31
376.545	85.31
376.771	85.31
376.997	78.31
377.222	91.31
377.448	76.31
377.674	85.31
377.899	74.31
378.125	92.31
378.35	82.31
378.576	84.31
378.802	75.31
379.027	86.31
379.253	97.31
379.478	85.31
379.704	88.31
379.929	91.31
380.155	73.31
380.38	69.31
380.606	60.31
380.831	87.31
381.057	86.31
381.282	84.31
381.507	94.31
381.733	93.31
381.958	74.31
382.184	89.31
382.409	86.31
382.634	76.31
382.86	89.31
383.085	92.31
383.31	80.31
383.535	81.31
383.761	83.31
383.986	88.31
384.211	79.31
384.436	88.31
384.662	95.31
384.887	83.31
385.112	86.31
385.337	88.31
385.562	86.31
385.787	89.31
386.013	91.31
386.238	87.31
386.463	71.31
386.688	88.31
386.913	79.31
387.138	75.31
387.363	75.31
387.588	87.31
387.813	73.31
388.038	88.31
388.263	85.31
388.488	85.31
388.713	71.31
388.938	87.31
389.163	91.31
389.387	77.31
389.612	74.31
389.837	81.31
390.062	84.31
390.287	88.31
390.512	88.31
390.736	73.31
390.961	86.31
391.186	98.31
391.411	88.31
391.636	87.31
391.86	67.31
392.085	85.31
392.31	89.31
392.534	85.31
392.759	69.31
392.984	87.31
393.208	94.31
393.433	105.31
393.658	96.31
393.882	80.31
394.107	89.31
394.331	93.31
394.556	80.31
394.78	83.31
395.005	84.31
395.229	85.31
395.454	83.31
395.678	81.31
395.903	96.31
396.127	95.31
396.352	95.31
396.576	68.31
396.801	87.31
397.025	87.31
397.249	93.31
397.474	81.31
397.698	85.31
397.922	96.31
398.147	83.31
398.371	79.31
398.595	88.31
398.82	86.31
399.044	86.31
399.268	77.31
399.492	77.31
399.717	75.31
399.941	86.31
400.165	84.31
400.389	85.31
400.613	65.31
400.837	79.31
401.062	79.31
401.286	83.31
401.51	79.31
401.734	87.31
401.958	83.31
402.182	85.31
402.406	87.31
402.63	92.31
402.854	103.31
403.078	79.31
403.302	99.31
403.526	87.31
403.75	83.31
403.974	88.31
404.198	82.31
404.422	66.31
404.645	85.31
404.869	84.31
405.093	89.31
405.317	71.31
405.541	82.31
405.765	76.31
405.988	83.31
406.212	85.31
406.436	78.31
406.66	81.31
406.883	71.31
407.107	77.31
407.331	83.31
407.555	78.31
407.778	73.31
408.002	87.31
408.226	75.31
408.449	68.31
408.673	74.31
408.896	79.31
409.12	93.31
409.344	82.31
409.567	85.31
409.791	87.31
410.014	82.31
410.238	76.31
410.461	81.31
410.685	68.31
410.908	81.31
411.132	100.31
411.355	83.31
411.578	89.31
411.802	73.31
412.025	80.31
412.249	80.31
412.472	80.31
412.695	81.31
412.919	78.31
413.142	78.31
413.365	70.31
413.589	78.31
413.812	86.31
414.035	84.31
414.258	94.31
414.482	73.31
414.705	91.31
414.928	75.31
415.151	77.31
415.374	93.31
415.597	90.31
415.821	71.31
416.044	76.31
416.267	77.31
416.49	86.31
416.713	71.31
416.936	82.31
417.159	80.31
417.382	81.31
417.605	74.31
417.828	89.31
418.051	86.31
418.274	89.31
418.497	79.31
418.72	88.31
418.943	78.31
419.166	98.31
419.389	67.31
419.611	65.31
419.834	77.31
420.057	93.31
420.28	68.31
420.503	79.31
420.726	80.31
420.948	83.31
421.171	83.31
421.394	79.31
421.617	84.31
421.839	82.31
422.062	88.31
422.285	83.31
422.507	73.31
422.73	118.31
422.953	118.31
423.175	106.31
423.398	89.31
423.621	93.31
423.843	72.31
424.066	88.31
424.288	84.31
424.511	92.31
424.733	84.31
424.956	82.31
425.178	69.31
425.401	84.31
425.623	81.31
425.846	81.31
426.068	86.31
426.291	81.31
426.513	87.31
426.735	86.31
426.958	85.31
427.18	73.31
427.402	68.31
427.625	71.31
427.847	80.31
428.069	86.31
428.292	91.31
428.514	98.31
428.736	84.31
428.958	88.31
429.181	78.31
429.403	77.31
429.625	90.31
429.847	87.31
430.069	109.31
430.292	102.31
430.514	77.31
430.736	92.31
430.958	84.31
431.18	78.31
431.402	74.31
431.624	88.31
431.846	76.31
432.068	94.31
432.29	71.31
432.512	72.31
432.734	77.31
432.956	83.31
433.178	83.31
433.4	93.31
433.622	67.31
433.844	85.31
434.066	82.31
434.287	76.31
434.509	79.31
434.731	67.31
434.953	67.31
435.175	80.31
435.397	77.31
435.618	76.31
435.84	85.31
436.062	103.31
436.284	94.31
436.505	77.31
436.727	71.31
436.949	71.31
437.17	88.31
437.392	91.31
437.614	90.31
437.835	76.31
438.057	87.31
438.278	73.31
438.5	82.31
438.721	78.31
438.943	88.31
439.165	63.31
439.386	84.31
439.608	63.31
439.829	81.31
440.05	71.31
440.272	73.31
440.493	62.31
440.715	65.31
440.936	86.31
441.158	91.31
441.379	78.31
441.6	90.31
441.822	94.31
442.043	89.31
442.264	85.31
442.486	86.31
442.707	100.31
442.928	73.31
443.149	79.31
443.371	91.31
443.592	101.31
443.813	85.31
444.034	81.31
444.255	99.31
444.476	89.31
444.698	97.31
444.919	72.31
445.14	161.31
445.361	118.31
445.582	103.31
445.803	100.31
446.024	87.31
446.245	84.31
446.466	89.31
446.687	81.31
446.908	80.31
447.129	72.31
447.35	70.31
447.571	80.31
447.792	76.31
448.013	78.31
448.234	81.31
448.455	68.31
448.675	81.31
448.896	75.31
449.117	62.31
449.338	85.31
449.559	79.31
449.779	80.31
450	91.31
450.221	83.31
450.442	86.31
450.662	70.31
450.883	89.31
451.104	88.31
451.324	72.31
451.545	96.31
451.766	89.31
451.986	87.31
452.207	81.31
452.428	87.31
452.648	82.31
452.869	76.31
453.089	80.31
453.31	87.31
453.53	76.31
453.751	97.31
453.971	83.31
454.192	81.31
454.412	79.31
454.633	74.31
454.853	79.31
455.073	80.31
455.294	72.31
455.514	73.31
455.734	94.31
455.955	83.31
456.175	93.31
456.395	87.31
456.616	86.31
456.836	66.31
457.056	74.31
457.276	70.31
457.497	81.31
457.717	77.31
457.937	80.31
458.157	77.31
458.377	79.31
458.598	81.31
458.818	84.31
459.038	73.31
459.258	79.31
459.478	77.31
459.698	78.31
459.918	78.31
460.138	90.31
460.358	83.31
460.578	88.31
460.798	74.31
461.018	99.31
461.238	85.31
461.458	67.31
461.678	88.31
461.898	79.31
462.118	79.31
462.338	73.31
462.558	90.31
462.777	86.31
462.997	90.31
463.217	74.31
463.437	75.31
463.657	71.31
463.876	83.31
464.096	84.31
464.316	84.31
464.536	84.31
464.755	67.31
464.975	81.31
465.195	76.31
465.414	84.31
465.634	88.31
465.854	80.31
466.073	71.31
466.293	83.31
466.512	75.31
466.732	87.31
466.951	75.31
467.171	81.31
467.391	67.31
467.61	72.31
467.829	78.31
468.049	76.31
468.268	83.31
468.488	67.31
468.707	57.31
468.927	76.31
469.146	84.31
469.365	90.31
469.585	86.31
469.804	72.31
470.023	80.31
470.243	79.31
470.462	99.31
470.681	79.31
470.901	92.31
471.12	83.31
471.339	81.31
471.558	82.31
471.777	89.31
471.997	98.31
472.216	86.31
472.435	75.31
472.654	94.31
472.873	92.31
473.092	86.31
473.311	75.31
473.53	91.31
473.749	83.31
473.968	79.31
474.187	78.31
474.406	71.31
474.625	82.31
474.844	89.31
475.063	83.31
475.282	91.31
475.501	82.31
475.72	93.31
475.939	84.31
476.158	98.31
476.377	77.31
476.596	69.31
476.814	81.31
477.033	91.31
477.252	82.31
477.471	79.31
477.69	96.31
477.908	94.31
478.127	96.31
478.346	81.31
478.564	67.31
478.783	79.31
479.002	79.31
479.22	80.31
479.439	68.31
479.658	89.31
479.876	81.31
480.095	81.31
480.313	72.31
480.532	80.31
480.751	84.31
480.969	78.31
481.188	85.31
481.406	100.31
481.624	71.31
481.843	76.31
482.061	81.31
482.28	73.31
482.498	92.31
482.717	83.31
482.935	81.31
483.153	87.31
483.372	93.31
483.59	85.31
483.808	79.31
484.027	72.31
484.245	91.31
484.463	74.31
484.681	79.31
484.9	81.31
485.118	85.31
485.336	96.31
485.554	96.31
485.772	95.31
485.99	95.31
486.209	82.31
486.427	75.31
486.645	75.31
486.863	85.31
487.081	76.31
487.299	72.31
487.517	99.31
487.735	91.31
487.953	91.31
488.171	81.31
488.389	69.31
488.607	73.31
488.825	75.31
489.043	86.31
489.261	72.31
489.479	72.31
489.696	94.31
489.914	96.31
490.132	109.31
490.35	88.31
490.568	73.31
490.786	72.31
491.003	95.31
491.221	77.31
491.439	85.31
491.657	77.31
491.874	92.31
492.092	83.31
492.31	87.31
492.527	86.31
492.745	91.31
492.963	81.31
493.18	80.31
493.398	98.31
493.615	73.31
493.833	92.31
494.05	91.31
494.268	61.31
494.485	87.31
494.703	80.31
494.92	84.31
495.138	93.31
495.355	81.31
495.573	84.31
495.79	82.31
496.008	99.31
496.225	87.31
496.442	68.31
496.66	83.31
496.877	80.31
497.094	86.31
497.312	83.31
497.529	83.31
497.746	78.31
497.963	82.31
498.181	69.31
498.398	72.31
498.615	88.31
498.832	90.31
499.049	84.31
499.267	82.31
499.484	91.31
499.701	84.31
499.918	79.31
500.135	91.31
500.352	90.31
500.569	81.31
500.786	85.31
501.003	87.31
501.22	91.31
501.437	79.31
501.654	80.31
501.871	87.31
502.088	94.31
502.305	69.31
502.522	75.31
502.739	92.31
502.956	81.31
503.172	80.31
503.389	86.31
503.606	88.31
503.823	91.31
504.04	87.31
504.256	94.31
504.473	80.31
504.69	91.31
504.907	83.31
505.123	77.31
505.34	81.31
505.557	89.31
505.773	85.31
505.99	67.31
506.207	85.31
506.423	68.31
506.64	78.31
506.856	77.31
507.073	89.31
507.289	76.31
507.506	82.31
507.722	74.31
507.939	67.31
508.155	77.31
508.372	78.31
508.588	87.31
508.805	82.31
509.021	87.31
509.238	85.31
509.454	68.31
509.67	72.31
509.887	87.31
510.103	96.31
510.319	82.31
510.536	81.31
510.752	80.31
510.968	64.31
511.184	79.31
511.401	95.31
511.617	80.31
511.833	69.31
512.049	79.31
512.265	83.31
512.481	92.31
512.698	69.31
512.914	62.31
513.13	86.31
513.346	78.31
513.562	82.31
513.778	84.31
513.994	94.31
514.21	90.31
514.426	73.31
514.642	82.31
514.858	85.31
515.074	98.31
515.29	91.31
515.506	77.31
515.721	89.31
515.937	88.31
516.153	67.31
516.369	77.31
516.585	78.31
516.801	79.31
517.016	90.31
517.232	99.31
517.448	85.31
517.664	90.31
517.879	83.31
518.095	77.31
518.311	83.31
518.527	83.31
518.742	82.31
518.958	85.31
519.173	85.31
519.389	81.31
519.605	89.31
519.82	80.31
