Data from 1600_1_HRD10591_00002.txt Node
Date: Mon Jan 19 13:47:42 EST 2026
User: Yrep
Spectrometer: HR+D1059
Trigger mode: 1
Integration Time (sec): 1.000000E-1
Scans to average: 1
Electric dark correction enabled: true
Nonlinearity correction enabled: false
Boxcar width: 0
XAxis mode: Wavelengths
Number of Pixels in Spectrum: 2048
>>>>>Begin Spectral Data<<<<<
223.165	-17.06
223.4	-17.06
223.635	-17.06
223.869	-14.06
224.104	-23.06
224.338	-20.06
224.573	-4.06
224.808	-20.06
225.042	-12.06
225.277	-6.06
225.511	2.94
225.746	-1.06
225.98	6.94
226.215	-1.06
226.449	19.94
226.683	28.94
226.918	26.94
227.152	32.94
227.387	36.94
227.621	27.94
227.856	31.94
228.09	44.94
228.324	43.94
228.559	46.94
228.793	50.94
229.027	60.94
229.262	68.94
229.496	68.94
229.73	74.94
229.964	92.94
230.199	61.94
230.433	70.94
230.667	82.94
230.901	89.94
231.136	76.94
231.37	79.94
231.604	81.94
231.838	92.94
232.072	75.94
232.306	82.94
232.541	82.94
232.775	77.94
233.009	81.94
233.243	66.94
233.477	71.94
233.711	82.94
233.945	82.94
234.179	78.94
234.413	89.94
234.647	71.94
234.881	96.94
235.115	86.94
235.349	69.94
235.583	76.94
235.817	74.94
236.051	81.94
236.285	67.94
236.519	69.94
236.753	73.94
236.987	74.94
237.221	79.94
237.455	84.94
237.689	80.94
237.922	63.94
238.156	75.94
238.39	63.94
238.624	80.94
238.858	74.94
239.091	78.94
239.325	74.94
239.559	68.94
239.793	66.94
240.027	72.94
240.26	74.94
240.494	83.94
240.728	68.94
240.961	73.94
241.195	72.94
241.429	70.94
241.662	72.94
241.896	70.94
242.13	94.94
242.363	72.94
242.597	55.94
242.83	62.94
243.064	75.94
243.298	76.94
243.531	72.94
243.765	61.94
243.998	69.94
244.232	75.94
244.465	66.94
244.699	66.94
244.932	71.94
245.166	71.94
245.399	76.94
245.633	81.94
245.866	73.94
246.099	68.94
246.333	70.94
246.566	80.94
246.8	74.94
247.033	75.94
247.266	76.94
247.5	71.94
247.733	65.94
247.966	70.94
248.2	66.94
248.433	70.94
248.666	59.94
248.899	74.94
249.133	67.94
249.366	80.94
249.599	92.94
249.832	69.94
250.066	75.94
250.299	81.94
250.532	86.94
250.765	70.94
250.998	67.94
251.231	76.94
251.465	80.94
251.698	83.94
251.931	71.94
252.164	75.94
252.397	73.94
252.63	76.94
252.863	74.94
253.096	74.94
253.329	78.94
253.562	70.94
253.795	88.94
254.028	75.94
254.261	75.94
254.494	95.94
254.727	61.94
254.96	70.94
255.193	91.94
255.426	72.94
255.659	57.94
255.892	68.94
256.124	72.94
256.357	80.94
256.59	73.94
256.823	91.94
257.056	76.94
257.289	87.94
257.521	82.94
257.754	78.94
257.987	84.94
258.22	93.94
258.452	60.94
258.685	82.94
258.918	75.94
259.151	69.94
259.383	81.94
259.616	93.94
259.849	91.94
260.081	75.94
260.314	68.94
260.547	77.94
260.779	68.94
261.012	63.94
261.244	67.94
261.477	83.94
261.71	82.94
261.942	72.94
262.175	79.94
262.407	86.94
262.64	67.94
262.872	82.94
263.105	76.94
263.337	86.94
263.57	77.94
263.802	76.94
264.035	82.94
264.267	71.94
264.499	78.94
264.732	102.94
264.964	75.94
265.197	81.94
265.429	72.94
265.661	88.94
265.894	81.94
266.126	84.94
266.358	82.94
266.591	82.94
266.823	68.94
267.055	78.94
267.287	74.94
267.52	86.94
267.752	85.94
267.984	67.94
268.216	54.94
268.448	66.94
268.681	95.94
268.913	82.94
269.145	62.94
269.377	74.94
269.609	86.94
269.841	78.94
270.073	68.94
270.306	67.94
270.538	74.94
270.77	86.94
271.002	75.94
271.234	95.94
271.466	74.94
271.698	82.94
271.93	86.94
272.162	76.94
272.394	90.94
272.626	84.94
272.858	87.94
273.09	80.94
273.322	87.94
273.553	70.94
273.785	78.94
274.017	80.94
274.249	69.94
274.481	76.94
274.713	67.94
274.945	85.94
275.176	74.94
275.408	77.94
275.64	90.94
275.872	79.94
276.104	74.94
276.335	82.94
276.567	69.94
276.799	67.94
277.031	87.94
277.262	94.94
277.494	97.94
277.726	73.94
277.957	69.94
278.189	70.94
278.421	73.94
278.652	84.94
278.884	68.94
279.115	64.94
279.347	80.94
279.579	90.94
279.81	75.94
280.042	79.94
280.273	87.94
280.505	80.94
280.736	95.94
280.968	88.94
281.199	82.94
281.431	74.94
281.662	91.94
281.894	88.94
282.125	79.94
282.356	72.94
282.588	90.94
282.819	72.94
283.051	91.94
283.282	82.94
283.513	69.94
283.745	71.94
283.976	74.94
284.207	70.94
284.439	81.94
284.67	79.94
284.901	75.94
285.132	92.94
285.364	77.94
285.595	81.94
285.826	80.94
286.057	67.94
286.288	75.94
286.52	68.94
286.751	80.94
286.982	78.94
287.213	75.94
287.444	72.94
287.675	87.94
287.906	75.94
288.138	84.94
288.369	95.94
288.6	83.94
288.831	76.94
289.062	84.94
289.293	75.94
289.524	82.94
289.755	71.94
289.986	82.94
290.217	92.94
290.448	83.94
290.679	72.94
290.91	82.94
291.141	91.94
291.371	89.94
291.602	74.94
291.833	73.94
292.064	69.94
292.295	86.94
292.526	78.94
292.757	85.94
292.987	78.94
293.218	86.94
293.449	82.94
293.68	82.94
293.91	82.94
294.141	87.94
294.372	83.94
294.603	81.94
294.833	77.94
295.064	87.94
295.295	84.94
295.525	78.94
295.756	74.94
295.987	88.94
296.217	70.94
296.448	88.94
296.679	86.94
296.909	84.94
297.14	87.94
297.37	73.94
297.601	88.94
297.831	91.94
298.062	73.94
298.292	88.94
298.523	78.94
298.753	92.94
298.984	72.94
299.214	83.94
299.445	90.94
299.675	82.94
299.905	91.94
300.136	80.94
300.366	84.94
300.597	69.94
300.827	86.94
301.057	75.94
301.288	78.94
301.518	90.94
301.748	74.94
301.979	99.94
302.209	87.94
302.439	85.94
302.669	76.94
302.9	94.94
303.13	89.94
303.36	79.94
303.59	89.94
303.82	86.94
304.051	86.94
304.281	73.94
304.511	87.94
304.741	79.94
304.971	76.94
305.201	79.94
305.431	76.94
305.661	80.94
305.891	87.94
306.121	77.94
306.352	74.94
306.582	90.94
306.812	72.94
307.042	80.94
307.272	99.94
307.502	79.94
307.731	88.94
307.961	90.94
308.191	88.94
308.421	73.94
308.651	76.94
308.881	84.94
309.111	91.94
309.341	71.94
309.571	74.94
309.8	85.94
310.03	86.94
310.26	77.94
310.49	74.94
310.72	88.94
310.949	73.94
311.179	62.94
311.409	79.94
311.639	75.94
311.868	79.94
312.098	76.94
312.328	83.94
312.557	86.94
312.787	76.94
313.017	68.94
313.246	92.94
313.476	80.94
313.706	69.94
313.935	66.94
314.165	81.94
314.394	96.94
314.624	85.94
314.853	86.94
315.083	96.94
315.312	81.94
315.542	68.94
315.771	81.94
316.001	87.94
316.23	93.94
316.46	89.94
316.689	67.94
316.919	81.94
317.148	87.94
317.377	83.94
317.607	85.94
317.836	75.94
318.065	75.94
318.295	76.94
318.524	92.94
318.753	76.94
318.983	79.94
319.212	80.94
319.441	76.94
319.67	80.94
319.9	83.94
320.129	73.94
320.358	86.94
320.587	72.94
320.816	96.94
321.046	91.94
321.275	83.94
321.504	68.94
321.733	89.94
321.962	78.94
322.191	82.94
322.42	82.94
322.649	85.94
322.878	97.94
323.108	92.94
323.337	99.94
323.566	76.94
323.795	86.94
324.024	83.94
324.253	78.94
324.482	79.94
324.71	80.94
324.939	106.94
325.168	78.94
325.397	83.94
325.626	86.94
325.855	78.94
326.084	78.94
326.313	76.94
326.542	78.94
326.77	93.94
326.999	89.94
327.228	79.94
327.457	70.94
327.686	77.94
327.914	84.94
328.143	75.94
328.372	67.94
328.6	72.94
328.829	80.94
329.058	68.94
329.287	77.94
329.515	88.94
329.744	69.94
329.972	74.94
330.201	88.94
330.43	89.94
330.658	70.94
330.887	80.94
331.115	80.94
331.344	79.94
331.572	88.94
331.801	85.94
332.03	82.94
332.258	80.94
332.486	83.94
332.715	89.94
332.943	80.94
333.172	91.94
333.4	94.94
333.629	86.94
333.857	83.94
334.085	93.94
334.314	84.94
334.542	86.94
334.771	77.94
334.999	84.94
335.227	80.94
335.455	62.94
335.684	83.94
335.912	77.94
336.14	85.94
336.369	94.94
336.597	80.94
336.825	79.94
337.053	88.94
337.281	93.94
337.51	91.94
337.738	82.94
337.966	95.94
338.194	79.94
338.422	75.94
338.65	66.94
338.878	94.94
339.106	74.94
339.334	78.94
339.562	84.94
339.79	78.94
340.018	87.94
340.246	72.94
340.474	80.94
340.702	91.94
340.93	88.94
341.158	78.94
341.386	88.94
341.614	85.94
341.842	87.94
342.07	79.94
342.298	86.94
342.526	68.94
342.754	86.94
342.981	83.94
343.209	84.94
343.437	92.94
343.665	82.94
343.893	66.94
344.12	81.94
344.348	74.94
344.576	76.94
344.804	93.94
345.031	80.94
345.259	80.94
345.487	78.94
345.714	86.94
345.942	76.94
346.17	83.94
346.397	71.94
346.625	81.94
346.853	82.94
347.08	88.94
347.308	92.94
347.535	75.94
347.763	79.94
347.99	66.94
348.218	81.94
348.445	103.94
348.673	84.94
348.9	92.94
349.128	84.94
349.355	81.94
349.583	94.94
349.81	78.94
350.037	80.94
350.265	74.94
350.492	78.94
350.72	88.94
350.947	78.94
351.174	75.94
351.402	77.94
351.629	64.94
351.856	75.94
352.083	80.94
352.311	83.94
352.538	77.94
352.765	79.94
352.992	83.94
353.22	85.94
353.447	72.94
353.674	90.94
353.901	90.94
354.128	73.94
354.355	89.94
354.583	84.94
354.81	85.94
355.037	92.94
355.264	76.94
355.491	84.94
355.718	84.94
355.945	74.94
356.172	76.94
356.399	81.94
356.626	80.94
356.853	78.94
357.08	83.94
357.307	83.94
357.534	74.94
357.761	68.94
357.988	84.94
358.215	70.94
358.441	81.94
358.668	73.94
358.895	87.94
359.122	76.94
359.349	77.94
359.576	82.94
359.802	85.94
360.029	78.94
360.256	78.94
360.483	81.94
360.709	86.94
360.936	82.94
361.163	87.94
361.39	86.94
361.616	78.94
361.843	73.94
362.07	83.94
362.296	78.94
362.523	87.94
362.749	86.94
362.976	79.94
363.203	88.94
363.429	86.94
363.656	71.94
363.882	84.94
364.109	78.94
364.335	75.94
364.562	74.94
364.788	68.94
365.015	89.94
365.241	80.94
365.468	84.94
365.694	78.94
365.92	85.94
366.147	68.94
366.373	74.94
366.599	63.94
366.826	64.94
367.052	84.94
367.278	93.94
367.505	59.94
367.731	80.94
367.957	82.94
368.184	75.94
368.41	92.94
368.636	78.94
368.862	67.94
369.089	72.94
369.315	78.94
369.541	84.94
369.767	80.94
369.993	87.94
370.219	91.94
370.445	81.94
370.672	88.94
370.898	90.94
371.124	88.94
371.35	75.94
371.576	74.94
371.802	83.94
372.028	79.94
372.254	84.94
372.48	71.94
372.706	82.94
372.932	88.94
373.158	75.94
373.384	85.94
373.61	86.94
373.835	83.94
374.061	71.94
374.287	65.94
374.513	88.94
374.739	68.94
374.965	85.94
375.191	94.94
375.416	74.94
375.642	79.94
375.868	88.94
376.094	88.94
376.319	71.94
376.545	77.94
376.771	90.94
376.997	78.94
377.222	86.94
377.448	75.94
377.674	94.94
377.899	88.94
378.125	75.94
378.35	76.94
378.576	76.94
378.802	72.94
379.027	82.94
379.253	80.94
379.478	82.94
379.704	76.94
379.929	80.94
380.155	80.94
380.38	83.94
380.606	98.94
380.831	88.94
381.057	89.94
381.282	88.94
381.507	85.94
381.733	71.94
381.958	75.94
382.184	81.94
382.409	77.94
382.634	90.94
382.86	80.94
383.085	89.94
383.31	92.94
383.535	80.94
383.761	81.94
383.986	82.94
384.211	81.94
384.436	61.94
384.662	66.94
384.887	64.94
385.112	82.94
385.337	70.94
385.562	72.94
385.787	80.94
386.013	89.94
386.238	76.94
386.463	85.94
386.688	102.94
386.913	76.94
387.138	74.94
387.363	78.94
387.588	91.94
387.813	82.94
388.038	75.94
388.263	81.94
388.488	76.94
388.713	79.94
388.938	70.94
389.163	91.94
389.387	85.94
389.612	78.94
389.837	86.94
390.062	95.94
390.287	71.94
390.512	64.94
390.736	81.94
390.961	82.94
391.186	87.94
391.411	90.94
391.636	66.94
391.86	75.94
392.085	77.94
392.31	78.94
392.534	69.94
392.759	69.94
392.984	90.94
393.208	92.94
393.433	105.94
393.658	87.94
393.882	67.94
394.107	83.94
394.331	76.94
394.556	79.94
394.78	84.94
395.005	80.94
395.229	82.94
395.454	86.94
395.678	82.94
395.903	86.94
396.127	83.94
396.352	85.94
396.576	81.94
396.801	74.94
397.025	113.94
397.249	94.94
397.474	84.94
397.698	76.94
397.922	68.94
398.147	72.94
398.371	74.94
398.595	86.94
398.82	74.94
399.044	74.94
399.268	79.94
399.492	92.94
399.717	84.94
399.941	62.94
400.165	63.94
400.389	74.94
400.613	82.94
400.837	74.94
401.062	86.94
401.286	77.94
401.51	74.94
401.734	88.94
401.958	77.94
402.182	71.94
402.406	94.94
402.63	75.94
402.854	96.94
403.078	87.94
403.302	90.94
403.526	77.94
403.75	67.94
403.974	85.94
404.198	65.94
404.422	62.94
404.645	75.94
404.869	74.94
405.093	67.94
405.317	79.94
405.541	77.94
405.765	85.94
405.988	97.94
406.212	87.94
406.436	78.94
406.66	70.94
406.883	82.94
407.107	79.94
407.331	82.94
407.555	76.94
407.778	85.94
408.002	78.94
408.226	80.94
408.449	72.94
408.673	58.94
408.896	64.94
409.12	60.94
409.344	82.94
409.567	88.94
409.791	74.94
410.014	66.94
410.238	76.94
410.461	76.94
410.685	88.94
410.908	78.94
411.132	72.94
411.355	65.94
411.578	72.94
411.802	62.94
412.025	74.94
412.249	88.94
412.472	81.94
412.695	66.94
412.919	66.94
413.142	82.94
413.365	72.94
413.589	75.94
413.812	82.94
414.035	98.94
414.258	74.94
414.482	76.94
414.705	78.94
414.928	84.94
415.151	81.94
415.374	61.94
415.597	84.94
415.821	86.94
416.044	77.94
416.267	78.94
416.49	71.94
416.713	66.94
416.936	86.94
417.159	91.94
417.382	78.94
417.605	74.94
417.828	75.94
418.051	76.94
418.274	69.94
418.497	79.94
418.72	86.94
418.943	84.94
419.166	76.94
419.389	79.94
419.611	69.94
419.834	77.94
420.057	72.94
420.28	96.94
420.503	76.94
420.726	69.94
420.948	77.94
421.171	87.94
421.394	68.94
421.617	78.94
421.839	77.94
422.062	84.94
422.285	91.94
422.507	83.94
422.73	109.94
422.953	99.94
423.175	84.94
423.398	77.94
423.621	97.94
423.843	76.94
424.066	86.94
424.288	74.94
424.511	79.94
424.733	64.94
424.956	60.94
425.178	78.94
425.401	70.94
425.623	81.94
425.846	74.94
426.068	88.94
426.291	74.94
426.513	64.94
426.735	88.94
426.958	80.94
427.18	90.94
427.402	68.94
427.625	67.94
427.847	76.94
428.069	89.94
428.292	93.94
428.514	87.94
428.736	92.94
428.958	62.94
429.181	66.94
429.403	93.94
429.625	80.94
429.847	69.94
430.069	98.94
430.292	93.94
430.514	94.94
430.736	75.94
430.958	87.94
431.18	74.94
431.402	68.94
431.624	75.94
431.846	78.94
432.068	74.94
432.29	72.94
432.512	87.94
432.734	87.94
432.956	78.94
433.178	81.94
433.4	71.94
433.622	82.94
433.844	68.94
434.066	73.94
434.287	65.94
434.509	74.94
434.731	79.94
434.953	78.94
435.175	80.94
435.397	77.94
435.618	72.94
435.84	88.94
436.062	91.94
436.284	72.94
436.505	76.94
436.727	69.94
436.949	83.94
437.17	70.94
437.392	72.94
437.614	85.94
437.835	75.94
438.057	94.94
438.278	84.94
438.5	73.94
438.721	67.94
438.943	78.94
439.165	77.94
439.386	62.94
439.608	78.94
439.829	74.94
440.05	68.94
440.272	86.94
440.493	68.94
440.715	86.94
440.936	83.94
441.158	72.94
441.379	79.94
441.6	79.94
441.822	71.94
442.043	83.94
442.264	86.94
442.486	78.94
442.707	84.94
442.928	71.94
443.149	67.94
443.371	84.94
443.592	77.94
443.813	88.94
444.034	76.94
444.255	66.94
444.476	75.94
444.698	74.94
444.919	71.94
445.14	168.94
445.361	107.94
445.582	99.94
445.803	92.94
446.024	80.94
446.245	89.94
446.466	69.94
446.687	72.94
446.908	83.94
447.129	78.94
447.35	68.94
447.571	78.94
447.792	73.94
448.013	79.94
448.234	74.94
448.455	76.94
448.675	92.94
448.896	68.94
449.117	73.94
449.338	64.94
449.559	71.94
449.779	90.94
450	78.94
450.221	91.94
450.442	71.94
450.662	88.94
450.883	78.94
451.104	82.94
451.324	79.94
451.545	67.94
451.766	80.94
451.986	73.94
452.207	86.94
452.428	86.94
452.648	79.94
452.869	87.94
453.089	70.94
453.31	73.94
453.53	66.94
453.751	65.94
453.971	81.94
454.192	68.94
454.412	64.94
454.633	76.94
454.853	82.94
455.073	80.94
455.294	82.94
455.514	87.94
455.734	82.94
455.955	74.94
456.175	82.94
456.395	88.94
456.616	68.94
456.836	63.94
457.056	76.94
457.276	60.94
457.497	66.94
457.717	68.94
457.937	84.94
458.157	90.94
458.377	70.94
458.598	79.94
458.818	79.94
459.038	70.94
459.258	72.94
459.478	89.94
459.698	86.94
459.918	82.94
460.138	82.94
460.358	78.94
460.578	73.94
460.798	78.94
461.018	91.94
461.238	79.94
461.458	80.94
461.678	72.94
461.898	102.94
462.118	82.94
462.338	81.94
462.558	73.94
462.777	73.94
462.997	73.94
463.217	90.94
463.437	69.94
463.657	78.94
463.876	76.94
464.096	72.94
464.316	69.94
464.536	72.94
464.755	76.94
464.975	90.94
465.195	71.94
465.414	71.94
465.634	81.94
465.854	68.94
466.073	72.94
466.293	75.94
466.512	81.94
466.732	76.94
466.951	74.94
467.171	79.94
467.391	80.94
467.61	81.94
467.829	86.94
468.049	86.94
468.268	90.94
468.488	82.94
468.707	78.94
468.927	79.94
469.146	80.94
469.365	74.94
469.585	76.94
469.804	64.94
470.023	87.94
470.243	86.94
470.462	85.94
470.681	89.94
470.901	67.94
471.12	75.94
471.339	78.94
471.558	75.94
471.777	77.94
471.997	77.94
472.216	78.94
472.435	66.94
472.654	66.94
472.873	82.94
473.092	82.94
473.311	64.94
473.53	88.94
473.749	84.94
473.968	79.94
474.187	74.94
474.406	75.94
474.625	74.94
474.844	88.94
475.063	79.94
475.282	87.94
475.501	87.94
475.72	74.94
475.939	74.94
476.158	66.94
476.377	78.94
476.596	77.94
476.814	70.94
477.033	81.94
477.252	59.94
477.471	82.94
477.69	91.94
477.908	87.94
478.127	83.94
478.346	79.94
478.564	74.94
478.783	83.94
479.002	80.94
479.22	71.94
479.439	73.94
479.658	79.94
479.876	82.94
480.095	68.94
480.313	70.94
480.532	83.94
480.751	84.94
480.969	61.94
481.188	75.94
481.406	76.94
481.624	76.94
481.843	68.94
482.061	69.94
482.28	72.94
482.498	53.94
482.717	89.94
482.935	69.94
483.153	71.94
483.372	84.94
483.59	89.94
483.808	78.94
484.027	89.94
484.245	75.94
484.463	80.94
484.681	90.94
484.9	71.94
485.118	78.94
485.336	65.94
485.554	82.94
485.772	82.94
485.99	69.94
486.209	88.94
486.427	88.94
486.645	64.94
486.863	87.94
487.081	78.94
487.299	87.94
487.517	82.94
487.735	80.94
487.953	99.94
488.171	74.94
488.389	76.94
488.607	76.94
488.825	75.94
489.043	66.94
489.261	92.94
489.479	74.94
489.696	82.94
489.914	78.94
490.132	76.94
490.35	87.94
490.568	85.94
490.786	69.94
491.003	76.94
491.221	87.94
491.439	75.94
491.657	76.94
491.874	76.94
492.092	80.94
492.31	73.94
492.527	64.94
492.745	80.94
492.963	73.94
493.18	81.94
493.398	92.94
493.615	74.94
493.833	78.94
494.05	91.94
494.268	92.94
494.485	79.94
494.703	76.94
494.92	77.94
495.138	78.94
495.355	77.94
495.573	75.94
495.79	64.94
496.008	86.94
496.225	67.94
496.442	73.94
496.66	66.94
496.877	78.94
497.094	82.94
497.312	82.94
497.529	74.94
497.746	75.94
497.963	94.94
498.181	70.94
498.398	77.94
498.615	80.94
498.832	80.94
499.049	92.94
499.267	83.94
499.484	68.94
499.701	90.94
499.918	88.94
500.135	68.94
500.352	79.94
500.569	79.94
500.786	80.94
501.003	74.94
501.22	70.94
501.437	90.94
501.654	82.94
501.871	81.94
502.088	94.94
502.305	72.94
502.522	85.94
502.739	94.94
502.956	80.94
503.172	81.94
503.389	69.94
503.606	68.94
503.823	72.94
504.04	88.94
504.256	71.94
504.473	77.94
504.69	69.94
504.907	93.94
505.123	78.94
505.34	78.94
505.557	93.94
505.773	84.94
505.99	67.94
506.207	87.94
506.423	81.94
506.64	83.94
506.856	74.94
507.073	79.94
507.289	72.94
507.506	77.94
507.722	75.94
507.939	76.94
508.155	76.94
508.372	59.94
508.588	73.94
508.805	73.94
509.021	88.94
509.238	74.94
509.454	78.94
509.67	82.94
509.887	84.94
510.103	88.94
510.319	74.94
510.536	76.94
510.752	80.94
510.968	105.94
511.184	80.94
511.401	92.94
511.617	86.94
511.833	79.94
512.049	78.94
512.265	52.94
512.481	83.94
512.698	79.94
512.914	82.94
513.13	76.94
513.346	69.94
513.562	86.94
513.778	76.94
513.994	79.94
514.21	78.94
514.426	82.94
514.642	86.94
514.858	74.94
515.074	81.94
515.29	72.94
515.506	78.94
515.721	78.94
515.937	87.94
516.153	71.94
516.369	78.94
516.585	78.94
516.801	83.94
517.016	82.94
517.232	78.94
517.448	74.94
517.664	71.94
517.879	93.94
518.095	86.94
518.311	72.94
518.527	82.94
518.742	90.94
518.958	85.94
519.173	86.94
519.389	67.94
519.605	86.94
519.82	82.94
520.036	88.94
520.251	76.94
