Data from 1600_1_HRD10591_00023.txt Node
Date: Mon Jan 19 13:47:52 EST 2026
User: Yrep
Spectrometer: HR+D1059
Trigger mode: 1
Integration Time (sec): 1.000000E-1
Scans to average: 1
Electric dark correction enabled: true
Nonlinearity correction enabled: false
Boxcar width: 0
XAxis mode: Wavelengths
Number of Pixels in Spectrum: 2048
>>>>>Begin Spectral Data<<<<<
223.165	-19.69
223.4	-19.69
223.635	-19.69
223.869	-10.69
224.104	-29.69
224.338	-7.69
224.573	-21.69
224.808	-15.69
225.042	4.31
225.277	-8.69
225.511	7.31
225.746	5.31
225.98	13.31
226.215	3.31
226.449	16.31
226.683	27.31
226.918	18.31
227.152	18.31
227.387	44.31
227.621	35.31
227.856	33.31
228.09	37.31
228.324	56.31
228.559	64.31
228.793	61.31
229.027	56.31
229.262	67.31
229.496	68.31
229.73	47.31
229.964	76.31
230.199	84.31
230.433	61.31
230.667	79.31
230.901	78.31
231.136	90.31
231.37	72.31
231.604	81.31
231.838	78.31
232.072	72.31
232.306	76.31
232.541	74.31
232.775	67.31
233.009	80.31
233.243	56.31
233.477	79.31
233.711	78.31
233.945	72.31
234.179	85.31
234.413	69.31
234.647	75.31
234.881	86.31
235.115	89.31
235.349	70.31
235.583	84.31
235.817	82.31
236.051	81.31
236.285	75.31
236.519	70.31
236.753	74.31
236.987	69.31
237.221	76.31
237.455	82.31
237.689	72.31
237.922	68.31
238.156	65.31
238.39	72.31
238.624	67.31
238.858	55.31
239.091	81.31
239.325	69.31
239.559	83.31
239.793	70.31
240.027	82.31
240.26	69.31
240.494	76.31
240.728	80.31
240.961	68.31
241.195	83.31
241.429	71.31
241.662	87.31
241.896	65.31
242.13	76.31
242.363	71.31
242.597	82.31
242.83	90.31
243.064	68.31
243.298	69.31
243.531	71.31
243.765	82.31
243.998	77.31
244.232	73.31
244.465	75.31
244.699	88.31
244.932	82.31
245.166	76.31
245.399	81.31
245.633	63.31
245.866	73.31
246.099	86.31
246.333	71.31
246.566	64.31
246.8	65.31
247.033	64.31
247.266	61.31
247.5	78.31
247.733	78.31
247.966	64.31
248.2	76.31
248.433	74.31
248.666	83.31
248.899	79.31
249.133	83.31
249.366	64.31
249.599	92.31
249.832	76.31
250.066	79.31
250.299	97.31
250.532	72.31
250.765	80.31
250.998	66.31
251.231	68.31
251.465	85.31
251.698	81.31
251.931	70.31
252.164	75.31
252.397	71.31
252.63	81.31
252.863	82.31
253.096	87.31
253.329	81.31
253.562	84.31
253.795	81.31
254.028	74.31
254.261	60.31
254.494	62.31
254.727	61.31
254.96	71.31
255.193	90.31
255.426	68.31
255.659	73.31
255.892	78.31
256.124	80.31
256.357	74.31
256.59	84.31
256.823	69.31
257.056	81.31
257.289	78.31
257.521	81.31
257.754	74.31
257.987	75.31
258.22	81.31
258.452	81.31
258.685	79.31
258.918	70.31
259.151	84.31
259.383	92.31
259.616	69.31
259.849	83.31
260.081	82.31
260.314	75.31
260.547	76.31
260.779	69.31
261.012	88.31
261.244	70.31
261.477	80.31
261.71	96.31
261.942	84.31
262.175	65.31
262.407	68.31
262.64	68.31
262.872	72.31
263.105	64.31
263.337	77.31
263.57	71.31
263.802	77.31
264.035	73.31
264.267	76.31
264.499	83.31
264.732	82.31
264.964	82.31
265.197	84.31
265.429	76.31
265.661	75.31
265.894	86.31
266.126	87.31
266.358	70.31
266.591	95.31
266.823	70.31
267.055	79.31
267.287	68.31
267.52	80.31
267.752	69.31
267.984	83.31
268.216	71.31
268.448	81.31
268.681	98.31
268.913	66.31
269.145	70.31
269.377	81.31
269.609	84.31
269.841	82.31
270.073	81.31
270.306	70.31
270.538	78.31
270.77	86.31
271.002	73.31
271.234	76.31
271.466	85.31
271.698	78.31
271.93	84.31
272.162	70.31
272.394	77.31
272.626	69.31
272.858	71.31
273.09	88.31
273.322	78.31
273.553	67.31
273.785	85.31
274.017	77.31
274.249	92.31
274.481	80.31
274.713	83.31
274.945	83.31
275.176	83.31
275.408	69.31
275.64	81.31
275.872	66.31
276.104	80.31
276.335	80.31
276.567	67.31
276.799	82.31
277.031	80.31
277.262	79.31
277.494	86.31
277.726	94.31
277.957	85.31
278.189	74.31
278.421	83.31
278.652	92.31
278.884	83.31
279.115	68.31
279.347	69.31
279.579	91.31
279.81	83.31
280.042	76.31
280.273	75.31
280.505	81.31
280.736	69.31
280.968	105.31
281.199	91.31
281.431	89.31
281.662	87.31
281.894	79.31
282.125	90.31
282.356	74.31
282.588	87.31
282.819	74.31
283.051	80.31
283.282	74.31
283.513	75.31
283.745	84.31
283.976	65.31
284.207	78.31
284.439	85.31
284.67	66.31
284.901	74.31
285.132	76.31
285.364	76.31
285.595	76.31
285.826	83.31
286.057	78.31
286.288	78.31
286.52	65.31
286.751	79.31
286.982	104.31
287.213	96.31
287.444	80.31
287.675	79.31
287.906	83.31
288.138	79.31
288.369	80.31
288.6	71.31
288.831	83.31
289.062	88.31
289.293	85.31
289.524	88.31
289.755	77.31
289.986	72.31
290.217	79.31
290.448	81.31
290.679	85.31
290.91	65.31
291.141	80.31
291.371	85.31
291.602	87.31
291.833	81.31
292.064	83.31
292.295	81.31
292.526	68.31
292.757	76.31
292.987	93.31
293.218	96.31
293.449	78.31
293.68	80.31
293.91	92.31
294.141	90.31
294.372	67.31
294.603	80.31
294.833	68.31
295.064	78.31
295.295	92.31
295.525	73.31
295.756	80.31
295.987	73.31
296.217	73.31
296.448	81.31
296.679	80.31
296.909	85.31
297.14	80.31
297.37	84.31
297.601	87.31
297.831	82.31
298.062	80.31
298.292	81.31
298.523	86.31
298.753	83.31
298.984	92.31
299.214	74.31
299.445	79.31
299.675	94.31
299.905	92.31
300.136	73.31
300.366	79.31
300.597	74.31
300.827	82.31
301.057	96.31
301.288	80.31
301.518	73.31
301.748	60.31
301.979	102.31
302.209	78.31
302.439	84.31
302.669	73.31
302.9	77.31
303.13	92.31
303.36	87.31
303.59	83.31
303.82	84.31
304.051	74.31
304.281	78.31
304.511	75.31
304.741	74.31
304.971	75.31
305.201	78.31
305.431	83.31
305.661	72.31
305.891	86.31
306.121	85.31
306.352	59.31
306.582	77.31
306.812	75.31
307.042	79.31
307.272	73.31
307.502	78.31
307.731	84.31
307.961	77.31
308.191	86.31
308.421	87.31
308.651	80.31
308.881	82.31
309.111	80.31
309.341	76.31
309.571	91.31
309.8	86.31
310.03	83.31
310.26	89.31
310.49	74.31
310.72	83.31
310.949	83.31
311.179	78.31
311.409	68.31
311.639	78.31
311.868	82.31
312.098	76.31
312.328	90.31
312.557	92.31
312.787	81.31
313.017	77.31
313.246	81.31
313.476	71.31
313.706	77.31
313.935	80.31
314.165	91.31
314.394	63.31
314.624	90.31
314.853	84.31
315.083	82.31
315.312	66.31
315.542	74.31
315.771	82.31
316.001	75.31
316.23	70.31
316.46	75.31
316.689	66.31
316.919	70.31
317.148	76.31
317.377	78.31
317.607	74.31
317.836	78.31
318.065	69.31
318.295	83.31
318.524	84.31
318.753	81.31
318.983	93.31
319.212	83.31
319.441	77.31
319.67	84.31
319.9	87.31
320.129	74.31
320.358	70.31
320.587	62.31
320.816	86.31
321.046	94.31
321.275	76.31
321.504	78.31
321.733	97.31
321.962	81.31
322.191	84.31
322.42	96.31
322.649	79.31
322.878	82.31
323.108	80.31
323.337	80.31
323.566	85.31
323.795	70.31
324.024	92.31
324.253	70.31
324.482	83.31
324.71	79.31
324.939	98.31
325.168	87.31
325.397	91.31
325.626	75.31
325.855	73.31
326.084	89.31
326.313	70.31
326.542	91.31
326.77	81.31
326.999	86.31
327.228	86.31
327.457	91.31
327.686	83.31
327.914	80.31
328.143	87.31
328.372	90.31
328.6	79.31
328.829	79.31
329.058	92.31
329.287	92.31
329.515	85.31
329.744	81.31
329.972	61.31
330.201	79.31
330.43	71.31
330.658	81.31
330.887	81.31
331.115	84.31
331.344	88.31
331.572	98.31
331.801	78.31
332.03	85.31
332.258	88.31
332.486	80.31
332.715	91.31
332.943	81.31
333.172	94.31
333.4	84.31
333.629	89.31
333.857	90.31
334.085	72.31
334.314	77.31
334.542	70.31
334.771	94.31
334.999	78.31
335.227	77.31
335.455	93.31
335.684	80.31
335.912	80.31
336.14	81.31
336.369	80.31
336.597	85.31
336.825	88.31
337.053	79.31
337.281	73.31
337.51	89.31
337.738	72.31
337.966	66.31
338.194	70.31
338.422	91.31
338.65	66.31
338.878	77.31
339.106	88.31
339.334	82.31
339.562	81.31
339.79	79.31
340.018	99.31
340.246	91.31
340.474	80.31
340.702	92.31
340.93	86.31
341.158	79.31
341.386	77.31
341.614	88.31
341.842	84.31
342.07	83.31
342.298	73.31
342.526	88.31
342.754	90.31
342.981	88.31
343.209	78.31
343.437	84.31
343.665	76.31
343.893	93.31
344.12	76.31
344.348	80.31
344.576	85.31
344.804	92.31
345.031	76.31
345.259	83.31
345.487	63.31
345.714	66.31
345.942	78.31
346.17	73.31
346.397	90.31
346.625	83.31
346.853	86.31
347.08	88.31
347.308	88.31
347.535	79.31
347.763	73.31
347.99	87.31
348.218	88.31
348.445	81.31
348.673	73.31
348.9	71.31
349.128	79.31
349.355	72.31
349.583	81.31
349.81	86.31
350.037	81.31
350.265	77.31
350.492	63.31
350.72	89.31
350.947	73.31
351.174	69.31
351.402	81.31
351.629	82.31
351.856	75.31
352.083	82.31
352.311	101.31
352.538	77.31
352.765	80.31
352.992	66.31
353.22	77.31
353.447	80.31
353.674	89.31
353.901	97.31
354.128	87.31
354.355	80.31
354.583	88.31
354.81	84.31
355.037	82.31
355.264	76.31
355.491	87.31
355.718	67.31
355.945	73.31
356.172	84.31
356.399	88.31
356.626	79.31
356.853	89.31
357.08	81.31
357.307	74.31
357.534	76.31
357.761	75.31
357.988	82.31
358.215	75.31
358.441	88.31
358.668	84.31
358.895	69.31
359.122	76.31
359.349	79.31
359.576	92.31
359.802	66.31
360.029	69.31
360.256	88.31
360.483	76.31
360.709	82.31
360.936	92.31
361.163	71.31
361.39	74.31
361.616	80.31
361.843	78.31
362.07	75.31
362.296	87.31
362.523	91.31
362.749	81.31
362.976	68.31
363.203	82.31
363.429	84.31
363.656	90.31
363.882	60.31
364.109	92.31
364.335	87.31
364.562	86.31
364.788	87.31
365.015	73.31
365.241	89.31
365.468	80.31
365.694	80.31
365.92	87.31
366.147	81.31
366.373	90.31
366.599	70.31
366.826	79.31
367.052	88.31
367.278	83.31
367.505	92.31
367.731	77.31
367.957	80.31
368.184	80.31
368.41	84.31
368.636	82.31
368.862	79.31
369.089	74.31
369.315	75.31
369.541	67.31
369.767	70.31
369.993	83.31
370.219	79.31
370.445	79.31
370.672	79.31
370.898	83.31
371.124	80.31
371.35	73.31
371.576	81.31
371.802	82.31
372.028	79.31
372.254	79.31
372.48	89.31
372.706	64.31
372.932	69.31
373.158	80.31
373.384	74.31
373.61	87.31
373.835	85.31
374.061	74.31
374.287	77.31
374.513	84.31
374.739	80.31
374.965	75.31
375.191	78.31
375.416	77.31
375.642	81.31
375.868	84.31
376.094	80.31
376.319	68.31
376.545	84.31
376.771	66.31
376.997	70.31
377.222	80.31
377.448	76.31
377.674	85.31
377.899	94.31
378.125	85.31
378.35	84.31
378.576	74.31
378.802	78.31
379.027	79.31
379.253	75.31
379.478	77.31
379.704	78.31
379.929	74.31
380.155	81.31
380.38	78.31
380.606	78.31
380.831	86.31
381.057	76.31
381.282	79.31
381.507	67.31
381.733	82.31
381.958	83.31
382.184	89.31
382.409	83.31
382.634	79.31
382.86	79.31
383.085	80.31
383.31	82.31
383.535	84.31
383.761	87.31
383.986	76.31
384.211	88.31
384.436	79.31
384.662	82.31
384.887	83.31
385.112	85.31
385.337	84.31
385.562	80.31
385.787	95.31
386.013	78.31
386.238	84.31
386.463	84.31
386.688	95.31
386.913	66.31
387.138	87.31
387.363	79.31
387.588	74.31
387.813	88.31
388.038	83.31
388.263	74.31
388.488	83.31
388.713	83.31
388.938	93.31
389.163	77.31
389.387	69.31
389.612	79.31
389.837	73.31
390.062	79.31
390.287	80.31
390.512	80.31
390.736	81.31
390.961	84.31
391.186	83.31
391.411	83.31
391.636	78.31
391.86	77.31
392.085	83.31
392.31	68.31
392.534	93.31
392.759	88.31
392.984	85.31
393.208	74.31
393.433	88.31
393.658	77.31
393.882	70.31
394.107	74.31
394.331	69.31
394.556	76.31
394.78	89.31
395.005	85.31
395.229	78.31
395.454	78.31
395.678	82.31
395.903	88.31
396.127	90.31
396.352	69.31
396.576	84.31
396.801	72.31
397.025	76.31
397.249	85.31
397.474	91.31
397.698	88.31
397.922	87.31
398.147	78.31
398.371	71.31
398.595	81.31
398.82	69.31
399.044	79.31
399.268	89.31
399.492	89.31
399.717	71.31
399.941	88.31
400.165	87.31
400.389	72.31
400.613	78.31
400.837	91.31
401.062	77.31
401.286	81.31
401.51	85.31
401.734	78.31
401.958	75.31
402.182	66.31
402.406	76.31
402.63	65.31
402.854	74.31
403.078	82.31
403.302	78.31
403.526	75.31
403.75	67.31
403.974	81.31
404.198	70.31
404.422	80.31
404.645	74.31
404.869	82.31
405.093	78.31
405.317	86.31
405.541	64.31
405.765	78.31
405.988	88.31
406.212	84.31
406.436	92.31
406.66	73.31
406.883	71.31
407.107	80.31
407.331	77.31
407.555	70.31
407.778	70.31
408.002	69.31
408.226	80.31
408.449	81.31
408.673	83.31
408.896	78.31
409.12	87.31
409.344	82.31
409.567	64.31
409.791	77.31
410.014	80.31
410.238	78.31
410.461	79.31
410.685	76.31
410.908	85.31
411.132	74.31
411.355	59.31
411.578	78.31
411.802	64.31
412.025	82.31
412.249	78.31
412.472	69.31
412.695	71.31
412.919	85.31
413.142	78.31
413.365	80.31
413.589	77.31
413.812	68.31
414.035	76.31
414.258	80.31
414.482	85.31
414.705	88.31
414.928	77.31
415.151	80.31
415.374	82.31
415.597	81.31
415.821	80.31
416.044	86.31
416.267	91.31
416.49	80.31
416.713	90.31
416.936	70.31
417.159	84.31
417.382	62.31
417.605	74.31
417.828	86.31
418.051	81.31
418.274	79.31
418.497	76.31
418.72	88.31
418.943	89.31
419.166	88.31
419.389	83.31
419.611	65.31
419.834	85.31
420.057	80.31
420.28	72.31
420.503	85.31
420.726	84.31
420.948	79.31
421.171	81.31
421.394	88.31
421.617	86.31
421.839	85.31
422.062	89.31
422.285	85.31
422.507	89.31
422.73	109.31
422.953	99.31
423.175	95.31
423.398	83.31
423.621	75.31
423.843	68.31
424.066	68.31
424.288	61.31
424.511	77.31
424.733	86.31
424.956	84.31
425.178	84.31
425.401	96.31
425.623	76.31
425.846	71.31
426.068	65.31
426.291	80.31
426.513	79.31
426.735	76.31
426.958	94.31
427.18	81.31
427.402	81.31
427.625	73.31
427.847	69.31
428.069	79.31
428.292	79.31
428.514	89.31
428.736	70.31
428.958	70.31
429.181	89.31
429.403	91.31
429.625	78.31
429.847	81.31
430.069	79.31
430.292	81.31
430.514	75.31
430.736	91.31
430.958	83.31
431.18	64.31
431.402	72.31
431.624	63.31
431.846	72.31
432.068	84.31
432.29	70.31
432.512	74.31
432.734	85.31
432.956	78.31
433.178	94.31
433.4	80.31
433.622	92.31
433.844	77.31
434.066	92.31
434.287	80.31
434.509	82.31
434.731	77.31
434.953	78.31
435.175	81.31
435.397	76.31
435.618	68.31
435.84	72.31
436.062	70.31
436.284	64.31
436.505	71.31
436.727	65.31
436.949	76.31
437.17	68.31
437.392	83.31
437.614	77.31
437.835	69.31
438.057	78.31
438.278	82.31
438.5	73.31
438.721	95.31
438.943	80.31
439.165	92.31
439.386	76.31
439.608	91.31
439.829	83.31
440.05	75.31
440.272	81.31
440.493	87.31
440.715	77.31
440.936	85.31
441.158	88.31
441.379	71.31
441.6	80.31
441.822	73.31
442.043	86.31
442.264	77.31
442.486	87.31
442.707	72.31
442.928	74.31
443.149	76.31
443.371	87.31
443.592	92.31
443.813	89.31
444.034	80.31
444.255	80.31
444.476	73.31
444.698	78.31
444.919	79.31
445.14	170.31
445.361	131.31
445.582	94.31
445.803	101.31
446.024	79.31
446.245	74.31
446.466	88.31
446.687	88.31
446.908	88.31
447.129	81.31
447.35	84.31
447.571	78.31
447.792	84.31
448.013	73.31
448.234	83.31
448.455	76.31
448.675	78.31
448.896	73.31
449.117	78.31
449.338	85.31
449.559	85.31
449.779	80.31
450	77.31
450.221	81.31
450.442	81.31
450.662	76.31
450.883	81.31
451.104	75.31
451.324	69.31
451.545	89.31
451.766	90.31
451.986	84.31
452.207	70.31
452.428	76.31
452.648	74.31
452.869	69.31
453.089	82.31
453.31	68.31
453.53	76.31
453.751	70.31
453.971	80.31
454.192	80.31
454.412	69.31
454.633	70.31
454.853	89.31
455.073	74.31
455.294	93.31
455.514	94.31
455.734	90.31
455.955	76.31
456.175	80.31
456.395	96.31
456.616	78.31
456.836	83.31
457.056	71.31
457.276	80.31
457.497	86.31
457.717	83.31
457.937	80.31
458.157	82.31
458.377	88.31
458.598	80.31
458.818	74.31
459.038	77.31
459.258	75.31
459.478	80.31
459.698	82.31
459.918	74.31
460.138	75.31
460.358	80.31
460.578	56.31
460.798	76.31
461.018	89.31
461.238	100.31
461.458	85.31
461.678	68.31
461.898	93.31
462.118	65.31
462.338	82.31
462.558	83.31
462.777	77.31
462.997	89.31
463.217	82.31
463.437	69.31
463.657	87.31
463.876	75.31
464.096	81.31
464.316	82.31
464.536	80.31
464.755	83.31
464.975	74.31
465.195	78.31
465.414	68.31
465.634	76.31
465.854	81.31
466.073	79.31
466.293	78.31
466.512	85.31
466.732	78.31
466.951	82.31
467.171	83.31
467.391	78.31
467.61	91.31
467.829	88.31
468.049	80.31
468.268	67.31
468.488	81.31
468.707	77.31
468.927	69.31
469.146	82.31
469.365	87.31
469.585	91.31
469.804	93.31
470.023	85.31
470.243	93.31
470.462	85.31
470.681	84.31
470.901	73.31
471.12	88.31
471.339	86.31
471.558	78.31
471.777	73.31
471.997	90.31
472.216	69.31
472.435	69.31
472.654	78.31
472.873	84.31
473.092	79.31
473.311	84.31
473.53	90.31
473.749	69.31
473.968	85.31
474.187	84.31
474.406	78.31
474.625	84.31
474.844	76.31
475.063	62.31
475.282	93.31
475.501	77.31
475.72	70.31
475.939	90.31
476.158	89.31
476.377	94.31
476.596	85.31
476.814	86.31
477.033	86.31
477.252	90.31
477.471	90.31
477.69	83.31
477.908	87.31
478.127	86.31
478.346	66.31
478.564	88.31
478.783	76.31
479.002	72.31
479.22	71.31
479.439	80.31
479.658	52.31
479.876	83.31
480.095	64.31
480.313	80.31
480.532	81.31
480.751	81.31
480.969	77.31
481.188	80.31
481.406	89.31
481.624	97.31
481.843	78.31
482.061	81.31
482.28	78.31
482.498	86.31
482.717	82.31
482.935	78.31
483.153	89.31
483.372	85.31
483.59	82.31
483.808	92.31
484.027	80.31
484.245	84.31
484.463	92.31
484.681	90.31
484.9	82.31
485.118	85.31
485.336	85.31
485.554	88.31
485.772	68.31
485.99	80.31
486.209	80.31
486.427	74.31
486.645	83.31
486.863	80.31
487.081	74.31
487.299	88.31
487.517	82.31
487.735	91.31
487.953	81.31
488.171	80.31
488.389	94.31
488.607	76.31
488.825	73.31
489.043	88.31
489.261	78.31
489.479	94.31
489.696	92.31
489.914	69.31
490.132	85.31
490.35	90.31
490.568	70.31
490.786	64.31
491.003	93.31
491.221	78.31
491.439	89.31
491.657	89.31
491.874	74.31
492.092	83.31
492.31	74.31
492.527	75.31
492.745	88.31
492.963	83.31
493.18	73.31
493.398	96.31
493.615	91.31
493.833	64.31
494.05	79.31
494.268	74.31
494.485	79.31
494.703	81.31
494.92	92.31
495.138	90.31
495.355	76.31
495.573	73.31
495.79	75.31
496.008	83.31
496.225	62.31
496.442	83.31
496.66	74.31
496.877	82.31
497.094	77.31
497.312	77.31
497.529	87.31
497.746	95.31
497.963	61.31
498.181	74.31
498.398	73.31
498.615	83.31
498.832	93.31
499.049	70.31
499.267	86.31
499.484	81.31
499.701	85.31
499.918	72.31
500.135	75.31
500.352	84.31
500.569	83.31
500.786	80.31
501.003	84.31
501.22	78.31
501.437	87.31
501.654	86.31
501.871	80.31
502.088	82.31
502.305	74.31
502.522	86.31
502.739	80.31
502.956	91.31
503.172	74.31
503.389	96.31
503.606	72.31
503.823	83.31
504.04	86.31
504.256	85.31
504.473	78.31
504.69	73.31
504.907	80.31
505.123	74.31
505.34	80.31
505.557	90.31
505.773	80.31
505.99	78.31
506.207	79.31
506.423	79.31
506.64	84.31
506.856	81.31
507.073	76.31
507.289	50.31
507.506	76.31
507.722	75.31
507.939	85.31
508.155	83.31
508.372	86.31
508.588	67.31
508.805	86.31
509.021	85.31
509.238	77.31
509.454	85.31
509.67	84.31
509.887	85.31
510.103	79.31
510.319	80.31
510.536	72.31
510.752	85.31
510.968	92.31
511.184	76.31
511.401	79.31
511.617	88.31
511.833	76.31
512.049	61.31
512.265	74.31
512.481	80.31
512.698	83.31
512.914	84.31
513.13	84.31
513.346	79.31
513.562	86.31
513.778	97.31
513.994	89.31
514.21	85.31
514.426	82.31
514.642	91.31
514.858	81.31
515.074	81.31
515.29	85.31
515.506	69.31
515.721	79.31
515.937	94.31
516.153	83.31
516.369	76.31
516.585	68.31
516.801	77.31
517.016	75.31
517.232	77.31
517.448	78.31
517.664	87.31
517.879	93.31
518.095	87.31
518.311	88.31
518.527	80.31
518.742	89.31
518.958	88.31
519.173	88.31
519.389	81.31
519.605	88.31
519.82	73.31
520.036	80.31
520.251	56.31
