Data from 1600_1_HRD10591_00038.txt Node
Date: Mon Jan 19 13:48:00 EST 2026
User: Yrep
Spectrometer: HR+D1059
Trigger mode: 1
Integration Time (sec): 1.000000E-1
Scans to average: 1
Electric dark correction enabled: true
Nonlinearity correction enabled: false
Boxcar width: 0
XAxis mode: Wavelengths
Number of Pixels in Spectrum: 2048
>>>>>Begin Spectral Data<<<<<
223.165	-18.88
223.4	-18.88
223.635	-18.88
223.869	-16.88
224.104	-12.88
224.338	-30.88
224.573	-13.88
224.808	-6.88
225.042	-7.88
225.277	2.12
225.511	1.12
225.746	5.12
225.98	3.12
226.215	9.12
226.449	-1.88
226.683	19.12
226.918	27.12
227.152	43.12
227.387	36.12
227.621	52.12
227.856	47.12
228.09	51.12
228.324	64.12
228.559	73.12
228.793	60.12
229.027	53.12
229.262	69.12
229.496	63.12
229.73	74.12
229.964	77.12
230.199	72.12
230.433	80.12
230.667	81.12
230.901	75.12
231.136	84.12
231.37	89.12
231.604	91.12
231.838	98.12
232.072	83.12
232.306	85.12
232.541	83.12
232.775	88.12
233.009	97.12
233.243	90.12
233.477	87.12
233.711	89.12
233.945	79.12
234.179	75.12
234.413	97.12
234.647	84.12
234.881	84.12
235.115	82.12
235.349	78.12
235.583	68.12
235.817	79.12
236.051	94.12
236.285	90.12
236.519	67.12
236.753	74.12
236.987	78.12
237.221	88.12
237.455	88.12
237.689	84.12
237.922	77.12
238.156	102.12
238.39	62.12
238.624	78.12
238.858	87.12
239.091	75.12
239.325	87.12
239.559	89.12
239.793	74.12
240.027	89.12
240.26	85.12
240.494	80.12
240.728	84.12
240.961	80.12
241.195	80.12
241.429	66.12
241.662	67.12
241.896	72.12
242.13	91.12
242.363	75.12
242.597	67.12
242.83	81.12
243.064	75.12
243.298	83.12
243.531	76.12
243.765	75.12
243.998	81.12
244.232	75.12
244.465	76.12
244.699	84.12
244.932	68.12
245.166	72.12
245.399	63.12
245.633	85.12
245.866	88.12
246.099	89.12
246.333	75.12
246.566	89.12
246.8	100.12
247.033	66.12
247.266	68.12
247.5	87.12
247.733	74.12
247.966	101.12
248.2	74.12
248.433	83.12
248.666	93.12
248.899	68.12
249.133	81.12
249.366	88.12
249.599	86.12
249.832	78.12
250.066	81.12
250.299	91.12
250.532	77.12
250.765	78.12
250.998	87.12
251.231	79.12
251.465	99.12
251.698	90.12
251.931	77.12
252.164	100.12
252.397	82.12
252.63	90.12
252.863	87.12
253.096	75.12
253.329	93.12
253.562	85.12
253.795	76.12
254.028	85.12
254.261	89.12
254.494	81.12
254.727	97.12
254.96	92.12
255.193	85.12
255.426	88.12
255.659	89.12
255.892	92.12
256.124	72.12
256.357	88.12
256.59	82.12
256.823	93.12
257.056	86.12
257.289	79.12
257.521	84.12
257.754	79.12
257.987	77.12
258.22	76.12
258.452	89.12
258.685	90.12
258.918	100.12
259.151	90.12
259.383	88.12
259.616	77.12
259.849	83.12
260.081	84.12
260.314	85.12
260.547	75.12
260.779	81.12
261.012	79.12
261.244	82.12
261.477	93.12
261.71	96.12
261.942	83.12
262.175	83.12
262.407	91.12
262.64	81.12
262.872	84.12
263.105	83.12
263.337	95.12
263.57	94.12
263.802	88.12
264.035	92.12
264.267	86.12
264.499	88.12
264.732	80.12
264.964	92.12
265.197	88.12
265.429	76.12
265.661	77.12
265.894	98.12
266.126	82.12
266.358	85.12
266.591	69.12
266.823	76.12
267.055	88.12
267.287	96.12
267.52	82.12
267.752	80.12
267.984	93.12
268.216	94.12
268.448	87.12
268.681	81.12
268.913	92.12
269.145	94.12
269.377	83.12
269.609	95.12
269.841	90.12
270.073	99.12
270.306	97.12
270.538	96.12
270.77	83.12
271.002	75.12
271.234	91.12
271.466	82.12
271.698	92.12
271.93	82.12
272.162	82.12
272.394	91.12
272.626	83.12
272.858	78.12
273.09	82.12
273.322	81.12
273.553	77.12
273.785	81.12
274.017	82.12
274.249	92.12
274.481	94.12
274.713	90.12
274.945	89.12
275.176	75.12
275.408	91.12
275.64	90.12
275.872	76.12
276.104	90.12
276.335	87.12
276.567	77.12
276.799	91.12
277.031	100.12
277.262	78.12
277.494	87.12
277.726	91.12
277.957	89.12
278.189	82.12
278.421	86.12
278.652	90.12
278.884	106.12
279.115	94.12
279.347	85.12
279.579	86.12
279.81	85.12
280.042	90.12
280.273	98.12
280.505	91.12
280.736	94.12
280.968	99.12
281.199	102.12
281.431	98.12
281.662	86.12
281.894	72.12
282.125	75.12
282.356	79.12
282.588	98.12
282.819	80.12
283.051	81.12
283.282	82.12
283.513	75.12
283.745	88.12
283.976	81.12
284.207	107.12
284.439	85.12
284.67	84.12
284.901	83.12
285.132	91.12
285.364	81.12
285.595	97.12
285.826	97.12
286.057	81.12
286.288	87.12
286.52	89.12
286.751	101.12
286.982	87.12
287.213	89.12
287.444	78.12
287.675	95.12
287.906	82.12
288.138	79.12
288.369	96.12
288.6	81.12
288.831	89.12
289.062	89.12
289.293	86.12
289.524	75.12
289.755	85.12
289.986	89.12
290.217	86.12
290.448	85.12
290.679	82.12
290.91	89.12
291.141	99.12
291.371	89.12
291.602	81.12
291.833	95.12
292.064	78.12
292.295	77.12
292.526	77.12
292.757	97.12
292.987	100.12
293.218	85.12
293.449	94.12
293.68	97.12
293.91	76.12
294.141	99.12
294.372	77.12
294.603	75.12
294.833	75.12
295.064	88.12
295.295	87.12
295.525	87.12
295.756	90.12
295.987	75.12
296.217	90.12
296.448	97.12
296.679	93.12
296.909	104.12
297.14	87.12
297.37	98.12
297.601	82.12
297.831	98.12
298.062	93.12
298.292	93.12
298.523	102.12
298.753	94.12
298.984	84.12
299.214	93.12
299.445	92.12
299.675	89.12
299.905	108.12
300.136	86.12
300.366	83.12
300.597	76.12
300.827	86.12
301.057	80.12
301.288	78.12
301.518	77.12
301.748	98.12
301.979	127.12
302.209	98.12
302.439	83.12
302.669	92.12
302.9	95.12
303.13	89.12
303.36	89.12
303.59	88.12
303.82	91.12
304.051	82.12
304.281	85.12
304.511	85.12
304.741	76.12
304.971	95.12
305.201	89.12
305.431	95.12
305.661	95.12
305.891	83.12
306.121	91.12
306.352	89.12
306.582	85.12
306.812	84.12
307.042	75.12
307.272	81.12
307.502	104.12
307.731	99.12
307.961	89.12
308.191	84.12
308.421	77.12
308.651	79.12
308.881	80.12
309.111	92.12
309.341	85.12
309.571	86.12
309.8	86.12
310.03	100.12
310.26	95.12
310.49	89.12
310.72	85.12
310.949	84.12
311.179	82.12
311.409	75.12
311.639	89.12
311.868	91.12
312.098	101.12
312.328	81.12
312.557	104.12
312.787	87.12
313.017	85.12
313.246	80.12
313.476	96.12
313.706	82.12
313.935	82.12
314.165	95.12
314.394	93.12
314.624	77.12
314.853	103.12
315.083	98.12
315.312	88.12
315.542	87.12
315.771	83.12
316.001	84.12
316.23	77.12
316.46	91.12
316.689	89.12
316.919	99.12
317.148	79.12
317.377	99.12
317.607	86.12
317.836	93.12
318.065	86.12
318.295	96.12
318.524	89.12
318.753	93.12
318.983	93.12
319.212	90.12
319.441	87.12
319.67	87.12
319.9	96.12
320.129	79.12
320.358	82.12
320.587	103.12
320.816	85.12
321.046	77.12
321.275	86.12
321.504	77.12
321.733	86.12
321.962	92.12
322.191	91.12
322.42	90.12
322.649	89.12
322.878	95.12
323.108	88.12
323.337	95.12
323.566	84.12
323.795	84.12
324.024	83.12
324.253	91.12
324.482	95.12
324.71	92.12
324.939	85.12
325.168	86.12
325.397	83.12
325.626	75.12
325.855	76.12
326.084	78.12
326.313	81.12
326.542	90.12
326.77	97.12
326.999	110.12
327.228	85.12
327.457	85.12
327.686	99.12
327.914	89.12
328.143	95.12
328.372	91.12
328.6	83.12
328.829	88.12
329.058	91.12
329.287	89.12
329.515	87.12
329.744	91.12
329.972	84.12
330.201	92.12
330.43	84.12
330.658	100.12
330.887	112.12
331.115	91.12
331.344	103.12
331.572	77.12
331.801	102.12
332.03	83.12
332.258	71.12
332.486	100.12
332.715	81.12
332.943	73.12
333.172	83.12
333.4	90.12
333.629	94.12
333.857	91.12
334.085	85.12
334.314	82.12
334.542	92.12
334.771	101.12
334.999	84.12
335.227	96.12
335.455	74.12
335.684	89.12
335.912	89.12
336.14	78.12
336.369	91.12
336.597	92.12
336.825	92.12
337.053	93.12
337.281	102.12
337.51	75.12
337.738	89.12
337.966	87.12
338.194	94.12
338.422	84.12
338.65	97.12
338.878	93.12
339.106	83.12
339.334	78.12
339.562	95.12
339.79	100.12
340.018	83.12
340.246	95.12
340.474	98.12
340.702	95.12
340.93	91.12
341.158	87.12
341.386	98.12
341.614	91.12
341.842	84.12
342.07	84.12
342.298	73.12
342.526	89.12
342.754	88.12
342.981	92.12
343.209	90.12
343.437	106.12
343.665	82.12
343.893	82.12
344.12	90.12
344.348	82.12
344.576	95.12
344.804	87.12
345.031	85.12
345.259	96.12
345.487	93.12
345.714	76.12
345.942	91.12
346.17	87.12
346.397	95.12
346.625	100.12
346.853	81.12
347.08	89.12
347.308	89.12
347.535	90.12
347.763	89.12
347.99	93.12
348.218	77.12
348.445	77.12
348.673	72.12
348.9	101.12
349.128	96.12
349.355	83.12
349.583	106.12
349.81	86.12
350.037	84.12
350.265	85.12
350.492	75.12
350.72	79.12
350.947	95.12
351.174	81.12
351.402	89.12
351.629	92.12
351.856	89.12
352.083	87.12
352.311	92.12
352.538	95.12
352.765	92.12
352.992	99.12
353.22	85.12
353.447	89.12
353.674	89.12
353.901	103.12
354.128	93.12
354.355	65.12
354.583	87.12
354.81	85.12
355.037	98.12
355.264	88.12
355.491	93.12
355.718	77.12
355.945	83.12
356.172	89.12
356.399	86.12
356.626	87.12
356.853	87.12
357.08	91.12
357.307	91.12
357.534	106.12
357.761	115.12
357.988	75.12
358.215	90.12
358.441	90.12
358.668	90.12
358.895	95.12
359.122	102.12
359.349	93.12
359.576	97.12
359.802	77.12
360.029	78.12
360.256	100.12
360.483	72.12
360.709	75.12
360.936	98.12
361.163	87.12
361.39	100.12
361.616	85.12
361.843	95.12
362.07	89.12
362.296	90.12
362.523	83.12
362.749	77.12
362.976	83.12
363.203	92.12
363.429	79.12
363.656	87.12
363.882	97.12
364.109	109.12
364.335	87.12
364.562	89.12
364.788	93.12
365.015	91.12
365.241	87.12
365.468	98.12
365.694	82.12
365.92	75.12
366.147	97.12
366.373	85.12
366.599	85.12
366.826	96.12
367.052	87.12
367.278	89.12
367.505	96.12
367.731	97.12
367.957	91.12
368.184	94.12
368.41	82.12
368.636	87.12
368.862	89.12
369.089	82.12
369.315	79.12
369.541	82.12
369.767	113.12
369.993	83.12
370.219	76.12
370.445	85.12
370.672	93.12
370.898	67.12
371.124	74.12
371.35	91.12
371.576	86.12
371.802	92.12
372.028	84.12
372.254	85.12
372.48	82.12
372.706	69.12
372.932	98.12
373.158	92.12
373.384	81.12
373.61	78.12
373.835	93.12
374.061	90.12
374.287	75.12
374.513	90.12
374.739	87.12
374.965	58.12
375.191	88.12
375.416	100.12
375.642	93.12
375.868	90.12
376.094	74.12
376.319	87.12
376.545	79.12
376.771	94.12
376.997	83.12
377.222	80.12
377.448	87.12
377.674	83.12
377.899	99.12
378.125	92.12
378.35	86.12
378.576	94.12
378.802	80.12
379.027	81.12
379.253	93.12
379.478	77.12
379.704	83.12
379.929	85.12
380.155	92.12
380.38	93.12
380.606	103.12
380.831	99.12
381.057	87.12
381.282	89.12
381.507	84.12
381.733	92.12
381.958	83.12
382.184	95.12
382.409	90.12
382.634	96.12
382.86	105.12
383.085	80.12
383.31	85.12
383.535	82.12
383.761	72.12
383.986	73.12
384.211	93.12
384.436	88.12
384.662	89.12
384.887	76.12
385.112	95.12
385.337	97.12
385.562	78.12
385.787	74.12
386.013	104.12
386.238	87.12
386.463	90.12
386.688	95.12
386.913	85.12
387.138	88.12
387.363	80.12
387.588	85.12
387.813	82.12
388.038	89.12
388.263	99.12
388.488	87.12
388.713	85.12
388.938	98.12
389.163	87.12
389.387	88.12
389.612	80.12
389.837	85.12
390.062	87.12
390.287	97.12
390.512	89.12
390.736	88.12
390.961	87.12
391.186	98.12
391.411	105.12
391.636	93.12
391.86	93.12
392.085	97.12
392.31	71.12
392.534	76.12
392.759	94.12
392.984	93.12
393.208	106.12
393.433	95.12
393.658	97.12
393.882	91.12
394.107	97.12
394.331	89.12
394.556	93.12
394.78	91.12
395.005	85.12
395.229	93.12
395.454	100.12
395.678	83.12
395.903	76.12
396.127	96.12
396.352	84.12
396.576	89.12
396.801	99.12
397.025	91.12
397.249	85.12
397.474	93.12
397.698	85.12
397.922	87.12
398.147	83.12
398.371	90.12
398.595	84.12
398.82	92.12
399.044	85.12
399.268	72.12
399.492	82.12
399.717	96.12
399.941	89.12
400.165	85.12
400.389	87.12
400.613	75.12
400.837	80.12
401.062	75.12
401.286	95.12
401.51	88.12
401.734	97.12
401.958	87.12
402.182	76.12
402.406	87.12
402.63	79.12
402.854	90.12
403.078	75.12
403.302	91.12
403.526	69.12
403.75	90.12
403.974	88.12
404.198	74.12
404.422	96.12
404.645	77.12
404.869	91.12
405.093	76.12
405.317	86.12
405.541	91.12
405.765	75.12
405.988	82.12
406.212	89.12
406.436	88.12
406.66	87.12
406.883	92.12
407.107	79.12
407.331	75.12
407.555	79.12
407.778	85.12
408.002	82.12
408.226	73.12
408.449	91.12
408.673	94.12
408.896	84.12
409.12	84.12
409.344	88.12
409.567	75.12
409.791	78.12
410.014	85.12
410.238	85.12
410.461	74.12
410.685	83.12
410.908	86.12
411.132	90.12
411.355	83.12
411.578	92.12
411.802	59.12
412.025	74.12
412.249	87.12
412.472	85.12
412.695	82.12
412.919	90.12
413.142	77.12
413.365	80.12
413.589	92.12
413.812	77.12
414.035	77.12
414.258	85.12
414.482	78.12
414.705	85.12
414.928	94.12
415.151	88.12
415.374	90.12
415.597	89.12
415.821	93.12
416.044	78.12
416.267	106.12
416.49	85.12
416.713	87.12
416.936	78.12
417.159	72.12
417.382	81.12
417.605	78.12
417.828	82.12
418.051	84.12
418.274	83.12
418.497	92.12
418.72	90.12
418.943	103.12
419.166	82.12
419.389	87.12
419.611	71.12
419.834	73.12
420.057	76.12
420.28	95.12
420.503	86.12
420.726	85.12
420.948	97.12
421.171	84.12
421.394	89.12
421.617	92.12
421.839	95.12
422.062	91.12
422.285	78.12
422.507	83.12
422.73	93.12
422.953	90.12
423.175	69.12
423.398	101.12
423.621	88.12
423.843	86.12
424.066	87.12
424.288	77.12
424.511	86.12
424.733	97.12
424.956	96.12
425.178	89.12
425.401	90.12
425.623	79.12
425.846	78.12
426.068	93.12
426.291	93.12
426.513	87.12
426.735	74.12
426.958	77.12
427.18	76.12
427.402	91.12
427.625	103.12
427.847	83.12
428.069	75.12
428.292	86.12
428.514	93.12
428.736	101.12
428.958	85.12
429.181	91.12
429.403	81.12
429.625	83.12
429.847	80.12
430.069	93.12
430.292	95.12
430.514	75.12
430.736	96.12
430.958	73.12
431.18	85.12
431.402	86.12
431.624	83.12
431.846	83.12
432.068	88.12
432.29	81.12
432.512	88.12
432.734	104.12
432.956	86.12
433.178	72.12
433.4	80.12
433.622	78.12
433.844	79.12
434.066	93.12
434.287	92.12
434.509	85.12
434.731	76.12
434.953	88.12
435.175	89.12
435.397	95.12
435.618	96.12
435.84	80.12
436.062	85.12
436.284	93.12
436.505	80.12
436.727	80.12
436.949	90.12
437.17	87.12
437.392	84.12
437.614	80.12
437.835	101.12
438.057	79.12
438.278	83.12
438.5	81.12
438.721	85.12
438.943	95.12
439.165	87.12
439.386	96.12
439.608	89.12
439.829	71.12
440.05	83.12
440.272	83.12
440.493	80.12
440.715	97.12
440.936	78.12
441.158	81.12
441.379	83.12
441.6	77.12
441.822	70.12
442.043	84.12
442.264	90.12
442.486	80.12
442.707	101.12
442.928	82.12
443.149	87.12
443.371	87.12
443.592	83.12
443.813	87.12
444.034	90.12
444.255	84.12
444.476	69.12
444.698	76.12
444.919	85.12
445.14	165.12
445.361	114.12
445.582	89.12
445.803	89.12
446.024	75.12
446.245	84.12
446.466	97.12
446.687	88.12
446.908	103.12
447.129	81.12
447.35	92.12
447.571	89.12
447.792	99.12
448.013	89.12
448.234	76.12
448.455	75.12
448.675	84.12
448.896	86.12
449.117	84.12
449.338	76.12
449.559	69.12
449.779	84.12
450	87.12
450.221	81.12
450.442	88.12
450.662	72.12
450.883	84.12
451.104	81.12
451.324	81.12
451.545	78.12
451.766	86.12
451.986	62.12
452.207	83.12
452.428	91.12
452.648	83.12
452.869	100.12
453.089	88.12
453.31	87.12
453.53	94.12
453.751	89.12
453.971	85.12
454.192	74.12
454.412	75.12
454.633	90.12
454.853	93.12
455.073	79.12
455.294	79.12
455.514	88.12
455.734	76.12
455.955	81.12
456.175	73.12
456.395	87.12
456.616	77.12
456.836	86.12
457.056	81.12
457.276	85.12
457.497	87.12
457.717	88.12
457.937	80.12
458.157	89.12
458.377	80.12
458.598	93.12
458.818	89.12
459.038	79.12
459.258	83.12
459.478	86.12
459.698	95.12
459.918	81.12
460.138	75.12
460.358	78.12
460.578	93.12
460.798	67.12
461.018	78.12
461.238	81.12
461.458	88.12
461.678	87.12
461.898	100.12
462.118	92.12
462.338	79.12
462.558	81.12
462.777	71.12
462.997	95.12
463.217	81.12
463.437	97.12
463.657	85.12
463.876	98.12
464.096	63.12
464.316	94.12
464.536	95.12
464.755	89.12
464.975	86.12
465.195	84.12
465.414	80.12
465.634	84.12
465.854	92.12
466.073	96.12
466.293	95.12
466.512	91.12
466.732	77.12
466.951	73.12
467.171	85.12
467.391	76.12
467.61	97.12
467.829	92.12
468.049	71.12
468.268	93.12
468.488	85.12
468.707	85.12
468.927	83.12
469.146	89.12
469.365	76.12
469.585	99.12
469.804	84.12
470.023	90.12
470.243	85.12
470.462	101.12
470.681	89.12
470.901	107.12
471.12	74.12
471.339	92.12
471.558	76.12
471.777	77.12
471.997	82.12
472.216	95.12
472.435	75.12
472.654	80.12
472.873	97.12
473.092	88.12
473.311	83.12
473.53	83.12
473.749	84.12
473.968	92.12
474.187	104.12
474.406	74.12
474.625	86.12
474.844	96.12
475.063	68.12
475.282	98.12
475.501	88.12
475.72	84.12
475.939	83.12
476.158	66.12
476.377	70.12
476.596	85.12
476.814	82.12
477.033	78.12
477.252	75.12
477.471	88.12
477.69	86.12
477.908	79.12
478.127	95.12
478.346	75.12
478.564	98.12
478.783	98.12
479.002	87.12
479.22	90.12
479.439	90.12
479.658	92.12
479.876	87.12
480.095	78.12
480.313	76.12
480.532	85.12
480.751	87.12
480.969	83.12
481.188	85.12
481.406	76.12
481.624	95.12
481.843	96.12
482.061	96.12
482.28	87.12
482.498	89.12
482.717	90.12
482.935	91.12
483.153	88.12
483.372	95.12
483.59	92.12
483.808	66.12
484.027	80.12
484.245	101.12
484.463	71.12
484.681	84.12
484.9	86.12
485.118	74.12
485.336	87.12
485.554	83.12
485.772	88.12
485.99	89.12
486.209	85.12
486.427	81.12
486.645	87.12
486.863	99.12
487.081	89.12
487.299	72.12
487.517	92.12
487.735	92.12
487.953	96.12
488.171	86.12
488.389	88.12
488.607	86.12
488.825	67.12
489.043	71.12
489.261	94.12
489.479	70.12
489.696	85.12
489.914	91.12
490.132	75.12
490.35	98.12
490.568	92.12
490.786	98.12
491.003	83.12
491.221	96.12
491.439	90.12
491.657	73.12
491.874	88.12
492.092	82.12
492.31	95.12
492.527	86.12
492.745	96.12
492.963	76.12
493.18	85.12
493.398	83.12
493.615	84.12
493.833	91.12
494.05	74.12
494.268	82.12
494.485	82.12
494.703	95.12
494.92	91.12
495.138	84.12
495.355	81.12
495.573	96.12
495.79	81.12
496.008	96.12
496.225	92.12
496.442	89.12
496.66	95.12
496.877	75.12
497.094	92.12
497.312	85.12
497.529	93.12
497.746	88.12
497.963	88.12
498.181	84.12
498.398	100.12
498.615	86.12
498.832	85.12
499.049	81.12
499.267	85.12
499.484	76.12
499.701	91.12
499.918	93.12
500.135	94.12
500.352	87.12
500.569	91.12
500.786	88.12
501.003	105.12
501.22	83.12
501.437	90.12
501.654	84.12
501.871	67.12
502.088	85.12
502.305	89.12
502.522	100.12
502.739	81.12
502.956	98.12
503.172	83.12
503.389	91.12
503.606	78.12
503.823	83.12
504.04	90.12
504.256	92.12
504.473	88.12
504.69	67.12
504.907	91.12
505.123	103.12
505.34	86.12
505.557	87.12
505.773	73.12
505.99	103.12
506.207	85.12
506.423	87.12
506.64	105.12
506.856	97.12
507.073	73.12
507.289	82.12
507.506	79.12
507.722	88.12
507.939	86.12
508.155	80.12
508.372	74.12
508.588	98.12
508.805	93.12
509.021	74.12
509.238	83.12
509.454	82.12
509.67	70.12
509.887	73.12
510.103	87.12
510.319	76.12
510.536	96.12
510.752	95.12
510.968	78.12
511.184	82.12
511.401	83.12
511.617	93.12
511.833	82.12
512.049	80.12
512.265	87.12
512.481	86.12
512.698	81.12
512.914	92.12
513.13	88.12
513.346	72.12
513.562	80.12
513.778	85.12
513.994	103.12
514.21	89.12
514.426	85.12
514.642	75.12
514.858	83.12
515.074	92.12
515.29	99.12
515.506	97.12
515.721	81.12
515.937	92.12
516.153	81.12
516.369	86.12
516.585	107.12
516.801	81.12
517.016	89.12
517.232	86.12
517.448	96.12
517.664	94.12
517.879	100.12
518.095	90.12
518.311	93.12
518.527	92.12
518.742	90.12
518.958	84.12
519.173	89.12
519.389	77.12
