Data from 1600_1_HRD10591_00020.txt Node
Date: Mon Jan 19 13:47:51 EST 2026
User: Yrep
Spectrometer: HR+D1059
Trigger mode: 1
Integration Time (sec): 1.000000E-1
Scans to average: 1
Electric dark correction enabled: true
Nonlinearity correction enabled: false
Boxcar width: 0
XAxis mode: Wavelengths
Number of Pixels in Spectrum: 2048
>>>>>Begin Spectral Data<<<<<
223.165	-16.25
223.4	-16.25
223.635	-16.25
223.869	-36.25
224.104	-7.25
224.338	-7.25
224.573	-19.25
224.808	3.75
225.042	-2.25
225.277	-14.25
225.511	-11.25
225.746	1.75
225.98	-2.25
226.215	16.75
226.449	10.75
226.683	24.75
226.918	34.75
227.152	23.75
227.387	35.75
227.621	34.75
227.856	47.75
228.09	54.75
228.324	38.75
228.559	50.75
228.793	65.75
229.027	67.75
229.262	66.75
229.496	66.75
229.73	62.75
229.964	66.75
230.199	70.75
230.433	72.75
230.667	79.75
230.901	89.75
231.136	96.75
231.37	65.75
231.604	89.75
231.838	75.75
232.072	84.75
232.306	90.75
232.541	79.75
232.775	76.75
233.009	79.75
233.243	76.75
233.477	59.75
233.711	81.75
233.945	73.75
234.179	67.75
234.413	69.75
234.647	72.75
234.881	68.75
235.115	82.75
235.349	90.75
235.583	80.75
235.817	69.75
236.051	86.75
236.285	81.75
236.519	60.75
236.753	67.75
236.987	80.75
237.221	73.75
237.455	84.75
237.689	85.75
237.922	67.75
238.156	75.75
238.39	69.75
238.624	73.75
238.858	77.75
239.091	78.75
239.325	73.75
239.559	66.75
239.793	66.75
240.027	78.75
240.26	60.75
240.494	76.75
240.728	76.75
240.961	78.75
241.195	78.75
241.429	75.75
241.662	100.75
241.896	80.75
242.13	78.75
242.363	76.75
242.597	67.75
242.83	72.75
243.064	83.75
243.298	82.75
243.531	82.75
243.765	72.75
243.998	95.75
244.232	78.75
244.465	71.75
244.699	78.75
244.932	93.75
245.166	73.75
245.399	62.75
245.633	74.75
245.866	87.75
246.099	86.75
246.333	86.75
246.566	72.75
246.8	84.75
247.033	64.75
247.266	83.75
247.5	63.75
247.733	86.75
247.966	67.75
248.2	86.75
248.433	82.75
248.666	81.75
248.899	76.75
249.133	75.75
249.366	74.75
249.599	77.75
249.832	91.75
250.066	71.75
250.299	69.75
250.532	84.75
250.765	84.75
250.998	81.75
251.231	65.75
251.465	90.75
251.698	78.75
251.931	72.75
252.164	83.75
252.397	72.75
252.63	86.75
252.863	86.75
253.096	89.75
253.329	78.75
253.562	86.75
253.795	79.75
254.028	79.75
254.261	74.75
254.494	80.75
254.727	83.75
254.96	84.75
255.193	86.75
255.426	73.75
255.659	84.75
255.892	102.75
256.124	84.75
256.357	92.75
256.59	69.75
256.823	96.75
257.056	93.75
257.289	82.75
257.521	67.75
257.754	78.75
257.987	65.75
258.22	70.75
258.452	68.75
258.685	83.75
258.918	85.75
259.151	84.75
259.383	87.75
259.616	67.75
259.849	74.75
260.081	84.75
260.314	91.75
260.547	75.75
260.779	85.75
261.012	86.75
261.244	79.75
261.477	76.75
261.71	81.75
261.942	81.75
262.175	86.75
262.407	67.75
262.64	87.75
262.872	79.75
263.105	96.75
263.337	99.75
263.57	73.75
263.802	77.75
264.035	84.75
264.267	69.75
264.499	80.75
264.732	87.75
264.964	70.75
265.197	69.75
265.429	88.75
265.661	94.75
265.894	95.75
266.126	90.75
266.358	78.75
266.591	69.75
266.823	86.75
267.055	68.75
267.287	78.75
267.52	86.75
267.752	76.75
267.984	85.75
268.216	86.75
268.448	82.75
268.681	81.75
268.913	80.75
269.145	88.75
269.377	86.75
269.609	84.75
269.841	88.75
270.073	84.75
270.306	86.75
270.538	93.75
270.77	97.75
271.002	80.75
271.234	86.75
271.466	83.75
271.698	91.75
271.93	64.75
272.162	67.75
272.394	90.75
272.626	80.75
272.858	72.75
273.09	80.75
273.322	83.75
273.553	89.75
273.785	72.75
274.017	93.75
274.249	86.75
274.481	92.75
274.713	78.75
274.945	86.75
275.176	90.75
275.408	70.75
275.64	73.75
275.872	93.75
276.104	96.75
276.335	91.75
276.567	86.75
276.799	94.75
277.031	84.75
277.262	89.75
277.494	82.75
277.726	87.75
277.957	82.75
278.189	67.75
278.421	77.75
278.652	70.75
278.884	70.75
279.115	84.75
279.347	78.75
279.579	86.75
279.81	88.75
280.042	88.75
280.273	83.75
280.505	83.75
280.736	90.75
280.968	94.75
281.199	72.75
281.431	79.75
281.662	77.75
281.894	82.75
282.125	88.75
282.356	86.75
282.588	87.75
282.819	75.75
283.051	72.75
283.282	78.75
283.513	82.75
283.745	73.75
283.976	94.75
284.207	77.75
284.439	88.75
284.67	90.75
284.901	78.75
285.132	66.75
285.364	85.75
285.595	102.75
285.826	83.75
286.057	80.75
286.288	75.75
286.52	82.75
286.751	85.75
286.982	85.75
287.213	90.75
287.444	82.75
287.675	84.75
287.906	88.75
288.138	89.75
288.369	107.75
288.6	67.75
288.831	79.75
289.062	84.75
289.293	67.75
289.524	83.75
289.755	84.75
289.986	80.75
290.217	85.75
290.448	79.75
290.679	80.75
290.91	84.75
291.141	82.75
291.371	84.75
291.602	79.75
291.833	94.75
292.064	78.75
292.295	74.75
292.526	75.75
292.757	73.75
292.987	81.75
293.218	86.75
293.449	82.75
293.68	75.75
293.91	91.75
294.141	108.75
294.372	85.75
294.603	87.75
294.833	82.75
295.064	74.75
295.295	70.75
295.525	78.75
295.756	84.75
295.987	85.75
296.217	80.75
296.448	71.75
296.679	82.75
296.909	80.75
297.14	92.75
297.37	67.75
297.601	76.75
297.831	98.75
298.062	76.75
298.292	86.75
298.523	73.75
298.753	91.75
298.984	89.75
299.214	75.75
299.445	82.75
299.675	97.75
299.905	84.75
300.136	86.75
300.366	81.75
300.597	91.75
300.827	92.75
301.057	87.75
301.288	96.75
301.518	84.75
301.748	86.75
301.979	103.75
302.209	71.75
302.439	80.75
302.669	88.75
302.9	89.75
303.13	89.75
303.36	89.75
303.59	88.75
303.82	71.75
304.051	90.75
304.281	80.75
304.511	94.75
304.741	71.75
304.971	74.75
305.201	81.75
305.431	84.75
305.661	91.75
305.891	85.75
306.121	99.75
306.352	77.75
306.582	76.75
306.812	80.75
307.042	91.75
307.272	88.75
307.502	78.75
307.731	94.75
307.961	84.75
308.191	81.75
308.421	81.75
308.651	94.75
308.881	80.75
309.111	78.75
309.341	94.75
309.571	85.75
309.8	76.75
310.03	74.75
310.26	80.75
310.49	90.75
310.72	85.75
310.949	90.75
311.179	84.75
311.409	86.75
311.639	86.75
311.868	93.75
312.098	76.75
312.328	89.75
312.557	73.75
312.787	83.75
313.017	91.75
313.246	93.75
313.476	84.75
313.706	92.75
313.935	71.75
314.165	86.75
314.394	84.75
314.624	77.75
314.853	81.75
315.083	75.75
315.312	74.75
315.542	96.75
315.771	97.75
316.001	71.75
316.23	81.75
316.46	80.75
316.689	87.75
316.919	92.75
317.148	90.75
317.377	87.75
317.607	80.75
317.836	90.75
318.065	97.75
318.295	64.75
318.524	78.75
318.753	76.75
318.983	81.75
319.212	84.75
319.441	78.75
319.67	78.75
319.9	89.75
320.129	83.75
320.358	94.75
320.587	90.75
320.816	81.75
321.046	85.75
321.275	83.75
321.504	82.75
321.733	83.75
321.962	95.75
322.191	81.75
322.42	86.75
322.649	89.75
322.878	85.75
323.108	78.75
323.337	84.75
323.566	88.75
323.795	83.75
324.024	77.75
324.253	77.75
324.482	85.75
324.71	83.75
324.939	92.75
325.168	86.75
325.397	81.75
325.626	74.75
325.855	76.75
326.084	73.75
326.313	78.75
326.542	79.75
326.77	71.75
326.999	62.75
327.228	86.75
327.457	83.75
327.686	85.75
327.914	86.75
328.143	79.75
328.372	85.75
328.6	86.75
328.829	86.75
329.058	69.75
329.287	86.75
329.515	102.75
329.744	78.75
329.972	91.75
330.201	96.75
330.43	93.75
330.658	89.75
330.887	80.75
331.115	84.75
331.344	86.75
331.572	79.75
331.801	81.75
332.03	95.75
332.258	73.75
332.486	89.75
332.715	88.75
332.943	77.75
333.172	94.75
333.4	79.75
333.629	82.75
333.857	88.75
334.085	67.75
334.314	89.75
334.542	85.75
334.771	88.75
334.999	83.75
335.227	95.75
335.455	84.75
335.684	78.75
335.912	91.75
336.14	91.75
336.369	91.75
336.597	94.75
336.825	93.75
337.053	78.75
337.281	90.75
337.51	84.75
337.738	86.75
337.966	82.75
338.194	90.75
338.422	89.75
338.65	90.75
338.878	80.75
339.106	78.75
339.334	86.75
339.562	74.75
339.79	78.75
340.018	84.75
340.246	81.75
340.474	82.75
340.702	80.75
340.93	86.75
341.158	83.75
341.386	81.75
341.614	86.75
341.842	89.75
342.07	76.75
342.298	83.75
342.526	93.75
342.754	86.75
342.981	85.75
343.209	95.75
343.437	95.75
343.665	88.75
343.893	73.75
344.12	73.75
344.348	83.75
344.576	88.75
344.804	90.75
345.031	75.75
345.259	97.75
345.487	84.75
345.714	76.75
345.942	80.75
346.17	84.75
346.397	80.75
346.625	95.75
346.853	88.75
347.08	86.75
347.308	79.75
347.535	78.75
347.763	75.75
347.99	77.75
348.218	90.75
348.445	80.75
348.673	88.75
348.9	84.75
349.128	87.75
349.355	78.75
349.583	74.75
349.81	82.75
350.037	91.75
350.265	70.75
350.492	71.75
350.72	79.75
350.947	72.75
351.174	98.75
351.402	86.75
351.629	85.75
351.856	79.75
352.083	97.75
352.311	92.75
352.538	79.75
352.765	92.75
352.992	90.75
353.22	84.75
353.447	90.75
353.674	95.75
353.901	86.75
354.128	78.75
354.355	84.75
354.583	83.75
354.81	82.75
355.037	83.75
355.264	95.75
355.491	70.75
355.718	86.75
355.945	97.75
356.172	76.75
356.399	86.75
356.626	83.75
356.853	67.75
357.08	94.75
357.307	81.75
357.534	75.75
357.761	78.75
357.988	84.75
358.215	75.75
358.441	75.75
358.668	77.75
358.895	95.75
359.122	95.75
359.349	82.75
359.576	80.75
359.802	70.75
360.029	69.75
360.256	72.75
360.483	96.75
360.709	86.75
360.936	84.75
361.163	82.75
361.39	75.75
361.616	84.75
361.843	85.75
362.07	85.75
362.296	63.75
362.523	72.75
362.749	87.75
362.976	94.75
363.203	85.75
363.429	94.75
363.656	82.75
363.882	95.75
364.109	75.75
364.335	85.75
364.562	86.75
364.788	84.75
365.015	82.75
365.241	89.75
365.468	79.75
365.694	81.75
365.92	76.75
366.147	78.75
366.373	82.75
366.599	73.75
366.826	75.75
367.052	79.75
367.278	79.75
367.505	88.75
367.731	98.75
367.957	80.75
368.184	95.75
368.41	88.75
368.636	79.75
368.862	83.75
369.089	82.75
369.315	82.75
369.541	86.75
369.767	92.75
369.993	85.75
370.219	88.75
370.445	67.75
370.672	72.75
370.898	81.75
371.124	82.75
371.35	84.75
371.576	82.75
371.802	75.75
372.028	85.75
372.254	76.75
372.48	70.75
372.706	77.75
372.932	96.75
373.158	76.75
373.384	91.75
373.61	71.75
373.835	83.75
374.061	76.75
374.287	74.75
374.513	83.75
374.739	53.75
374.965	91.75
375.191	92.75
375.416	70.75
375.642	82.75
375.868	87.75
376.094	73.75
376.319	90.75
376.545	64.75
376.771	78.75
376.997	95.75
377.222	74.75
377.448	80.75
377.674	81.75
377.899	86.75
378.125	77.75
378.35	86.75
378.576	82.75
378.802	83.75
379.027	77.75
379.253	82.75
379.478	90.75
379.704	83.75
379.929	106.75
380.155	82.75
380.38	104.75
380.606	79.75
380.831	61.75
381.057	92.75
381.282	80.75
381.507	82.75
381.733	86.75
381.958	82.75
382.184	81.75
382.409	91.75
382.634	76.75
382.86	85.75
383.085	87.75
383.31	76.75
383.535	85.75
383.761	82.75
383.986	73.75
384.211	75.75
384.436	83.75
384.662	91.75
384.887	87.75
385.112	79.75
385.337	81.75
385.562	76.75
385.787	80.75
386.013	86.75
386.238	92.75
386.463	86.75
386.688	78.75
386.913	85.75
387.138	94.75
387.363	80.75
387.588	91.75
387.813	80.75
388.038	90.75
388.263	87.75
388.488	82.75
388.713	86.75
388.938	92.75
389.163	76.75
389.387	78.75
389.612	82.75
389.837	81.75
390.062	95.75
390.287	89.75
390.512	88.75
390.736	90.75
390.961	78.75
391.186	92.75
391.411	82.75
391.636	79.75
391.86	85.75
392.085	70.75
392.31	82.75
392.534	86.75
392.759	76.75
392.984	94.75
393.208	93.75
393.433	100.75
393.658	92.75
393.882	90.75
394.107	88.75
394.331	96.75
394.556	88.75
394.78	64.75
395.005	91.75
395.229	81.75
395.454	82.75
395.678	74.75
395.903	90.75
396.127	86.75
396.352	107.75
396.576	86.75
396.801	85.75
397.025	100.75
397.249	83.75
397.474	94.75
397.698	69.75
397.922	106.75
398.147	70.75
398.371	86.75
398.595	83.75
398.82	74.75
399.044	87.75
399.268	72.75
399.492	67.75
399.717	84.75
399.941	90.75
400.165	70.75
400.389	69.75
400.613	73.75
400.837	83.75
401.062	70.75
401.286	55.75
401.51	67.75
401.734	76.75
401.958	77.75
402.182	85.75
402.406	72.75
402.63	79.75
402.854	90.75
403.078	74.75
403.302	79.75
403.526	99.75
403.75	88.75
403.974	84.75
404.198	79.75
404.422	98.75
404.645	86.75
404.869	83.75
405.093	90.75
405.317	75.75
405.541	83.75
405.765	85.75
405.988	82.75
406.212	80.75
406.436	64.75
406.66	75.75
406.883	72.75
407.107	78.75
407.331	82.75
407.555	83.75
407.778	73.75
408.002	70.75
408.226	83.75
408.449	81.75
408.673	78.75
408.896	82.75
409.12	90.75
409.344	82.75
409.567	70.75
409.791	90.75
410.014	88.75
410.238	90.75
410.461	62.75
410.685	83.75
410.908	84.75
411.132	80.75
411.355	81.75
411.578	76.75
411.802	79.75
412.025	77.75
412.249	80.75
412.472	80.75
412.695	87.75
412.919	74.75
413.142	75.75
413.365	72.75
413.589	73.75
413.812	74.75
414.035	81.75
414.258	77.75
414.482	66.75
414.705	81.75
414.928	86.75
415.151	74.75
415.374	73.75
415.597	94.75
415.821	86.75
416.044	96.75
416.267	71.75
416.49	73.75
416.713	77.75
416.936	78.75
417.159	76.75
417.382	76.75
417.605	83.75
417.828	83.75
418.051	83.75
418.274	70.75
418.497	83.75
418.72	78.75
418.943	80.75
419.166	87.75
419.389	80.75
419.611	80.75
419.834	84.75
420.057	82.75
420.28	86.75
420.503	82.75
420.726	73.75
420.948	90.75
421.171	82.75
421.394	82.75
421.617	78.75
421.839	93.75
422.062	85.75
422.285	81.75
422.507	100.75
422.73	117.75
422.953	95.75
423.175	92.75
423.398	70.75
423.621	62.75
423.843	86.75
424.066	87.75
424.288	83.75
424.511	104.75
424.733	87.75
424.956	79.75
425.178	77.75
425.401	84.75
425.623	80.75
425.846	81.75
426.068	79.75
426.291	88.75
426.513	86.75
426.735	71.75
426.958	86.75
427.18	69.75
427.402	90.75
427.625	93.75
427.847	100.75
428.069	86.75
428.292	75.75
428.514	89.75
428.736	83.75
428.958	86.75
429.181	77.75
429.403	76.75
429.625	89.75
429.847	72.75
430.069	96.75
430.292	81.75
430.514	75.75
430.736	84.75
430.958	94.75
431.18	74.75
431.402	90.75
431.624	86.75
431.846	85.75
432.068	86.75
432.29	92.75
432.512	86.75
432.734	94.75
432.956	96.75
433.178	88.75
433.4	78.75
433.622	89.75
433.844	73.75
434.066	86.75
434.287	76.75
434.509	85.75
434.731	76.75
434.953	81.75
435.175	82.75
435.397	93.75
435.618	82.75
435.84	81.75
436.062	88.75
436.284	85.75
436.505	92.75
436.727	78.75
436.949	91.75
437.17	82.75
437.392	78.75
437.614	78.75
437.835	70.75
438.057	106.75
438.278	80.75
438.5	76.75
438.721	89.75
438.943	89.75
439.165	76.75
439.386	83.75
439.608	78.75
439.829	78.75
440.05	83.75
440.272	73.75
440.493	87.75
440.715	92.75
440.936	84.75
441.158	72.75
441.379	89.75
441.6	81.75
441.822	80.75
442.043	92.75
442.264	80.75
442.486	96.75
442.707	76.75
442.928	87.75
443.149	82.75
443.371	88.75
443.592	93.75
443.813	93.75
444.034	72.75
444.255	77.75
444.476	74.75
444.698	91.75
444.919	78.75
445.14	147.75
445.361	119.75
445.582	102.75
445.803	79.75
446.024	82.75
446.245	82.75
446.466	86.75
446.687	74.75
446.908	84.75
447.129	66.75
447.35	78.75
447.571	73.75
447.792	77.75
448.013	73.75
448.234	79.75
448.455	84.75
448.675	80.75
448.896	81.75
449.117	85.75
449.338	80.75
449.559	70.75
449.779	78.75
450	80.75
450.221	79.75
450.442	81.75
450.662	84.75
450.883	81.75
451.104	68.75
451.324	98.75
451.545	79.75
451.766	80.75
451.986	77.75
452.207	91.75
452.428	75.75
452.648	86.75
452.869	90.75
453.089	78.75
453.31	74.75
453.53	75.75
453.751	73.75
453.971	88.75
454.192	84.75
454.412	72.75
454.633	80.75
454.853	91.75
455.073	74.75
455.294	72.75
455.514	82.75
455.734	88.75
455.955	83.75
456.175	96.75
456.395	84.75
456.616	82.75
456.836	96.75
457.056	84.75
457.276	82.75
457.497	82.75
457.717	78.75
457.937	83.75
458.157	78.75
458.377	80.75
458.598	80.75
458.818	76.75
459.038	90.75
459.258	74.75
459.478	86.75
459.698	83.75
459.918	75.75
460.138	68.75
460.358	86.75
460.578	84.75
460.798	91.75
461.018	80.75
461.238	90.75
461.458	96.75
461.678	86.75
461.898	78.75
462.118	90.75
462.338	76.75
462.558	67.75
462.777	88.75
462.997	87.75
463.217	74.75
463.437	94.75
463.657	71.75
463.876	85.75
464.096	92.75
464.316	92.75
464.536	76.75
464.755	78.75
464.975	79.75
465.195	98.75
465.414	88.75
465.634	80.75
465.854	81.75
466.073	71.75
466.293	81.75
466.512	76.75
466.732	85.75
466.951	76.75
467.171	84.75
467.391	90.75
467.61	82.75
467.829	88.75
468.049	83.75
468.268	85.75
468.488	84.75
468.707	84.75
468.927	85.75
469.146	80.75
469.365	88.75
469.585	94.75
469.804	84.75
470.023	87.75
470.243	81.75
470.462	82.75
470.681	78.75
470.901	91.75
471.12	76.75
471.339	83.75
471.558	68.75
471.777	68.75
471.997	78.75
472.216	98.75
472.435	92.75
472.654	88.75
472.873	79.75
473.092	89.75
473.311	85.75
473.53	84.75
473.749	73.75
473.968	84.75
474.187	76.75
474.406	72.75
474.625	84.75
474.844	85.75
475.063	73.75
475.282	78.75
475.501	91.75
475.72	78.75
475.939	62.75
476.158	73.75
476.377	78.75
476.596	84.75
476.814	70.75
477.033	79.75
477.252	86.75
477.471	90.75
477.69	96.75
477.908	87.75
478.127	88.75
478.346	87.75
478.564	87.75
478.783	88.75
479.002	88.75
479.22	72.75
479.439	75.75
479.658	83.75
479.876	84.75
480.095	82.75
480.313	84.75
480.532	85.75
480.751	100.75
480.969	80.75
481.188	93.75
481.406	89.75
481.624	87.75
481.843	73.75
482.061	92.75
482.28	89.75
482.498	93.75
482.717	78.75
482.935	88.75
483.153	92.75
483.372	79.75
483.59	88.75
483.808	83.75
484.027	75.75
484.245	69.75
484.463	84.75
484.681	91.75
484.9	78.75
485.118	76.75
485.336	82.75
485.554	74.75
485.772	79.75
485.99	66.75
486.209	78.75
486.427	72.75
486.645	84.75
486.863	69.75
487.081	101.75
487.299	63.75
487.517	76.75
487.735	80.75
487.953	80.75
488.171	84.75
488.389	76.75
488.607	78.75
488.825	85.75
489.043	85.75
489.261	93.75
489.479	96.75
489.696	91.75
489.914	92.75
490.132	79.75
490.35	94.75
490.568	64.75
490.786	71.75
491.003	82.75
491.221	81.75
491.439	87.75
491.657	84.75
491.874	85.75
492.092	80.75
492.31	87.75
492.527	83.75
492.745	84.75
492.963	86.75
493.18	77.75
493.398	90.75
493.615	90.75
493.833	87.75
494.05	86.75
494.268	98.75
494.485	88.75
494.703	87.75
494.92	91.75
495.138	84.75
495.355	79.75
495.573	84.75
495.79	79.75
496.008	88.75
496.225	83.75
496.442	84.75
496.66	84.75
496.877	87.75
497.094	88.75
497.312	84.75
497.529	83.75
497.746	74.75
497.963	85.75
498.181	89.75
498.398	87.75
498.615	83.75
498.832	86.75
499.049	88.75
499.267	84.75
499.484	67.75
499.701	84.75
499.918	90.75
500.135	82.75
500.352	96.75
500.569	83.75
500.786	66.75
501.003	75.75
501.22	74.75
501.437	77.75
501.654	70.75
501.871	80.75
502.088	98.75
502.305	94.75
502.522	82.75
502.739	82.75
502.956	75.75
503.172	88.75
503.389	74.75
503.606	85.75
503.823	94.75
504.04	85.75
504.256	90.75
504.473	87.75
504.69	89.75
504.907	85.75
505.123	75.75
505.34	81.75
505.557	85.75
505.773	103.75
505.99	71.75
506.207	90.75
506.423	68.75
506.64	76.75
506.856	94.75
507.073	89.75
507.289	82.75
507.506	84.75
507.722	79.75
507.939	86.75
508.155	87.75
508.372	84.75
508.588	75.75
508.805	69.75
509.021	93.75
509.238	83.75
509.454	84.75
509.67	88.75
509.887	86.75
510.103	87.75
510.319	86.75
510.536	89.75
510.752	106.75
510.968	76.75
511.184	93.75
511.401	88.75
511.617	73.75
511.833	88.75
512.049	82.75
512.265	74.75
512.481	76.75
512.698	69.75
512.914	70.75
513.13	91.75
513.346	72.75
513.562	93.75
513.778	78.75
513.994	86.75
514.21	76.75
514.426	84.75
514.642	84.75
514.858	83.75
515.074	78.75
515.29	92.75
515.506	90.75
515.721	68.75
515.937	86.75
516.153	83.75
516.369	85.75
516.585	94.75
516.801	89.75
517.016	71.75
517.232	80.75
517.448	79.75
517.664	84.75
517.879	87.75
518.095	91.75
518.311	84.75
518.527	82.75
518.742	91.75
518.958	87.75
519.173	104.75
519.389	83.75
519.605	88.75
519.82	79.75
520.036	88.75
