Data from 1600_1_HRD10591_00034.txt Node
Date: Mon Jan 19 13:47:58 EST 2026
User: Yrep
Spectrometer: HR+D1059
Trigger mode: 1
Integration Time (sec): 1.000000E-1
Scans to average: 1
Electric dark correction enabled: true
Nonlinearity correction enabled: false
Boxcar width: 0
XAxis mode: Wavelengths
Number of Pixels in Spectrum: 2048
>>>>>Begin Spectral Data<<<<<
223.165	-13.38
223.4	-13.38
223.635	-13.38
223.869	-42.38
224.104	-21.38
224.338	-18.38
224.573	1.62
224.808	-6.38
225.042	-11.38
225.277	-8.38
225.511	15.62
225.746	-3.38
225.98	-2.38
226.215	6.62
226.449	19.62
226.683	18.62
226.918	34.62
227.152	30.62
227.387	39.62
227.621	38.62
227.856	54.62
228.09	47.62
228.324	64.62
228.559	56.62
228.793	73.62
229.027	66.62
229.262	63.62
229.496	76.62
229.73	72.62
229.964	76.62
230.199	71.62
230.433	79.62
230.667	79.62
230.901	86.62
231.136	72.62
231.37	85.62
231.604	81.62
231.838	85.62
232.072	79.62
232.306	89.62
232.541	71.62
232.775	85.62
233.009	87.62
233.243	68.62
233.477	98.62
233.711	87.62
233.945	74.62
234.179	83.62
234.413	86.62
234.647	86.62
234.881	90.62
235.115	94.62
235.349	72.62
235.583	95.62
235.817	74.62
236.051	85.62
236.285	75.62
236.519	97.62
236.753	80.62
236.987	90.62
237.221	75.62
237.455	70.62
237.689	76.62
237.922	85.62
238.156	70.62
238.39	75.62
238.624	81.62
238.858	86.62
239.091	73.62
239.325	72.62
239.559	85.62
239.793	73.62
240.027	73.62
240.26	75.62
240.494	87.62
240.728	85.62
240.961	70.62
241.195	78.62
241.429	74.62
241.662	75.62
241.896	98.62
242.13	76.62
242.363	72.62
242.597	78.62
242.83	81.62
243.064	81.62
243.298	95.62
243.531	89.62
243.765	82.62
243.998	65.62
244.232	73.62
244.465	80.62
244.699	83.62
244.932	75.62
245.166	74.62
245.399	89.62
245.633	86.62
245.866	88.62
246.099	79.62
246.333	78.62
246.566	70.62
246.8	96.62
247.033	83.62
247.266	65.62
247.5	73.62
247.733	88.62
247.966	71.62
248.2	88.62
248.433	85.62
248.666	73.62
248.899	79.62
249.133	86.62
249.366	67.62
249.599	84.62
249.832	89.62
250.066	76.62
250.299	90.62
250.532	89.62
250.765	68.62
250.998	73.62
251.231	75.62
251.465	70.62
251.698	92.62
251.931	81.62
252.164	80.62
252.397	87.62
252.63	78.62
252.863	74.62
253.096	73.62
253.329	92.62
253.562	89.62
253.795	75.62
254.028	89.62
254.261	84.62
254.494	91.62
254.727	73.62
254.96	86.62
255.193	83.62
255.426	85.62
255.659	89.62
255.892	74.62
256.124	82.62
256.357	94.62
256.59	99.62
256.823	86.62
257.056	76.62
257.289	74.62
257.521	87.62
257.754	82.62
257.987	93.62
258.22	65.62
258.452	75.62
258.685	99.62
258.918	94.62
259.151	82.62
259.383	94.62
259.616	85.62
259.849	87.62
260.081	76.62
260.314	77.62
260.547	84.62
260.779	79.62
261.012	98.62
261.244	82.62
261.477	97.62
261.71	70.62
261.942	85.62
262.175	84.62
262.407	87.62
262.64	87.62
262.872	95.62
263.105	81.62
263.337	79.62
263.57	77.62
263.802	57.62
264.035	78.62
264.267	83.62
264.499	84.62
264.732	87.62
264.964	85.62
265.197	88.62
265.429	90.62
265.661	88.62
265.894	77.62
266.126	85.62
266.358	81.62
266.591	89.62
266.823	83.62
267.055	78.62
267.287	80.62
267.52	75.62
267.752	99.62
267.984	86.62
268.216	81.62
268.448	85.62
268.681	85.62
268.913	82.62
269.145	82.62
269.377	67.62
269.609	78.62
269.841	85.62
270.073	80.62
270.306	84.62
270.538	78.62
270.77	89.62
271.002	97.62
271.234	88.62
271.466	90.62
271.698	84.62
271.93	86.62
272.162	75.62
272.394	91.62
272.626	78.62
272.858	81.62
273.09	86.62
273.322	82.62
273.553	91.62
273.785	95.62
274.017	85.62
274.249	85.62
274.481	73.62
274.713	85.62
274.945	86.62
275.176	95.62
275.408	98.62
275.64	97.62
275.872	94.62
276.104	96.62
276.335	90.62
276.567	76.62
276.799	71.62
277.031	76.62
277.262	93.62
277.494	93.62
277.726	90.62
277.957	93.62
278.189	80.62
278.421	85.62
278.652	109.62
278.884	83.62
279.115	85.62
279.347	93.62
279.579	94.62
279.81	102.62
280.042	87.62
280.273	82.62
280.505	86.62
280.736	96.62
280.968	94.62
281.199	80.62
281.431	85.62
281.662	76.62
281.894	87.62
282.125	93.62
282.356	103.62
282.588	90.62
282.819	80.62
283.051	86.62
283.282	87.62
283.513	84.62
283.745	77.62
283.976	90.62
284.207	90.62
284.439	92.62
284.67	70.62
284.901	84.62
285.132	95.62
285.364	100.62
285.595	95.62
285.826	87.62
286.057	85.62
286.288	83.62
286.52	91.62
286.751	94.62
286.982	76.62
287.213	71.62
287.444	82.62
287.675	79.62
287.906	83.62
288.138	84.62
288.369	88.62
288.6	83.62
288.831	81.62
289.062	87.62
289.293	91.62
289.524	94.62
289.755	79.62
289.986	90.62
290.217	87.62
290.448	102.62
290.679	91.62
290.91	81.62
291.141	81.62
291.371	80.62
291.602	91.62
291.833	92.62
292.064	96.62
292.295	90.62
292.526	99.62
292.757	93.62
292.987	84.62
293.218	89.62
293.449	71.62
293.68	95.62
293.91	91.62
294.141	95.62
294.372	83.62
294.603	90.62
294.833	89.62
295.064	90.62
295.295	81.62
295.525	80.62
295.756	93.62
295.987	96.62
296.217	79.62
296.448	82.62
296.679	83.62
296.909	86.62
297.14	87.62
297.37	88.62
297.601	91.62
297.831	88.62
298.062	83.62
298.292	93.62
298.523	79.62
298.753	85.62
298.984	99.62
299.214	87.62
299.445	86.62
299.675	93.62
299.905	90.62
300.136	83.62
300.366	91.62
300.597	93.62
300.827	76.62
301.057	73.62
301.288	67.62
301.518	88.62
301.748	89.62
301.979	100.62
302.209	84.62
302.439	81.62
302.669	82.62
302.9	76.62
303.13	79.62
303.36	80.62
303.59	78.62
303.82	91.62
304.051	82.62
304.281	89.62
304.511	92.62
304.741	76.62
304.971	91.62
305.201	90.62
305.431	90.62
305.661	79.62
305.891	87.62
306.121	77.62
306.352	85.62
306.582	94.62
306.812	79.62
307.042	78.62
307.272	89.62
307.502	109.62
307.731	87.62
307.961	83.62
308.191	91.62
308.421	90.62
308.651	92.62
308.881	84.62
309.111	92.62
309.341	89.62
309.571	91.62
309.8	100.62
310.03	94.62
310.26	86.62
310.49	86.62
310.72	94.62
310.949	87.62
311.179	80.62
311.409	94.62
311.639	82.62
311.868	85.62
312.098	74.62
312.328	85.62
312.557	93.62
312.787	89.62
313.017	96.62
313.246	75.62
313.476	95.62
313.706	94.62
313.935	100.62
314.165	86.62
314.394	92.62
314.624	79.62
314.853	95.62
315.083	79.62
315.312	89.62
315.542	92.62
315.771	85.62
316.001	94.62
316.23	88.62
316.46	73.62
316.689	91.62
316.919	89.62
317.148	73.62
317.377	94.62
317.607	65.62
317.836	102.62
318.065	85.62
318.295	91.62
318.524	74.62
318.753	78.62
318.983	93.62
319.212	85.62
319.441	90.62
319.67	81.62
319.9	92.62
320.129	86.62
320.358	86.62
320.587	81.62
320.816	85.62
321.046	83.62
321.275	102.62
321.504	93.62
321.733	91.62
321.962	93.62
322.191	74.62
322.42	83.62
322.649	89.62
322.878	87.62
323.108	88.62
323.337	96.62
323.566	95.62
323.795	95.62
324.024	93.62
324.253	86.62
324.482	83.62
324.71	86.62
324.939	86.62
325.168	76.62
325.397	88.62
325.626	85.62
325.855	95.62
326.084	90.62
326.313	85.62
326.542	88.62
326.77	89.62
326.999	84.62
327.228	71.62
327.457	77.62
327.686	89.62
327.914	79.62
328.143	85.62
328.372	88.62
328.6	81.62
328.829	84.62
329.058	85.62
329.287	84.62
329.515	97.62
329.744	84.62
329.972	88.62
330.201	84.62
330.43	89.62
330.658	86.62
330.887	94.62
331.115	95.62
331.344	77.62
331.572	78.62
331.801	91.62
332.03	82.62
332.258	80.62
332.486	90.62
332.715	76.62
332.943	79.62
333.172	88.62
333.4	91.62
333.629	94.62
333.857	85.62
334.085	93.62
334.314	89.62
334.542	90.62
334.771	71.62
334.999	82.62
335.227	99.62
335.455	94.62
335.684	92.62
335.912	92.62
336.14	87.62
336.369	113.62
336.597	90.62
336.825	72.62
337.053	105.62
337.281	80.62
337.51	91.62
337.738	72.62
337.966	84.62
338.194	79.62
338.422	97.62
338.65	93.62
338.878	96.62
339.106	89.62
339.334	63.62
339.562	93.62
339.79	87.62
340.018	85.62
340.246	86.62
340.474	90.62
340.702	80.62
340.93	83.62
341.158	90.62
341.386	82.62
341.614	78.62
341.842	99.62
342.07	95.62
342.298	94.62
342.526	101.62
342.754	95.62
342.981	78.62
343.209	86.62
343.437	96.62
343.665	82.62
343.893	75.62
344.12	82.62
344.348	90.62
344.576	84.62
344.804	91.62
345.031	78.62
345.259	80.62
345.487	81.62
345.714	75.62
345.942	79.62
346.17	85.62
346.397	90.62
346.625	94.62
346.853	71.62
347.08	82.62
347.308	104.62
347.535	80.62
347.763	78.62
347.99	80.62
348.218	104.62
348.445	79.62
348.673	94.62
348.9	93.62
349.128	85.62
349.355	70.62
349.583	86.62
349.81	90.62
350.037	95.62
350.265	79.62
350.492	83.62
350.72	90.62
350.947	86.62
351.174	92.62
351.402	86.62
351.629	84.62
351.856	86.62
352.083	90.62
352.311	81.62
352.538	86.62
352.765	93.62
352.992	87.62
353.22	95.62
353.447	82.62
353.674	95.62
353.901	83.62
354.128	86.62
354.355	80.62
354.583	81.62
354.81	99.62
355.037	93.62
355.264	86.62
355.491	85.62
355.718	77.62
355.945	76.62
356.172	86.62
356.399	83.62
356.626	98.62
356.853	83.62
357.08	87.62
357.307	98.62
357.534	97.62
357.761	93.62
357.988	93.62
358.215	99.62
358.441	102.62
358.668	69.62
358.895	94.62
359.122	73.62
359.349	82.62
359.576	88.62
359.802	73.62
360.029	90.62
360.256	79.62
360.483	89.62
360.709	85.62
360.936	105.62
361.163	88.62
361.39	93.62
361.616	87.62
361.843	84.62
362.07	80.62
362.296	78.62
362.523	91.62
362.749	91.62
362.976	84.62
363.203	81.62
363.429	88.62
363.656	101.62
363.882	76.62
364.109	90.62
364.335	86.62
364.562	79.62
364.788	95.62
365.015	82.62
365.241	75.62
365.468	89.62
365.694	82.62
365.92	76.62
366.147	97.62
366.373	90.62
366.599	94.62
366.826	85.62
367.052	90.62
367.278	93.62
367.505	89.62
367.731	114.62
367.957	74.62
368.184	80.62
368.41	78.62
368.636	73.62
368.862	93.62
369.089	80.62
369.315	94.62
369.541	92.62
369.767	81.62
369.993	77.62
370.219	86.62
370.445	68.62
370.672	87.62
370.898	78.62
371.124	89.62
371.35	91.62
371.576	82.62
371.802	72.62
372.028	67.62
372.254	87.62
372.48	81.62
372.706	81.62
372.932	81.62
373.158	91.62
373.384	95.62
373.61	95.62
373.835	75.62
374.061	86.62
374.287	87.62
374.513	91.62
374.739	78.62
374.965	109.62
375.191	76.62
375.416	93.62
375.642	95.62
375.868	85.62
376.094	83.62
376.319	81.62
376.545	79.62
376.771	79.62
376.997	95.62
377.222	76.62
377.448	74.62
377.674	79.62
377.899	81.62
378.125	80.62
378.35	82.62
378.576	59.62
378.802	82.62
379.027	89.62
379.253	80.62
379.478	83.62
379.704	89.62
379.929	75.62
380.155	71.62
380.38	97.62
380.606	87.62
380.831	79.62
381.057	72.62
381.282	77.62
381.507	76.62
381.733	81.62
381.958	82.62
382.184	86.62
382.409	90.62
382.634	88.62
382.86	80.62
383.085	90.62
383.31	84.62
383.535	85.62
383.761	98.62
383.986	102.62
384.211	66.62
384.436	78.62
384.662	103.62
384.887	77.62
385.112	81.62
385.337	76.62
385.562	87.62
385.787	90.62
386.013	89.62
386.238	92.62
386.463	95.62
386.688	97.62
386.913	89.62
387.138	94.62
387.363	76.62
387.588	79.62
387.813	70.62
388.038	94.62
388.263	82.62
388.488	70.62
388.713	84.62
388.938	78.62
389.163	79.62
389.387	77.62
389.612	73.62
389.837	79.62
390.062	75.62
390.287	82.62
390.512	71.62
390.736	78.62
390.961	71.62
391.186	92.62
391.411	76.62
391.636	89.62
391.86	89.62
392.085	90.62
392.31	65.62
392.534	84.62
392.759	79.62
392.984	87.62
393.208	96.62
393.433	107.62
393.658	95.62
393.882	92.62
394.107	91.62
394.331	96.62
394.556	93.62
394.78	74.62
395.005	80.62
395.229	84.62
395.454	82.62
395.678	92.62
395.903	93.62
396.127	79.62
396.352	84.62
396.576	87.62
396.801	91.62
397.025	98.62
397.249	93.62
397.474	87.62
397.698	86.62
397.922	96.62
398.147	88.62
398.371	87.62
398.595	87.62
398.82	65.62
399.044	79.62
399.268	67.62
399.492	81.62
399.717	84.62
399.941	75.62
400.165	87.62
400.389	83.62
400.613	93.62
400.837	83.62
401.062	74.62
401.286	78.62
401.51	83.62
401.734	72.62
401.958	89.62
402.182	82.62
402.406	79.62
402.63	94.62
402.854	74.62
403.078	80.62
403.302	88.62
403.526	81.62
403.75	84.62
403.974	101.62
404.198	85.62
404.422	82.62
404.645	93.62
404.869	90.62
405.093	84.62
405.317	75.62
405.541	81.62
405.765	89.62
405.988	84.62
406.212	96.62
406.436	87.62
406.66	86.62
406.883	94.62
407.107	90.62
407.331	86.62
407.555	68.62
407.778	91.62
408.002	86.62
408.226	81.62
408.449	70.62
408.673	79.62
408.896	92.62
409.12	79.62
409.344	90.62
409.567	72.62
409.791	89.62
410.014	96.62
410.238	74.62
410.461	74.62
410.685	79.62
410.908	84.62
411.132	90.62
411.355	79.62
411.578	72.62
411.802	83.62
412.025	78.62
412.249	79.62
412.472	74.62
412.695	82.62
412.919	81.62
413.142	91.62
413.365	99.62
413.589	79.62
413.812	86.62
414.035	79.62
414.258	91.62
414.482	82.62
414.705	80.62
414.928	86.62
415.151	89.62
415.374	87.62
415.597	75.62
415.821	96.62
416.044	85.62
416.267	85.62
416.49	82.62
416.713	82.62
416.936	83.62
417.159	87.62
417.382	73.62
417.605	79.62
417.828	90.62
418.051	83.62
418.274	81.62
418.497	82.62
418.72	84.62
418.943	90.62
419.166	88.62
419.389	84.62
419.611	89.62
419.834	84.62
420.057	81.62
420.28	93.62
420.503	90.62
420.726	82.62
420.948	93.62
421.171	84.62
421.394	85.62
421.617	81.62
421.839	75.62
422.062	84.62
422.285	95.62
422.507	93.62
422.73	115.62
422.953	106.62
423.175	83.62
423.398	83.62
423.621	85.62
423.843	98.62
424.066	85.62
424.288	73.62
424.511	93.62
424.733	85.62
424.956	95.62
425.178	95.62
425.401	82.62
425.623	79.62
425.846	81.62
426.068	97.62
426.291	84.62
426.513	83.62
426.735	85.62
426.958	87.62
427.18	68.62
427.402	75.62
427.625	91.62
427.847	70.62
428.069	93.62
428.292	85.62
428.514	80.62
428.736	79.62
428.958	89.62
429.181	89.62
429.403	78.62
429.625	92.62
429.847	81.62
430.069	89.62
430.292	94.62
430.514	95.62
430.736	93.62
430.958	74.62
431.18	83.62
431.402	93.62
431.624	93.62
431.846	87.62
432.068	88.62
432.29	84.62
432.512	84.62
432.734	86.62
432.956	78.62
433.178	94.62
433.4	76.62
433.622	69.62
433.844	79.62
434.066	74.62
434.287	87.62
434.509	78.62
434.731	82.62
434.953	87.62
435.175	83.62
435.397	66.62
435.618	85.62
435.84	92.62
436.062	88.62
436.284	84.62
436.505	86.62
436.727	98.62
436.949	76.62
437.17	89.62
437.392	81.62
437.614	78.62
437.835	89.62
438.057	87.62
438.278	80.62
438.5	86.62
438.721	85.62
438.943	73.62
439.165	84.62
439.386	74.62
439.608	79.62
439.829	85.62
440.05	76.62
440.272	93.62
440.493	79.62
440.715	93.62
440.936	67.62
441.158	86.62
441.379	78.62
441.6	70.62
441.822	92.62
442.043	75.62
442.264	84.62
442.486	93.62
442.707	81.62
442.928	86.62
443.149	78.62
443.371	82.62
443.592	108.62
443.813	81.62
444.034	85.62
444.255	83.62
444.476	86.62
444.698	80.62
444.919	74.62
445.14	151.62
445.361	120.62
445.582	107.62
445.803	79.62
446.024	76.62
446.245	85.62
446.466	93.62
446.687	81.62
446.908	75.62
447.129	82.62
447.35	81.62
447.571	79.62
447.792	89.62
448.013	74.62
448.234	69.62
448.455	80.62
448.675	82.62
448.896	91.62
449.117	82.62
449.338	68.62
449.559	74.62
449.779	69.62
450	82.62
450.221	87.62
450.442	83.62
450.662	82.62
450.883	86.62
451.104	83.62
451.324	93.62
451.545	78.62
451.766	83.62
451.986	76.62
452.207	75.62
452.428	87.62
452.648	81.62
452.869	75.62
453.089	79.62
453.31	66.62
453.53	87.62
453.751	79.62
453.971	88.62
454.192	77.62
454.412	83.62
454.633	81.62
454.853	102.62
455.073	90.62
455.294	75.62
455.514	103.62
455.734	79.62
455.955	76.62
456.175	92.62
456.395	89.62
456.616	73.62
456.836	94.62
457.056	93.62
457.276	63.62
457.497	88.62
457.717	89.62
457.937	91.62
458.157	95.62
458.377	85.62
458.598	70.62
458.818	93.62
459.038	82.62
459.258	87.62
459.478	85.62
459.698	72.62
459.918	80.62
460.138	84.62
460.358	82.62
460.578	93.62
460.798	97.62
461.018	94.62
461.238	76.62
461.458	84.62
461.678	73.62
461.898	79.62
462.118	85.62
462.338	87.62
462.558	89.62
462.777	83.62
462.997	74.62
463.217	90.62
463.437	78.62
463.657	81.62
463.876	83.62
464.096	62.62
464.316	74.62
464.536	91.62
464.755	106.62
464.975	89.62
465.195	92.62
465.414	88.62
465.634	87.62
465.854	86.62
466.073	82.62
466.293	85.62
466.512	88.62
466.732	94.62
466.951	78.62
467.171	93.62
467.391	75.62
467.61	84.62
467.829	72.62
468.049	87.62
468.268	79.62
468.488	89.62
468.707	79.62
468.927	81.62
469.146	88.62
469.365	76.62
469.585	75.62
469.804	89.62
470.023	75.62
470.243	73.62
470.462	89.62
470.681	82.62
470.901	81.62
471.12	76.62
471.339	88.62
471.558	88.62
471.777	80.62
471.997	80.62
472.216	83.62
472.435	88.62
472.654	80.62
472.873	89.62
473.092	69.62
473.311	76.62
473.53	78.62
473.749	69.62
473.968	95.62
474.187	80.62
474.406	73.62
474.625	87.62
474.844	91.62
475.063	88.62
475.282	69.62
475.501	78.62
475.72	76.62
475.939	72.62
476.158	77.62
476.377	87.62
476.596	82.62
476.814	91.62
477.033	82.62
477.252	97.62
477.471	69.62
477.69	89.62
477.908	95.62
478.127	94.62
478.346	80.62
478.564	73.62
478.783	87.62
479.002	81.62
479.22	86.62
479.439	83.62
479.658	81.62
479.876	67.62
480.095	87.62
480.313	91.62
480.532	89.62
480.751	94.62
480.969	104.62
481.188	87.62
481.406	90.62
481.624	83.62
481.843	87.62
482.061	87.62
482.28	93.62
482.498	93.62
482.717	77.62
482.935	71.62
483.153	81.62
483.372	79.62
483.59	92.62
483.808	87.62
484.027	86.62
484.245	75.62
484.463	81.62
484.681	90.62
484.9	81.62
485.118	77.62
485.336	84.62
485.554	89.62
485.772	71.62
485.99	80.62
486.209	85.62
486.427	78.62
486.645	83.62
486.863	87.62
487.081	90.62
487.299	65.62
487.517	83.62
487.735	73.62
487.953	87.62
488.171	88.62
488.389	90.62
488.607	73.62
488.825	89.62
489.043	90.62
489.261	84.62
489.479	88.62
489.696	96.62
489.914	91.62
490.132	72.62
490.35	98.62
490.568	89.62
490.786	82.62
491.003	84.62
491.221	85.62
491.439	82.62
491.657	82.62
491.874	101.62
492.092	87.62
492.31	80.62
492.527	76.62
492.745	88.62
492.963	85.62
493.18	87.62
493.398	82.62
493.615	80.62
493.833	93.62
494.05	85.62
494.268	86.62
494.485	90.62
494.703	88.62
494.92	92.62
495.138	92.62
495.355	91.62
495.573	92.62
495.79	76.62
496.008	80.62
496.225	83.62
496.442	91.62
496.66	80.62
496.877	81.62
497.094	94.62
497.312	71.62
497.529	73.62
497.746	90.62
497.963	93.62
498.181	84.62
498.398	80.62
498.615	86.62
498.832	83.62
499.049	83.62
499.267	76.62
499.484	74.62
499.701	83.62
499.918	79.62
500.135	82.62
500.352	82.62
500.569	87.62
500.786	93.62
501.003	88.62
501.22	95.62
501.437	90.62
501.654	85.62
501.871	90.62
502.088	94.62
502.305	89.62
502.522	90.62
502.739	87.62
502.956	77.62
503.172	80.62
503.389	78.62
503.606	76.62
503.823	82.62
504.04	98.62
504.256	88.62
504.473	94.62
504.69	91.62
504.907	94.62
505.123	92.62
505.34	91.62
505.557	89.62
505.773	91.62
505.99	82.62
506.207	87.62
506.423	96.62
506.64	90.62
506.856	91.62
507.073	93.62
507.289	93.62
507.506	88.62
507.722	79.62
507.939	94.62
508.155	75.62
508.372	75.62
508.588	83.62
508.805	81.62
509.021	97.62
509.238	85.62
509.454	85.62
509.67	86.62
509.887	81.62
510.103	92.62
510.319	102.62
510.536	85.62
510.752	94.62
510.968	88.62
511.184	83.62
511.401	82.62
511.617	97.62
511.833	83.62
512.049	88.62
512.265	88.62
512.481	93.62
512.698	91.62
512.914	76.62
513.13	89.62
513.346	77.62
513.562	96.62
513.778	93.62
513.994	90.62
514.21	91.62
514.426	83.62
514.642	75.62
514.858	98.62
515.074	82.62
515.29	99.62
515.506	75.62
515.721	90.62
515.937	81.62
516.153	98.62
516.369	64.62
516.585	81.62
516.801	84.62
517.016	96.62
517.232	86.62
517.448	94.62
517.664	73.62
517.879	80.62
518.095	91.62
518.311	90.62
518.527	80.62
518.742	89.62
518.958	100.62
519.173	100.62
519.389	83.62
519.605	84.62
519.82	87.62
