Data from 1600_1_HRD10591_00018.txt Node
Date: Mon Jan 19 13:47:50 EST 2026
User: Yrep
Spectrometer: HR+D1059
Trigger mode: 1
Integration Time (sec): 1.000000E-1
Scans to average: 1
Electric dark correction enabled: true
Nonlinearity correction enabled: false
Boxcar width: 0
XAxis mode: Wavelengths
Number of Pixels in Spectrum: 2048
>>>>>Begin Spectral Data<<<<<
223.165	-17.5
223.4	-17.5
223.635	-17.5
223.869	-8.5
224.104	-19.5
224.338	-20.5
224.573	-13.5
224.808	-15.5
225.042	-13.5
225.277	-6.5
225.511	4.5
225.746	1.5
225.98	17.5
226.215	7.5
226.449	16.5
226.683	17.5
226.918	22.5
227.152	27.5
227.387	26.5
227.621	43.5
227.856	38.5
228.09	35.5
228.324	55.5
228.559	60.5
228.793	51.5
229.027	51.5
229.262	60.5
229.496	61.5
229.73	63.5
229.964	78.5
230.199	64.5
230.433	72.5
230.667	64.5
230.901	76.5
231.136	77.5
231.37	77.5
231.604	74.5
231.838	77.5
232.072	67.5
232.306	78.5
232.541	85.5
232.775	88.5
233.009	84.5
233.243	80.5
233.477	93.5
233.711	85.5
233.945	81.5
234.179	79.5
234.413	84.5
234.647	79.5
234.881	76.5
235.115	73.5
235.349	73.5
235.583	82.5
235.817	74.5
236.051	68.5
236.285	78.5
236.519	79.5
236.753	72.5
236.987	76.5
237.221	73.5
237.455	73.5
237.689	70.5
237.922	83.5
238.156	72.5
238.39	85.5
238.624	81.5
238.858	72.5
239.091	88.5
239.325	84.5
239.559	77.5
239.793	85.5
240.027	82.5
240.26	82.5
240.494	83.5
240.728	75.5
240.961	68.5
241.195	85.5
241.429	74.5
241.662	75.5
241.896	88.5
242.13	71.5
242.363	77.5
242.597	71.5
242.83	73.5
243.064	88.5
243.298	73.5
243.531	71.5
243.765	82.5
243.998	70.5
244.232	69.5
244.465	85.5
244.699	75.5
244.932	77.5
245.166	86.5
245.399	81.5
245.633	77.5
245.866	95.5
246.099	76.5
246.333	78.5
246.566	56.5
246.8	61.5
247.033	73.5
247.266	67.5
247.5	80.5
247.733	81.5
247.966	94.5
248.2	69.5
248.433	75.5
248.666	84.5
248.899	79.5
249.133	74.5
249.366	88.5
249.599	76.5
249.832	69.5
250.066	75.5
250.299	76.5
250.532	72.5
250.765	80.5
250.998	74.5
251.231	75.5
251.465	75.5
251.698	73.5
251.931	77.5
252.164	76.5
252.397	72.5
252.63	73.5
252.863	86.5
253.096	79.5
253.329	75.5
253.562	90.5
253.795	70.5
254.028	79.5
254.261	64.5
254.494	78.5
254.727	70.5
254.96	77.5
255.193	73.5
255.426	90.5
255.659	80.5
255.892	75.5
256.124	85.5
256.357	73.5
256.59	81.5
256.823	68.5
257.056	78.5
257.289	60.5
257.521	80.5
257.754	83.5
257.987	84.5
258.22	79.5
258.452	79.5
258.685	72.5
258.918	73.5
259.151	83.5
259.383	66.5
259.616	71.5
259.849	79.5
260.081	79.5
260.314	68.5
260.547	81.5
260.779	87.5
261.012	87.5
261.244	74.5
261.477	78.5
261.71	77.5
261.942	67.5
262.175	77.5
262.407	61.5
262.64	75.5
262.872	81.5
263.105	87.5
263.337	68.5
263.57	77.5
263.802	64.5
264.035	79.5
264.267	77.5
264.499	72.5
264.732	84.5
264.964	90.5
265.197	78.5
265.429	82.5
265.661	81.5
265.894	80.5
266.126	82.5
266.358	72.5
266.591	71.5
266.823	76.5
267.055	73.5
267.287	81.5
267.52	76.5
267.752	85.5
267.984	69.5
268.216	83.5
268.448	89.5
268.681	95.5
268.913	75.5
269.145	81.5
269.377	67.5
269.609	88.5
269.841	77.5
270.073	84.5
270.306	76.5
270.538	83.5
270.77	72.5
271.002	73.5
271.234	84.5
271.466	85.5
271.698	81.5
271.93	73.5
272.162	80.5
272.394	70.5
272.626	78.5
272.858	80.5
273.09	82.5
273.322	82.5
273.553	60.5
273.785	76.5
274.017	68.5
274.249	78.5
274.481	82.5
274.713	66.5
274.945	73.5
275.176	71.5
275.408	82.5
275.64	85.5
275.872	83.5
276.104	76.5
276.335	64.5
276.567	61.5
276.799	64.5
277.031	66.5
277.262	71.5
277.494	77.5
277.726	88.5
277.957	81.5
278.189	81.5
278.421	96.5
278.652	81.5
278.884	83.5
279.115	64.5
279.347	85.5
279.579	82.5
279.81	83.5
280.042	80.5
280.273	77.5
280.505	86.5
280.736	87.5
280.968	76.5
281.199	78.5
281.431	75.5
281.662	92.5
281.894	79.5
282.125	80.5
282.356	67.5
282.588	77.5
282.819	80.5
283.051	94.5
283.282	89.5
283.513	94.5
283.745	86.5
283.976	98.5
284.207	84.5
284.439	82.5
284.67	87.5
284.901	79.5
285.132	70.5
285.364	76.5
285.595	81.5
285.826	74.5
286.057	83.5
286.288	82.5
286.52	92.5
286.751	88.5
286.982	87.5
287.213	76.5
287.444	81.5
287.675	87.5
287.906	78.5
288.138	82.5
288.369	84.5
288.6	89.5
288.831	84.5
289.062	82.5
289.293	79.5
289.524	72.5
289.755	77.5
289.986	84.5
290.217	90.5
290.448	85.5
290.679	76.5
290.91	76.5
291.141	81.5
291.371	77.5
291.602	85.5
291.833	81.5
292.064	90.5
292.295	92.5
292.526	85.5
292.757	78.5
292.987	82.5
293.218	72.5
293.449	72.5
293.68	73.5
293.91	88.5
294.141	81.5
294.372	77.5
294.603	86.5
294.833	75.5
295.064	86.5
295.295	92.5
295.525	83.5
295.756	79.5
295.987	79.5
296.217	70.5
296.448	79.5
296.679	83.5
296.909	83.5
297.14	70.5
297.37	67.5
297.601	85.5
297.831	83.5
298.062	71.5
298.292	74.5
298.523	82.5
298.753	76.5
298.984	80.5
299.214	79.5
299.445	85.5
299.675	100.5
299.905	90.5
300.136	76.5
300.366	81.5
300.597	70.5
300.827	73.5
301.057	81.5
301.288	71.5
301.518	77.5
301.748	88.5
301.979	113.5
302.209	77.5
302.439	76.5
302.669	83.5
302.9	81.5
303.13	86.5
303.36	77.5
303.59	81.5
303.82	85.5
304.051	74.5
304.281	76.5
304.511	91.5
304.741	74.5
304.971	96.5
305.201	84.5
305.431	72.5
305.661	96.5
305.891	88.5
306.121	67.5
306.352	81.5
306.582	87.5
306.812	83.5
307.042	93.5
307.272	77.5
307.502	78.5
307.731	92.5
307.961	82.5
308.191	77.5
308.421	85.5
308.651	93.5
308.881	85.5
309.111	79.5
309.341	87.5
309.571	78.5
309.8	77.5
310.03	79.5
310.26	84.5
310.49	89.5
310.72	89.5
310.949	69.5
311.179	74.5
311.409	76.5
311.639	89.5
311.868	67.5
312.098	83.5
312.328	88.5
312.557	79.5
312.787	82.5
313.017	81.5
313.246	83.5
313.476	90.5
313.706	75.5
313.935	83.5
314.165	74.5
314.394	85.5
314.624	85.5
314.853	94.5
315.083	77.5
315.312	84.5
315.542	77.5
315.771	70.5
316.001	83.5
316.23	78.5
316.46	96.5
316.689	81.5
316.919	74.5
317.148	79.5
317.377	86.5
317.607	77.5
317.836	66.5
318.065	75.5
318.295	78.5
318.524	88.5
318.753	88.5
318.983	82.5
319.212	82.5
319.441	84.5
319.67	85.5
319.9	86.5
320.129	87.5
320.358	76.5
320.587	80.5
320.816	79.5
321.046	71.5
321.275	84.5
321.504	79.5
321.733	90.5
321.962	75.5
322.191	80.5
322.42	71.5
322.649	85.5
322.878	87.5
323.108	89.5
323.337	79.5
323.566	74.5
323.795	91.5
324.024	76.5
324.253	75.5
324.482	70.5
324.71	87.5
324.939	97.5
325.168	88.5
325.397	94.5
325.626	79.5
325.855	73.5
326.084	92.5
326.313	82.5
326.542	70.5
326.77	91.5
326.999	89.5
327.228	79.5
327.457	84.5
327.686	75.5
327.914	83.5
328.143	84.5
328.372	98.5
328.6	65.5
328.829	79.5
329.058	87.5
329.287	85.5
329.515	85.5
329.744	85.5
329.972	82.5
330.201	81.5
330.43	74.5
330.658	90.5
330.887	83.5
331.115	68.5
331.344	77.5
331.572	77.5
331.801	90.5
332.03	78.5
332.258	100.5
332.486	79.5
332.715	82.5
332.943	75.5
333.172	67.5
333.4	83.5
333.629	81.5
333.857	88.5
334.085	82.5
334.314	89.5
334.542	89.5
334.771	77.5
334.999	70.5
335.227	72.5
335.455	85.5
335.684	88.5
335.912	67.5
336.14	94.5
336.369	92.5
336.597	89.5
336.825	80.5
337.053	72.5
337.281	83.5
337.51	66.5
337.738	87.5
337.966	83.5
338.194	69.5
338.422	81.5
338.65	88.5
338.878	81.5
339.106	81.5
339.334	87.5
339.562	79.5
339.79	93.5
340.018	76.5
340.246	89.5
340.474	65.5
340.702	70.5
340.93	74.5
341.158	78.5
341.386	70.5
341.614	82.5
341.842	85.5
342.07	84.5
342.298	72.5
342.526	76.5
342.754	82.5
342.981	75.5
343.209	77.5
343.437	101.5
343.665	76.5
343.893	89.5
344.12	76.5
344.348	83.5
344.576	81.5
344.804	75.5
345.031	88.5
345.259	73.5
345.487	83.5
345.714	95.5
345.942	90.5
346.17	80.5
346.397	72.5
346.625	70.5
346.853	72.5
347.08	76.5
347.308	70.5
347.535	94.5
347.763	79.5
347.99	75.5
348.218	79.5
348.445	93.5
348.673	71.5
348.9	77.5
349.128	78.5
349.355	84.5
349.583	80.5
349.81	77.5
350.037	91.5
350.265	86.5
350.492	74.5
350.72	77.5
350.947	72.5
351.174	89.5
351.402	93.5
351.629	84.5
351.856	73.5
352.083	91.5
352.311	79.5
352.538	81.5
352.765	96.5
352.992	83.5
353.22	83.5
353.447	65.5
353.674	78.5
353.901	83.5
354.128	63.5
354.355	75.5
354.583	75.5
354.81	82.5
355.037	91.5
355.264	91.5
355.491	78.5
355.718	64.5
355.945	83.5
356.172	85.5
356.399	99.5
356.626	80.5
356.853	78.5
357.08	83.5
357.307	87.5
357.534	77.5
357.761	85.5
357.988	87.5
358.215	86.5
358.441	79.5
358.668	72.5
358.895	74.5
359.122	83.5
359.349	78.5
359.576	79.5
359.802	81.5
360.029	80.5
360.256	83.5
360.483	75.5
360.709	85.5
360.936	99.5
361.163	91.5
361.39	78.5
361.616	78.5
361.843	87.5
362.07	89.5
362.296	87.5
362.523	74.5
362.749	87.5
362.976	84.5
363.203	90.5
363.429	83.5
363.656	83.5
363.882	72.5
364.109	75.5
364.335	82.5
364.562	68.5
364.788	66.5
365.015	62.5
365.241	77.5
365.468	87.5
365.694	75.5
365.92	80.5
366.147	77.5
366.373	80.5
366.599	85.5
366.826	77.5
367.052	82.5
367.278	73.5
367.505	74.5
367.731	84.5
367.957	80.5
368.184	79.5
368.41	87.5
368.636	80.5
368.862	73.5
369.089	73.5
369.315	75.5
369.541	76.5
369.767	90.5
369.993	80.5
370.219	82.5
370.445	83.5
370.672	83.5
370.898	84.5
371.124	78.5
371.35	69.5
371.576	78.5
371.802	75.5
372.028	70.5
372.254	75.5
372.48	68.5
372.706	79.5
372.932	72.5
373.158	73.5
373.384	93.5
373.61	84.5
373.835	83.5
374.061	72.5
374.287	91.5
374.513	82.5
374.739	83.5
374.965	75.5
375.191	74.5
375.416	89.5
375.642	83.5
375.868	83.5
376.094	64.5
376.319	78.5
376.545	90.5
376.771	82.5
376.997	85.5
377.222	92.5
377.448	75.5
377.674	79.5
377.899	80.5
378.125	81.5
378.35	79.5
378.576	78.5
378.802	85.5
379.027	76.5
379.253	77.5
379.478	79.5
379.704	69.5
379.929	75.5
380.155	89.5
380.38	77.5
380.606	76.5
380.831	71.5
381.057	75.5
381.282	83.5
381.507	74.5
381.733	81.5
381.958	79.5
382.184	70.5
382.409	85.5
382.634	75.5
382.86	72.5
383.085	86.5
383.31	83.5
383.535	76.5
383.761	89.5
383.986	88.5
384.211	56.5
384.436	99.5
384.662	77.5
384.887	81.5
385.112	73.5
385.337	69.5
385.562	83.5
385.787	74.5
386.013	82.5
386.238	88.5
386.463	77.5
386.688	91.5
386.913	77.5
387.138	91.5
387.363	73.5
387.588	85.5
387.813	84.5
388.038	78.5
388.263	79.5
388.488	76.5
388.713	89.5
388.938	92.5
389.163	71.5
389.387	66.5
389.612	73.5
389.837	71.5
390.062	77.5
390.287	83.5
390.512	81.5
390.736	79.5
390.961	80.5
391.186	82.5
391.411	66.5
391.636	81.5
391.86	65.5
392.085	78.5
392.31	81.5
392.534	67.5
392.759	84.5
392.984	74.5
393.208	75.5
393.433	74.5
393.658	74.5
393.882	80.5
394.107	83.5
394.331	76.5
394.556	88.5
394.78	87.5
395.005	75.5
395.229	83.5
395.454	81.5
395.678	75.5
395.903	79.5
396.127	97.5
396.352	81.5
396.576	88.5
396.801	91.5
397.025	83.5
397.249	70.5
397.474	77.5
397.698	81.5
397.922	88.5
398.147	69.5
398.371	78.5
398.595	71.5
398.82	79.5
399.044	60.5
399.268	73.5
399.492	71.5
399.717	70.5
399.941	78.5
400.165	86.5
400.389	87.5
400.613	77.5
400.837	78.5
401.062	76.5
401.286	84.5
401.51	63.5
401.734	67.5
401.958	86.5
402.182	82.5
402.406	68.5
402.63	65.5
402.854	81.5
403.078	78.5
403.302	65.5
403.526	75.5
403.75	84.5
403.974	75.5
404.198	77.5
404.422	72.5
404.645	74.5
404.869	80.5
405.093	70.5
405.317	73.5
405.541	83.5
405.765	92.5
405.988	85.5
406.212	80.5
406.436	77.5
406.66	67.5
406.883	81.5
407.107	57.5
407.331	80.5
407.555	79.5
407.778	84.5
408.002	91.5
408.226	77.5
408.449	75.5
408.673	85.5
408.896	67.5
409.12	85.5
409.344	84.5
409.567	95.5
409.791	79.5
410.014	73.5
410.238	77.5
410.461	68.5
410.685	93.5
410.908	67.5
411.132	81.5
411.355	78.5
411.578	83.5
411.802	91.5
412.025	78.5
412.249	76.5
412.472	68.5
412.695	75.5
412.919	79.5
413.142	64.5
413.365	89.5
413.589	81.5
413.812	69.5
414.035	79.5
414.258	76.5
414.482	75.5
414.705	59.5
414.928	80.5
415.151	69.5
415.374	73.5
415.597	79.5
415.821	68.5
416.044	94.5
416.267	87.5
416.49	68.5
416.713	82.5
416.936	82.5
417.159	73.5
417.382	72.5
417.605	77.5
417.828	84.5
418.051	81.5
418.274	81.5
418.497	70.5
418.72	68.5
418.943	77.5
419.166	73.5
419.389	76.5
419.611	83.5
419.834	75.5
420.057	84.5
420.28	75.5
420.503	85.5
420.726	81.5
420.948	94.5
421.171	80.5
421.394	91.5
421.617	67.5
421.839	84.5
422.062	74.5
422.285	77.5
422.507	92.5
422.73	113.5
422.953	92.5
423.175	72.5
423.398	80.5
423.621	79.5
423.843	72.5
424.066	79.5
424.288	75.5
424.511	73.5
424.733	80.5
424.956	63.5
425.178	73.5
425.401	81.5
425.623	62.5
425.846	74.5
426.068	73.5
426.291	77.5
426.513	90.5
426.735	81.5
426.958	79.5
427.18	58.5
427.402	79.5
427.625	83.5
427.847	93.5
428.069	89.5
428.292	78.5
428.514	99.5
428.736	75.5
428.958	88.5
429.181	79.5
429.403	81.5
429.625	79.5
429.847	89.5
430.069	71.5
430.292	75.5
430.514	88.5
430.736	73.5
430.958	82.5
431.18	91.5
431.402	66.5
431.624	77.5
431.846	79.5
432.068	88.5
432.29	85.5
432.512	81.5
432.734	87.5
432.956	80.5
433.178	80.5
433.4	84.5
433.622	79.5
433.844	83.5
434.066	75.5
434.287	81.5
434.509	87.5
434.731	82.5
434.953	67.5
435.175	68.5
435.397	82.5
435.618	80.5
435.84	60.5
436.062	83.5
436.284	79.5
436.505	86.5
436.727	87.5
436.949	81.5
437.17	73.5
437.392	78.5
437.614	82.5
437.835	67.5
438.057	76.5
438.278	63.5
438.5	94.5
438.721	88.5
438.943	75.5
439.165	86.5
439.386	76.5
439.608	85.5
439.829	75.5
440.05	88.5
440.272	84.5
440.493	80.5
440.715	67.5
440.936	65.5
441.158	77.5
441.379	88.5
441.6	84.5
441.822	82.5
442.043	89.5
442.264	98.5
442.486	75.5
442.707	77.5
442.928	83.5
443.149	74.5
443.371	77.5
443.592	94.5
443.813	82.5
444.034	66.5
444.255	87.5
444.476	87.5
444.698	78.5
444.919	78.5
445.14	152.5
445.361	128.5
445.582	93.5
445.803	87.5
446.024	78.5
446.245	67.5
446.466	91.5
446.687	76.5
446.908	83.5
447.129	85.5
447.35	87.5
447.571	75.5
447.792	80.5
448.013	75.5
448.234	78.5
448.455	80.5
448.675	86.5
448.896	70.5
449.117	77.5
449.338	81.5
449.559	74.5
449.779	74.5
450	95.5
450.221	77.5
450.442	80.5
450.662	75.5
450.883	81.5
451.104	80.5
451.324	75.5
451.545	78.5
451.766	87.5
451.986	80.5
452.207	67.5
452.428	77.5
452.648	77.5
452.869	77.5
453.089	87.5
453.31	83.5
453.53	80.5
453.751	82.5
453.971	92.5
454.192	75.5
454.412	70.5
454.633	83.5
454.853	59.5
455.073	73.5
455.294	80.5
455.514	76.5
455.734	89.5
455.955	89.5
456.175	75.5
456.395	69.5
456.616	90.5
456.836	78.5
457.056	86.5
457.276	87.5
457.497	69.5
457.717	84.5
457.937	78.5
458.157	81.5
458.377	91.5
458.598	73.5
458.818	81.5
459.038	93.5
459.258	79.5
459.478	68.5
459.698	84.5
459.918	67.5
460.138	80.5
460.358	72.5
460.578	75.5
460.798	90.5
461.018	78.5
461.238	72.5
461.458	66.5
461.678	72.5
461.898	71.5
462.118	83.5
462.338	80.5
462.558	84.5
462.777	75.5
462.997	76.5
463.217	75.5
463.437	80.5
463.657	76.5
463.876	79.5
464.096	81.5
464.316	83.5
464.536	73.5
464.755	75.5
464.975	87.5
465.195	66.5
465.414	63.5
465.634	71.5
465.854	81.5
466.073	75.5
466.293	85.5
466.512	80.5
466.732	83.5
466.951	80.5
467.171	63.5
467.391	77.5
467.61	82.5
467.829	61.5
468.049	77.5
468.268	83.5
468.488	75.5
468.707	81.5
468.927	69.5
469.146	66.5
469.365	72.5
469.585	77.5
469.804	81.5
470.023	86.5
470.243	71.5
470.462	76.5
470.681	76.5
470.901	69.5
471.12	72.5
471.339	79.5
471.558	81.5
471.777	78.5
471.997	84.5
472.216	80.5
472.435	75.5
472.654	91.5
472.873	74.5
473.092	66.5
473.311	77.5
473.53	70.5
473.749	86.5
473.968	87.5
474.187	90.5
474.406	68.5
474.625	82.5
474.844	71.5
475.063	69.5
475.282	87.5
475.501	82.5
475.72	91.5
475.939	73.5
476.158	75.5
476.377	92.5
476.596	81.5
476.814	73.5
477.033	88.5
477.252	80.5
477.471	70.5
477.69	92.5
477.908	76.5
478.127	78.5
478.346	75.5
478.564	73.5
478.783	87.5
479.002	77.5
479.22	74.5
479.439	78.5
479.658	73.5
479.876	76.5
480.095	69.5
480.313	78.5
480.532	71.5
480.751	89.5
480.969	78.5
481.188	77.5
481.406	85.5
481.624	88.5
481.843	89.5
482.061	80.5
482.28	79.5
482.498	74.5
482.717	80.5
482.935	71.5
483.153	87.5
483.372	84.5
483.59	103.5
483.808	93.5
484.027	87.5
484.245	71.5
484.463	91.5
484.681	81.5
484.9	64.5
485.118	92.5
485.336	69.5
485.554	74.5
485.772	93.5
485.99	77.5
486.209	79.5
486.427	81.5
486.645	80.5
486.863	78.5
487.081	70.5
487.299	61.5
487.517	79.5
487.735	69.5
487.953	77.5
488.171	97.5
488.389	97.5
488.607	85.5
488.825	77.5
489.043	89.5
489.261	70.5
489.479	73.5
489.696	80.5
489.914	76.5
490.132	61.5
490.35	89.5
490.568	79.5
490.786	93.5
491.003	77.5
491.221	75.5
491.439	77.5
491.657	67.5
491.874	81.5
492.092	92.5
492.31	91.5
492.527	87.5
492.745	87.5
492.963	79.5
493.18	69.5
493.398	90.5
493.615	73.5
493.833	69.5
494.05	85.5
494.268	69.5
494.485	82.5
494.703	82.5
494.92	69.5
495.138	88.5
495.355	79.5
495.573	84.5
495.79	73.5
496.008	75.5
496.225	89.5
496.442	71.5
496.66	86.5
496.877	68.5
497.094	83.5
497.312	79.5
497.529	83.5
497.746	75.5
497.963	76.5
498.181	80.5
498.398	74.5
498.615	82.5
498.832	73.5
499.049	73.5
499.267	86.5
499.484	78.5
499.701	88.5
499.918	90.5
500.135	72.5
500.352	79.5
500.569	79.5
500.786	77.5
501.003	86.5
501.22	72.5
501.437	84.5
501.654	74.5
501.871	69.5
502.088	64.5
502.305	93.5
502.522	88.5
502.739	75.5
502.956	84.5
503.172	93.5
503.389	79.5
503.606	88.5
503.823	87.5
504.04	78.5
504.256	79.5
504.473	78.5
504.69	92.5
504.907	90.5
505.123	91.5
505.34	77.5
505.557	67.5
505.773	73.5
505.99	94.5
506.207	89.5
506.423	92.5
506.64	68.5
506.856	80.5
507.073	86.5
507.289	74.5
507.506	78.5
507.722	75.5
507.939	87.5
508.155	88.5
508.372	81.5
508.588	84.5
508.805	81.5
509.021	83.5
509.238	79.5
509.454	80.5
509.67	76.5
509.887	85.5
510.103	82.5
510.319	85.5
510.536	68.5
510.752	72.5
510.968	84.5
511.184	79.5
511.401	75.5
511.617	82.5
511.833	84.5
512.049	87.5
512.265	81.5
512.481	83.5
512.698	74.5
512.914	66.5
513.13	76.5
513.346	75.5
513.562	84.5
513.778	82.5
513.994	64.5
514.21	76.5
514.426	83.5
514.642	71.5
514.858	73.5
515.074	76.5
515.29	82.5
515.506	83.5
515.721	66.5
515.937	78.5
516.153	81.5
516.369	89.5
516.585	81.5
516.801	92.5
517.016	85.5
517.232	77.5
517.448	81.5
517.664	90.5
517.879	81.5
518.095	78.5
518.311	97.5
518.527	91.5
518.742	82.5
518.958	68.5
519.173	96.5
519.389	97.5
519.605	66.5
519.82	79.5
520.036	93.5
520.251	87.5
520.467	91.5
520.682	79.5
520.898	79.5
521.113	88.5
521.329	77.5
521.544	75.5
521.76	86.5
521.975	98.5
522.19	72.5
522.406	83.5
522.621	86.5
522.836	94.5
523.052	84.5
523.267	77.5
523.482	84.5
523.698	75.5
523.913	95.5
524.128	81.5
524.343	84.5
524.559	93.5
524.774	79.5
524.989	78.5
525.204	92.5
525.419	77.5
525.634	89.5
525.849	80.5
526.064	75.5
526.28	97.5
526.495	81.5
526.71	88.5
526.925	96.5
527.14	99.5
527.355	92.5
527.57	95.5
527.785	90.5
527.999	69.5
528.214	82.5
528.429	85.5
528.644	77.5
528.859	88.5
529.074	81.5
529.289	80.5
529.503	89.5
529.718	70.5
529.933	84.5
530.148	68.5
530.363	80.5
530.577	83.5
530.792	73.5
531.007	88.5
531.221	90.5
531.436	92.5
531.651	91.5
531.865	85.5
532.08	83.5
532.295	90.5
532.509	87.5
532.724	75.5
532.938	90.5
533.153	82.5
533.367	72.5
533.582	87.5
533.796	78.5
534.011	77.5
534.225	77.5
534.44	85.5
534.654	89.5
534.868	81.5
535.083	86.5
535.297	81.5
535.511	75.5
535.726	90.5
535.94	77.5
536.154	79.5
536.369	84.5
536.583	74.5
536.797	89.5
537.011	82.5
537.225	92.5
537.44	89.5
537.654	92.5
537.868	97.5
538.082	84.5
538.296	85.5
538.51	88.5
538.724	85.5
538.938	83.5
539.153	90.5
539.367	85.5
539.581	82.5
539.795	95.5
540.009	91.5
540.222	82.5
540.436	79.5
540.65	67.5
