Data from 1600_1_HRD10591_00048.txt Node
Date: Mon Jan 19 13:48:05 EST 2026
User: Yrep
Spectrometer: HR+D1059
Trigger mode: 1
Integration Time (sec): 1.000000E-1
Scans to average: 1
Electric dark correction enabled: true
Nonlinearity correction enabled: false
Boxcar width: 0
XAxis mode: Wavelengths
Number of Pixels in Spectrum: 2048
>>>>>Begin Spectral Data<<<<<
223.165	-20.75
223.4	-20.75
223.635	-20.75
223.869	-19.75
224.104	-18.75
224.338	-17.75
224.573	-10.75
224.808	-5.75
225.042	3.25
225.277	2.25
225.511	-6.75
225.746	3.25
225.98	5.25
226.215	14.25
226.449	4.25
226.683	9.25
226.918	12.25
227.152	46.25
227.387	47.25
227.621	47.25
227.856	43.25
228.09	49.25
228.324	49.25
228.559	67.25
228.793	70.25
229.027	58.25
229.262	59.25
229.496	78.25
229.73	53.25
229.964	69.25
230.199	66.25
230.433	62.25
230.667	85.25
230.901	78.25
231.136	80.25
231.37	81.25
231.604	66.25
231.838	75.25
232.072	81.25
232.306	86.25
232.541	75.25
232.775	90.25
233.009	83.25
233.243	83.25
233.477	88.25
233.711	76.25
233.945	72.25
234.179	89.25
234.413	75.25
234.647	71.25
234.881	84.25
235.115	77.25
235.349	82.25
235.583	82.25
235.817	86.25
236.051	79.25
236.285	75.25
236.519	68.25
236.753	71.25
236.987	76.25
237.221	72.25
237.455	82.25
237.689	86.25
237.922	70.25
238.156	76.25
238.39	84.25
238.624	74.25
238.858	79.25
239.091	83.25
239.325	75.25
239.559	67.25
239.793	76.25
240.027	75.25
240.26	77.25
240.494	79.25
240.728	70.25
240.961	86.25
241.195	67.25
241.429	75.25
241.662	82.25
241.896	82.25
242.13	63.25
242.363	82.25
242.597	73.25
242.83	72.25
243.064	74.25
243.298	72.25
243.531	79.25
243.765	74.25
243.998	81.25
244.232	70.25
244.465	70.25
244.699	76.25
244.932	73.25
245.166	83.25
245.399	76.25
245.633	77.25
245.866	69.25
246.099	77.25
246.333	77.25
246.566	91.25
246.8	76.25
247.033	59.25
247.266	66.25
247.5	77.25
247.733	82.25
247.966	63.25
248.2	90.25
248.433	87.25
248.666	86.25
248.899	86.25
249.133	75.25
249.366	77.25
249.599	82.25
249.832	67.25
250.066	75.25
250.299	83.25
250.532	81.25
250.765	71.25
250.998	83.25
251.231	70.25
251.465	81.25
251.698	76.25
251.931	69.25
252.164	65.25
252.397	87.25
252.63	78.25
252.863	77.25
253.096	82.25
253.329	81.25
253.562	56.25
253.795	81.25
254.028	81.25
254.261	75.25
254.494	75.25
254.727	81.25
254.96	71.25
255.193	91.25
255.426	79.25
255.659	82.25
255.892	89.25
256.124	63.25
256.357	65.25
256.59	82.25
256.823	71.25
257.056	89.25
257.289	74.25
257.521	79.25
257.754	80.25
257.987	75.25
258.22	73.25
258.452	72.25
258.685	79.25
258.918	71.25
259.151	92.25
259.383	67.25
259.616	69.25
259.849	84.25
260.081	71.25
260.314	86.25
260.547	90.25
260.779	84.25
261.012	84.25
261.244	78.25
261.477	93.25
261.71	71.25
261.942	78.25
262.175	65.25
262.407	79.25
262.64	71.25
262.872	81.25
263.105	81.25
263.337	81.25
263.57	68.25
263.802	83.25
264.035	71.25
264.267	73.25
264.499	77.25
264.732	72.25
264.964	90.25
265.197	77.25
265.429	81.25
265.661	87.25
265.894	79.25
266.126	78.25
266.358	85.25
266.591	75.25
266.823	88.25
267.055	79.25
267.287	80.25
267.52	77.25
267.752	80.25
267.984	81.25
268.216	90.25
268.448	87.25
268.681	66.25
268.913	86.25
269.145	81.25
269.377	84.25
269.609	71.25
269.841	89.25
270.073	68.25
270.306	89.25
270.538	73.25
270.77	91.25
271.002	85.25
271.234	90.25
271.466	89.25
271.698	83.25
271.93	81.25
272.162	77.25
272.394	85.25
272.626	97.25
272.858	73.25
273.09	89.25
273.322	83.25
273.553	91.25
273.785	78.25
274.017	77.25
274.249	59.25
274.481	90.25
274.713	72.25
274.945	81.25
275.176	80.25
275.408	82.25
275.64	80.25
275.872	89.25
276.104	77.25
276.335	76.25
276.567	82.25
276.799	81.25
277.031	76.25
277.262	92.25
277.494	97.25
277.726	83.25
277.957	90.25
278.189	74.25
278.421	86.25
278.652	84.25
278.884	89.25
279.115	83.25
279.347	87.25
279.579	96.25
279.81	71.25
280.042	81.25
280.273	75.25
280.505	78.25
280.736	84.25
280.968	97.25
281.199	75.25
281.431	99.25
281.662	84.25
281.894	104.25
282.125	94.25
282.356	79.25
282.588	79.25
282.819	92.25
283.051	74.25
283.282	84.25
283.513	70.25
283.745	81.25
283.976	77.25
284.207	91.25
284.439	81.25
284.67	64.25
284.901	82.25
285.132	78.25
285.364	78.25
285.595	84.25
285.826	88.25
286.057	72.25
286.288	84.25
286.52	81.25
286.751	91.25
286.982	86.25
287.213	85.25
287.444	91.25
287.675	87.25
287.906	91.25
288.138	79.25
288.369	86.25
288.6	87.25
288.831	78.25
289.062	78.25
289.293	82.25
289.524	84.25
289.755	81.25
289.986	79.25
290.217	83.25
290.448	70.25
290.679	79.25
290.91	86.25
291.141	93.25
291.371	81.25
291.602	89.25
291.833	88.25
292.064	88.25
292.295	63.25
292.526	91.25
292.757	89.25
292.987	81.25
293.218	77.25
293.449	78.25
293.68	77.25
293.91	83.25
294.141	83.25
294.372	94.25
294.603	88.25
294.833	85.25
295.064	74.25
295.295	89.25
295.525	65.25
295.756	61.25
295.987	75.25
296.217	77.25
296.448	79.25
296.679	81.25
296.909	84.25
297.14	95.25
297.37	96.25
297.601	93.25
297.831	76.25
298.062	86.25
298.292	79.25
298.523	90.25
298.753	82.25
298.984	72.25
299.214	91.25
299.445	74.25
299.675	83.25
299.905	85.25
300.136	83.25
300.366	82.25
300.597	78.25
300.827	100.25
301.057	83.25
301.288	96.25
301.518	80.25
301.748	84.25
301.979	81.25
302.209	92.25
302.439	77.25
302.669	89.25
302.9	95.25
303.13	76.25
303.36	85.25
303.59	90.25
303.82	81.25
304.051	86.25
304.281	93.25
304.511	93.25
304.741	88.25
304.971	81.25
305.201	87.25
305.431	77.25
305.661	83.25
305.891	85.25
306.121	94.25
306.352	81.25
306.582	71.25
306.812	75.25
307.042	87.25
307.272	73.25
307.502	87.25
307.731	73.25
307.961	69.25
308.191	77.25
308.421	68.25
308.651	88.25
308.881	72.25
309.111	72.25
309.341	78.25
309.571	93.25
309.8	86.25
310.03	70.25
310.26	77.25
310.49	77.25
310.72	80.25
310.949	99.25
311.179	87.25
311.409	72.25
311.639	79.25
311.868	81.25
312.098	83.25
312.328	91.25
312.557	93.25
312.787	75.25
313.017	101.25
313.246	86.25
313.476	87.25
313.706	90.25
313.935	93.25
314.165	70.25
314.394	98.25
314.624	97.25
314.853	83.25
315.083	81.25
315.312	76.25
315.542	78.25
315.771	93.25
316.001	81.25
316.23	75.25
316.46	85.25
316.689	94.25
316.919	78.25
317.148	87.25
317.377	93.25
317.607	94.25
317.836	88.25
318.065	98.25
318.295	85.25
318.524	90.25
318.753	79.25
318.983	86.25
319.212	83.25
319.441	92.25
319.67	77.25
319.9	77.25
320.129	98.25
320.358	75.25
320.587	92.25
320.816	100.25
321.046	80.25
321.275	92.25
321.504	82.25
321.733	86.25
321.962	86.25
322.191	72.25
322.42	88.25
322.649	87.25
322.878	62.25
323.108	87.25
323.337	94.25
323.566	102.25
323.795	85.25
324.024	81.25
324.253	87.25
324.482	85.25
324.71	84.25
324.939	75.25
325.168	83.25
325.397	100.25
325.626	99.25
325.855	74.25
326.084	83.25
326.313	85.25
326.542	87.25
326.77	79.25
326.999	85.25
327.228	86.25
327.457	85.25
327.686	90.25
327.914	69.25
328.143	78.25
328.372	89.25
328.6	83.25
328.829	85.25
329.058	71.25
329.287	87.25
329.515	80.25
329.744	92.25
329.972	88.25
330.201	96.25
330.43	89.25
330.658	82.25
330.887	87.25
331.115	78.25
331.344	77.25
331.572	88.25
331.801	93.25
332.03	69.25
332.258	81.25
332.486	87.25
332.715	90.25
332.943	82.25
333.172	66.25
333.4	73.25
333.629	73.25
333.857	80.25
334.085	85.25
334.314	85.25
334.542	80.25
334.771	86.25
334.999	73.25
335.227	81.25
335.455	96.25
335.684	79.25
335.912	77.25
336.14	79.25
336.369	94.25
336.597	78.25
336.825	80.25
337.053	94.25
337.281	82.25
337.51	68.25
337.738	78.25
337.966	79.25
338.194	88.25
338.422	93.25
338.65	89.25
338.878	85.25
339.106	92.25
339.334	91.25
339.562	86.25
339.79	81.25
340.018	94.25
340.246	98.25
340.474	77.25
340.702	89.25
340.93	66.25
341.158	65.25
341.386	90.25
341.614	87.25
341.842	91.25
342.07	94.25
342.298	82.25
342.526	97.25
342.754	81.25
342.981	98.25
343.209	90.25
343.437	93.25
343.665	82.25
343.893	89.25
344.12	84.25
344.348	82.25
344.576	80.25
344.804	83.25
345.031	83.25
345.259	98.25
345.487	87.25
345.714	86.25
345.942	82.25
346.17	82.25
346.397	85.25
346.625	87.25
346.853	85.25
347.08	92.25
347.308	90.25
347.535	80.25
347.763	77.25
347.99	92.25
348.218	77.25
348.445	79.25
348.673	71.25
348.9	79.25
349.128	84.25
349.355	83.25
349.583	80.25
349.81	88.25
350.037	80.25
350.265	88.25
350.492	82.25
350.72	93.25
350.947	69.25
351.174	90.25
351.402	81.25
351.629	93.25
351.856	83.25
352.083	64.25
352.311	81.25
352.538	80.25
352.765	75.25
352.992	77.25
353.22	89.25
353.447	75.25
353.674	69.25
353.901	83.25
354.128	82.25
354.355	86.25
354.583	87.25
354.81	78.25
355.037	85.25
355.264	79.25
355.491	96.25
355.718	93.25
355.945	85.25
356.172	100.25
356.399	87.25
356.626	76.25
356.853	96.25
357.08	89.25
357.307	95.25
357.534	82.25
357.761	86.25
357.988	94.25
358.215	80.25
358.441	76.25
358.668	95.25
358.895	95.25
359.122	77.25
359.349	86.25
359.576	83.25
359.802	85.25
360.029	83.25
360.256	92.25
360.483	87.25
360.709	85.25
360.936	84.25
361.163	69.25
361.39	75.25
361.616	78.25
361.843	91.25
362.07	82.25
362.296	85.25
362.523	91.25
362.749	84.25
362.976	85.25
363.203	67.25
363.429	85.25
363.656	79.25
363.882	76.25
364.109	82.25
364.335	79.25
364.562	73.25
364.788	89.25
365.015	89.25
365.241	72.25
365.468	76.25
365.694	87.25
365.92	79.25
366.147	88.25
366.373	77.25
366.599	84.25
366.826	97.25
367.052	79.25
367.278	68.25
367.505	84.25
367.731	83.25
367.957	70.25
368.184	83.25
368.41	68.25
368.636	86.25
368.862	85.25
369.089	87.25
369.315	76.25
369.541	82.25
369.767	68.25
369.993	81.25
370.219	80.25
370.445	89.25
370.672	71.25
370.898	81.25
371.124	69.25
371.35	70.25
371.576	80.25
371.802	71.25
372.028	73.25
372.254	89.25
372.48	79.25
372.706	80.25
372.932	69.25
373.158	77.25
373.384	104.25
373.61	92.25
373.835	69.25
374.061	77.25
374.287	90.25
374.513	80.25
374.739	92.25
374.965	85.25
375.191	85.25
375.416	81.25
375.642	97.25
375.868	77.25
376.094	92.25
376.319	82.25
376.545	73.25
376.771	71.25
376.997	84.25
377.222	86.25
377.448	97.25
377.674	75.25
377.899	77.25
378.125	73.25
378.35	77.25
378.576	68.25
378.802	71.25
379.027	79.25
379.253	86.25
379.478	101.25
379.704	87.25
379.929	87.25
380.155	82.25
380.38	94.25
380.606	65.25
380.831	77.25
381.057	73.25
381.282	86.25
381.507	85.25
381.733	78.25
381.958	79.25
382.184	77.25
382.409	99.25
382.634	89.25
382.86	81.25
383.085	80.25
383.31	92.25
383.535	75.25
383.761	69.25
383.986	71.25
384.211	74.25
384.436	86.25
384.662	87.25
384.887	77.25
385.112	68.25
385.337	83.25
385.562	78.25
385.787	82.25
386.013	76.25
386.238	83.25
386.463	65.25
386.688	80.25
386.913	84.25
387.138	69.25
387.363	70.25
387.588	77.25
387.813	77.25
388.038	67.25
388.263	89.25
388.488	92.25
388.713	70.25
388.938	74.25
389.163	85.25
389.387	85.25
389.612	79.25
389.837	95.25
390.062	81.25
390.287	63.25
390.512	73.25
390.736	63.25
390.961	70.25
391.186	93.25
391.411	81.25
391.636	77.25
391.86	70.25
392.085	80.25
392.31	93.25
392.534	67.25
392.759	73.25
392.984	85.25
393.208	69.25
393.433	90.25
393.658	86.25
393.882	83.25
394.107	86.25
394.331	90.25
394.556	87.25
394.78	84.25
395.005	76.25
395.229	74.25
395.454	85.25
395.678	84.25
395.903	100.25
396.127	83.25
396.352	81.25
396.576	78.25
396.801	69.25
397.025	80.25
397.249	77.25
397.474	77.25
397.698	73.25
397.922	78.25
398.147	75.25
398.371	77.25
398.595	76.25
398.82	77.25
399.044	77.25
399.268	91.25
399.492	85.25
399.717	75.25
399.941	71.25
400.165	70.25
400.389	65.25
400.613	73.25
400.837	75.25
401.062	71.25
401.286	81.25
401.51	78.25
401.734	82.25
401.958	82.25
402.182	72.25
402.406	83.25
402.63	79.25
402.854	88.25
403.078	69.25
403.302	77.25
403.526	68.25
403.75	73.25
403.974	87.25
404.198	75.25
404.422	75.25
404.645	68.25
404.869	66.25
405.093	83.25
405.317	90.25
405.541	77.25
405.765	86.25
405.988	81.25
406.212	77.25
406.436	73.25
406.66	89.25
406.883	75.25
407.107	71.25
407.331	85.25
407.555	88.25
407.778	69.25
408.002	105.25
408.226	70.25
408.449	80.25
408.673	99.25
408.896	75.25
409.12	97.25
409.344	85.25
409.567	84.25
409.791	78.25
410.014	82.25
410.238	70.25
410.461	82.25
410.685	78.25
410.908	80.25
411.132	79.25
411.355	81.25
411.578	80.25
411.802	79.25
412.025	85.25
412.249	82.25
412.472	94.25
412.695	83.25
412.919	78.25
413.142	96.25
413.365	94.25
413.589	75.25
413.812	95.25
414.035	86.25
414.258	83.25
414.482	81.25
414.705	85.25
414.928	78.25
415.151	65.25
415.374	67.25
415.597	86.25
415.821	70.25
416.044	81.25
416.267	87.25
416.49	94.25
416.713	69.25
416.936	81.25
417.159	75.25
417.382	74.25
417.605	82.25
417.828	81.25
418.051	80.25
418.274	83.25
418.497	85.25
418.72	83.25
418.943	76.25
419.166	83.25
419.389	81.25
419.611	76.25
419.834	78.25
420.057	69.25
420.28	90.25
420.503	86.25
420.726	87.25
420.948	77.25
421.171	70.25
421.394	73.25
421.617	70.25
421.839	77.25
422.062	85.25
422.285	60.25
422.507	81.25
422.73	82.25
422.953	89.25
423.175	79.25
423.398	65.25
423.621	88.25
423.843	78.25
424.066	78.25
424.288	82.25
424.511	79.25
424.733	98.25
424.956	77.25
425.178	71.25
425.401	83.25
425.623	69.25
425.846	81.25
426.068	90.25
426.291	89.25
426.513	71.25
426.735	86.25
426.958	80.25
427.18	90.25
427.402	79.25
427.625	83.25
427.847	77.25
428.069	75.25
428.292	79.25
428.514	69.25
428.736	69.25
428.958	85.25
429.181	79.25
429.403	68.25
429.625	81.25
429.847	81.25
430.069	86.25
430.292	87.25
430.514	83.25
430.736	75.25
430.958	70.25
431.18	69.25
431.402	84.25
431.624	91.25
431.846	85.25
432.068	90.25
432.29	89.25
432.512	79.25
432.734	78.25
432.956	96.25
433.178	89.25
433.4	80.25
433.622	65.25
433.844	77.25
434.066	79.25
434.287	74.25
434.509	74.25
434.731	81.25
434.953	78.25
435.175	76.25
435.397	78.25
435.618	78.25
435.84	86.25
436.062	77.25
436.284	69.25
436.505	97.25
436.727	75.25
436.949	93.25
437.17	84.25
437.392	75.25
437.614	81.25
437.835	75.25
438.057	72.25
438.278	76.25
438.5	85.25
438.721	83.25
438.943	95.25
439.165	68.25
439.386	87.25
439.608	82.25
439.829	84.25
440.05	89.25
440.272	85.25
440.493	74.25
440.715	69.25
440.936	103.25
441.158	82.25
441.379	74.25
441.6	86.25
441.822	79.25
442.043	79.25
442.264	78.25
442.486	97.25
442.707	79.25
442.928	84.25
443.149	74.25
443.371	93.25
443.592	96.25
443.813	85.25
444.034	78.25
444.255	76.25
444.476	78.25
444.698	76.25
444.919	70.25
445.14	163.25
445.361	117.25
445.582	85.25
445.803	78.25
446.024	78.25
446.245	78.25
446.466	84.25
446.687	89.25
446.908	80.25
447.129	69.25
447.35	94.25
447.571	71.25
447.792	67.25
448.013	89.25
448.234	86.25
448.455	69.25
448.675	70.25
448.896	86.25
449.117	70.25
449.338	81.25
449.559	76.25
449.779	77.25
450	86.25
450.221	85.25
450.442	82.25
450.662	77.25
450.883	73.25
451.104	81.25
451.324	71.25
451.545	65.25
451.766	68.25
451.986	66.25
452.207	78.25
452.428	77.25
452.648	72.25
452.869	79.25
453.089	66.25
453.31	69.25
453.53	80.25
453.751	89.25
453.971	78.25
454.192	77.25
454.412	94.25
454.633	82.25
454.853	87.25
455.073	69.25
455.294	71.25
455.514	87.25
455.734	83.25
455.955	85.25
456.175	84.25
456.395	84.25
456.616	83.25
456.836	85.25
457.056	81.25
457.276	72.25
457.497	74.25
457.717	63.25
457.937	93.25
458.157	78.25
458.377	96.25
458.598	81.25
458.818	85.25
459.038	77.25
459.258	76.25
459.478	75.25
459.698	83.25
459.918	88.25
460.138	78.25
460.358	87.25
460.578	76.25
460.798	101.25
461.018	81.25
461.238	74.25
461.458	74.25
461.678	82.25
461.898	71.25
462.118	81.25
462.338	91.25
462.558	88.25
462.777	82.25
462.997	73.25
463.217	82.25
463.437	79.25
463.657	83.25
463.876	95.25
464.096	83.25
464.316	79.25
464.536	82.25
464.755	79.25
464.975	86.25
465.195	80.25
465.414	86.25
465.634	83.25
465.854	84.25
466.073	82.25
466.293	79.25
466.512	99.25
466.732	87.25
466.951	75.25
467.171	83.25
467.391	86.25
467.61	80.25
467.829	83.25
468.049	78.25
468.268	71.25
468.488	87.25
468.707	82.25
468.927	85.25
469.146	77.25
469.365	71.25
469.585	85.25
469.804	76.25
470.023	86.25
470.243	79.25
470.462	86.25
470.681	86.25
470.901	94.25
471.12	75.25
471.339	83.25
471.558	78.25
471.777	77.25
471.997	91.25
472.216	77.25
472.435	85.25
472.654	66.25
472.873	82.25
473.092	85.25
473.311	77.25
473.53	83.25
473.749	86.25
473.968	88.25
474.187	71.25
474.406	77.25
474.625	81.25
474.844	88.25
475.063	83.25
475.282	72.25
475.501	86.25
475.72	93.25
475.939	74.25
476.158	85.25
476.377	85.25
476.596	80.25
476.814	72.25
477.033	90.25
477.252	88.25
477.471	74.25
477.69	76.25
477.908	76.25
478.127	80.25
478.346	81.25
478.564	75.25
478.783	86.25
479.002	85.25
479.22	84.25
479.439	74.25
479.658	72.25
479.876	73.25
480.095	60.25
480.313	77.25
480.532	87.25
480.751	94.25
480.969	82.25
481.188	90.25
481.406	70.25
481.624	75.25
481.843	68.25
482.061	78.25
482.28	87.25
482.498	86.25
482.717	78.25
482.935	70.25
483.153	78.25
483.372	89.25
483.59	87.25
483.808	79.25
484.027	82.25
484.245	96.25
484.463	82.25
484.681	71.25
484.9	79.25
485.118	69.25
485.336	71.25
485.554	81.25
485.772	77.25
485.99	87.25
486.209	97.25
486.427	72.25
486.645	77.25
486.863	84.25
487.081	92.25
487.299	82.25
487.517	85.25
487.735	88.25
487.953	81.25
488.171	83.25
488.389	97.25
488.607	82.25
488.825	68.25
489.043	84.25
489.261	91.25
489.479	65.25
489.696	78.25
489.914	89.25
490.132	71.25
490.35	77.25
490.568	78.25
490.786	95.25
491.003	89.25
491.221	78.25
491.439	75.25
491.657	81.25
491.874	83.25
492.092	73.25
492.31	90.25
492.527	86.25
492.745	82.25
492.963	83.25
493.18	77.25
493.398	88.25
493.615	69.25
493.833	77.25
494.05	79.25
494.268	74.25
494.485	76.25
494.703	81.25
494.92	76.25
495.138	73.25
495.355	82.25
495.573	74.25
495.79	71.25
496.008	89.25
496.225	89.25
496.442	87.25
496.66	77.25
496.877	77.25
497.094	79.25
497.312	75.25
497.529	83.25
497.746	78.25
497.963	85.25
498.181	81.25
498.398	66.25
498.615	81.25
498.832	72.25
499.049	79.25
499.267	100.25
499.484	68.25
499.701	91.25
499.918	79.25
500.135	66.25
500.352	73.25
500.569	83.25
500.786	81.25
501.003	84.25
501.22	78.25
501.437	88.25
501.654	78.25
501.871	72.25
502.088	86.25
502.305	95.25
502.522	84.25
502.739	85.25
502.956	86.25
503.172	93.25
503.389	81.25
503.606	83.25
503.823	84.25
504.04	84.25
504.256	90.25
504.473	84.25
504.69	67.25
504.907	78.25
505.123	75.25
505.34	77.25
505.557	76.25
505.773	75.25
505.99	81.25
506.207	83.25
506.423	81.25
506.64	78.25
506.856	82.25
507.073	89.25
507.289	89.25
507.506	78.25
507.722	93.25
507.939	92.25
508.155	83.25
508.372	94.25
508.588	73.25
508.805	72.25
509.021	72.25
509.238	101.25
509.454	68.25
509.67	69.25
509.887	78.25
510.103	78.25
510.319	89.25
510.536	92.25
510.752	84.25
510.968	84.25
511.184	93.25
511.401	77.25
511.617	73.25
511.833	80.25
512.049	82.25
512.265	85.25
512.481	80.25
512.698	81.25
512.914	66.25
513.13	75.25
513.346	99.25
513.562	94.25
513.778	76.25
513.994	76.25
514.21	95.25
514.426	83.25
514.642	82.25
514.858	89.25
515.074	75.25
515.29	90.25
515.506	80.25
515.721	77.25
515.937	89.25
516.153	70.25
516.369	75.25
516.585	79.25
516.801	97.25
517.016	81.25
517.232	89.25
517.448	89.25
517.664	74.25
517.879	80.25
518.095	84.25
518.311	92.25
518.527	81.25
518.742	77.25
518.958	71.25
519.173	79.25
519.389	76.25
519.605	83.25
519.82	79.25
520.036	94.25
520.251	72.25
