Data from 1600_1_HRD10591_00005.txt Node
Date: Mon Jan 19 13:47:43 EST 2026
User: Yrep
Spectrometer: HR+D1059
Trigger mode: 1
Integration Time (sec): 1.000000E-1
Scans to average: 1
Electric dark correction enabled: true
Nonlinearity correction enabled: false
Boxcar width: 0
XAxis mode: Wavelengths
Number of Pixels in Spectrum: 2048
>>>>>Begin Spectral Data<<<<<
223.165	-33.19
223.4	-33.19
223.635	-33.19
223.869	-28.19
224.104	-14.19
224.338	-12.19
224.573	-15.19
224.808	-17.19
225.042	-12.19
225.277	-5.19
225.511	4.81
225.746	12.81
225.98	9.81
226.215	-4.19
226.449	33.81
226.683	12.81
226.918	29.81
227.152	37.81
227.387	32.81
227.621	29.81
227.856	27.81
228.09	54.81
228.324	48.81
228.559	62.81
228.793	58.81
229.027	51.81
229.262	62.81
229.496	45.81
229.73	65.81
229.964	73.81
230.199	65.81
230.433	76.81
230.667	69.81
230.901	70.81
231.136	64.81
231.37	78.81
231.604	67.81
231.838	76.81
232.072	80.81
232.306	80.81
232.541	77.81
232.775	73.81
233.009	84.81
233.243	88.81
233.477	78.81
233.711	69.81
233.945	79.81
234.179	88.81
234.413	84.81
234.647	75.81
234.881	81.81
235.115	86.81
235.349	77.81
235.583	78.81
235.817	75.81
236.051	65.81
236.285	80.81
236.519	67.81
236.753	80.81
236.987	66.81
237.221	98.81
237.455	71.81
237.689	67.81
237.922	90.81
238.156	62.81
238.39	72.81
238.624	72.81
238.858	73.81
239.091	66.81
239.325	64.81
239.559	83.81
239.793	68.81
240.027	76.81
240.26	63.81
240.494	61.81
240.728	63.81
240.961	69.81
241.195	82.81
241.429	67.81
241.662	76.81
241.896	84.81
242.13	75.81
242.363	74.81
242.597	70.81
242.83	60.81
243.064	66.81
243.298	80.81
243.531	78.81
243.765	78.81
243.998	85.81
244.232	70.81
244.465	74.81
244.699	75.81
244.932	80.81
245.166	76.81
245.399	71.81
245.633	99.81
245.866	91.81
246.099	75.81
246.333	77.81
246.566	83.81
246.8	84.81
247.033	76.81
247.266	77.81
247.5	88.81
247.733	76.81
247.966	80.81
248.2	76.81
248.433	68.81
248.666	69.81
248.899	65.81
249.133	70.81
249.366	67.81
249.599	88.81
249.832	78.81
250.066	88.81
250.299	75.81
250.532	79.81
250.765	77.81
250.998	80.81
251.231	78.81
251.465	80.81
251.698	73.81
251.931	73.81
252.164	71.81
252.397	81.81
252.63	99.81
252.863	74.81
253.096	72.81
253.329	87.81
253.562	79.81
253.795	87.81
254.028	68.81
254.261	70.81
254.494	76.81
254.727	80.81
254.96	81.81
255.193	96.81
255.426	68.81
255.659	71.81
255.892	74.81
256.124	71.81
256.357	87.81
256.59	77.81
256.823	86.81
257.056	70.81
257.289	85.81
257.521	63.81
257.754	68.81
257.987	91.81
258.22	75.81
258.452	86.81
258.685	83.81
258.918	87.81
259.151	70.81
259.383	70.81
259.616	58.81
259.849	88.81
260.081	94.81
260.314	67.81
260.547	80.81
260.779	84.81
261.012	87.81
261.244	76.81
261.477	91.81
261.71	80.81
261.942	77.81
262.175	79.81
262.407	83.81
262.64	70.81
262.872	83.81
263.105	68.81
263.337	92.81
263.57	72.81
263.802	86.81
264.035	71.81
264.267	73.81
264.499	80.81
264.732	90.81
264.964	82.81
265.197	83.81
265.429	81.81
265.661	78.81
265.894	89.81
266.126	74.81
266.358	75.81
266.591	81.81
266.823	96.81
267.055	74.81
267.287	84.81
267.52	77.81
267.752	82.81
267.984	81.81
268.216	70.81
268.448	81.81
268.681	84.81
268.913	97.81
269.145	84.81
269.377	81.81
269.609	85.81
269.841	69.81
270.073	86.81
270.306	82.81
270.538	82.81
270.77	73.81
271.002	80.81
271.234	78.81
271.466	90.81
271.698	72.81
271.93	80.81
272.162	66.81
272.394	96.81
272.626	79.81
272.858	58.81
273.09	76.81
273.322	74.81
273.553	89.81
273.785	95.81
274.017	85.81
274.249	90.81
274.481	87.81
274.713	72.81
274.945	76.81
275.176	103.81
275.408	79.81
275.64	78.81
275.872	82.81
276.104	80.81
276.335	86.81
276.567	85.81
276.799	76.81
277.031	86.81
277.262	74.81
277.494	82.81
277.726	74.81
277.957	72.81
278.189	92.81
278.421	90.81
278.652	76.81
278.884	90.81
279.115	79.81
279.347	86.81
279.579	78.81
279.81	70.81
280.042	90.81
280.273	79.81
280.505	80.81
280.736	83.81
280.968	76.81
281.199	84.81
281.431	88.81
281.662	77.81
281.894	80.81
282.125	83.81
282.356	70.81
282.588	69.81
282.819	79.81
283.051	68.81
283.282	73.81
283.513	103.81
283.745	86.81
283.976	77.81
284.207	78.81
284.439	99.81
284.67	83.81
284.901	73.81
285.132	88.81
285.364	89.81
285.595	78.81
285.826	93.81
286.057	78.81
286.288	83.81
286.52	90.81
286.751	86.81
286.982	95.81
287.213	81.81
287.444	72.81
287.675	90.81
287.906	88.81
288.138	80.81
288.369	85.81
288.6	88.81
288.831	80.81
289.062	79.81
289.293	71.81
289.524	75.81
289.755	77.81
289.986	86.81
290.217	94.81
290.448	88.81
290.679	78.81
290.91	87.81
291.141	87.81
291.371	83.81
291.602	72.81
291.833	81.81
292.064	78.81
292.295	77.81
292.526	84.81
292.757	76.81
292.987	69.81
293.218	92.81
293.449	81.81
293.68	90.81
293.91	85.81
294.141	79.81
294.372	93.81
294.603	86.81
294.833	85.81
295.064	75.81
295.295	83.81
295.525	82.81
295.756	83.81
295.987	87.81
296.217	78.81
296.448	84.81
296.679	79.81
296.909	76.81
297.14	93.81
297.37	81.81
297.601	69.81
297.831	91.81
298.062	95.81
298.292	91.81
298.523	87.81
298.753	88.81
298.984	86.81
299.214	94.81
299.445	86.81
299.675	83.81
299.905	89.81
300.136	84.81
300.366	73.81
300.597	93.81
300.827	83.81
301.057	82.81
301.288	78.81
301.518	86.81
301.748	80.81
301.979	110.81
302.209	85.81
302.439	99.81
302.669	83.81
302.9	89.81
303.13	82.81
303.36	90.81
303.59	77.81
303.82	83.81
304.051	94.81
304.281	91.81
304.511	80.81
304.741	80.81
304.971	90.81
305.201	90.81
305.431	81.81
305.661	96.81
305.891	84.81
306.121	83.81
306.352	82.81
306.582	71.81
306.812	79.81
307.042	91.81
307.272	67.81
307.502	90.81
307.731	76.81
307.961	86.81
308.191	90.81
308.421	88.81
308.651	79.81
308.881	77.81
309.111	79.81
309.341	81.81
309.571	84.81
309.8	94.81
310.03	76.81
310.26	71.81
310.49	68.81
310.72	77.81
310.949	78.81
311.179	79.81
311.409	87.81
311.639	85.81
311.868	84.81
312.098	82.81
312.328	91.81
312.557	90.81
312.787	96.81
313.017	90.81
313.246	78.81
313.476	86.81
313.706	81.81
313.935	71.81
314.165	78.81
314.394	69.81
314.624	93.81
314.853	81.81
315.083	85.81
315.312	81.81
315.542	84.81
315.771	84.81
316.001	79.81
316.23	70.81
316.46	83.81
316.689	88.81
316.919	86.81
317.148	78.81
317.377	78.81
317.607	81.81
317.836	85.81
318.065	76.81
318.295	86.81
318.524	77.81
318.753	94.81
318.983	83.81
319.212	87.81
319.441	86.81
319.67	88.81
319.9	73.81
320.129	95.81
320.358	67.81
320.587	88.81
320.816	84.81
321.046	92.81
321.275	94.81
321.504	84.81
321.733	74.81
321.962	90.81
322.191	101.81
322.42	83.81
322.649	78.81
322.878	87.81
323.108	79.81
323.337	86.81
323.566	87.81
323.795	97.81
324.024	85.81
324.253	92.81
324.482	84.81
324.71	66.81
324.939	76.81
325.168	67.81
325.397	78.81
325.626	78.81
325.855	84.81
326.084	80.81
326.313	84.81
326.542	85.81
326.77	85.81
326.999	91.81
327.228	93.81
327.457	77.81
327.686	78.81
327.914	83.81
328.143	87.81
328.372	85.81
328.6	76.81
328.829	88.81
329.058	78.81
329.287	86.81
329.515	79.81
329.744	72.81
329.972	86.81
330.201	80.81
330.43	91.81
330.658	76.81
330.887	70.81
331.115	81.81
331.344	80.81
331.572	78.81
331.801	90.81
332.03	79.81
332.258	73.81
332.486	84.81
332.715	84.81
332.943	80.81
333.172	67.81
333.4	66.81
333.629	62.81
333.857	79.81
334.085	83.81
334.314	92.81
334.542	86.81
334.771	82.81
334.999	86.81
335.227	84.81
335.455	84.81
335.684	98.81
335.912	100.81
336.14	91.81
336.369	84.81
336.597	86.81
336.825	94.81
337.053	81.81
337.281	80.81
337.51	66.81
337.738	88.81
337.966	82.81
338.194	73.81
338.422	73.81
338.65	90.81
338.878	69.81
339.106	79.81
339.334	81.81
339.562	100.81
339.79	76.81
340.018	92.81
340.246	84.81
340.474	97.81
340.702	92.81
340.93	73.81
341.158	68.81
341.386	76.81
341.614	75.81
341.842	84.81
342.07	82.81
342.298	81.81
342.526	90.81
342.754	92.81
342.981	74.81
343.209	92.81
343.437	80.81
343.665	71.81
343.893	86.81
344.12	89.81
344.348	84.81
344.576	86.81
344.804	80.81
345.031	82.81
345.259	87.81
345.487	83.81
345.714	81.81
345.942	85.81
346.17	88.81
346.397	75.81
346.625	66.81
346.853	83.81
347.08	85.81
347.308	86.81
347.535	80.81
347.763	74.81
347.99	82.81
348.218	87.81
348.445	85.81
348.673	76.81
348.9	79.81
349.128	89.81
349.355	92.81
349.583	86.81
349.81	87.81
350.037	83.81
350.265	71.81
350.492	72.81
350.72	73.81
350.947	72.81
351.174	71.81
351.402	78.81
351.629	78.81
351.856	78.81
352.083	89.81
352.311	80.81
352.538	86.81
352.765	90.81
352.992	94.81
353.22	101.81
353.447	82.81
353.674	87.81
353.901	84.81
354.128	78.81
354.355	91.81
354.583	101.81
354.81	95.81
355.037	87.81
355.264	83.81
355.491	80.81
355.718	74.81
355.945	95.81
356.172	82.81
356.399	85.81
356.626	83.81
356.853	81.81
357.08	88.81
357.307	74.81
357.534	74.81
357.761	75.81
357.988	84.81
358.215	95.81
358.441	94.81
358.668	70.81
358.895	96.81
359.122	90.81
359.349	84.81
359.576	91.81
359.802	78.81
360.029	82.81
360.256	73.81
360.483	90.81
360.709	83.81
360.936	89.81
361.163	79.81
361.39	79.81
361.616	93.81
361.843	73.81
362.07	71.81
362.296	89.81
362.523	79.81
362.749	91.81
362.976	80.81
363.203	88.81
363.429	81.81
363.656	91.81
363.882	63.81
364.109	82.81
364.335	74.81
364.562	76.81
364.788	87.81
365.015	106.81
365.241	76.81
365.468	87.81
365.694	85.81
365.92	79.81
366.147	96.81
366.373	90.81
366.599	94.81
366.826	83.81
367.052	85.81
367.278	88.81
367.505	84.81
367.731	85.81
367.957	71.81
368.184	93.81
368.41	94.81
368.636	78.81
368.862	97.81
369.089	98.81
369.315	75.81
369.541	90.81
369.767	80.81
369.993	88.81
370.219	84.81
370.445	78.81
370.672	74.81
370.898	79.81
371.124	84.81
371.35	88.81
371.576	91.81
371.802	94.81
372.028	84.81
372.254	75.81
372.48	78.81
372.706	84.81
372.932	85.81
373.158	85.81
373.384	80.81
373.61	79.81
373.835	85.81
374.061	72.81
374.287	92.81
374.513	84.81
374.739	82.81
374.965	94.81
375.191	90.81
375.416	75.81
375.642	87.81
375.868	95.81
376.094	77.81
376.319	70.81
376.545	78.81
376.771	77.81
376.997	87.81
377.222	82.81
377.448	87.81
377.674	78.81
377.899	73.81
378.125	80.81
378.35	76.81
378.576	92.81
378.802	69.81
379.027	79.81
379.253	87.81
379.478	88.81
379.704	78.81
379.929	80.81
380.155	81.81
380.38	76.81
380.606	76.81
380.831	95.81
381.057	100.81
381.282	97.81
381.507	86.81
381.733	87.81
381.958	87.81
382.184	78.81
382.409	99.81
382.634	84.81
382.86	88.81
383.085	97.81
383.31	93.81
383.535	94.81
383.761	90.81
383.986	86.81
384.211	81.81
384.436	76.81
384.662	74.81
384.887	76.81
385.112	86.81
385.337	78.81
385.562	79.81
385.787	92.81
386.013	79.81
386.238	80.81
386.463	91.81
386.688	94.81
386.913	87.81
387.138	79.81
387.363	63.81
387.588	76.81
387.813	83.81
388.038	80.81
388.263	68.81
388.488	86.81
388.713	85.81
388.938	84.81
389.163	78.81
389.387	74.81
389.612	84.81
389.837	71.81
390.062	93.81
390.287	83.81
390.512	78.81
390.736	68.81
390.961	78.81
391.186	87.81
391.411	82.81
391.636	85.81
391.86	87.81
392.085	75.81
392.31	67.81
392.534	84.81
392.759	81.81
392.984	78.81
393.208	101.81
393.433	86.81
393.658	86.81
393.882	69.81
394.107	76.81
394.331	89.81
394.556	82.81
394.78	81.81
395.005	84.81
395.229	73.81
395.454	75.81
395.678	80.81
395.903	96.81
396.127	89.81
396.352	86.81
396.576	87.81
396.801	94.81
397.025	111.81
397.249	89.81
397.474	92.81
397.698	77.81
397.922	72.81
398.147	72.81
398.371	85.81
398.595	82.81
398.82	78.81
399.044	87.81
399.268	85.81
399.492	82.81
399.717	96.81
399.941	100.81
400.165	83.81
400.389	82.81
400.613	74.81
400.837	86.81
401.062	84.81
401.286	82.81
401.51	77.81
401.734	83.81
401.958	86.81
402.182	81.81
402.406	81.81
402.63	78.81
402.854	80.81
403.078	87.81
403.302	80.81
403.526	81.81
403.75	86.81
403.974	70.81
404.198	80.81
404.422	93.81
404.645	77.81
404.869	87.81
405.093	81.81
405.317	78.81
405.541	88.81
405.765	85.81
405.988	72.81
406.212	87.81
406.436	76.81
406.66	81.81
406.883	73.81
407.107	73.81
407.331	83.81
407.555	71.81
407.778	87.81
408.002	78.81
408.226	74.81
408.449	74.81
408.673	78.81
408.896	77.81
409.12	82.81
409.344	78.81
409.567	79.81
409.791	77.81
410.014	92.81
410.238	95.81
410.461	75.81
410.685	85.81
410.908	89.81
411.132	87.81
411.355	78.81
411.578	78.81
411.802	81.81
412.025	80.81
412.249	69.81
412.472	70.81
412.695	81.81
412.919	84.81
413.142	83.81
413.365	81.81
413.589	72.81
413.812	75.81
414.035	78.81
414.258	82.81
414.482	73.81
414.705	74.81
414.928	63.81
415.151	79.81
415.374	68.81
415.597	77.81
415.821	79.81
416.044	77.81
416.267	80.81
416.49	70.81
416.713	83.81
416.936	78.81
417.159	78.81
417.382	93.81
417.605	70.81
417.828	87.81
418.051	75.81
418.274	80.81
418.497	81.81
418.72	81.81
418.943	64.81
419.166	77.81
419.389	85.81
419.611	68.81
419.834	78.81
420.057	83.81
420.28	70.81
420.503	81.81
420.726	82.81
420.948	78.81
421.171	79.81
421.394	74.81
421.617	91.81
421.839	75.81
422.062	81.81
422.285	85.81
422.507	95.81
422.73	123.81
422.953	108.81
423.175	79.81
423.398	76.81
423.621	91.81
423.843	81.81
424.066	63.81
424.288	85.81
424.511	101.81
424.733	84.81
424.956	73.81
425.178	84.81
425.401	77.81
425.623	72.81
425.846	82.81
426.068	90.81
426.291	88.81
426.513	79.81
426.735	72.81
426.958	75.81
427.18	77.81
427.402	80.81
427.625	65.81
427.847	90.81
428.069	90.81
428.292	84.81
428.514	98.81
428.736	93.81
428.958	84.81
429.181	90.81
429.403	78.81
429.625	82.81
429.847	78.81
430.069	95.81
430.292	100.81
430.514	83.81
430.736	94.81
430.958	78.81
431.18	74.81
431.402	93.81
431.624	85.81
431.846	79.81
432.068	92.81
432.29	84.81
432.512	91.81
432.734	85.81
432.956	96.81
433.178	73.81
433.4	83.81
433.622	83.81
433.844	85.81
434.066	85.81
434.287	64.81
434.509	87.81
434.731	78.81
434.953	80.81
435.175	90.81
435.397	76.81
435.618	83.81
435.84	83.81
436.062	83.81
436.284	80.81
436.505	80.81
436.727	91.81
436.949	81.81
437.17	77.81
437.392	70.81
437.614	93.81
437.835	84.81
438.057	88.81
438.278	63.81
438.5	84.81
438.721	96.81
438.943	70.81
439.165	68.81
439.386	77.81
439.608	82.81
439.829	80.81
440.05	71.81
440.272	69.81
440.493	73.81
440.715	78.81
440.936	86.81
441.158	84.81
441.379	73.81
441.6	79.81
441.822	78.81
442.043	80.81
442.264	98.81
442.486	86.81
442.707	81.81
442.928	78.81
443.149	85.81
443.371	78.81
443.592	96.81
443.813	87.81
444.034	77.81
444.255	83.81
444.476	87.81
444.698	73.81
444.919	75.81
445.14	167.81
445.361	118.81
445.582	85.81
445.803	82.81
446.024	90.81
446.245	85.81
446.466	85.81
446.687	76.81
446.908	81.81
447.129	75.81
447.35	88.81
447.571	77.81
447.792	76.81
448.013	78.81
448.234	76.81
448.455	92.81
448.675	79.81
448.896	60.81
449.117	85.81
449.338	84.81
449.559	92.81
449.779	74.81
450	69.81
450.221	81.81
450.442	92.81
450.662	79.81
450.883	75.81
451.104	66.81
451.324	73.81
451.545	82.81
451.766	91.81
451.986	91.81
452.207	70.81
452.428	89.81
452.648	82.81
452.869	70.81
453.089	86.81
453.31	71.81
453.53	79.81
453.751	95.81
453.971	86.81
454.192	80.81
454.412	86.81
454.633	79.81
454.853	92.81
455.073	64.81
455.294	99.81
455.514	76.81
455.734	84.81
455.955	85.81
456.175	82.81
456.395	98.81
456.616	82.81
456.836	83.81
457.056	84.81
457.276	73.81
457.497	80.81
457.717	81.81
457.937	80.81
458.157	84.81
458.377	75.81
458.598	86.81
458.818	76.81
459.038	96.81
459.258	87.81
459.478	65.81
459.698	91.81
459.918	90.81
460.138	83.81
460.358	90.81
460.578	88.81
460.798	79.81
461.018	78.81
461.238	72.81
461.458	88.81
461.678	76.81
461.898	70.81
462.118	87.81
462.338	76.81
462.558	80.81
462.777	72.81
462.997	84.81
463.217	75.81
463.437	67.81
463.657	73.81
463.876	78.81
464.096	80.81
464.316	80.81
464.536	93.81
464.755	84.81
464.975	82.81
465.195	69.81
465.414	68.81
465.634	83.81
465.854	90.81
466.073	81.81
466.293	68.81
466.512	88.81
466.732	76.81
466.951	79.81
467.171	74.81
467.391	81.81
467.61	83.81
467.829	80.81
468.049	85.81
468.268	91.81
468.488	84.81
468.707	57.81
468.927	76.81
469.146	70.81
469.365	88.81
469.585	69.81
469.804	85.81
470.023	83.81
470.243	79.81
470.462	80.81
470.681	82.81
470.901	76.81
471.12	81.81
471.339	90.81
471.558	79.81
471.777	86.81
471.997	73.81
472.216	77.81
472.435	71.81
472.654	75.81
472.873	80.81
473.092	87.81
473.311	80.81
473.53	84.81
473.749	102.81
473.968	79.81
474.187	86.81
474.406	79.81
474.625	86.81
474.844	73.81
475.063	82.81
475.282	74.81
475.501	70.81
475.72	81.81
475.939	89.81
476.158	89.81
476.377	86.81
476.596	80.81
476.814	78.81
477.033	77.81
477.252	78.81
477.471	71.81
477.69	82.81
477.908	98.81
478.127	76.81
478.346	88.81
478.564	74.81
478.783	74.81
479.002	76.81
479.22	86.81
479.439	92.81
479.658	65.81
479.876	73.81
480.095	91.81
480.313	71.81
480.532	84.81
480.751	76.81
480.969	74.81
481.188	71.81
481.406	77.81
481.624	81.81
481.843	82.81
482.061	72.81
482.28	79.81
482.498	83.81
482.717	85.81
482.935	80.81
483.153	71.81
483.372	84.81
483.59	85.81
483.808	98.81
484.027	87.81
484.245	88.81
484.463	71.81
484.681	90.81
484.9	74.81
485.118	87.81
485.336	61.81
485.554	94.81
485.772	87.81
485.99	87.81
486.209	71.81
486.427	65.81
486.645	79.81
486.863	70.81
487.081	80.81
487.299	73.81
487.517	77.81
487.735	68.81
487.953	87.81
488.171	88.81
488.389	87.81
488.607	89.81
488.825	85.81
489.043	97.81
489.261	75.81
489.479	80.81
489.696	70.81
489.914	68.81
490.132	79.81
490.35	91.81
490.568	92.81
490.786	84.81
491.003	79.81
491.221	70.81
491.439	70.81
491.657	78.81
491.874	96.81
492.092	75.81
492.31	83.81
492.527	72.81
492.745	75.81
492.963	70.81
493.18	69.81
493.398	94.81
493.615	78.81
493.833	82.81
494.05	73.81
494.268	84.81
494.485	83.81
494.703	90.81
494.92	67.81
495.138	66.81
495.355	79.81
495.573	84.81
495.79	90.81
496.008	78.81
496.225	89.81
496.442	79.81
496.66	84.81
496.877	77.81
497.094	75.81
497.312	76.81
497.529	87.81
497.746	87.81
497.963	81.81
498.181	70.81
498.398	76.81
498.615	62.81
498.832	67.81
499.049	71.81
499.267	71.81
499.484	86.81
499.701	84.81
499.918	82.81
500.135	79.81
500.352	75.81
500.569	71.81
500.786	86.81
501.003	86.81
501.22	81.81
501.437	87.81
501.654	71.81
501.871	79.81
502.088	67.81
502.305	92.81
502.522	89.81
502.739	90.81
502.956	79.81
503.172	80.81
503.389	80.81
503.606	79.81
503.823	86.81
504.04	96.81
504.256	78.81
504.473	79.81
504.69	92.81
504.907	93.81
505.123	93.81
505.34	86.81
505.557	86.81
505.773	87.81
505.99	75.81
506.207	98.81
506.423	89.81
506.64	86.81
506.856	78.81
507.073	85.81
507.289	84.81
507.506	93.81
507.722	80.81
507.939	95.81
508.155	76.81
508.372	83.81
508.588	85.81
508.805	88.81
509.021	71.81
509.238	69.81
509.454	70.81
509.67	80.81
509.887	78.81
510.103	76.81
510.319	87.81
510.536	96.81
510.752	79.81
510.968	86.81
511.184	82.81
511.401	72.81
511.617	84.81
511.833	87.81
512.049	83.81
512.265	82.81
512.481	84.81
512.698	77.81
512.914	84.81
513.13	69.81
513.346	94.81
513.562	90.81
513.778	101.81
513.994	76.81
514.21	82.81
514.426	84.81
514.642	67.81
514.858	88.81
515.074	72.81
515.29	72.81
515.506	83.81
515.721	86.81
515.937	83.81
516.153	86.81
516.369	95.81
516.585	90.81
516.801	87.81
517.016	84.81
517.232	78.81
517.448	93.81
517.664	73.81
517.879	78.81
518.095	85.81
518.311	80.81
518.527	79.81
518.742	81.81
518.958	78.81
519.173	84.81
519.389	84.81
519.605	77.81
519.82	78.81
520.036	79.81
