Data from 1600_1_HRD10591_00043.txt Node
Date: Mon Jan 19 13:48:02 EST 2026
User: Yrep
Spectrometer: HR+D1059
Trigger mode: 1
Integration Time (sec): 1.000000E-1
Scans to average: 1
Electric dark correction enabled: true
Nonlinearity correction enabled: false
Boxcar width: 0
XAxis mode: Wavelengths
Number of Pixels in Spectrum: 2048
>>>>>Begin Spectral Data<<<<<
223.165	-20.94
223.4	-20.94
223.635	-20.94
223.869	-27.94
224.104	-16.94
224.338	2.06
224.573	-31.94
224.808	-14.94
225.042	-13.94
225.277	-16.94
225.511	3.06
225.746	4.06
225.98	12.06
226.215	28.06
226.449	-4.94
226.683	19.06
226.918	40.06
227.152	40.06
227.387	35.06
227.621	38.06
227.856	54.06
228.09	44.06
228.324	35.06
228.559	54.06
228.793	61.06
229.027	66.06
229.262	66.06
229.496	79.06
229.73	61.06
229.964	77.06
230.199	70.06
230.433	81.06
230.667	85.06
230.901	78.06
231.136	87.06
231.37	80.06
231.604	86.06
231.838	73.06
232.072	87.06
232.306	71.06
232.541	91.06
232.775	94.06
233.009	88.06
233.243	80.06
233.477	74.06
233.711	85.06
233.945	66.06
234.179	69.06
234.413	91.06
234.647	85.06
234.881	81.06
235.115	80.06
235.349	79.06
235.583	79.06
235.817	71.06
236.051	78.06
236.285	83.06
236.519	63.06
236.753	73.06
236.987	80.06
237.221	74.06
237.455	88.06
237.689	79.06
237.922	79.06
238.156	69.06
238.39	72.06
238.624	90.06
238.858	76.06
239.091	83.06
239.325	72.06
239.559	83.06
239.793	67.06
240.027	89.06
240.26	77.06
240.494	65.06
240.728	70.06
240.961	93.06
241.195	95.06
241.429	73.06
241.662	63.06
241.896	64.06
242.13	79.06
242.363	69.06
242.597	81.06
242.83	68.06
243.064	75.06
243.298	60.06
243.531	54.06
243.765	65.06
243.998	71.06
244.232	73.06
244.465	87.06
244.699	76.06
244.932	63.06
245.166	76.06
245.399	72.06
245.633	77.06
245.866	80.06
246.099	85.06
246.333	70.06
246.566	87.06
246.8	79.06
247.033	67.06
247.266	82.06
247.5	85.06
247.733	73.06
247.966	73.06
248.2	78.06
248.433	95.06
248.666	92.06
248.899	71.06
249.133	68.06
249.366	81.06
249.599	77.06
249.832	72.06
250.066	79.06
250.299	97.06
250.532	77.06
250.765	65.06
250.998	70.06
251.231	78.06
251.465	80.06
251.698	78.06
251.931	63.06
252.164	73.06
252.397	74.06
252.63	87.06
252.863	73.06
253.096	77.06
253.329	71.06
253.562	83.06
253.795	88.06
254.028	85.06
254.261	76.06
254.494	73.06
254.727	81.06
254.96	89.06
255.193	73.06
255.426	69.06
255.659	80.06
255.892	73.06
256.124	80.06
256.357	85.06
256.59	76.06
256.823	91.06
257.056	69.06
257.289	77.06
257.521	76.06
257.754	73.06
257.987	68.06
258.22	85.06
258.452	83.06
258.685	97.06
258.918	88.06
259.151	92.06
259.383	80.06
259.616	70.06
259.849	87.06
260.081	72.06
260.314	64.06
260.547	73.06
260.779	82.06
261.012	69.06
261.244	71.06
261.477	67.06
261.71	76.06
261.942	81.06
262.175	90.06
262.407	87.06
262.64	91.06
262.872	88.06
263.105	79.06
263.337	85.06
263.57	85.06
263.802	95.06
264.035	80.06
264.267	82.06
264.499	79.06
264.732	96.06
264.964	83.06
265.197	97.06
265.429	75.06
265.661	81.06
265.894	72.06
266.126	90.06
266.358	87.06
266.591	79.06
266.823	84.06
267.055	77.06
267.287	86.06
267.52	73.06
267.752	73.06
267.984	94.06
268.216	81.06
268.448	91.06
268.681	91.06
268.913	81.06
269.145	69.06
269.377	84.06
269.609	81.06
269.841	79.06
270.073	90.06
270.306	75.06
270.538	80.06
270.77	75.06
271.002	74.06
271.234	83.06
271.466	78.06
271.698	77.06
271.93	97.06
272.162	76.06
272.394	82.06
272.626	82.06
272.858	87.06
273.09	74.06
273.322	84.06
273.553	79.06
273.785	97.06
274.017	78.06
274.249	94.06
274.481	73.06
274.713	77.06
274.945	72.06
275.176	73.06
275.408	82.06
275.64	86.06
275.872	81.06
276.104	91.06
276.335	90.06
276.567	81.06
276.799	76.06
277.031	75.06
277.262	82.06
277.494	88.06
277.726	85.06
277.957	81.06
278.189	73.06
278.421	87.06
278.652	80.06
278.884	95.06
279.115	80.06
279.347	88.06
279.579	73.06
279.81	86.06
280.042	86.06
280.273	74.06
280.505	87.06
280.736	90.06
280.968	72.06
281.199	83.06
281.431	91.06
281.662	74.06
281.894	82.06
282.125	78.06
282.356	75.06
282.588	83.06
282.819	76.06
283.051	85.06
283.282	96.06
283.513	86.06
283.745	87.06
283.976	89.06
284.207	89.06
284.439	92.06
284.67	88.06
284.901	77.06
285.132	98.06
285.364	97.06
285.595	88.06
285.826	86.06
286.057	75.06
286.288	72.06
286.52	85.06
286.751	80.06
286.982	85.06
287.213	93.06
287.444	78.06
287.675	70.06
287.906	83.06
288.138	83.06
288.369	77.06
288.6	88.06
288.831	92.06
289.062	83.06
289.293	75.06
289.524	86.06
289.755	102.06
289.986	86.06
290.217	89.06
290.448	79.06
290.679	69.06
290.91	90.06
291.141	93.06
291.371	82.06
291.602	87.06
291.833	81.06
292.064	63.06
292.295	80.06
292.526	84.06
292.757	71.06
292.987	87.06
293.218	83.06
293.449	82.06
293.68	86.06
293.91	76.06
294.141	101.06
294.372	71.06
294.603	90.06
294.833	107.06
295.064	95.06
295.295	91.06
295.525	76.06
295.756	92.06
295.987	95.06
296.217	79.06
296.448	82.06
296.679	85.06
296.909	88.06
297.14	101.06
297.37	74.06
297.601	79.06
297.831	81.06
298.062	80.06
298.292	84.06
298.523	99.06
298.753	93.06
298.984	84.06
299.214	95.06
299.445	91.06
299.675	86.06
299.905	85.06
300.136	89.06
300.366	80.06
300.597	74.06
300.827	87.06
301.057	69.06
301.288	81.06
301.518	73.06
301.748	79.06
301.979	89.06
302.209	70.06
302.439	89.06
302.669	92.06
302.9	93.06
303.13	85.06
303.36	90.06
303.59	78.06
303.82	87.06
304.051	102.06
304.281	84.06
304.511	80.06
304.741	97.06
304.971	64.06
305.201	79.06
305.431	79.06
305.661	107.06
305.891	96.06
306.121	82.06
306.352	90.06
306.582	84.06
306.812	81.06
307.042	76.06
307.272	71.06
307.502	101.06
307.731	85.06
307.961	77.06
308.191	85.06
308.421	88.06
308.651	78.06
308.881	92.06
309.111	89.06
309.341	96.06
309.571	79.06
309.8	79.06
310.03	79.06
310.26	81.06
310.49	76.06
310.72	86.06
310.949	94.06
311.179	81.06
311.409	77.06
311.639	87.06
311.868	95.06
312.098	89.06
312.328	98.06
312.557	84.06
312.787	77.06
313.017	81.06
313.246	85.06
313.476	80.06
313.706	82.06
313.935	90.06
314.165	75.06
314.394	84.06
314.624	88.06
314.853	92.06
315.083	94.06
315.312	81.06
315.542	91.06
315.771	79.06
316.001	79.06
316.23	72.06
316.46	86.06
316.689	85.06
316.919	85.06
317.148	85.06
317.377	89.06
317.607	91.06
317.836	87.06
318.065	85.06
318.295	81.06
318.524	81.06
318.753	88.06
318.983	83.06
319.212	69.06
319.441	75.06
319.67	94.06
319.9	91.06
320.129	81.06
320.358	96.06
320.587	79.06
320.816	86.06
321.046	88.06
321.275	83.06
321.504	92.06
321.733	75.06
321.962	99.06
322.191	79.06
322.42	84.06
322.649	90.06
322.878	95.06
323.108	86.06
323.337	88.06
323.566	78.06
323.795	90.06
324.024	94.06
324.253	94.06
324.482	78.06
324.71	85.06
324.939	97.06
325.168	89.06
325.397	79.06
325.626	87.06
325.855	79.06
326.084	79.06
326.313	99.06
326.542	88.06
326.77	92.06
326.999	92.06
327.228	76.06
327.457	81.06
327.686	85.06
327.914	81.06
328.143	98.06
328.372	110.06
328.6	92.06
328.829	101.06
329.058	95.06
329.287	99.06
329.515	90.06
329.744	87.06
329.972	100.06
330.201	87.06
330.43	80.06
330.658	91.06
330.887	80.06
331.115	82.06
331.344	77.06
331.572	74.06
331.801	77.06
332.03	84.06
332.258	81.06
332.486	71.06
332.715	85.06
332.943	107.06
333.172	73.06
333.4	86.06
333.629	83.06
333.857	78.06
334.085	79.06
334.314	90.06
334.542	86.06
334.771	83.06
334.999	77.06
335.227	75.06
335.455	89.06
335.684	93.06
335.912	81.06
336.14	81.06
336.369	87.06
336.597	83.06
336.825	79.06
337.053	93.06
337.281	76.06
337.51	82.06
337.738	72.06
337.966	83.06
338.194	86.06
338.422	87.06
338.65	68.06
338.878	81.06
339.106	87.06
339.334	94.06
339.562	80.06
339.79	84.06
340.018	63.06
340.246	77.06
340.474	78.06
340.702	92.06
340.93	95.06
341.158	89.06
341.386	72.06
341.614	73.06
341.842	96.06
342.07	82.06
342.298	76.06
342.526	84.06
342.754	72.06
342.981	82.06
343.209	88.06
343.437	107.06
343.665	87.06
343.893	94.06
344.12	94.06
344.348	88.06
344.576	79.06
344.804	94.06
345.031	84.06
345.259	75.06
345.487	81.06
345.714	84.06
345.942	79.06
346.17	98.06
346.397	84.06
346.625	86.06
346.853	84.06
347.08	89.06
347.308	89.06
347.535	75.06
347.763	74.06
347.99	88.06
348.218	93.06
348.445	90.06
348.673	85.06
348.9	77.06
349.128	84.06
349.355	92.06
349.583	80.06
349.81	104.06
350.037	66.06
350.265	85.06
350.492	81.06
350.72	82.06
350.947	80.06
351.174	88.06
351.402	83.06
351.629	87.06
351.856	91.06
352.083	78.06
352.311	104.06
352.538	80.06
352.765	78.06
352.992	91.06
353.22	102.06
353.447	85.06
353.674	83.06
353.901	85.06
354.128	97.06
354.355	96.06
354.583	87.06
354.81	90.06
355.037	83.06
355.264	81.06
355.491	103.06
355.718	71.06
355.945	82.06
356.172	88.06
356.399	80.06
356.626	89.06
356.853	95.06
357.08	89.06
357.307	80.06
357.534	98.06
357.761	78.06
357.988	77.06
358.215	81.06
358.441	79.06
358.668	93.06
358.895	94.06
359.122	98.06
359.349	73.06
359.576	94.06
359.802	96.06
360.029	96.06
360.256	79.06
360.483	93.06
360.709	76.06
360.936	88.06
361.163	94.06
361.39	89.06
361.616	98.06
361.843	71.06
362.07	80.06
362.296	91.06
362.523	85.06
362.749	73.06
362.976	84.06
363.203	91.06
363.429	81.06
363.656	67.06
363.882	85.06
364.109	84.06
364.335	99.06
364.562	86.06
364.788	80.06
365.015	91.06
365.241	73.06
365.468	70.06
365.694	81.06
365.92	83.06
366.147	87.06
366.373	79.06
366.599	75.06
366.826	76.06
367.052	81.06
367.278	71.06
367.505	80.06
367.731	88.06
367.957	83.06
368.184	88.06
368.41	63.06
368.636	81.06
368.862	77.06
369.089	87.06
369.315	74.06
369.541	91.06
369.767	76.06
369.993	82.06
370.219	87.06
370.445	85.06
370.672	91.06
370.898	91.06
371.124	78.06
371.35	89.06
371.576	80.06
371.802	77.06
372.028	84.06
372.254	80.06
372.48	80.06
372.706	80.06
372.932	68.06
373.158	85.06
373.384	91.06
373.61	81.06
373.835	96.06
374.061	69.06
374.287	73.06
374.513	101.06
374.739	86.06
374.965	79.06
375.191	92.06
375.416	77.06
375.642	87.06
375.868	87.06
376.094	91.06
376.319	91.06
376.545	77.06
376.771	82.06
376.997	72.06
377.222	82.06
377.448	98.06
377.674	86.06
377.899	97.06
378.125	102.06
378.35	79.06
378.576	84.06
378.802	77.06
379.027	88.06
379.253	85.06
379.478	80.06
379.704	97.06
379.929	82.06
380.155	95.06
380.38	76.06
380.606	85.06
380.831	91.06
381.057	93.06
381.282	87.06
381.507	72.06
381.733	91.06
381.958	95.06
382.184	94.06
382.409	91.06
382.634	96.06
382.86	75.06
383.085	79.06
383.31	81.06
383.535	79.06
383.761	101.06
383.986	72.06
384.211	89.06
384.436	88.06
384.662	84.06
384.887	88.06
385.112	96.06
385.337	81.06
385.562	83.06
385.787	75.06
386.013	72.06
386.238	76.06
386.463	94.06
386.688	93.06
386.913	80.06
387.138	88.06
387.363	81.06
387.588	83.06
387.813	69.06
388.038	69.06
388.263	72.06
388.488	86.06
388.713	79.06
388.938	87.06
389.163	80.06
389.387	87.06
389.612	88.06
389.837	76.06
390.062	86.06
390.287	88.06
390.512	86.06
390.736	76.06
390.961	83.06
391.186	81.06
391.411	84.06
391.636	72.06
391.86	92.06
392.085	81.06
392.31	95.06
392.534	83.06
392.759	84.06
392.984	104.06
393.208	84.06
393.433	84.06
393.658	87.06
393.882	73.06
394.107	92.06
394.331	107.06
394.556	100.06
394.78	88.06
395.005	74.06
395.229	84.06
395.454	87.06
395.678	88.06
395.903	96.06
396.127	89.06
396.352	95.06
396.576	77.06
396.801	89.06
397.025	97.06
397.249	105.06
397.474	91.06
397.698	77.06
397.922	81.06
398.147	85.06
398.371	84.06
398.595	81.06
398.82	77.06
399.044	84.06
399.268	83.06
399.492	67.06
399.717	91.06
399.941	72.06
400.165	91.06
400.389	81.06
400.613	87.06
400.837	83.06
401.062	92.06
401.286	74.06
401.51	82.06
401.734	75.06
401.958	75.06
402.182	71.06
402.406	84.06
402.63	82.06
402.854	87.06
403.078	84.06
403.302	63.06
403.526	77.06
403.75	79.06
403.974	89.06
404.198	77.06
404.422	87.06
404.645	103.06
404.869	89.06
405.093	81.06
405.317	81.06
405.541	84.06
405.765	71.06
405.988	81.06
406.212	86.06
406.436	89.06
406.66	81.06
406.883	85.06
407.107	86.06
407.331	71.06
407.555	80.06
407.778	73.06
408.002	91.06
408.226	79.06
408.449	77.06
408.673	76.06
408.896	82.06
409.12	81.06
409.344	77.06
409.567	73.06
409.791	70.06
410.014	88.06
410.238	78.06
410.461	89.06
410.685	77.06
410.908	84.06
411.132	87.06
411.355	85.06
411.578	98.06
411.802	81.06
412.025	80.06
412.249	76.06
412.472	88.06
412.695	92.06
412.919	82.06
413.142	79.06
413.365	81.06
413.589	80.06
413.812	85.06
414.035	91.06
414.258	88.06
414.482	75.06
414.705	86.06
414.928	78.06
415.151	84.06
415.374	84.06
415.597	73.06
415.821	84.06
416.044	90.06
416.267	89.06
416.49	82.06
416.713	83.06
416.936	77.06
417.159	82.06
417.382	73.06
417.605	89.06
417.828	99.06
418.051	70.06
418.274	77.06
418.497	84.06
418.72	79.06
418.943	91.06
419.166	84.06
419.389	70.06
419.611	81.06
419.834	76.06
420.057	80.06
420.28	86.06
420.503	83.06
420.726	83.06
420.948	79.06
421.171	75.06
421.394	72.06
421.617	85.06
421.839	80.06
422.062	77.06
422.285	91.06
422.507	93.06
422.73	92.06
422.953	94.06
423.175	85.06
423.398	86.06
423.621	92.06
423.843	69.06
424.066	74.06
424.288	83.06
424.511	81.06
424.733	83.06
424.956	70.06
425.178	67.06
425.401	85.06
425.623	76.06
425.846	79.06
426.068	62.06
426.291	102.06
426.513	69.06
426.735	81.06
426.958	90.06
427.18	91.06
427.402	86.06
427.625	83.06
427.847	70.06
428.069	79.06
428.292	77.06
428.514	87.06
428.736	94.06
428.958	75.06
429.181	68.06
429.403	93.06
429.625	83.06
429.847	85.06
430.069	63.06
430.292	73.06
430.514	72.06
430.736	78.06
430.958	89.06
431.18	92.06
431.402	79.06
431.624	85.06
431.846	79.06
432.068	81.06
432.29	70.06
432.512	77.06
432.734	97.06
432.956	88.06
433.178	95.06
433.4	83.06
433.622	87.06
433.844	90.06
434.066	78.06
434.287	82.06
434.509	74.06
434.731	91.06
434.953	74.06
435.175	99.06
435.397	81.06
435.618	98.06
435.84	95.06
436.062	78.06
436.284	77.06
436.505	79.06
436.727	78.06
436.949	82.06
437.17	80.06
437.392	82.06
437.614	84.06
437.835	81.06
438.057	87.06
438.278	98.06
438.5	80.06
438.721	91.06
438.943	89.06
439.165	79.06
439.386	91.06
439.608	78.06
439.829	75.06
440.05	73.06
440.272	82.06
440.493	85.06
440.715	85.06
440.936	100.06
441.158	91.06
441.379	88.06
441.6	91.06
441.822	77.06
442.043	74.06
442.264	87.06
442.486	96.06
442.707	99.06
442.928	95.06
443.149	92.06
443.371	65.06
443.592	94.06
443.813	85.06
444.034	80.06
444.255	87.06
444.476	83.06
444.698	86.06
444.919	75.06
445.14	165.06
445.361	112.06
445.582	89.06
445.803	86.06
446.024	87.06
446.245	80.06
446.466	81.06
446.687	77.06
446.908	69.06
447.129	87.06
447.35	80.06
447.571	94.06
447.792	80.06
448.013	81.06
448.234	85.06
448.455	80.06
448.675	81.06
448.896	77.06
449.117	79.06
449.338	85.06
449.559	77.06
449.779	71.06
450	91.06
450.221	70.06
450.442	87.06
450.662	88.06
450.883	78.06
451.104	65.06
451.324	87.06
451.545	83.06
451.766	91.06
451.986	86.06
452.207	93.06
452.428	68.06
452.648	83.06
452.869	86.06
453.089	80.06
453.31	90.06
453.53	93.06
453.751	91.06
453.971	97.06
454.192	85.06
454.412	76.06
454.633	89.06
454.853	79.06
455.073	72.06
455.294	85.06
455.514	89.06
455.734	78.06
455.955	81.06
456.175	77.06
456.395	80.06
456.616	92.06
456.836	102.06
457.056	89.06
457.276	83.06
457.497	81.06
457.717	89.06
457.937	82.06
458.157	92.06
458.377	79.06
458.598	77.06
458.818	87.06
459.038	79.06
459.258	85.06
459.478	86.06
459.698	85.06
459.918	95.06
460.138	83.06
460.358	82.06
460.578	69.06
460.798	84.06
461.018	80.06
461.238	82.06
461.458	95.06
461.678	77.06
461.898	75.06
462.118	71.06
462.338	74.06
462.558	90.06
462.777	91.06
462.997	85.06
463.217	68.06
463.437	81.06
463.657	90.06
463.876	81.06
464.096	85.06
464.316	73.06
464.536	88.06
464.755	86.06
464.975	88.06
465.195	86.06
465.414	83.06
465.634	81.06
465.854	65.06
466.073	80.06
466.293	79.06
466.512	92.06
466.732	73.06
466.951	83.06
467.171	87.06
467.391	85.06
467.61	88.06
467.829	75.06
468.049	79.06
468.268	80.06
468.488	81.06
468.707	80.06
468.927	69.06
469.146	79.06
469.365	79.06
469.585	83.06
469.804	74.06
470.023	75.06
470.243	76.06
470.462	85.06
470.681	77.06
470.901	76.06
471.12	81.06
471.339	80.06
471.558	81.06
471.777	74.06
471.997	84.06
472.216	71.06
472.435	85.06
472.654	88.06
472.873	85.06
473.092	88.06
473.311	82.06
473.53	70.06
473.749	95.06
473.968	75.06
474.187	84.06
474.406	93.06
474.625	81.06
474.844	97.06
475.063	70.06
475.282	74.06
475.501	72.06
475.72	85.06
475.939	88.06
476.158	84.06
476.377	100.06
476.596	61.06
476.814	79.06
477.033	72.06
477.252	86.06
477.471	89.06
477.69	87.06
477.908	77.06
478.127	79.06
478.346	79.06
478.564	87.06
478.783	79.06
479.002	84.06
479.22	70.06
479.439	81.06
479.658	74.06
479.876	90.06
480.095	79.06
480.313	98.06
480.532	79.06
480.751	86.06
480.969	88.06
481.188	85.06
481.406	89.06
481.624	87.06
481.843	85.06
482.061	94.06
482.28	85.06
482.498	73.06
482.717	79.06
482.935	91.06
483.153	92.06
483.372	84.06
483.59	92.06
483.808	84.06
484.027	62.06
484.245	77.06
484.463	80.06
484.681	79.06
484.9	89.06
485.118	80.06
485.336	88.06
485.554	92.06
485.772	86.06
485.99	69.06
486.209	78.06
486.427	79.06
486.645	84.06
486.863	91.06
487.081	78.06
487.299	92.06
487.517	83.06
487.735	79.06
487.953	88.06
488.171	79.06
488.389	81.06
488.607	87.06
488.825	91.06
489.043	83.06
489.261	79.06
489.479	80.06
489.696	87.06
489.914	66.06
490.132	71.06
490.35	82.06
490.568	94.06
490.786	84.06
491.003	77.06
491.221	87.06
491.439	85.06
491.657	80.06
491.874	94.06
492.092	87.06
492.31	75.06
492.527	72.06
492.745	78.06
492.963	72.06
493.18	94.06
493.398	88.06
493.615	93.06
493.833	89.06
494.05	79.06
494.268	92.06
494.485	85.06
494.703	80.06
494.92	83.06
495.138	97.06
495.355	72.06
495.573	89.06
495.79	82.06
496.008	83.06
496.225	90.06
496.442	77.06
496.66	88.06
496.877	81.06
497.094	96.06
497.312	89.06
497.529	95.06
497.746	79.06
497.963	87.06
498.181	74.06
498.398	79.06
498.615	93.06
498.832	87.06
499.049	85.06
499.267	83.06
499.484	81.06
499.701	79.06
499.918	79.06
500.135	79.06
500.352	75.06
500.569	81.06
500.786	86.06
501.003	84.06
501.22	78.06
501.437	77.06
501.654	73.06
501.871	80.06
502.088	83.06
502.305	69.06
502.522	80.06
502.739	86.06
502.956	87.06
503.172	77.06
503.389	82.06
503.606	92.06
503.823	81.06
504.04	79.06
504.256	100.06
504.473	94.06
504.69	80.06
504.907	97.06
505.123	81.06
505.34	83.06
505.557	80.06
505.773	88.06
505.99	87.06
506.207	100.06
506.423	80.06
506.64	88.06
506.856	87.06
507.073	80.06
507.289	72.06
507.506	92.06
507.722	79.06
507.939	80.06
508.155	92.06
508.372	80.06
508.588	67.06
508.805	77.06
509.021	92.06
509.238	79.06
509.454	82.06
509.67	77.06
509.887	73.06
510.103	76.06
510.319	87.06
510.536	84.06
510.752	78.06
510.968	82.06
511.184	90.06
511.401	78.06
511.617	87.06
511.833	83.06
512.049	77.06
512.265	83.06
512.481	78.06
512.698	80.06
512.914	82.06
513.13	90.06
513.346	84.06
513.562	93.06
513.778	75.06
513.994	79.06
514.21	89.06
514.426	81.06
514.642	84.06
514.858	84.06
515.074	91.06
515.29	88.06
515.506	90.06
515.721	95.06
515.937	67.06
516.153	81.06
516.369	79.06
516.585	76.06
516.801	98.06
517.016	81.06
517.232	92.06
517.448	77.06
517.664	75.06
517.879	91.06
518.095	78.06
518.311	92.06
518.527	82.06
518.742	83.06
518.958	75.06
519.173	86.06
519.389	82.06
519.605	87.06
519.82	87.06
