Data from 1600_1_HRD10591_00015.txt Node
Date: Mon Jan 19 13:47:48 EST 2026
User: Yrep
Spectrometer: HR+D1059
Trigger mode: 1
Integration Time (sec): 1.000000E-1
Scans to average: 1
Electric dark correction enabled: true
Nonlinearity correction enabled: false
Boxcar width: 0
XAxis mode: Wavelengths
Number of Pixels in Spectrum: 2048
>>>>>Begin Spectral Data<<<<<
223.165	-13.56
223.4	-13.56
223.635	-13.56
223.869	-17.56
224.104	-21.56
224.338	-26.56
224.573	-13.56
224.808	-8.56
225.042	1.44
225.277	-0.56
225.511	-8.56
225.746	4.44
225.98	-2.56
226.215	12.44
226.449	24.44
226.683	15.44
226.918	26.44
227.152	28.44
227.387	30.44
227.621	29.44
227.856	34.44
228.09	62.44
228.324	42.44
228.559	50.44
228.793	69.44
229.027	69.44
229.262	65.44
229.496	70.44
229.73	71.44
229.964	65.44
230.199	82.44
230.433	70.44
230.667	74.44
230.901	80.44
231.136	77.44
231.37	83.44
231.604	74.44
231.838	88.44
232.072	77.44
232.306	76.44
232.541	75.44
232.775	66.44
233.009	79.44
233.243	89.44
233.477	94.44
233.711	86.44
233.945	78.44
234.179	67.44
234.413	84.44
234.647	86.44
234.881	84.44
235.115	74.44
235.349	76.44
235.583	70.44
235.817	70.44
236.051	73.44
236.285	82.44
236.519	72.44
236.753	69.44
236.987	71.44
237.221	56.44
237.455	64.44
237.689	86.44
237.922	76.44
238.156	72.44
238.39	79.44
238.624	78.44
238.858	77.44
239.091	83.44
239.325	66.44
239.559	73.44
239.793	80.44
240.027	83.44
240.26	74.44
240.494	77.44
240.728	65.44
240.961	66.44
241.195	80.44
241.429	80.44
241.662	78.44
241.896	85.44
242.13	83.44
242.363	78.44
242.597	81.44
242.83	77.44
243.064	60.44
243.298	72.44
243.531	53.44
243.765	88.44
243.998	67.44
244.232	97.44
244.465	70.44
244.699	73.44
244.932	78.44
245.166	72.44
245.399	76.44
245.633	77.44
245.866	83.44
246.099	72.44
246.333	81.44
246.566	80.44
246.8	79.44
247.033	84.44
247.266	79.44
247.5	76.44
247.733	81.44
247.966	78.44
248.2	73.44
248.433	83.44
248.666	79.44
248.899	76.44
249.133	77.44
249.366	67.44
249.599	76.44
249.832	62.44
250.066	56.44
250.299	61.44
250.532	70.44
250.765	83.44
250.998	71.44
251.231	75.44
251.465	79.44
251.698	67.44
251.931	74.44
252.164	72.44
252.397	82.44
252.63	78.44
252.863	89.44
253.096	72.44
253.329	81.44
253.562	53.44
253.795	71.44
254.028	74.44
254.261	83.44
254.494	92.44
254.727	75.44
254.96	79.44
255.193	82.44
255.426	72.44
255.659	74.44
255.892	68.44
256.124	92.44
256.357	75.44
256.59	94.44
256.823	84.44
257.056	84.44
257.289	75.44
257.521	67.44
257.754	68.44
257.987	73.44
258.22	82.44
258.452	80.44
258.685	76.44
258.918	76.44
259.151	83.44
259.383	84.44
259.616	65.44
259.849	73.44
260.081	86.44
260.314	67.44
260.547	70.44
260.779	92.44
261.012	80.44
261.244	69.44
261.477	94.44
261.71	75.44
261.942	74.44
262.175	64.44
262.407	79.44
262.64	65.44
262.872	80.44
263.105	82.44
263.337	83.44
263.57	75.44
263.802	88.44
264.035	98.44
264.267	81.44
264.499	85.44
264.732	90.44
264.964	80.44
265.197	76.44
265.429	80.44
265.661	83.44
265.894	77.44
266.126	85.44
266.358	80.44
266.591	85.44
266.823	85.44
267.055	82.44
267.287	90.44
267.52	80.44
267.752	76.44
267.984	86.44
268.216	80.44
268.448	66.44
268.681	91.44
268.913	77.44
269.145	88.44
269.377	81.44
269.609	84.44
269.841	83.44
270.073	89.44
270.306	91.44
270.538	83.44
270.77	60.44
271.002	80.44
271.234	86.44
271.466	92.44
271.698	78.44
271.93	70.44
272.162	77.44
272.394	78.44
272.626	76.44
272.858	80.44
273.09	83.44
273.322	86.44
273.553	66.44
273.785	77.44
274.017	80.44
274.249	65.44
274.481	76.44
274.713	83.44
274.945	77.44
275.176	86.44
275.408	78.44
275.64	88.44
275.872	70.44
276.104	81.44
276.335	70.44
276.567	75.44
276.799	91.44
277.031	71.44
277.262	74.44
277.494	88.44
277.726	74.44
277.957	94.44
278.189	68.44
278.421	80.44
278.652	84.44
278.884	85.44
279.115	77.44
279.347	84.44
279.579	86.44
279.81	71.44
280.042	80.44
280.273	91.44
280.505	92.44
280.736	83.44
280.968	85.44
281.199	82.44
281.431	88.44
281.662	83.44
281.894	80.44
282.125	84.44
282.356	69.44
282.588	86.44
282.819	80.44
283.051	88.44
283.282	86.44
283.513	87.44
283.745	94.44
283.976	72.44
284.207	84.44
284.439	78.44
284.67	81.44
284.901	75.44
285.132	67.44
285.364	79.44
285.595	82.44
285.826	91.44
286.057	79.44
286.288	87.44
286.52	91.44
286.751	86.44
286.982	79.44
287.213	69.44
287.444	77.44
287.675	72.44
287.906	88.44
288.138	78.44
288.369	78.44
288.6	81.44
288.831	77.44
289.062	82.44
289.293	96.44
289.524	86.44
289.755	74.44
289.986	78.44
290.217	88.44
290.448	81.44
290.679	73.44
290.91	81.44
291.141	64.44
291.371	90.44
291.602	77.44
291.833	70.44
292.064	78.44
292.295	69.44
292.526	82.44
292.757	72.44
292.987	85.44
293.218	78.44
293.449	81.44
293.68	86.44
293.91	71.44
294.141	86.44
294.372	83.44
294.603	83.44
294.833	81.44
295.064	85.44
295.295	82.44
295.525	77.44
295.756	76.44
295.987	78.44
296.217	81.44
296.448	80.44
296.679	84.44
296.909	77.44
297.14	84.44
297.37	94.44
297.601	93.44
297.831	90.44
298.062	83.44
298.292	76.44
298.523	82.44
298.753	91.44
298.984	89.44
299.214	69.44
299.445	78.44
299.675	80.44
299.905	79.44
300.136	76.44
300.366	86.44
300.597	77.44
300.827	85.44
301.057	75.44
301.288	83.44
301.518	89.44
301.748	72.44
301.979	84.44
302.209	75.44
302.439	84.44
302.669	91.44
302.9	79.44
303.13	80.44
303.36	74.44
303.59	83.44
303.82	72.44
304.051	71.44
304.281	70.44
304.511	86.44
304.741	80.44
304.971	84.44
305.201	91.44
305.431	86.44
305.661	79.44
305.891	87.44
306.121	72.44
306.352	68.44
306.582	85.44
306.812	83.44
307.042	77.44
307.272	77.44
307.502	90.44
307.731	88.44
307.961	92.44
308.191	82.44
308.421	83.44
308.651	84.44
308.881	92.44
309.111	88.44
309.341	87.44
309.571	88.44
309.8	78.44
310.03	74.44
310.26	89.44
310.49	92.44
310.72	91.44
310.949	82.44
311.179	76.44
311.409	84.44
311.639	88.44
311.868	71.44
312.098	84.44
312.328	80.44
312.557	82.44
312.787	80.44
313.017	78.44
313.246	92.44
313.476	80.44
313.706	83.44
313.935	68.44
314.165	81.44
314.394	80.44
314.624	82.44
314.853	86.44
315.083	79.44
315.312	60.44
315.542	85.44
315.771	70.44
316.001	76.44
316.23	84.44
316.46	76.44
316.689	95.44
316.919	84.44
317.148	76.44
317.377	83.44
317.607	82.44
317.836	89.44
318.065	81.44
318.295	85.44
318.524	73.44
318.753	89.44
318.983	82.44
319.212	81.44
319.441	81.44
319.67	81.44
319.9	69.44
320.129	88.44
320.358	93.44
320.587	71.44
320.816	90.44
321.046	76.44
321.275	75.44
321.504	101.44
321.733	93.44
321.962	90.44
322.191	90.44
322.42	82.44
322.649	94.44
322.878	81.44
323.108	87.44
323.337	92.44
323.566	74.44
323.795	99.44
324.024	87.44
324.253	79.44
324.482	89.44
324.71	97.44
324.939	77.44
325.168	96.44
325.397	80.44
325.626	84.44
325.855	87.44
326.084	96.44
326.313	81.44
326.542	85.44
326.77	77.44
326.999	56.44
327.228	68.44
327.457	88.44
327.686	83.44
327.914	69.44
328.143	88.44
328.372	90.44
328.6	87.44
328.829	68.44
329.058	81.44
329.287	84.44
329.515	81.44
329.744	75.44
329.972	86.44
330.201	73.44
330.43	82.44
330.658	86.44
330.887	89.44
331.115	84.44
331.344	86.44
331.572	73.44
331.801	88.44
332.03	73.44
332.258	84.44
332.486	88.44
332.715	85.44
332.943	76.44
333.172	66.44
333.4	87.44
333.629	83.44
333.857	85.44
334.085	92.44
334.314	81.44
334.542	86.44
334.771	78.44
334.999	94.44
335.227	91.44
335.455	92.44
335.684	82.44
335.912	81.44
336.14	75.44
336.369	90.44
336.597	90.44
336.825	77.44
337.053	89.44
337.281	94.44
337.51	75.44
337.738	90.44
337.966	82.44
338.194	86.44
338.422	86.44
338.65	84.44
338.878	82.44
339.106	69.44
339.334	71.44
339.562	83.44
339.79	84.44
340.018	76.44
340.246	83.44
340.474	92.44
340.702	87.44
340.93	71.44
341.158	101.44
341.386	72.44
341.614	77.44
341.842	87.44
342.07	83.44
342.298	81.44
342.526	89.44
342.754	104.44
342.981	79.44
343.209	76.44
343.437	76.44
343.665	69.44
343.893	77.44
344.12	75.44
344.348	79.44
344.576	89.44
344.804	83.44
345.031	88.44
345.259	84.44
345.487	72.44
345.714	68.44
345.942	88.44
346.17	76.44
346.397	81.44
346.625	90.44
346.853	81.44
347.08	74.44
347.308	92.44
347.535	77.44
347.763	85.44
347.99	83.44
348.218	104.44
348.445	82.44
348.673	82.44
348.9	84.44
349.128	79.44
349.355	82.44
349.583	82.44
349.81	76.44
350.037	78.44
350.265	81.44
350.492	80.44
350.72	83.44
350.947	87.44
351.174	93.44
351.402	71.44
351.629	84.44
351.856	85.44
352.083	84.44
352.311	77.44
352.538	83.44
352.765	80.44
352.992	84.44
353.22	83.44
353.447	69.44
353.674	76.44
353.901	65.44
354.128	81.44
354.355	80.44
354.583	81.44
354.81	84.44
355.037	74.44
355.264	79.44
355.491	83.44
355.718	80.44
355.945	74.44
356.172	91.44
356.399	83.44
356.626	69.44
356.853	74.44
357.08	84.44
357.307	80.44
357.534	89.44
357.761	83.44
357.988	87.44
358.215	70.44
358.441	71.44
358.668	85.44
358.895	77.44
359.122	68.44
359.349	69.44
359.576	79.44
359.802	77.44
360.029	89.44
360.256	94.44
360.483	90.44
360.709	86.44
360.936	99.44
361.163	82.44
361.39	90.44
361.616	80.44
361.843	80.44
362.07	86.44
362.296	82.44
362.523	85.44
362.749	74.44
362.976	89.44
363.203	90.44
363.429	70.44
363.656	81.44
363.882	85.44
364.109	82.44
364.335	92.44
364.562	90.44
364.788	94.44
365.015	61.44
365.241	81.44
365.468	85.44
365.694	74.44
365.92	80.44
366.147	61.44
366.373	84.44
366.599	84.44
366.826	85.44
367.052	65.44
367.278	82.44
367.505	85.44
367.731	85.44
367.957	67.44
368.184	74.44
368.41	73.44
368.636	64.44
368.862	90.44
369.089	73.44
369.315	94.44
369.541	83.44
369.767	68.44
369.993	80.44
370.219	83.44
370.445	70.44
370.672	75.44
370.898	83.44
371.124	80.44
371.35	87.44
371.576	85.44
371.802	78.44
372.028	85.44
372.254	81.44
372.48	71.44
372.706	77.44
372.932	77.44
373.158	80.44
373.384	94.44
373.61	86.44
373.835	76.44
374.061	76.44
374.287	93.44
374.513	84.44
374.739	84.44
374.965	87.44
375.191	82.44
375.416	82.44
375.642	78.44
375.868	89.44
376.094	74.44
376.319	86.44
376.545	92.44
376.771	82.44
376.997	86.44
377.222	74.44
377.448	77.44
377.674	76.44
377.899	94.44
378.125	89.44
378.35	81.44
378.576	89.44
378.802	77.44
379.027	79.44
379.253	74.44
379.478	93.44
379.704	86.44
379.929	77.44
380.155	74.44
380.38	58.44
380.606	81.44
380.831	82.44
381.057	69.44
381.282	93.44
381.507	63.44
381.733	78.44
381.958	97.44
382.184	86.44
382.409	82.44
382.634	79.44
382.86	66.44
383.085	89.44
383.31	94.44
383.535	84.44
383.761	79.44
383.986	81.44
384.211	78.44
384.436	80.44
384.662	86.44
384.887	84.44
385.112	69.44
385.337	84.44
385.562	80.44
385.787	89.44
386.013	73.44
386.238	74.44
386.463	75.44
386.688	86.44
386.913	69.44
387.138	81.44
387.363	92.44
387.588	78.44
387.813	76.44
388.038	83.44
388.263	86.44
388.488	86.44
388.713	82.44
388.938	69.44
389.163	90.44
389.387	70.44
389.612	89.44
389.837	81.44
390.062	81.44
390.287	71.44
390.512	58.44
390.736	84.44
390.961	70.44
391.186	64.44
391.411	86.44
391.636	77.44
391.86	83.44
392.085	82.44
392.31	76.44
392.534	73.44
392.759	96.44
392.984	78.44
393.208	77.44
393.433	95.44
393.658	74.44
393.882	64.44
394.107	64.44
394.331	81.44
394.556	72.44
394.78	70.44
395.005	68.44
395.229	85.44
395.454	87.44
395.678	74.44
395.903	70.44
396.127	81.44
396.352	81.44
396.576	90.44
396.801	80.44
397.025	71.44
397.249	92.44
397.474	84.44
397.698	70.44
397.922	85.44
398.147	70.44
398.371	72.44
398.595	84.44
398.82	76.44
399.044	61.44
399.268	76.44
399.492	74.44
399.717	78.44
399.941	57.44
400.165	82.44
400.389	66.44
400.613	84.44
400.837	79.44
401.062	69.44
401.286	80.44
401.51	70.44
401.734	87.44
401.958	80.44
402.182	81.44
402.406	78.44
402.63	62.44
402.854	64.44
403.078	67.44
403.302	87.44
403.526	73.44
403.75	80.44
403.974	81.44
404.198	81.44
404.422	89.44
404.645	84.44
404.869	89.44
405.093	79.44
405.317	78.44
405.541	86.44
405.765	77.44
405.988	82.44
406.212	85.44
406.436	79.44
406.66	85.44
406.883	90.44
407.107	85.44
407.331	82.44
407.555	76.44
407.778	78.44
408.002	79.44
408.226	80.44
408.449	68.44
408.673	76.44
408.896	84.44
409.12	72.44
409.344	79.44
409.567	74.44
409.791	78.44
410.014	91.44
410.238	79.44
410.461	64.44
410.685	82.44
410.908	81.44
411.132	75.44
411.355	78.44
411.578	80.44
411.802	77.44
412.025	76.44
412.249	68.44
412.472	64.44
412.695	85.44
412.919	80.44
413.142	68.44
413.365	72.44
413.589	87.44
413.812	73.44
414.035	91.44
414.258	69.44
414.482	67.44
414.705	90.44
414.928	70.44
415.151	78.44
415.374	88.44
415.597	74.44
415.821	72.44
416.044	85.44
416.267	83.44
416.49	91.44
416.713	93.44
416.936	76.44
417.159	80.44
417.382	74.44
417.605	75.44
417.828	78.44
418.051	76.44
418.274	65.44
418.497	74.44
418.72	69.44
418.943	81.44
419.166	84.44
419.389	76.44
419.611	66.44
419.834	71.44
420.057	69.44
420.28	78.44
420.503	91.44
420.726	77.44
420.948	69.44
421.171	77.44
421.394	85.44
421.617	76.44
421.839	71.44
422.062	82.44
422.285	86.44
422.507	81.44
422.73	102.44
422.953	117.44
423.175	79.44
423.398	84.44
423.621	84.44
423.843	96.44
424.066	79.44
424.288	79.44
424.511	83.44
424.733	71.44
424.956	90.44
425.178	72.44
425.401	78.44
425.623	72.44
425.846	95.44
426.068	92.44
426.291	73.44
426.513	71.44
426.735	79.44
426.958	82.44
427.18	75.44
427.402	84.44
427.625	72.44
427.847	85.44
428.069	84.44
428.292	72.44
428.514	80.44
428.736	75.44
428.958	69.44
429.181	90.44
429.403	86.44
429.625	77.44
429.847	72.44
430.069	85.44
430.292	86.44
430.514	82.44
430.736	73.44
430.958	92.44
431.18	75.44
431.402	85.44
431.624	85.44
431.846	78.44
432.068	82.44
432.29	76.44
432.512	66.44
432.734	78.44
432.956	78.44
433.178	88.44
433.4	79.44
433.622	85.44
433.844	78.44
434.066	70.44
434.287	80.44
434.509	59.44
434.731	83.44
434.953	99.44
435.175	75.44
435.397	85.44
435.618	87.44
435.84	89.44
436.062	81.44
436.284	85.44
436.505	84.44
436.727	89.44
436.949	76.44
437.17	77.44
437.392	79.44
437.614	91.44
437.835	80.44
438.057	82.44
438.278	77.44
438.5	70.44
438.721	76.44
438.943	71.44
439.165	74.44
439.386	65.44
439.608	77.44
439.829	79.44
440.05	80.44
440.272	85.44
440.493	73.44
440.715	65.44
440.936	75.44
441.158	90.44
441.379	83.44
441.6	76.44
441.822	70.44
442.043	80.44
442.264	75.44
442.486	80.44
442.707	88.44
442.928	84.44
443.149	81.44
443.371	91.44
443.592	92.44
443.813	81.44
444.034	69.44
444.255	66.44
444.476	70.44
444.698	80.44
444.919	75.44
445.14	137.44
445.361	101.44
445.582	87.44
445.803	81.44
446.024	84.44
446.245	88.44
446.466	88.44
446.687	78.44
446.908	90.44
447.129	78.44
447.35	88.44
447.571	76.44
447.792	86.44
448.013	78.44
448.234	82.44
448.455	73.44
448.675	81.44
448.896	66.44
449.117	80.44
449.338	72.44
449.559	75.44
449.779	75.44
450	89.44
450.221	73.44
450.442	86.44
450.662	81.44
450.883	71.44
451.104	85.44
451.324	72.44
451.545	68.44
451.766	69.44
451.986	64.44
452.207	84.44
452.428	74.44
452.648	78.44
452.869	65.44
453.089	77.44
453.31	73.44
453.53	74.44
453.751	89.44
453.971	76.44
454.192	79.44
454.412	86.44
454.633	76.44
454.853	81.44
455.073	74.44
455.294	65.44
455.514	88.44
455.734	68.44
455.955	78.44
456.175	77.44
456.395	87.44
456.616	78.44
456.836	72.44
457.056	96.44
457.276	76.44
457.497	74.44
457.717	81.44
457.937	84.44
458.157	82.44
458.377	93.44
458.598	94.44
458.818	94.44
459.038	87.44
459.258	75.44
459.478	68.44
459.698	84.44
459.918	81.44
460.138	79.44
460.358	85.44
460.578	86.44
460.798	71.44
461.018	72.44
461.238	74.44
461.458	77.44
461.678	78.44
461.898	86.44
462.118	84.44
462.338	92.44
462.558	66.44
462.777	77.44
462.997	88.44
463.217	77.44
463.437	90.44
463.657	66.44
463.876	74.44
464.096	72.44
464.316	91.44
464.536	64.44
464.755	100.44
464.975	84.44
465.195	72.44
465.414	75.44
465.634	87.44
465.854	73.44
466.073	80.44
466.293	90.44
466.512	70.44
466.732	72.44
466.951	86.44
467.171	77.44
467.391	83.44
467.61	88.44
467.829	73.44
468.049	67.44
468.268	78.44
468.488	77.44
468.707	69.44
468.927	86.44
469.146	88.44
469.365	81.44
469.585	74.44
469.804	76.44
470.023	74.44
470.243	81.44
470.462	73.44
470.681	77.44
470.901	92.44
471.12	85.44
471.339	76.44
471.558	82.44
471.777	81.44
471.997	86.44
472.216	83.44
472.435	83.44
472.654	76.44
472.873	82.44
473.092	90.44
473.311	78.44
473.53	70.44
473.749	88.44
473.968	91.44
474.187	81.44
474.406	74.44
474.625	80.44
474.844	81.44
475.063	73.44
475.282	69.44
475.501	81.44
475.72	94.44
475.939	78.44
476.158	78.44
476.377	103.44
476.596	85.44
476.814	82.44
477.033	88.44
477.252	77.44
477.471	75.44
477.69	69.44
477.908	84.44
478.127	78.44
478.346	81.44
478.564	85.44
478.783	81.44
479.002	86.44
479.22	81.44
479.439	83.44
479.658	78.44
479.876	78.44
480.095	78.44
480.313	74.44
480.532	75.44
480.751	99.44
480.969	74.44
481.188	87.44
481.406	69.44
481.624	74.44
481.843	94.44
482.061	68.44
482.28	78.44
482.498	69.44
482.717	70.44
482.935	71.44
483.153	82.44
483.372	81.44
483.59	93.44
483.808	82.44
484.027	88.44
484.245	81.44
484.463	80.44
484.681	74.44
484.9	77.44
485.118	85.44
485.336	95.44
485.554	89.44
485.772	63.44
485.99	87.44
486.209	91.44
486.427	81.44
486.645	83.44
486.863	81.44
487.081	90.44
487.299	82.44
487.517	83.44
487.735	97.44
487.953	71.44
488.171	79.44
488.389	81.44
488.607	92.44
488.825	76.44
489.043	82.44
489.261	96.44
489.479	60.44
489.696	75.44
489.914	74.44
490.132	80.44
490.35	82.44
490.568	69.44
490.786	72.44
491.003	78.44
491.221	68.44
491.439	85.44
491.657	76.44
491.874	85.44
492.092	74.44
492.31	79.44
492.527	83.44
492.745	78.44
492.963	96.44
493.18	74.44
493.398	74.44
493.615	84.44
493.833	78.44
494.05	73.44
494.268	81.44
494.485	76.44
494.703	83.44
494.92	64.44
495.138	77.44
495.355	76.44
495.573	81.44
495.79	62.44
496.008	86.44
496.225	85.44
496.442	78.44
496.66	88.44
496.877	95.44
497.094	98.44
497.312	75.44
497.529	75.44
497.746	67.44
497.963	77.44
498.181	84.44
498.398	84.44
498.615	84.44
498.832	81.44
499.049	78.44
499.267	79.44
499.484	83.44
499.701	92.44
499.918	92.44
500.135	84.44
500.352	88.44
500.569	76.44
500.786	87.44
501.003	81.44
501.22	82.44
501.437	81.44
501.654	81.44
501.871	77.44
502.088	87.44
502.305	74.44
502.522	82.44
502.739	82.44
502.956	83.44
503.172	82.44
503.389	80.44
503.606	68.44
503.823	86.44
504.04	89.44
504.256	85.44
504.473	97.44
504.69	82.44
504.907	96.44
505.123	88.44
505.34	82.44
505.557	82.44
505.773	86.44
505.99	84.44
506.207	80.44
506.423	74.44
506.64	79.44
506.856	87.44
507.073	87.44
507.289	73.44
507.506	87.44
507.722	77.44
507.939	82.44
508.155	69.44
508.372	88.44
508.588	78.44
508.805	87.44
509.021	76.44
509.238	84.44
509.454	78.44
509.67	86.44
509.887	89.44
510.103	82.44
510.319	82.44
510.536	91.44
510.752	87.44
510.968	84.44
511.184	88.44
511.401	89.44
511.617	84.44
511.833	78.44
512.049	80.44
512.265	76.44
512.481	84.44
512.698	76.44
512.914	79.44
513.13	80.44
513.346	97.44
513.562	78.44
513.778	92.44
513.994	73.44
514.21	80.44
514.426	88.44
514.642	82.44
514.858	89.44
515.074	95.44
515.29	90.44
515.506	94.44
515.721	78.44
515.937	78.44
516.153	75.44
516.369	89.44
516.585	71.44
516.801	81.44
517.016	88.44
517.232	82.44
517.448	71.44
517.664	89.44
517.879	84.44
518.095	82.44
518.311	84.44
518.527	94.44
518.742	87.44
518.958	86.44
519.173	93.44
519.389	82.44
519.605	84.44
519.82	82.44
520.036	73.44
520.251	92.44
