Data from 1600_1_HRD10591_00041.txt Node
Date: Mon Jan 19 13:48:01 EST 2026
User: Yrep
Spectrometer: HR+D1059
Trigger mode: 1
Integration Time (sec): 1.000000E-1
Scans to average: 1
Electric dark correction enabled: true
Nonlinearity correction enabled: false
Boxcar width: 0
XAxis mode: Wavelengths
Number of Pixels in Spectrum: 2048
>>>>>Begin Spectral Data<<<<<
223.165	-11.5
223.4	-11.5
223.635	-11.5
223.869	-28.5
224.104	-30.5
224.338	-0.5
224.573	-8.5
224.808	-6.5
225.042	-10.5
225.277	-10.5
225.511	2.5
225.746	10.5
225.98	-0.5
226.215	3.5
226.449	20.5
226.683	28.5
226.918	14.5
227.152	27.5
227.387	31.5
227.621	28.5
227.856	41.5
228.09	53.5
228.324	39.5
228.559	58.5
228.793	67.5
229.027	51.5
229.262	59.5
229.496	54.5
229.73	58.5
229.964	75.5
230.199	65.5
230.433	63.5
230.667	85.5
230.901	77.5
231.136	66.5
231.37	69.5
231.604	74.5
231.838	81.5
232.072	74.5
232.306	78.5
232.541	76.5
232.775	78.5
233.009	78.5
233.243	83.5
233.477	67.5
233.711	75.5
233.945	77.5
234.179	87.5
234.413	89.5
234.647	70.5
234.881	67.5
235.115	87.5
235.349	88.5
235.583	85.5
235.817	82.5
236.051	87.5
236.285	77.5
236.519	82.5
236.753	80.5
236.987	66.5
237.221	70.5
237.455	83.5
237.689	67.5
237.922	71.5
238.156	61.5
238.39	74.5
238.624	74.5
238.858	79.5
239.091	80.5
239.325	65.5
239.559	71.5
239.793	63.5
240.027	74.5
240.26	65.5
240.494	71.5
240.728	89.5
240.961	73.5
241.195	79.5
241.429	77.5
241.662	84.5
241.896	73.5
242.13	71.5
242.363	73.5
242.597	67.5
242.83	77.5
243.064	78.5
243.298	79.5
243.531	89.5
243.765	69.5
243.998	74.5
244.232	75.5
244.465	78.5
244.699	71.5
244.932	64.5
245.166	70.5
245.399	81.5
245.633	77.5
245.866	71.5
246.099	69.5
246.333	79.5
246.566	80.5
246.8	87.5
247.033	65.5
247.266	80.5
247.5	66.5
247.733	87.5
247.966	70.5
248.2	79.5
248.433	69.5
248.666	63.5
248.899	92.5
249.133	84.5
249.366	78.5
249.599	81.5
249.832	72.5
250.066	72.5
250.299	72.5
250.532	68.5
250.765	89.5
250.998	79.5
251.231	86.5
251.465	80.5
251.698	68.5
251.931	52.5
252.164	73.5
252.397	66.5
252.63	78.5
252.863	87.5
253.096	86.5
253.329	78.5
253.562	66.5
253.795	81.5
254.028	90.5
254.261	80.5
254.494	75.5
254.727	83.5
254.96	69.5
255.193	77.5
255.426	77.5
255.659	79.5
255.892	98.5
256.124	97.5
256.357	80.5
256.59	91.5
256.823	77.5
257.056	63.5
257.289	85.5
257.521	81.5
257.754	79.5
257.987	70.5
258.22	84.5
258.452	75.5
258.685	77.5
258.918	91.5
259.151	85.5
259.383	82.5
259.616	78.5
259.849	75.5
260.081	92.5
260.314	73.5
260.547	89.5
260.779	75.5
261.012	66.5
261.244	66.5
261.477	85.5
261.71	79.5
261.942	74.5
262.175	89.5
262.407	82.5
262.64	83.5
262.872	74.5
263.105	84.5
263.337	87.5
263.57	76.5
263.802	56.5
264.035	86.5
264.267	89.5
264.499	83.5
264.732	68.5
264.964	68.5
265.197	62.5
265.429	95.5
265.661	74.5
265.894	82.5
266.126	79.5
266.358	69.5
266.591	70.5
266.823	84.5
267.055	72.5
267.287	69.5
267.52	69.5
267.752	82.5
267.984	101.5
268.216	88.5
268.448	85.5
268.681	93.5
268.913	87.5
269.145	90.5
269.377	81.5
269.609	90.5
269.841	78.5
270.073	85.5
270.306	79.5
270.538	83.5
270.77	93.5
271.002	69.5
271.234	71.5
271.466	80.5
271.698	80.5
271.93	67.5
272.162	84.5
272.394	89.5
272.626	72.5
272.858	82.5
273.09	77.5
273.322	81.5
273.553	82.5
273.785	89.5
274.017	81.5
274.249	80.5
274.481	75.5
274.713	75.5
274.945	86.5
275.176	78.5
275.408	76.5
275.64	88.5
275.872	80.5
276.104	77.5
276.335	102.5
276.567	92.5
276.799	81.5
277.031	76.5
277.262	89.5
277.494	76.5
277.726	89.5
277.957	84.5
278.189	92.5
278.421	85.5
278.652	89.5
278.884	87.5
279.115	83.5
279.347	97.5
279.579	84.5
279.81	82.5
280.042	87.5
280.273	77.5
280.505	99.5
280.736	76.5
280.968	74.5
281.199	77.5
281.431	80.5
281.662	89.5
281.894	90.5
282.125	82.5
282.356	81.5
282.588	82.5
282.819	81.5
283.051	81.5
283.282	77.5
283.513	86.5
283.745	73.5
283.976	75.5
284.207	71.5
284.439	71.5
284.67	84.5
284.901	75.5
285.132	87.5
285.364	87.5
285.595	99.5
285.826	89.5
286.057	93.5
286.288	81.5
286.52	85.5
286.751	80.5
286.982	73.5
287.213	75.5
287.444	78.5
287.675	89.5
287.906	81.5
288.138	70.5
288.369	81.5
288.6	79.5
288.831	71.5
289.062	88.5
289.293	83.5
289.524	73.5
289.755	90.5
289.986	79.5
290.217	90.5
290.448	86.5
290.679	75.5
290.91	81.5
291.141	85.5
291.371	82.5
291.602	72.5
291.833	95.5
292.064	70.5
292.295	76.5
292.526	83.5
292.757	100.5
292.987	79.5
293.218	72.5
293.449	82.5
293.68	83.5
293.91	82.5
294.141	82.5
294.372	82.5
294.603	85.5
294.833	82.5
295.064	80.5
295.295	82.5
295.525	88.5
295.756	78.5
295.987	86.5
296.217	83.5
296.448	90.5
296.679	83.5
296.909	69.5
297.14	78.5
297.37	91.5
297.601	86.5
297.831	88.5
298.062	86.5
298.292	82.5
298.523	81.5
298.753	90.5
298.984	91.5
299.214	82.5
299.445	82.5
299.675	74.5
299.905	77.5
300.136	96.5
300.366	96.5
300.597	99.5
300.827	83.5
301.057	77.5
301.288	98.5
301.518	82.5
301.748	80.5
301.979	100.5
302.209	85.5
302.439	71.5
302.669	85.5
302.9	97.5
303.13	93.5
303.36	90.5
303.59	84.5
303.82	84.5
304.051	77.5
304.281	80.5
304.511	88.5
304.741	87.5
304.971	82.5
305.201	71.5
305.431	79.5
305.661	71.5
305.891	92.5
306.121	81.5
306.352	100.5
306.582	75.5
306.812	95.5
307.042	91.5
307.272	72.5
307.502	96.5
307.731	90.5
307.961	102.5
308.191	81.5
308.421	73.5
308.651	85.5
308.881	68.5
309.111	68.5
309.341	86.5
309.571	74.5
309.8	75.5
310.03	77.5
310.26	83.5
310.49	85.5
310.72	85.5
310.949	87.5
311.179	78.5
311.409	87.5
311.639	79.5
311.868	85.5
312.098	79.5
312.328	93.5
312.557	82.5
312.787	83.5
313.017	86.5
313.246	98.5
313.476	84.5
313.706	74.5
313.935	82.5
314.165	91.5
314.394	94.5
314.624	83.5
314.853	97.5
315.083	93.5
315.312	72.5
315.542	79.5
315.771	95.5
316.001	100.5
316.23	92.5
316.46	96.5
316.689	79.5
316.919	85.5
317.148	97.5
317.377	71.5
317.607	78.5
317.836	97.5
318.065	92.5
318.295	91.5
318.524	91.5
318.753	87.5
318.983	82.5
319.212	73.5
319.441	76.5
319.67	100.5
319.9	93.5
320.129	78.5
320.358	71.5
320.587	88.5
320.816	81.5
321.046	82.5
321.275	80.5
321.504	81.5
321.733	84.5
321.962	82.5
322.191	78.5
322.42	79.5
322.649	91.5
322.878	83.5
323.108	76.5
323.337	89.5
323.566	82.5
323.795	93.5
324.024	79.5
324.253	77.5
324.482	93.5
324.71	78.5
324.939	83.5
325.168	87.5
325.397	90.5
325.626	89.5
325.855	89.5
326.084	90.5
326.313	72.5
326.542	90.5
326.77	70.5
326.999	78.5
327.228	91.5
327.457	96.5
327.686	83.5
327.914	79.5
328.143	100.5
328.372	77.5
328.6	86.5
328.829	68.5
329.058	83.5
329.287	84.5
329.515	91.5
329.744	73.5
329.972	84.5
330.201	99.5
330.43	63.5
330.658	79.5
330.887	91.5
331.115	66.5
331.344	85.5
331.572	75.5
331.801	77.5
332.03	94.5
332.258	72.5
332.486	81.5
332.715	91.5
332.943	76.5
333.172	99.5
333.4	86.5
333.629	80.5
333.857	87.5
334.085	75.5
334.314	85.5
334.542	78.5
334.771	92.5
334.999	82.5
335.227	70.5
335.455	78.5
335.684	91.5
335.912	90.5
336.14	89.5
336.369	94.5
336.597	77.5
336.825	82.5
337.053	85.5
337.281	89.5
337.51	77.5
337.738	78.5
337.966	67.5
338.194	77.5
338.422	85.5
338.65	86.5
338.878	83.5
339.106	76.5
339.334	94.5
339.562	85.5
339.79	87.5
340.018	77.5
340.246	82.5
340.474	83.5
340.702	82.5
340.93	84.5
341.158	92.5
341.386	88.5
341.614	81.5
341.842	82.5
342.07	84.5
342.298	78.5
342.526	72.5
342.754	70.5
342.981	85.5
343.209	64.5
343.437	92.5
343.665	77.5
343.893	77.5
344.12	90.5
344.348	94.5
344.576	81.5
344.804	75.5
345.031	79.5
345.259	95.5
345.487	84.5
345.714	81.5
345.942	79.5
346.17	72.5
346.397	90.5
346.625	77.5
346.853	71.5
347.08	83.5
347.308	85.5
347.535	81.5
347.763	85.5
347.99	84.5
348.218	88.5
348.445	77.5
348.673	84.5
348.9	68.5
349.128	87.5
349.355	79.5
349.583	98.5
349.81	81.5
350.037	88.5
350.265	85.5
350.492	71.5
350.72	71.5
350.947	88.5
351.174	81.5
351.402	92.5
351.629	86.5
351.856	90.5
352.083	91.5
352.311	95.5
352.538	94.5
352.765	67.5
352.992	89.5
353.22	95.5
353.447	71.5
353.674	80.5
353.901	80.5
354.128	97.5
354.355	79.5
354.583	75.5
354.81	98.5
355.037	84.5
355.264	85.5
355.491	81.5
355.718	79.5
355.945	90.5
356.172	82.5
356.399	78.5
356.626	87.5
356.853	83.5
357.08	80.5
357.307	81.5
357.534	84.5
357.761	86.5
357.988	91.5
358.215	81.5
358.441	77.5
358.668	86.5
358.895	72.5
359.122	78.5
359.349	79.5
359.576	70.5
359.802	90.5
360.029	87.5
360.256	94.5
360.483	91.5
360.709	89.5
360.936	91.5
361.163	81.5
361.39	77.5
361.616	83.5
361.843	85.5
362.07	90.5
362.296	85.5
362.523	81.5
362.749	94.5
362.976	84.5
363.203	91.5
363.429	86.5
363.656	72.5
363.882	90.5
364.109	85.5
364.335	81.5
364.562	77.5
364.788	76.5
365.015	85.5
365.241	75.5
365.468	76.5
365.694	75.5
365.92	77.5
366.147	81.5
366.373	86.5
366.599	90.5
366.826	77.5
367.052	80.5
367.278	92.5
367.505	84.5
367.731	85.5
367.957	85.5
368.184	76.5
368.41	83.5
368.636	62.5
368.862	83.5
369.089	82.5
369.315	61.5
369.541	81.5
369.767	74.5
369.993	85.5
370.219	93.5
370.445	76.5
370.672	85.5
370.898	92.5
371.124	75.5
371.35	70.5
371.576	86.5
371.802	89.5
372.028	71.5
372.254	75.5
372.48	84.5
372.706	84.5
372.932	86.5
373.158	79.5
373.384	77.5
373.61	72.5
373.835	91.5
374.061	75.5
374.287	81.5
374.513	83.5
374.739	75.5
374.965	90.5
375.191	86.5
375.416	72.5
375.642	85.5
375.868	102.5
376.094	80.5
376.319	81.5
376.545	78.5
376.771	84.5
376.997	75.5
377.222	76.5
377.448	75.5
377.674	91.5
377.899	75.5
378.125	76.5
378.35	90.5
378.576	84.5
378.802	74.5
379.027	88.5
379.253	82.5
379.478	72.5
379.704	89.5
379.929	85.5
380.155	85.5
380.38	84.5
380.606	86.5
380.831	91.5
381.057	86.5
381.282	75.5
381.507	79.5
381.733	81.5
381.958	62.5
382.184	85.5
382.409	81.5
382.634	83.5
382.86	87.5
383.085	75.5
383.31	84.5
383.535	74.5
383.761	84.5
383.986	91.5
384.211	77.5
384.436	80.5
384.662	89.5
384.887	79.5
385.112	77.5
385.337	83.5
385.562	97.5
385.787	82.5
386.013	98.5
386.238	84.5
386.463	78.5
386.688	83.5
386.913	71.5
387.138	75.5
387.363	77.5
387.588	75.5
387.813	86.5
388.038	66.5
388.263	81.5
388.488	77.5
388.713	84.5
388.938	70.5
389.163	82.5
389.387	83.5
389.612	89.5
389.837	77.5
390.062	77.5
390.287	81.5
390.512	74.5
390.736	95.5
390.961	69.5
391.186	84.5
391.411	83.5
391.636	72.5
391.86	69.5
392.085	75.5
392.31	86.5
392.534	80.5
392.759	93.5
392.984	94.5
393.208	98.5
393.433	96.5
393.658	110.5
393.882	83.5
394.107	65.5
394.331	87.5
394.556	81.5
394.78	80.5
395.005	79.5
395.229	86.5
395.454	82.5
395.678	85.5
395.903	89.5
396.127	90.5
396.352	91.5
396.576	82.5
396.801	98.5
397.025	118.5
397.249	79.5
397.474	77.5
397.698	90.5
397.922	87.5
398.147	80.5
398.371	77.5
398.595	82.5
398.82	91.5
399.044	78.5
399.268	79.5
399.492	71.5
399.717	90.5
399.941	74.5
400.165	70.5
400.389	82.5
400.613	86.5
400.837	68.5
401.062	101.5
401.286	81.5
401.51	77.5
401.734	85.5
401.958	84.5
402.182	84.5
402.406	61.5
402.63	84.5
402.854	82.5
403.078	90.5
403.302	78.5
403.526	63.5
403.75	87.5
403.974	83.5
404.198	68.5
404.422	84.5
404.645	89.5
404.869	86.5
405.093	72.5
405.317	53.5
405.541	71.5
405.765	77.5
405.988	83.5
406.212	78.5
406.436	83.5
406.66	93.5
406.883	80.5
407.107	75.5
407.331	85.5
407.555	69.5
407.778	76.5
408.002	72.5
408.226	78.5
408.449	81.5
408.673	81.5
408.896	77.5
409.12	72.5
409.344	76.5
409.567	85.5
409.791	86.5
410.014	90.5
410.238	82.5
410.461	74.5
410.685	77.5
410.908	67.5
411.132	78.5
411.355	83.5
411.578	86.5
411.802	68.5
412.025	77.5
412.249	74.5
412.472	70.5
412.695	60.5
412.919	94.5
413.142	91.5
413.365	83.5
413.589	67.5
413.812	87.5
414.035	82.5
414.258	71.5
414.482	78.5
414.705	98.5
414.928	64.5
415.151	71.5
415.374	61.5
415.597	72.5
415.821	69.5
416.044	69.5
416.267	74.5
416.49	66.5
416.713	81.5
416.936	67.5
417.159	88.5
417.382	75.5
417.605	81.5
417.828	83.5
418.051	71.5
418.274	69.5
418.497	64.5
418.72	71.5
418.943	65.5
419.166	68.5
419.389	92.5
419.611	87.5
419.834	83.5
420.057	81.5
420.28	89.5
420.503	69.5
420.726	78.5
420.948	80.5
421.171	84.5
421.394	71.5
421.617	86.5
421.839	82.5
422.062	85.5
422.285	85.5
422.507	105.5
422.73	116.5
422.953	130.5
423.175	86.5
423.398	90.5
423.621	84.5
423.843	67.5
424.066	83.5
424.288	89.5
424.511	81.5
424.733	62.5
424.956	79.5
425.178	77.5
425.401	60.5
425.623	66.5
425.846	91.5
426.068	81.5
426.291	86.5
426.513	69.5
426.735	71.5
426.958	78.5
427.18	93.5
427.402	87.5
427.625	88.5
427.847	92.5
428.069	79.5
428.292	77.5
428.514	86.5
428.736	89.5
428.958	96.5
429.181	88.5
429.403	88.5
429.625	80.5
429.847	96.5
430.069	88.5
430.292	87.5
430.514	92.5
430.736	83.5
430.958	100.5
431.18	80.5
431.402	78.5
431.624	84.5
431.846	69.5
432.068	71.5
432.29	84.5
432.512	88.5
432.734	89.5
432.956	82.5
433.178	85.5
433.4	74.5
433.622	65.5
433.844	69.5
434.066	89.5
434.287	89.5
434.509	89.5
434.731	68.5
434.953	77.5
435.175	81.5
435.397	73.5
435.618	87.5
435.84	78.5
436.062	84.5
436.284	78.5
436.505	77.5
436.727	88.5
436.949	74.5
437.17	95.5
437.392	70.5
437.614	67.5
437.835	69.5
438.057	81.5
438.278	76.5
438.5	88.5
438.721	84.5
438.943	81.5
439.165	78.5
439.386	68.5
439.608	75.5
439.829	82.5
440.05	81.5
440.272	82.5
440.493	82.5
440.715	53.5
440.936	86.5
441.158	110.5
441.379	80.5
441.6	68.5
441.822	73.5
442.043	79.5
442.264	91.5
442.486	71.5
442.707	78.5
442.928	76.5
443.149	74.5
443.371	79.5
443.592	98.5
443.813	97.5
444.034	89.5
444.255	71.5
444.476	77.5
444.698	89.5
444.919	84.5
445.14	150.5
445.361	104.5
445.582	103.5
445.803	91.5
446.024	87.5
446.245	79.5
446.466	67.5
446.687	72.5
446.908	69.5
447.129	81.5
447.35	83.5
447.571	76.5
447.792	70.5
448.013	67.5
448.234	49.5
448.455	70.5
448.675	68.5
448.896	85.5
449.117	103.5
449.338	82.5
449.559	83.5
449.779	78.5
450	90.5
450.221	71.5
450.442	82.5
450.662	68.5
450.883	76.5
451.104	79.5
451.324	96.5
451.545	80.5
451.766	83.5
451.986	87.5
452.207	93.5
452.428	85.5
452.648	82.5
452.869	83.5
453.089	65.5
453.31	81.5
453.53	83.5
453.751	86.5
453.971	84.5
454.192	78.5
454.412	71.5
454.633	83.5
454.853	82.5
455.073	84.5
455.294	79.5
455.514	77.5
455.734	76.5
455.955	79.5
456.175	80.5
456.395	69.5
456.616	81.5
456.836	79.5
457.056	76.5
457.276	91.5
457.497	77.5
457.717	80.5
457.937	87.5
458.157	82.5
458.377	82.5
458.598	86.5
458.818	84.5
459.038	68.5
459.258	71.5
459.478	79.5
459.698	85.5
459.918	72.5
460.138	76.5
460.358	75.5
460.578	84.5
460.798	71.5
461.018	68.5
461.238	92.5
461.458	89.5
461.678	80.5
461.898	71.5
462.118	84.5
462.338	87.5
462.558	68.5
462.777	78.5
462.997	77.5
463.217	86.5
463.437	70.5
463.657	88.5
463.876	83.5
464.096	74.5
464.316	77.5
464.536	69.5
464.755	83.5
464.975	77.5
465.195	77.5
465.414	83.5
465.634	86.5
465.854	77.5
466.073	96.5
466.293	74.5
466.512	66.5
466.732	77.5
466.951	72.5
467.171	85.5
467.391	70.5
467.61	73.5
467.829	70.5
468.049	70.5
468.268	79.5
468.488	91.5
468.707	70.5
468.927	79.5
469.146	58.5
469.365	77.5
469.585	83.5
469.804	83.5
470.023	86.5
470.243	84.5
470.462	74.5
470.681	92.5
470.901	79.5
471.12	81.5
471.339	75.5
471.558	77.5
471.777	71.5
471.997	78.5
472.216	71.5
472.435	96.5
472.654	73.5
472.873	79.5
473.092	79.5
473.311	81.5
473.53	77.5
473.749	80.5
473.968	96.5
474.187	66.5
474.406	87.5
474.625	98.5
474.844	84.5
475.063	69.5
475.282	84.5
475.501	81.5
475.72	91.5
475.939	90.5
476.158	83.5
476.377	76.5
476.596	72.5
476.814	71.5
477.033	75.5
477.252	87.5
477.471	82.5
477.69	83.5
477.908	87.5
478.127	77.5
478.346	74.5
478.564	86.5
478.783	84.5
479.002	89.5
479.22	94.5
479.439	73.5
479.658	80.5
479.876	71.5
480.095	96.5
480.313	89.5
480.532	79.5
480.751	69.5
480.969	86.5
481.188	81.5
481.406	85.5
481.624	99.5
481.843	83.5
482.061	75.5
482.28	78.5
482.498	89.5
482.717	81.5
482.935	80.5
483.153	91.5
483.372	89.5
483.59	94.5
483.808	75.5
484.027	71.5
484.245	82.5
484.463	75.5
484.681	82.5
484.9	92.5
485.118	78.5
485.336	74.5
485.554	85.5
485.772	86.5
485.99	83.5
486.209	91.5
486.427	92.5
486.645	75.5
486.863	89.5
487.081	81.5
487.299	65.5
487.517	85.5
487.735	85.5
487.953	79.5
488.171	87.5
488.389	86.5
488.607	73.5
488.825	89.5
489.043	92.5
489.261	89.5
489.479	93.5
489.696	97.5
489.914	67.5
490.132	69.5
490.35	88.5
490.568	81.5
490.786	92.5
491.003	78.5
491.221	74.5
491.439	91.5
491.657	81.5
491.874	76.5
492.092	93.5
492.31	89.5
492.527	75.5
492.745	69.5
492.963	80.5
493.18	79.5
493.398	85.5
493.615	74.5
493.833	77.5
494.05	83.5
494.268	83.5
494.485	93.5
494.703	96.5
494.92	81.5
495.138	79.5
495.355	91.5
495.573	93.5
495.79	61.5
496.008	77.5
496.225	72.5
496.442	76.5
496.66	81.5
496.877	55.5
497.094	75.5
497.312	87.5
497.529	82.5
497.746	84.5
497.963	69.5
498.181	71.5
498.398	85.5
498.615	82.5
498.832	79.5
499.049	74.5
499.267	87.5
499.484	105.5
499.701	79.5
499.918	89.5
500.135	83.5
500.352	79.5
500.569	85.5
500.786	86.5
501.003	96.5
501.22	96.5
501.437	87.5
501.654	71.5
501.871	82.5
502.088	74.5
502.305	85.5
502.522	89.5
502.739	73.5
502.956	86.5
503.172	77.5
503.389	89.5
503.606	101.5
503.823	89.5
504.04	77.5
504.256	81.5
504.473	90.5
504.69	85.5
504.907	82.5
505.123	75.5
505.34	86.5
505.557	97.5
505.773	93.5
505.99	82.5
506.207	78.5
506.423	76.5
506.64	81.5
506.856	77.5
507.073	69.5
507.289	84.5
507.506	93.5
507.722	85.5
507.939	76.5
508.155	86.5
508.372	78.5
508.588	74.5
508.805	76.5
509.021	82.5
509.238	88.5
509.454	75.5
509.67	78.5
509.887	85.5
510.103	93.5
510.319	73.5
510.536	63.5
510.752	77.5
510.968	78.5
511.184	92.5
511.401	83.5
511.617	89.5
511.833	80.5
512.049	89.5
512.265	77.5
512.481	79.5
512.698	84.5
512.914	85.5
513.13	85.5
513.346	87.5
513.562	86.5
513.778	90.5
513.994	75.5
514.21	85.5
514.426	59.5
514.642	84.5
514.858	75.5
515.074	83.5
515.29	97.5
515.506	81.5
515.721	76.5
515.937	74.5
516.153	82.5
516.369	73.5
516.585	82.5
516.801	87.5
517.016	84.5
517.232	91.5
517.448	86.5
517.664	77.5
517.879	84.5
518.095	73.5
518.311	69.5
518.527	98.5
518.742	89.5
518.958	95.5
519.173	93.5
519.389	100.5
519.605	74.5
519.82	79.5
520.036	80.5
520.251	81.5
520.467	86.5
520.682	89.5
520.898	72.5
521.113	79.5
521.329	81.5
521.544	78.5
521.76	79.5
521.975	102.5
522.19	76.5
522.406	81.5
522.621	100.5
522.836	81.5
523.052	77.5
523.267	85.5
523.482	82.5
523.698	72.5
523.913	81.5
524.128	92.5
524.343	85.5
524.559	103.5
524.774	83.5
524.989	94.5
525.204	74.5
525.419	87.5
525.634	67.5
525.849	86.5
526.064	83.5
526.28	91.5
526.495	93.5
526.71	108.5
526.925	89.5
527.14	95.5
527.355	98.5
527.57	76.5
527.785	90.5
527.999	80.5
528.214	68.5
528.429	90.5
528.644	87.5
528.859	84.5
529.074	75.5
529.289	87.5
529.503	84.5
529.718	77.5
529.933	89.5
530.148	76.5
530.363	87.5
530.577	79.5
530.792	78.5
531.007	88.5
531.221	84.5
531.436	82.5
531.651	85.5
531.865	71.5
532.08	77.5
532.295	73.5
532.509	96.5
532.724	76.5
532.938	83.5
533.153	85.5
533.367	66.5
533.582	77.5
533.796	75.5
534.011	75.5
534.225	92.5
534.44	83.5
534.654	88.5
534.868	86.5
535.083	84.5
535.297	85.5
535.511	81.5
535.726	82.5
535.94	84.5
536.154	88.5
536.369	89.5
536.583	71.5
536.797	88.5
537.011	94.5
537.225	84.5
537.44	80.5
537.654	88.5
537.868	89.5
538.082	84.5
538.296	85.5
538.51	89.5
538.724	89.5
538.938	83.5
539.153	83.5
539.367	84.5
539.581	74.5
539.795	75.5
540.009	81.5
540.222	79.5
