Data from 1600_1_HRD10591_00014.txt Node
Date: Mon Jan 19 13:47:48 EST 2026
User: Yrep
Spectrometer: HR+D1059
Trigger mode: 1
Integration Time (sec): 1.000000E-1
Scans to average: 1
Electric dark correction enabled: true
Nonlinearity correction enabled: false
Boxcar width: 0
XAxis mode: Wavelengths
Number of Pixels in Spectrum: 2048
>>>>>Begin Spectral Data<<<<<
223.165	-16.62
223.4	-16.62
223.635	-16.62
223.869	-25.62
224.104	-12.62
224.338	-14.62
224.573	-17.62
224.808	-6.62
225.042	2.38
225.277	-19.62
225.511	-0.62
225.746	6.38
225.98	-5.62
226.215	4.38
226.449	18.38
226.683	19.38
226.918	38.38
227.152	30.38
227.387	36.38
227.621	49.38
227.856	56.38
228.09	50.38
228.324	49.38
228.559	67.38
228.793	60.38
229.027	54.38
229.262	71.38
229.496	60.38
229.73	61.38
229.964	83.38
230.199	79.38
230.433	70.38
230.667	81.38
230.901	95.38
231.136	69.38
231.37	85.38
231.604	86.38
231.838	69.38
232.072	86.38
232.306	85.38
232.541	90.38
232.775	78.38
233.009	79.38
233.243	84.38
233.477	96.38
233.711	66.38
233.945	75.38
234.179	81.38
234.413	87.38
234.647	86.38
234.881	79.38
235.115	86.38
235.349	79.38
235.583	70.38
235.817	79.38
236.051	63.38
236.285	90.38
236.519	63.38
236.753	100.38
236.987	74.38
237.221	85.38
237.455	91.38
237.689	66.38
237.922	83.38
238.156	79.38
238.39	71.38
238.624	87.38
238.858	72.38
239.091	83.38
239.325	68.38
239.559	65.38
239.793	69.38
240.027	73.38
240.26	56.38
240.494	73.38
240.728	72.38
240.961	74.38
241.195	83.38
241.429	78.38
241.662	75.38
241.896	83.38
242.13	82.38
242.363	72.38
242.597	73.38
242.83	75.38
243.064	67.38
243.298	83.38
243.531	82.38
243.765	82.38
243.998	61.38
244.232	73.38
244.465	77.38
244.699	85.38
244.932	55.38
245.166	61.38
245.399	75.38
245.633	79.38
245.866	84.38
246.099	85.38
246.333	65.38
246.566	83.38
246.8	93.38
247.033	96.38
247.266	79.38
247.5	79.38
247.733	68.38
247.966	63.38
248.2	81.38
248.433	86.38
248.666	72.38
248.899	73.38
249.133	72.38
249.366	76.38
249.599	84.38
249.832	70.38
250.066	77.38
250.299	81.38
250.532	87.38
250.765	85.38
250.998	71.38
251.231	74.38
251.465	71.38
251.698	80.38
251.931	69.38
252.164	80.38
252.397	74.38
252.63	75.38
252.863	86.38
253.096	85.38
253.329	75.38
253.562	63.38
253.795	84.38
254.028	75.38
254.261	91.38
254.494	90.38
254.727	70.38
254.96	72.38
255.193	95.38
255.426	87.38
255.659	74.38
255.892	88.38
256.124	78.38
256.357	83.38
256.59	80.38
256.823	73.38
257.056	87.38
257.289	71.38
257.521	77.38
257.754	85.38
257.987	77.38
258.22	96.38
258.452	83.38
258.685	86.38
258.918	73.38
259.151	81.38
259.383	82.38
259.616	80.38
259.849	79.38
260.081	101.38
260.314	86.38
260.547	79.38
260.779	67.38
261.012	85.38
261.244	84.38
261.477	94.38
261.71	91.38
261.942	87.38
262.175	79.38
262.407	88.38
262.64	87.38
262.872	86.38
263.105	79.38
263.337	85.38
263.57	87.38
263.802	85.38
264.035	79.38
264.267	68.38
264.499	78.38
264.732	87.38
264.964	87.38
265.197	74.38
265.429	73.38
265.661	81.38
265.894	85.38
266.126	87.38
266.358	86.38
266.591	79.38
266.823	82.38
267.055	93.38
267.287	98.38
267.52	77.38
267.752	68.38
267.984	74.38
268.216	65.38
268.448	83.38
268.681	93.38
268.913	83.38
269.145	86.38
269.377	76.38
269.609	66.38
269.841	86.38
270.073	97.38
270.306	78.38
270.538	79.38
270.77	77.38
271.002	95.38
271.234	75.38
271.466	84.38
271.698	69.38
271.93	77.38
272.162	81.38
272.394	84.38
272.626	96.38
272.858	91.38
273.09	100.38
273.322	84.38
273.553	80.38
273.785	90.38
274.017	90.38
274.249	89.38
274.481	93.38
274.713	92.38
274.945	72.38
275.176	82.38
275.408	89.38
275.64	98.38
275.872	94.38
276.104	104.38
276.335	77.38
276.567	82.38
276.799	75.38
277.031	79.38
277.262	88.38
277.494	93.38
277.726	83.38
277.957	82.38
278.189	76.38
278.421	87.38
278.652	73.38
278.884	82.38
279.115	77.38
279.347	81.38
279.579	94.38
279.81	77.38
280.042	81.38
280.273	97.38
280.505	76.38
280.736	90.38
280.968	94.38
281.199	83.38
281.431	95.38
281.662	93.38
281.894	77.38
282.125	92.38
282.356	95.38
282.588	87.38
282.819	90.38
283.051	83.38
283.282	88.38
283.513	101.38
283.745	71.38
283.976	89.38
284.207	84.38
284.439	84.38
284.67	54.38
284.901	77.38
285.132	77.38
285.364	79.38
285.595	86.38
285.826	79.38
286.057	87.38
286.288	86.38
286.52	85.38
286.751	94.38
286.982	89.38
287.213	83.38
287.444	83.38
287.675	88.38
287.906	85.38
288.138	81.38
288.369	93.38
288.6	70.38
288.831	90.38
289.062	96.38
289.293	79.38
289.524	79.38
289.755	83.38
289.986	78.38
290.217	83.38
290.448	87.38
290.679	87.38
290.91	81.38
291.141	86.38
291.371	91.38
291.602	69.38
291.833	88.38
292.064	89.38
292.295	84.38
292.526	98.38
292.757	97.38
292.987	101.38
293.218	68.38
293.449	88.38
293.68	92.38
293.91	95.38
294.141	86.38
294.372	90.38
294.603	87.38
294.833	83.38
295.064	94.38
295.295	89.38
295.525	79.38
295.756	92.38
295.987	84.38
296.217	83.38
296.448	77.38
296.679	89.38
296.909	85.38
297.14	79.38
297.37	86.38
297.601	88.38
297.831	76.38
298.062	82.38
298.292	99.38
298.523	74.38
298.753	78.38
298.984	98.38
299.214	87.38
299.445	87.38
299.675	85.38
299.905	82.38
300.136	95.38
300.366	96.38
300.597	92.38
300.827	82.38
301.057	80.38
301.288	97.38
301.518	89.38
301.748	91.38
301.979	96.38
302.209	85.38
302.439	65.38
302.669	88.38
302.9	100.38
303.13	84.38
303.36	82.38
303.59	85.38
303.82	92.38
304.051	83.38
304.281	85.38
304.511	99.38
304.741	86.38
304.971	95.38
305.201	83.38
305.431	90.38
305.661	85.38
305.891	77.38
306.121	79.38
306.352	83.38
306.582	76.38
306.812	81.38
307.042	83.38
307.272	84.38
307.502	73.38
307.731	96.38
307.961	72.38
308.191	83.38
308.421	76.38
308.651	86.38
308.881	85.38
309.111	77.38
309.341	73.38
309.571	80.38
309.8	96.38
310.03	73.38
310.26	81.38
310.49	92.38
310.72	89.38
310.949	76.38
311.179	66.38
311.409	76.38
311.639	82.38
311.868	82.38
312.098	95.38
312.328	89.38
312.557	92.38
312.787	92.38
313.017	98.38
313.246	93.38
313.476	81.38
313.706	79.38
313.935	92.38
314.165	84.38
314.394	73.38
314.624	81.38
314.853	88.38
315.083	98.38
315.312	79.38
315.542	89.38
315.771	93.38
316.001	89.38
316.23	100.38
316.46	85.38
316.689	92.38
316.919	86.38
317.148	92.38
317.377	72.38
317.607	84.38
317.836	87.38
318.065	80.38
318.295	104.38
318.524	89.38
318.753	84.38
318.983	96.38
319.212	99.38
319.441	69.38
319.67	81.38
319.9	88.38
320.129	80.38
320.358	83.38
320.587	91.38
320.816	79.38
321.046	77.38
321.275	84.38
321.504	88.38
321.733	76.38
321.962	96.38
322.191	88.38
322.42	80.38
322.649	87.38
322.878	88.38
323.108	83.38
323.337	82.38
323.566	85.38
323.795	111.38
324.024	87.38
324.253	91.38
324.482	72.38
324.71	79.38
324.939	89.38
325.168	86.38
325.397	79.38
325.626	84.38
325.855	79.38
326.084	87.38
326.313	88.38
326.542	74.38
326.77	79.38
326.999	93.38
327.228	86.38
327.457	97.38
327.686	87.38
327.914	100.38
328.143	104.38
328.372	89.38
328.6	71.38
328.829	88.38
329.058	88.38
329.287	81.38
329.515	76.38
329.744	94.38
329.972	79.38
330.201	82.38
330.43	88.38
330.658	65.38
330.887	91.38
331.115	73.38
331.344	83.38
331.572	89.38
331.801	84.38
332.03	84.38
332.258	83.38
332.486	83.38
332.715	67.38
332.943	85.38
333.172	74.38
333.4	73.38
333.629	84.38
333.857	89.38
334.085	82.38
334.314	99.38
334.542	87.38
334.771	88.38
334.999	85.38
335.227	84.38
335.455	77.38
335.684	81.38
335.912	90.38
336.14	86.38
336.369	92.38
336.597	105.38
336.825	82.38
337.053	87.38
337.281	88.38
337.51	91.38
337.738	96.38
337.966	89.38
338.194	90.38
338.422	92.38
338.65	97.38
338.878	90.38
339.106	87.38
339.334	80.38
339.562	80.38
339.79	79.38
340.018	80.38
340.246	86.38
340.474	99.38
340.702	93.38
340.93	80.38
341.158	83.38
341.386	79.38
341.614	79.38
341.842	93.38
342.07	89.38
342.298	100.38
342.526	87.38
342.754	87.38
342.981	84.38
343.209	83.38
343.437	90.38
343.665	82.38
343.893	101.38
344.12	95.38
344.348	88.38
344.576	81.38
344.804	74.38
345.031	79.38
345.259	85.38
345.487	105.38
345.714	85.38
345.942	79.38
346.17	85.38
346.397	84.38
346.625	83.38
346.853	79.38
347.08	58.38
347.308	85.38
347.535	93.38
347.763	77.38
347.99	78.38
348.218	90.38
348.445	91.38
348.673	95.38
348.9	91.38
349.128	83.38
349.355	71.38
349.583	76.38
349.81	89.38
350.037	86.38
350.265	74.38
350.492	81.38
350.72	90.38
350.947	83.38
351.174	85.38
351.402	73.38
351.629	95.38
351.856	77.38
352.083	91.38
352.311	100.38
352.538	91.38
352.765	78.38
352.992	87.38
353.22	87.38
353.447	92.38
353.674	83.38
353.901	97.38
354.128	97.38
354.355	77.38
354.583	83.38
354.81	87.38
355.037	82.38
355.264	88.38
355.491	91.38
355.718	65.38
355.945	88.38
356.172	80.38
356.399	86.38
356.626	99.38
356.853	94.38
357.08	92.38
357.307	83.38
357.534	77.38
357.761	83.38
357.988	85.38
358.215	87.38
358.441	95.38
358.668	86.38
358.895	92.38
359.122	97.38
359.349	94.38
359.576	76.38
359.802	77.38
360.029	88.38
360.256	81.38
360.483	81.38
360.709	85.38
360.936	95.38
361.163	92.38
361.39	86.38
361.616	86.38
361.843	76.38
362.07	85.38
362.296	100.38
362.523	91.38
362.749	69.38
362.976	96.38
363.203	100.38
363.429	84.38
363.656	92.38
363.882	77.38
364.109	81.38
364.335	89.38
364.562	88.38
364.788	73.38
365.015	94.38
365.241	89.38
365.468	78.38
365.694	91.38
365.92	75.38
366.147	99.38
366.373	88.38
366.599	87.38
366.826	84.38
367.052	86.38
367.278	91.38
367.505	95.38
367.731	100.38
367.957	71.38
368.184	81.38
368.41	80.38
368.636	84.38
368.862	81.38
369.089	89.38
369.315	85.38
369.541	97.38
369.767	85.38
369.993	80.38
370.219	88.38
370.445	100.38
370.672	67.38
370.898	89.38
371.124	89.38
371.35	88.38
371.576	81.38
371.802	100.38
372.028	83.38
372.254	81.38
372.48	85.38
372.706	88.38
372.932	88.38
373.158	84.38
373.384	83.38
373.61	80.38
373.835	79.38
374.061	84.38
374.287	83.38
374.513	77.38
374.739	69.38
374.965	85.38
375.191	85.38
375.416	83.38
375.642	92.38
375.868	104.38
376.094	86.38
376.319	83.38
376.545	67.38
376.771	73.38
376.997	88.38
377.222	85.38
377.448	82.38
377.674	88.38
377.899	72.38
378.125	80.38
378.35	91.38
378.576	70.38
378.802	81.38
379.027	82.38
379.253	91.38
379.478	90.38
379.704	67.38
379.929	93.38
380.155	67.38
380.38	81.38
380.606	83.38
380.831	71.38
381.057	104.38
381.282	96.38
381.507	82.38
381.733	85.38
381.958	91.38
382.184	92.38
382.409	89.38
382.634	87.38
382.86	73.38
383.085	93.38
383.31	89.38
383.535	93.38
383.761	93.38
383.986	93.38
384.211	81.38
384.436	97.38
384.662	77.38
384.887	85.38
385.112	90.38
385.337	86.38
385.562	77.38
385.787	84.38
386.013	89.38
386.238	94.38
386.463	87.38
386.688	92.38
386.913	88.38
387.138	92.38
387.363	93.38
387.588	84.38
387.813	94.38
388.038	63.38
388.263	82.38
388.488	89.38
388.713	70.38
388.938	73.38
389.163	90.38
389.387	93.38
389.612	74.38
389.837	91.38
390.062	87.38
390.287	96.38
390.512	79.38
390.736	88.38
390.961	81.38
391.186	83.38
391.411	83.38
391.636	91.38
391.86	70.38
392.085	88.38
392.31	73.38
392.534	73.38
392.759	80.38
392.984	97.38
393.208	88.38
393.433	87.38
393.658	88.38
393.882	84.38
394.107	92.38
394.331	78.38
394.556	83.38
394.78	87.38
395.005	99.38
395.229	95.38
395.454	83.38
395.678	85.38
395.903	83.38
396.127	82.38
396.352	90.38
396.576	88.38
396.801	84.38
397.025	84.38
397.249	86.38
397.474	82.38
397.698	89.38
397.922	95.38
398.147	87.38
398.371	77.38
398.595	106.38
398.82	80.38
399.044	92.38
399.268	69.38
399.492	81.38
399.717	81.38
399.941	91.38
400.165	83.38
400.389	89.38
400.613	78.38
400.837	81.38
401.062	77.38
401.286	91.38
401.51	92.38
401.734	76.38
401.958	91.38
402.182	87.38
402.406	79.38
402.63	90.38
402.854	91.38
403.078	74.38
403.302	75.38
403.526	87.38
403.75	88.38
403.974	92.38
404.198	88.38
404.422	92.38
404.645	86.38
404.869	81.38
405.093	86.38
405.317	72.38
405.541	85.38
405.765	86.38
405.988	76.38
406.212	83.38
406.436	80.38
406.66	88.38
406.883	86.38
407.107	83.38
407.331	79.38
407.555	85.38
407.778	80.38
408.002	89.38
408.226	79.38
408.449	91.38
408.673	91.38
408.896	72.38
409.12	95.38
409.344	73.38
409.567	88.38
409.791	76.38
410.014	81.38
410.238	81.38
410.461	76.38
410.685	87.38
410.908	81.38
411.132	87.38
411.355	67.38
411.578	81.38
411.802	79.38
412.025	82.38
412.249	93.38
412.472	93.38
412.695	97.38
412.919	77.38
413.142	75.38
413.365	79.38
413.589	73.38
413.812	73.38
414.035	74.38
414.258	79.38
414.482	77.38
414.705	84.38
414.928	82.38
415.151	87.38
415.374	69.38
415.597	70.38
415.821	83.38
416.044	91.38
416.267	77.38
416.49	83.38
416.713	84.38
416.936	85.38
417.159	89.38
417.382	99.38
417.605	101.38
417.828	87.38
418.051	82.38
418.274	72.38
418.497	77.38
418.72	91.38
418.943	79.38
419.166	80.38
419.389	88.38
419.611	93.38
419.834	89.38
420.057	78.38
420.28	75.38
420.503	71.38
420.726	83.38
420.948	66.38
421.171	91.38
421.394	75.38
421.617	75.38
421.839	80.38
422.062	71.38
422.285	96.38
422.507	103.38
422.73	115.38
422.953	96.38
423.175	80.38
423.398	85.38
423.621	87.38
423.843	78.38
424.066	79.38
424.288	74.38
424.511	74.38
424.733	86.38
424.956	80.38
425.178	83.38
425.401	82.38
425.623	77.38
425.846	81.38
426.068	80.38
426.291	66.38
426.513	71.38
426.735	84.38
426.958	79.38
427.18	81.38
427.402	79.38
427.625	79.38
427.847	103.38
428.069	95.38
428.292	95.38
428.514	84.38
428.736	75.38
428.958	99.38
429.181	98.38
429.403	70.38
429.625	81.38
429.847	69.38
430.069	95.38
430.292	91.38
430.514	96.38
430.736	95.38
430.958	87.38
431.18	77.38
431.402	88.38
431.624	73.38
431.846	86.38
432.068	84.38
432.29	79.38
432.512	83.38
432.734	93.38
432.956	96.38
433.178	101.38
433.4	86.38
433.622	79.38
433.844	99.38
434.066	70.38
434.287	81.38
434.509	67.38
434.731	79.38
434.953	64.38
435.175	79.38
435.397	67.38
435.618	75.38
435.84	80.38
436.062	75.38
436.284	80.38
436.505	69.38
436.727	75.38
436.949	81.38
437.17	89.38
437.392	72.38
437.614	84.38
437.835	91.38
438.057	92.38
438.278	87.38
438.5	88.38
438.721	78.38
438.943	76.38
439.165	76.38
439.386	81.38
439.608	89.38
439.829	73.38
440.05	74.38
440.272	79.38
440.493	80.38
440.715	82.38
440.936	91.38
441.158	83.38
441.379	69.38
441.6	80.38
441.822	81.38
442.043	92.38
442.264	91.38
442.486	91.38
442.707	90.38
442.928	89.38
443.149	90.38
443.371	82.38
443.592	67.38
443.813	94.38
444.034	82.38
444.255	75.38
444.476	79.38
444.698	88.38
444.919	81.38
445.14	173.38
445.361	121.38
445.582	84.38
445.803	76.38
446.024	81.38
446.245	87.38
446.466	92.38
446.687	68.38
446.908	78.38
447.129	80.38
447.35	79.38
447.571	71.38
447.792	77.38
448.013	79.38
448.234	83.38
448.455	84.38
448.675	78.38
448.896	87.38
449.117	85.38
449.338	81.38
449.559	95.38
449.779	75.38
450	77.38
450.221	96.38
450.442	79.38
450.662	85.38
450.883	89.38
451.104	76.38
451.324	83.38
451.545	85.38
451.766	95.38
451.986	101.38
452.207	79.38
452.428	82.38
452.648	87.38
452.869	94.38
453.089	84.38
453.31	79.38
453.53	79.38
453.751	77.38
453.971	73.38
454.192	83.38
454.412	73.38
454.633	75.38
454.853	89.38
455.073	84.38
455.294	85.38
455.514	82.38
455.734	96.38
455.955	85.38
456.175	92.38
456.395	93.38
456.616	96.38
456.836	79.38
457.056	79.38
457.276	82.38
457.497	67.38
457.717	85.38
457.937	73.38
458.157	86.38
458.377	101.38
458.598	84.38
458.818	84.38
459.038	88.38
459.258	75.38
459.478	89.38
459.698	95.38
459.918	85.38
460.138	76.38
460.358	94.38
460.578	92.38
460.798	76.38
461.018	91.38
461.238	79.38
461.458	81.38
461.678	73.38
461.898	86.38
462.118	95.38
462.338	87.38
462.558	74.38
462.777	97.38
462.997	91.38
463.217	78.38
463.437	73.38
463.657	97.38
463.876	85.38
464.096	86.38
464.316	66.38
464.536	80.38
464.755	90.38
464.975	83.38
465.195	83.38
465.414	80.38
465.634	93.38
465.854	80.38
466.073	80.38
466.293	96.38
466.512	84.38
466.732	81.38
466.951	78.38
467.171	76.38
467.391	85.38
467.61	81.38
467.829	69.38
468.049	83.38
468.268	73.38
468.488	87.38
468.707	87.38
468.927	87.38
469.146	71.38
469.365	65.38
469.585	84.38
469.804	92.38
470.023	85.38
470.243	87.38
470.462	72.38
470.681	85.38
470.901	76.38
471.12	71.38
471.339	86.38
471.558	81.38
471.777	85.38
471.997	87.38
472.216	81.38
472.435	71.38
472.654	96.38
472.873	88.38
473.092	70.38
473.311	85.38
473.53	72.38
473.749	90.38
473.968	83.38
474.187	84.38
474.406	95.38
474.625	74.38
474.844	75.38
475.063	79.38
475.282	84.38
475.501	91.38
475.72	92.38
475.939	92.38
476.158	82.38
476.377	80.38
476.596	74.38
476.814	84.38
477.033	90.38
477.252	92.38
477.471	94.38
477.69	70.38
477.908	75.38
478.127	94.38
478.346	81.38
478.564	77.38
478.783	72.38
479.002	76.38
479.22	79.38
479.439	74.38
479.658	76.38
479.876	84.38
480.095	77.38
480.313	88.38
480.532	87.38
480.751	85.38
480.969	81.38
481.188	88.38
481.406	89.38
481.624	70.38
481.843	94.38
482.061	96.38
482.28	92.38
482.498	80.38
482.717	97.38
482.935	85.38
483.153	85.38
483.372	84.38
483.59	82.38
483.808	74.38
484.027	89.38
484.245	78.38
484.463	81.38
484.681	79.38
484.9	85.38
485.118	92.38
485.336	80.38
485.554	80.38
485.772	69.38
485.99	92.38
486.209	92.38
486.427	85.38
486.645	85.38
486.863	76.38
487.081	86.38
487.299	89.38
487.517	96.38
487.735	91.38
487.953	89.38
488.171	86.38
488.389	103.38
488.607	97.38
488.825	83.38
489.043	82.38
489.261	90.38
489.479	79.38
489.696	88.38
489.914	92.38
490.132	83.38
490.35	81.38
490.568	77.38
490.786	76.38
491.003	81.38
491.221	100.38
491.439	76.38
491.657	78.38
491.874	99.38
492.092	95.38
492.31	93.38
492.527	75.38
492.745	82.38
492.963	87.38
493.18	84.38
493.398	70.38
493.615	86.38
493.833	81.38
494.05	80.38
494.268	98.38
494.485	86.38
494.703	72.38
494.92	80.38
495.138	80.38
495.355	76.38
495.573	66.38
495.79	87.38
496.008	83.38
496.225	93.38
496.442	84.38
496.66	96.38
496.877	73.38
497.094	83.38
497.312	73.38
497.529	81.38
497.746	88.38
497.963	87.38
498.181	74.38
498.398	79.38
498.615	84.38
498.832	87.38
499.049	63.38
499.267	73.38
499.484	81.38
499.701	68.38
499.918	73.38
500.135	94.38
500.352	89.38
500.569	75.38
500.786	78.38
501.003	72.38
501.22	87.38
501.437	69.38
501.654	99.38
501.871	82.38
502.088	89.38
502.305	87.38
502.522	86.38
502.739	95.38
502.956	66.38
503.172	91.38
503.389	87.38
503.606	78.38
503.823	72.38
504.04	82.38
504.256	70.38
504.473	87.38
504.69	97.38
504.907	90.38
505.123	91.38
505.34	84.38
505.557	85.38
505.773	84.38
505.99	86.38
506.207	80.38
506.423	80.38
506.64	87.38
506.856	83.38
507.073	81.38
507.289	82.38
507.506	94.38
507.722	91.38
507.939	69.38
508.155	96.38
508.372	80.38
508.588	91.38
508.805	89.38
509.021	83.38
509.238	87.38
509.454	76.38
509.67	72.38
509.887	82.38
510.103	90.38
510.319	82.38
510.536	87.38
510.752	66.38
510.968	79.38
511.184	86.38
511.401	80.38
511.617	92.38
511.833	95.38
512.049	75.38
512.265	85.38
512.481	77.38
512.698	75.38
512.914	79.38
513.13	68.38
513.346	76.38
513.562	87.38
513.778	91.38
513.994	83.38
514.21	77.38
514.426	91.38
514.642	82.38
514.858	73.38
515.074	90.38
515.29	100.38
515.506	84.38
515.721	82.38
515.937	98.38
516.153	72.38
516.369	100.38
516.585	98.38
516.801	83.38
517.016	87.38
517.232	79.38
517.448	77.38
517.664	85.38
517.879	96.38
518.095	96.38
518.311	76.38
518.527	87.38
518.742	93.38
518.958	96.38
519.173	97.38
519.389	81.38
519.605	91.38
519.82	81.38
