Data from 1600_1_HRD10591_00006.txt Node
Date: Mon Jan 19 13:47:44 EST 2026
User: Yrep
Spectrometer: HR+D1059
Trigger mode: 1
Integration Time (sec): 1.000000E-1
Scans to average: 1
Electric dark correction enabled: true
Nonlinearity correction enabled: false
Boxcar width: 0
XAxis mode: Wavelengths
Number of Pixels in Spectrum: 2048
>>>>>Begin Spectral Data<<<<<
223.165	-17.19
223.4	-17.19
223.635	-17.19
223.869	-18.19
224.104	-8.19
224.338	-4.19
224.573	-14.19
224.808	-6.19
225.042	-5.19
225.277	-4.19
225.511	-0.19
225.746	0.81
225.98	7.81
226.215	3.81
226.449	23.81
226.683	4.81
226.918	18.81
227.152	17.81
227.387	38.81
227.621	34.81
227.856	31.81
228.09	48.81
228.324	48.81
228.559	49.81
228.793	60.81
229.027	69.81
229.262	66.81
229.496	67.81
229.73	66.81
229.964	48.81
230.199	65.81
230.433	75.81
230.667	73.81
230.901	83.81
231.136	85.81
231.37	74.81
231.604	69.81
231.838	86.81
232.072	77.81
232.306	103.81
232.541	83.81
232.775	67.81
233.009	68.81
233.243	79.81
233.477	91.81
233.711	84.81
233.945	65.81
234.179	71.81
234.413	82.81
234.647	78.81
234.881	77.81
235.115	60.81
235.349	79.81
235.583	69.81
235.817	77.81
236.051	76.81
236.285	86.81
236.519	78.81
236.753	83.81
236.987	77.81
237.221	68.81
237.455	83.81
237.689	82.81
237.922	65.81
238.156	69.81
238.39	75.81
238.624	57.81
238.858	75.81
239.091	70.81
239.325	67.81
239.559	72.81
239.793	71.81
240.027	75.81
240.26	75.81
240.494	61.81
240.728	79.81
240.961	79.81
241.195	70.81
241.429	77.81
241.662	61.81
241.896	75.81
242.13	83.81
242.363	75.81
242.597	58.81
242.83	65.81
243.064	68.81
243.298	91.81
243.531	78.81
243.765	77.81
243.998	78.81
244.232	77.81
244.465	81.81
244.699	74.81
244.932	86.81
245.166	86.81
245.399	81.81
245.633	69.81
245.866	67.81
246.099	83.81
246.333	86.81
246.566	82.81
246.8	77.81
247.033	89.81
247.266	86.81
247.5	73.81
247.733	84.81
247.966	75.81
248.2	73.81
248.433	88.81
248.666	91.81
248.899	84.81
249.133	77.81
249.366	77.81
249.599	82.81
249.832	73.81
250.066	83.81
250.299	82.81
250.532	89.81
250.765	83.81
250.998	72.81
251.231	80.81
251.465	80.81
251.698	90.81
251.931	79.81
252.164	77.81
252.397	72.81
252.63	81.81
252.863	75.81
253.096	75.81
253.329	82.81
253.562	83.81
253.795	76.81
254.028	71.81
254.261	75.81
254.494	77.81
254.727	75.81
254.96	72.81
255.193	74.81
255.426	78.81
255.659	70.81
255.892	75.81
256.124	81.81
256.357	71.81
256.59	75.81
256.823	75.81
257.056	94.81
257.289	84.81
257.521	85.81
257.754	68.81
257.987	85.81
258.22	75.81
258.452	78.81
258.685	94.81
258.918	85.81
259.151	65.81
259.383	70.81
259.616	89.81
259.849	68.81
260.081	87.81
260.314	75.81
260.547	62.81
260.779	72.81
261.012	77.81
261.244	71.81
261.477	79.81
261.71	91.81
261.942	70.81
262.175	95.81
262.407	85.81
262.64	76.81
262.872	83.81
263.105	67.81
263.337	61.81
263.57	85.81
263.802	86.81
264.035	89.81
264.267	67.81
264.499	79.81
264.732	77.81
264.964	73.81
265.197	73.81
265.429	74.81
265.661	87.81
265.894	84.81
266.126	77.81
266.358	78.81
266.591	83.81
266.823	69.81
267.055	86.81
267.287	88.81
267.52	89.81
267.752	75.81
267.984	79.81
268.216	82.81
268.448	83.81
268.681	89.81
268.913	82.81
269.145	97.81
269.377	81.81
269.609	87.81
269.841	103.81
270.073	85.81
270.306	72.81
270.538	88.81
270.77	72.81
271.002	93.81
271.234	91.81
271.466	79.81
271.698	81.81
271.93	83.81
272.162	87.81
272.394	87.81
272.626	85.81
272.858	77.81
273.09	75.81
273.322	92.81
273.553	70.81
273.785	80.81
274.017	80.81
274.249	68.81
274.481	89.81
274.713	78.81
274.945	87.81
275.176	88.81
275.408	81.81
275.64	69.81
275.872	87.81
276.104	86.81
276.335	85.81
276.567	90.81
276.799	86.81
277.031	81.81
277.262	87.81
277.494	84.81
277.726	72.81
277.957	94.81
278.189	83.81
278.421	66.81
278.652	79.81
278.884	66.81
279.115	83.81
279.347	89.81
279.579	93.81
279.81	77.81
280.042	90.81
280.273	92.81
280.505	91.81
280.736	80.81
280.968	81.81
281.199	86.81
281.431	90.81
281.662	91.81
281.894	76.81
282.125	77.81
282.356	82.81
282.588	69.81
282.819	90.81
283.051	83.81
283.282	79.81
283.513	98.81
283.745	88.81
283.976	87.81
284.207	88.81
284.439	77.81
284.67	76.81
284.901	84.81
285.132	85.81
285.364	84.81
285.595	79.81
285.826	84.81
286.057	82.81
286.288	86.81
286.52	92.81
286.751	85.81
286.982	85.81
287.213	87.81
287.444	80.81
287.675	84.81
287.906	80.81
288.138	74.81
288.369	86.81
288.6	94.81
288.831	89.81
289.062	93.81
289.293	85.81
289.524	79.81
289.755	69.81
289.986	75.81
290.217	79.81
290.448	81.81
290.679	83.81
290.91	83.81
291.141	90.81
291.371	115.81
291.602	84.81
291.833	93.81
292.064	85.81
292.295	84.81
292.526	86.81
292.757	85.81
292.987	84.81
293.218	74.81
293.449	75.81
293.68	76.81
293.91	82.81
294.141	85.81
294.372	85.81
294.603	85.81
294.833	85.81
295.064	71.81
295.295	76.81
295.525	85.81
295.756	82.81
295.987	73.81
296.217	74.81
296.448	69.81
296.679	87.81
296.909	85.81
297.14	94.81
297.37	76.81
297.601	90.81
297.831	82.81
298.062	77.81
298.292	83.81
298.523	82.81
298.753	71.81
298.984	90.81
299.214	93.81
299.445	72.81
299.675	77.81
299.905	71.81
300.136	92.81
300.366	87.81
300.597	91.81
300.827	85.81
301.057	81.81
301.288	78.81
301.518	86.81
301.748	87.81
301.979	91.81
302.209	83.81
302.439	90.81
302.669	82.81
302.9	83.81
303.13	92.81
303.36	71.81
303.59	77.81
303.82	77.81
304.051	84.81
304.281	87.81
304.511	97.81
304.741	79.81
304.971	77.81
305.201	75.81
305.431	93.81
305.661	74.81
305.891	81.81
306.121	98.81
306.352	85.81
306.582	91.81
306.812	84.81
307.042	73.81
307.272	84.81
307.502	78.81
307.731	83.81
307.961	77.81
308.191	87.81
308.421	80.81
308.651	98.81
308.881	79.81
309.111	82.81
309.341	73.81
309.571	67.81
309.8	70.81
310.03	80.81
310.26	78.81
310.49	89.81
310.72	97.81
310.949	79.81
311.179	93.81
311.409	91.81
311.639	77.81
311.868	89.81
312.098	87.81
312.328	75.81
312.557	99.81
312.787	90.81
313.017	74.81
313.246	95.81
313.476	86.81
313.706	79.81
313.935	81.81
314.165	82.81
314.394	53.81
314.624	96.81
314.853	86.81
315.083	89.81
315.312	86.81
315.542	85.81
315.771	71.81
316.001	91.81
316.23	73.81
316.46	93.81
316.689	96.81
316.919	85.81
317.148	83.81
317.377	113.81
317.607	96.81
317.836	85.81
318.065	87.81
318.295	80.81
318.524	70.81
318.753	82.81
318.983	85.81
319.212	81.81
319.441	77.81
319.67	86.81
319.9	82.81
320.129	78.81
320.358	79.81
320.587	72.81
320.816	102.81
321.046	84.81
321.275	90.81
321.504	85.81
321.733	87.81
321.962	87.81
322.191	94.81
322.42	98.81
322.649	77.81
322.878	85.81
323.108	86.81
323.337	95.81
323.566	88.81
323.795	82.81
324.024	77.81
324.253	82.81
324.482	82.81
324.71	94.81
324.939	93.81
325.168	81.81
325.397	80.81
325.626	105.81
325.855	88.81
326.084	91.81
326.313	87.81
326.542	99.81
326.77	84.81
326.999	83.81
327.228	80.81
327.457	94.81
327.686	89.81
327.914	85.81
328.143	91.81
328.372	83.81
328.6	83.81
328.829	83.81
329.058	90.81
329.287	90.81
329.515	80.81
329.744	92.81
329.972	97.81
330.201	75.81
330.43	92.81
330.658	72.81
330.887	68.81
331.115	74.81
331.344	75.81
331.572	74.81
331.801	90.81
332.03	87.81
332.258	84.81
332.486	76.81
332.715	71.81
332.943	67.81
333.172	82.81
333.4	89.81
333.629	72.81
333.857	85.81
334.085	81.81
334.314	91.81
334.542	74.81
334.771	72.81
334.999	76.81
335.227	71.81
335.455	82.81
335.684	81.81
335.912	90.81
336.14	77.81
336.369	65.81
336.597	79.81
336.825	87.81
337.053	84.81
337.281	87.81
337.51	67.81
337.738	75.81
337.966	78.81
338.194	84.81
338.422	87.81
338.65	94.81
338.878	98.81
339.106	77.81
339.334	75.81
339.562	81.81
339.79	85.81
340.018	89.81
340.246	77.81
340.474	90.81
340.702	69.81
340.93	96.81
341.158	87.81
341.386	83.81
341.614	91.81
341.842	82.81
342.07	77.81
342.298	75.81
342.526	90.81
342.754	83.81
342.981	85.81
343.209	85.81
343.437	86.81
343.665	69.81
343.893	81.81
344.12	83.81
344.348	85.81
344.576	86.81
344.804	76.81
345.031	78.81
345.259	83.81
345.487	97.81
345.714	83.81
345.942	77.81
346.17	71.81
346.397	82.81
346.625	78.81
346.853	95.81
347.08	81.81
347.308	81.81
347.535	90.81
347.763	85.81
347.99	95.81
348.218	91.81
348.445	79.81
348.673	90.81
348.9	87.81
349.128	106.81
349.355	80.81
349.583	84.81
349.81	82.81
350.037	91.81
350.265	93.81
350.492	69.81
350.72	75.81
350.947	77.81
351.174	81.81
351.402	83.81
351.629	89.81
351.856	100.81
352.083	81.81
352.311	84.81
352.538	79.81
352.765	85.81
352.992	85.81
353.22	91.81
353.447	70.81
353.674	99.81
353.901	87.81
354.128	75.81
354.355	87.81
354.583	90.81
354.81	78.81
355.037	70.81
355.264	64.81
355.491	69.81
355.718	82.81
355.945	87.81
356.172	74.81
356.399	90.81
356.626	88.81
356.853	88.81
357.08	75.81
357.307	81.81
357.534	85.81
357.761	86.81
357.988	81.81
358.215	85.81
358.441	91.81
358.668	83.81
358.895	92.81
359.122	88.81
359.349	73.81
359.576	72.81
359.802	82.81
360.029	85.81
360.256	83.81
360.483	81.81
360.709	89.81
360.936	87.81
361.163	81.81
361.39	89.81
361.616	83.81
361.843	75.81
362.07	79.81
362.296	77.81
362.523	85.81
362.749	85.81
362.976	78.81
363.203	82.81
363.429	79.81
363.656	91.81
363.882	85.81
364.109	70.81
364.335	87.81
364.562	79.81
364.788	91.81
365.015	73.81
365.241	90.81
365.468	81.81
365.694	84.81
365.92	78.81
366.147	63.81
366.373	85.81
366.599	77.81
366.826	91.81
367.052	75.81
367.278	86.81
367.505	96.81
367.731	91.81
367.957	82.81
368.184	80.81
368.41	83.81
368.636	83.81
368.862	92.81
369.089	76.81
369.315	86.81
369.541	98.81
369.767	85.81
369.993	91.81
370.219	81.81
370.445	82.81
370.672	75.81
370.898	70.81
371.124	75.81
371.35	83.81
371.576	80.81
371.802	90.81
372.028	86.81
372.254	79.81
372.48	69.81
372.706	75.81
372.932	75.81
373.158	77.81
373.384	91.81
373.61	96.81
373.835	93.81
374.061	80.81
374.287	85.81
374.513	94.81
374.739	83.81
374.965	83.81
375.191	67.81
375.416	85.81
375.642	91.81
375.868	80.81
376.094	83.81
376.319	77.81
376.545	84.81
376.771	78.81
376.997	86.81
377.222	82.81
377.448	79.81
377.674	64.81
377.899	100.81
378.125	87.81
378.35	71.81
378.576	86.81
378.802	75.81
379.027	84.81
379.253	91.81
379.478	89.81
379.704	75.81
379.929	89.81
380.155	68.81
380.38	83.81
380.606	83.81
380.831	79.81
381.057	79.81
381.282	82.81
381.507	86.81
381.733	87.81
381.958	67.81
382.184	78.81
382.409	76.81
382.634	73.81
382.86	77.81
383.085	83.81
383.31	91.81
383.535	81.81
383.761	78.81
383.986	73.81
384.211	79.81
384.436	71.81
384.662	75.81
384.887	87.81
385.112	71.81
385.337	78.81
385.562	87.81
385.787	73.81
386.013	82.81
386.238	80.81
386.463	63.81
386.688	88.81
386.913	76.81
387.138	87.81
387.363	87.81
387.588	81.81
387.813	97.81
388.038	88.81
388.263	93.81
388.488	70.81
388.713	83.81
388.938	77.81
389.163	76.81
389.387	82.81
389.612	81.81
389.837	77.81
390.062	67.81
390.287	81.81
390.512	67.81
390.736	73.81
390.961	89.81
391.186	76.81
391.411	85.81
391.636	86.81
391.86	76.81
392.085	80.81
392.31	79.81
392.534	78.81
392.759	83.81
392.984	75.81
393.208	77.81
393.433	91.81
393.658	89.81
393.882	93.81
394.107	84.81
394.331	94.81
394.556	84.81
394.78	81.81
395.005	64.81
395.229	71.81
395.454	92.81
395.678	73.81
395.903	72.81
396.127	88.81
396.352	88.81
396.576	66.81
396.801	77.81
397.025	78.81
397.249	85.81
397.474	76.81
397.698	82.81
397.922	91.81
398.147	75.81
398.371	70.81
398.595	70.81
398.82	84.81
399.044	75.81
399.268	91.81
399.492	94.81
399.717	85.81
399.941	69.81
400.165	80.81
400.389	61.81
400.613	82.81
400.837	85.81
401.062	91.81
401.286	67.81
401.51	73.81
401.734	74.81
401.958	90.81
402.182	85.81
402.406	81.81
402.63	62.81
402.854	69.81
403.078	72.81
403.302	62.81
403.526	72.81
403.75	94.81
403.974	86.81
404.198	90.81
404.422	88.81
404.645	76.81
404.869	90.81
405.093	94.81
405.317	75.81
405.541	84.81
405.765	87.81
405.988	79.81
406.212	79.81
406.436	73.81
406.66	81.81
406.883	71.81
407.107	56.81
407.331	81.81
407.555	101.81
407.778	84.81
408.002	89.81
408.226	73.81
408.449	78.81
408.673	94.81
408.896	84.81
409.12	57.81
409.344	77.81
409.567	75.81
409.791	84.81
410.014	78.81
410.238	67.81
410.461	70.81
410.685	77.81
410.908	81.81
411.132	80.81
411.355	80.81
411.578	90.81
411.802	66.81
412.025	77.81
412.249	70.81
412.472	89.81
412.695	70.81
412.919	79.81
413.142	72.81
413.365	76.81
413.589	94.81
413.812	78.81
414.035	77.81
414.258	69.81
414.482	65.81
414.705	88.81
414.928	69.81
415.151	68.81
415.374	77.81
415.597	89.81
415.821	77.81
416.044	85.81
416.267	93.81
416.49	81.81
416.713	77.81
416.936	65.81
417.159	73.81
417.382	61.81
417.605	73.81
417.828	70.81
418.051	86.81
418.274	78.81
418.497	80.81
418.72	78.81
418.943	88.81
419.166	83.81
419.389	81.81
419.611	76.81
419.834	84.81
420.057	83.81
420.28	83.81
420.503	72.81
420.726	79.81
420.948	76.81
421.171	77.81
421.394	86.81
421.617	85.81
421.839	80.81
422.062	74.81
422.285	72.81
422.507	102.81
422.73	111.81
422.953	115.81
423.175	78.81
423.398	81.81
423.621	75.81
423.843	90.81
424.066	74.81
424.288	83.81
424.511	74.81
424.733	80.81
424.956	66.81
425.178	80.81
425.401	87.81
425.623	88.81
425.846	64.81
426.068	95.81
426.291	69.81
426.513	81.81
426.735	74.81
426.958	77.81
427.18	74.81
427.402	83.81
427.625	69.81
427.847	75.81
428.069	101.81
428.292	84.81
428.514	84.81
428.736	76.81
428.958	87.81
429.181	66.81
429.403	76.81
429.625	77.81
429.847	71.81
430.069	82.81
430.292	83.81
430.514	86.81
430.736	69.81
430.958	83.81
431.18	80.81
431.402	80.81
431.624	76.81
431.846	72.81
432.068	85.81
432.29	77.81
432.512	66.81
432.734	79.81
432.956	68.81
433.178	78.81
433.4	85.81
433.622	80.81
433.844	79.81
434.066	84.81
434.287	79.81
434.509	79.81
434.731	82.81
434.953	73.81
435.175	82.81
435.397	80.81
435.618	82.81
435.84	64.81
436.062	86.81
436.284	89.81
436.505	90.81
436.727	78.81
436.949	83.81
437.17	90.81
437.392	62.81
437.614	74.81
437.835	79.81
438.057	79.81
438.278	84.81
438.5	83.81
438.721	70.81
438.943	80.81
439.165	66.81
439.386	77.81
439.608	77.81
439.829	81.81
440.05	84.81
440.272	76.81
440.493	74.81
440.715	74.81
440.936	70.81
441.158	74.81
441.379	72.81
441.6	79.81
441.822	80.81
442.043	84.81
442.264	86.81
442.486	84.81
442.707	90.81
442.928	81.81
443.149	84.81
443.371	78.81
443.592	88.81
443.813	82.81
444.034	79.81
444.255	77.81
444.476	82.81
444.698	87.81
444.919	79.81
445.14	158.81
445.361	116.81
445.582	87.81
445.803	100.81
446.024	79.81
446.245	85.81
446.466	86.81
446.687	85.81
446.908	74.81
447.129	82.81
447.35	82.81
447.571	71.81
447.792	54.81
448.013	75.81
448.234	85.81
448.455	78.81
448.675	82.81
448.896	75.81
449.117	91.81
449.338	82.81
449.559	91.81
449.779	87.81
450	76.81
450.221	76.81
450.442	86.81
450.662	83.81
450.883	73.81
451.104	84.81
451.324	74.81
451.545	71.81
451.766	65.81
451.986	93.81
452.207	76.81
452.428	90.81
452.648	76.81
452.869	67.81
453.089	87.81
453.31	78.81
453.53	64.81
453.751	86.81
453.971	87.81
454.192	74.81
454.412	54.81
454.633	79.81
454.853	85.81
455.073	74.81
455.294	77.81
455.514	76.81
455.734	73.81
455.955	79.81
456.175	78.81
456.395	88.81
456.616	81.81
456.836	85.81
457.056	91.81
457.276	71.81
457.497	82.81
457.717	84.81
457.937	82.81
458.157	81.81
458.377	84.81
458.598	84.81
458.818	79.81
459.038	72.81
459.258	87.81
459.478	74.81
459.698	71.81
459.918	81.81
460.138	78.81
460.358	86.81
460.578	80.81
460.798	74.81
461.018	77.81
461.238	79.81
461.458	79.81
461.678	75.81
461.898	89.81
462.118	82.81
462.338	77.81
462.558	91.81
462.777	77.81
462.997	91.81
463.217	79.81
463.437	59.81
463.657	81.81
463.876	77.81
464.096	56.81
464.316	83.81
464.536	94.81
464.755	78.81
464.975	96.81
465.195	86.81
465.414	82.81
465.634	91.81
465.854	71.81
466.073	71.81
466.293	85.81
466.512	77.81
466.732	71.81
466.951	74.81
467.171	83.81
467.391	68.81
467.61	85.81
467.829	70.81
468.049	87.81
468.268	86.81
468.488	87.81
468.707	77.81
468.927	96.81
469.146	75.81
469.365	81.81
469.585	97.81
469.804	94.81
470.023	66.81
470.243	78.81
470.462	79.81
470.681	67.81
470.901	85.81
471.12	77.81
471.339	69.81
471.558	67.81
471.777	84.81
471.997	89.81
472.216	87.81
472.435	85.81
472.654	87.81
472.873	69.81
473.092	76.81
473.311	71.81
473.53	85.81
473.749	75.81
473.968	81.81
474.187	84.81
474.406	76.81
474.625	82.81
474.844	83.81
475.063	66.81
475.282	77.81
475.501	83.81
475.72	85.81
475.939	81.81
476.158	96.81
476.377	101.81
476.596	77.81
476.814	86.81
477.033	81.81
477.252	75.81
477.471	78.81
477.69	78.81
477.908	80.81
478.127	78.81
478.346	77.81
478.564	81.81
478.783	73.81
479.002	77.81
479.22	71.81
479.439	75.81
479.658	81.81
479.876	85.81
480.095	81.81
480.313	84.81
480.532	77.81
480.751	81.81
480.969	84.81
481.188	79.81
481.406	73.81
481.624	75.81
481.843	79.81
482.061	67.81
482.28	74.81
482.498	62.81
482.717	69.81
482.935	75.81
483.153	72.81
483.372	83.81
483.59	83.81
483.808	77.81
484.027	89.81
484.245	89.81
484.463	80.81
484.681	80.81
484.9	72.81
485.118	72.81
485.336	71.81
485.554	66.81
485.772	83.81
485.99	68.81
486.209	73.81
486.427	76.81
486.645	77.81
486.863	82.81
487.081	97.81
487.299	79.81
487.517	70.81
487.735	81.81
487.953	84.81
488.171	97.81
488.389	79.81
488.607	90.81
488.825	86.81
489.043	91.81
489.261	95.81
489.479	68.81
489.696	76.81
489.914	78.81
490.132	82.81
490.35	84.81
490.568	83.81
490.786	82.81
491.003	87.81
491.221	100.81
491.439	82.81
491.657	83.81
491.874	99.81
492.092	96.81
492.31	69.81
492.527	71.81
492.745	76.81
492.963	81.81
493.18	76.81
493.398	78.81
493.615	72.81
493.833	69.81
494.05	79.81
494.268	77.81
494.485	81.81
494.703	88.81
494.92	75.81
495.138	85.81
495.355	80.81
495.573	73.81
495.79	72.81
496.008	74.81
496.225	74.81
496.442	81.81
496.66	87.81
496.877	86.81
497.094	88.81
497.312	79.81
497.529	76.81
497.746	78.81
497.963	81.81
498.181	87.81
498.398	70.81
498.615	87.81
498.832	75.81
499.049	79.81
499.267	103.81
499.484	81.81
499.701	84.81
499.918	91.81
500.135	81.81
500.352	71.81
500.569	80.81
500.786	79.81
501.003	73.81
501.22	81.81
501.437	79.81
501.654	85.81
501.871	81.81
502.088	78.81
502.305	71.81
502.522	65.81
502.739	82.81
502.956	87.81
503.172	87.81
503.389	72.81
503.606	71.81
503.823	78.81
504.04	85.81
504.256	78.81
504.473	87.81
504.69	79.81
504.907	95.81
505.123	66.81
505.34	83.81
505.557	71.81
505.773	97.81
505.99	77.81
506.207	89.81
506.423	75.81
506.64	83.81
506.856	72.81
507.073	66.81
507.289	75.81
507.506	87.81
507.722	91.81
507.939	80.81
508.155	83.81
508.372	95.81
508.588	76.81
508.805	89.81
509.021	78.81
509.238	78.81
509.454	93.81
509.67	74.81
509.887	81.81
510.103	96.81
510.319	77.81
510.536	83.81
510.752	66.81
510.968	86.81
511.184	81.81
511.401	85.81
511.617	79.81
511.833	75.81
512.049	90.81
512.265	87.81
512.481	83.81
512.698	99.81
512.914	74.81
513.13	89.81
513.346	77.81
513.562	92.81
513.778	90.81
513.994	86.81
514.21	78.81
514.426	75.81
514.642	70.81
514.858	99.81
515.074	81.81
515.29	94.81
515.506	79.81
515.721	83.81
515.937	68.81
516.153	80.81
516.369	86.81
516.585	72.81
516.801	76.81
517.016	83.81
517.232	72.81
517.448	79.81
517.664	83.81
517.879	82.81
518.095	77.81
518.311	77.81
518.527	82.81
518.742	85.81
518.958	79.81
519.173	106.81
519.389	85.81
519.605	75.81
519.82	74.81
520.036	98.81
