Data from 1600_1_HRD10591_00044.txt Node
Date: Mon Jan 19 13:48:03 EST 2026
User: Yrep
Spectrometer: HR+D1059
Trigger mode: 1
Integration Time (sec): 1.000000E-1
Scans to average: 1
Electric dark correction enabled: true
Nonlinearity correction enabled: false
Boxcar width: 0
XAxis mode: Wavelengths
Number of Pixels in Spectrum: 2048
>>>>>Begin Spectral Data<<<<<
223.165	-20.06
223.4	-20.06
223.635	-20.06
223.869	-22.06
224.104	-17.06
224.338	-23.06
224.573	-23.06
224.808	-10.06
225.042	4.94
225.277	11.94
225.511	-0.06
225.746	-10.06
225.98	12.94
226.215	2.94
226.449	17.94
226.683	23.94
226.918	28.94
227.152	21.94
227.387	45.94
227.621	44.94
227.856	45.94
228.09	47.94
228.324	52.94
228.559	53.94
228.793	62.94
229.027	55.94
229.262	57.94
229.496	80.94
229.73	76.94
229.964	68.94
230.199	74.94
230.433	76.94
230.667	78.94
230.901	67.94
231.136	82.94
231.37	66.94
231.604	73.94
231.838	86.94
232.072	90.94
232.306	100.94
232.541	79.94
232.775	67.94
233.009	97.94
233.243	77.94
233.477	68.94
233.711	83.94
233.945	71.94
234.179	75.94
234.413	82.94
234.647	78.94
234.881	69.94
235.115	90.94
235.349	85.94
235.583	80.94
235.817	82.94
236.051	78.94
236.285	74.94
236.519	73.94
236.753	66.94
236.987	83.94
237.221	69.94
237.455	78.94
237.689	79.94
237.922	72.94
238.156	69.94
238.39	72.94
238.624	79.94
238.858	87.94
239.091	80.94
239.325	86.94
239.559	83.94
239.793	76.94
240.027	92.94
240.26	77.94
240.494	86.94
240.728	77.94
240.961	54.94
241.195	88.94
241.429	64.94
241.662	75.94
241.896	66.94
242.13	95.94
242.363	80.94
242.597	80.94
242.83	68.94
243.064	64.94
243.298	65.94
243.531	74.94
243.765	66.94
243.998	76.94
244.232	78.94
244.465	83.94
244.699	84.94
244.932	69.94
245.166	74.94
245.399	79.94
245.633	77.94
245.866	72.94
246.099	75.94
246.333	79.94
246.566	67.94
246.8	79.94
247.033	81.94
247.266	80.94
247.5	86.94
247.733	89.94
247.966	65.94
248.2	74.94
248.433	78.94
248.666	72.94
248.899	80.94
249.133	78.94
249.366	71.94
249.599	68.94
249.832	78.94
250.066	95.94
250.299	84.94
250.532	78.94
250.765	76.94
250.998	80.94
251.231	82.94
251.465	99.94
251.698	84.94
251.931	86.94
252.164	71.94
252.397	70.94
252.63	82.94
252.863	73.94
253.096	85.94
253.329	87.94
253.562	78.94
253.795	95.94
254.028	81.94
254.261	87.94
254.494	88.94
254.727	82.94
254.96	86.94
255.193	94.94
255.426	84.94
255.659	74.94
255.892	80.94
256.124	84.94
256.357	83.94
256.59	61.94
256.823	81.94
257.056	87.94
257.289	76.94
257.521	85.94
257.754	70.94
257.987	76.94
258.22	84.94
258.452	75.94
258.685	69.94
258.918	76.94
259.151	80.94
259.383	82.94
259.616	87.94
259.849	98.94
260.081	67.94
260.314	84.94
260.547	69.94
260.779	76.94
261.012	87.94
261.244	87.94
261.477	83.94
261.71	77.94
261.942	68.94
262.175	95.94
262.407	91.94
262.64	94.94
262.872	84.94
263.105	73.94
263.337	80.94
263.57	84.94
263.802	82.94
264.035	82.94
264.267	80.94
264.499	76.94
264.732	70.94
264.964	79.94
265.197	81.94
265.429	90.94
265.661	79.94
265.894	83.94
266.126	88.94
266.358	71.94
266.591	95.94
266.823	82.94
267.055	98.94
267.287	78.94
267.52	82.94
267.752	71.94
267.984	86.94
268.216	86.94
268.448	84.94
268.681	95.94
268.913	84.94
269.145	85.94
269.377	65.94
269.609	96.94
269.841	106.94
270.073	92.94
270.306	62.94
270.538	84.94
270.77	84.94
271.002	85.94
271.234	94.94
271.466	86.94
271.698	91.94
271.93	95.94
272.162	92.94
272.394	78.94
272.626	83.94
272.858	72.94
273.09	72.94
273.322	75.94
273.553	81.94
273.785	80.94
274.017	76.94
274.249	82.94
274.481	108.94
274.713	80.94
274.945	63.94
275.176	83.94
275.408	78.94
275.64	82.94
275.872	72.94
276.104	86.94
276.335	94.94
276.567	95.94
276.799	95.94
277.031	60.94
277.262	70.94
277.494	86.94
277.726	81.94
277.957	84.94
278.189	83.94
278.421	81.94
278.652	80.94
278.884	74.94
279.115	99.94
279.347	82.94
279.579	74.94
279.81	84.94
280.042	79.94
280.273	74.94
280.505	82.94
280.736	88.94
280.968	79.94
281.199	76.94
281.431	72.94
281.662	93.94
281.894	82.94
282.125	85.94
282.356	69.94
282.588	75.94
282.819	75.94
283.051	94.94
283.282	83.94
283.513	83.94
283.745	90.94
283.976	70.94
284.207	79.94
284.439	73.94
284.67	83.94
284.901	82.94
285.132	90.94
285.364	82.94
285.595	102.94
285.826	82.94
286.057	88.94
286.288	87.94
286.52	80.94
286.751	79.94
286.982	106.94
287.213	94.94
287.444	84.94
287.675	78.94
287.906	94.94
288.138	82.94
288.369	87.94
288.6	85.94
288.831	69.94
289.062	95.94
289.293	74.94
289.524	80.94
289.755	69.94
289.986	90.94
290.217	80.94
290.448	96.94
290.679	89.94
290.91	76.94
291.141	86.94
291.371	89.94
291.602	74.94
291.833	72.94
292.064	88.94
292.295	79.94
292.526	86.94
292.757	79.94
292.987	85.94
293.218	86.94
293.449	90.94
293.68	87.94
293.91	80.94
294.141	72.94
294.372	84.94
294.603	95.94
294.833	80.94
295.064	66.94
295.295	80.94
295.525	84.94
295.756	85.94
295.987	77.94
296.217	90.94
296.448	93.94
296.679	92.94
296.909	77.94
297.14	78.94
297.37	64.94
297.601	85.94
297.831	86.94
298.062	83.94
298.292	92.94
298.523	88.94
298.753	87.94
298.984	97.94
299.214	87.94
299.445	70.94
299.675	94.94
299.905	93.94
300.136	82.94
300.366	89.94
300.597	88.94
300.827	86.94
301.057	67.94
301.288	69.94
301.518	96.94
301.748	86.94
301.979	102.94
302.209	91.94
302.439	91.94
302.669	75.94
302.9	77.94
303.13	76.94
303.36	73.94
303.59	79.94
303.82	81.94
304.051	92.94
304.281	74.94
304.511	82.94
304.741	73.94
304.971	86.94
305.201	82.94
305.431	89.94
305.661	72.94
305.891	86.94
306.121	79.94
306.352	71.94
306.582	88.94
306.812	73.94
307.042	90.94
307.272	82.94
307.502	87.94
307.731	84.94
307.961	79.94
308.191	98.94
308.421	71.94
308.651	89.94
308.881	82.94
309.111	84.94
309.341	77.94
309.571	91.94
309.8	81.94
310.03	82.94
310.26	90.94
310.49	72.94
310.72	82.94
310.949	84.94
311.179	86.94
311.409	83.94
311.639	91.94
311.868	82.94
312.098	90.94
312.328	93.94
312.557	83.94
312.787	92.94
313.017	90.94
313.246	75.94
313.476	88.94
313.706	94.94
313.935	82.94
314.165	79.94
314.394	83.94
314.624	73.94
314.853	83.94
315.083	72.94
315.312	84.94
315.542	80.94
315.771	84.94
316.001	94.94
316.23	71.94
316.46	91.94
316.689	82.94
316.919	77.94
317.148	83.94
317.377	93.94
317.607	90.94
317.836	77.94
318.065	71.94
318.295	76.94
318.524	96.94
318.753	95.94
318.983	81.94
319.212	89.94
319.441	88.94
319.67	90.94
319.9	78.94
320.129	85.94
320.358	86.94
320.587	81.94
320.816	86.94
321.046	78.94
321.275	96.94
321.504	78.94
321.733	84.94
321.962	75.94
322.191	84.94
322.42	79.94
322.649	92.94
322.878	84.94
323.108	84.94
323.337	89.94
323.566	81.94
323.795	84.94
324.024	81.94
324.253	64.94
324.482	87.94
324.71	96.94
324.939	98.94
325.168	98.94
325.397	80.94
325.626	98.94
325.855	80.94
326.084	77.94
326.313	85.94
326.542	88.94
326.77	94.94
326.999	93.94
327.228	83.94
327.457	81.94
327.686	80.94
327.914	86.94
328.143	81.94
328.372	91.94
328.6	86.94
328.829	83.94
329.058	97.94
329.287	82.94
329.515	83.94
329.744	88.94
329.972	81.94
330.201	96.94
330.43	80.94
330.658	87.94
330.887	62.94
331.115	85.94
331.344	80.94
331.572	89.94
331.801	94.94
332.03	76.94
332.258	74.94
332.486	88.94
332.715	102.94
332.943	77.94
333.172	80.94
333.4	77.94
333.629	88.94
333.857	77.94
334.085	74.94
334.314	89.94
334.542	85.94
334.771	83.94
334.999	70.94
335.227	86.94
335.455	72.94
335.684	82.94
335.912	77.94
336.14	87.94
336.369	81.94
336.597	84.94
336.825	90.94
337.053	74.94
337.281	90.94
337.51	84.94
337.738	86.94
337.966	85.94
338.194	78.94
338.422	78.94
338.65	88.94
338.878	82.94
339.106	79.94
339.334	75.94
339.562	94.94
339.79	76.94
340.018	76.94
340.246	71.94
340.474	66.94
340.702	81.94
340.93	94.94
341.158	80.94
341.386	81.94
341.614	86.94
341.842	71.94
342.07	83.94
342.298	86.94
342.526	88.94
342.754	89.94
342.981	82.94
343.209	82.94
343.437	98.94
343.665	71.94
343.893	62.94
344.12	82.94
344.348	77.94
344.576	90.94
344.804	93.94
345.031	81.94
345.259	84.94
345.487	94.94
345.714	77.94
345.942	83.94
346.17	82.94
346.397	84.94
346.625	82.94
346.853	78.94
347.08	85.94
347.308	78.94
347.535	85.94
347.763	94.94
347.99	82.94
348.218	85.94
348.445	78.94
348.673	90.94
348.9	92.94
349.128	83.94
349.355	82.94
349.583	73.94
349.81	88.94
350.037	73.94
350.265	93.94
350.492	68.94
350.72	86.94
350.947	90.94
351.174	83.94
351.402	84.94
351.629	97.94
351.856	72.94
352.083	75.94
352.311	90.94
352.538	74.94
352.765	76.94
352.992	83.94
353.22	92.94
353.447	72.94
353.674	81.94
353.901	72.94
354.128	101.94
354.355	84.94
354.583	68.94
354.81	87.94
355.037	91.94
355.264	69.94
355.491	69.94
355.718	82.94
355.945	94.94
356.172	64.94
356.399	79.94
356.626	77.94
356.853	72.94
357.08	87.94
357.307	88.94
357.534	93.94
357.761	76.94
357.988	89.94
358.215	83.94
358.441	76.94
358.668	78.94
358.895	82.94
359.122	72.94
359.349	80.94
359.576	92.94
359.802	73.94
360.029	79.94
360.256	80.94
360.483	80.94
360.709	78.94
360.936	81.94
361.163	84.94
361.39	82.94
361.616	94.94
361.843	85.94
362.07	73.94
362.296	89.94
362.523	79.94
362.749	79.94
362.976	90.94
363.203	82.94
363.429	90.94
363.656	87.94
363.882	83.94
364.109	86.94
364.335	78.94
364.562	75.94
364.788	76.94
365.015	87.94
365.241	83.94
365.468	85.94
365.694	80.94
365.92	83.94
366.147	90.94
366.373	92.94
366.599	63.94
366.826	72.94
367.052	74.94
367.278	90.94
367.505	73.94
367.731	84.94
367.957	87.94
368.184	85.94
368.41	83.94
368.636	78.94
368.862	72.94
369.089	78.94
369.315	78.94
369.541	77.94
369.767	83.94
369.993	68.94
370.219	76.94
370.445	76.94
370.672	81.94
370.898	71.94
371.124	74.94
371.35	90.94
371.576	78.94
371.802	82.94
372.028	79.94
372.254	72.94
372.48	93.94
372.706	82.94
372.932	80.94
373.158	90.94
373.384	76.94
373.61	94.94
373.835	87.94
374.061	79.94
374.287	78.94
374.513	83.94
374.739	88.94
374.965	90.94
375.191	87.94
375.416	85.94
375.642	80.94
375.868	80.94
376.094	86.94
376.319	83.94
376.545	72.94
376.771	90.94
376.997	82.94
377.222	76.94
377.448	77.94
377.674	76.94
377.899	72.94
378.125	74.94
378.35	76.94
378.576	75.94
378.802	76.94
379.027	78.94
379.253	76.94
379.478	83.94
379.704	79.94
379.929	75.94
380.155	84.94
380.38	70.94
380.606	75.94
380.831	92.94
381.057	91.94
381.282	83.94
381.507	77.94
381.733	86.94
381.958	87.94
382.184	79.94
382.409	83.94
382.634	93.94
382.86	74.94
383.085	93.94
383.31	80.94
383.535	83.94
383.761	70.94
383.986	90.94
384.211	79.94
384.436	86.94
384.662	83.94
384.887	78.94
385.112	81.94
385.337	92.94
385.562	79.94
385.787	78.94
386.013	78.94
386.238	92.94
386.463	84.94
386.688	102.94
386.913	70.94
387.138	72.94
387.363	79.94
387.588	77.94
387.813	83.94
388.038	86.94
388.263	94.94
388.488	88.94
388.713	71.94
388.938	80.94
389.163	82.94
389.387	93.94
389.612	82.94
389.837	75.94
390.062	79.94
390.287	75.94
390.512	84.94
390.736	82.94
390.961	86.94
391.186	81.94
391.411	99.94
391.636	82.94
391.86	84.94
392.085	87.94
392.31	88.94
392.534	71.94
392.759	85.94
392.984	95.94
393.208	99.94
393.433	118.94
393.658	116.94
393.882	83.94
394.107	83.94
394.331	91.94
394.556	85.94
394.78	84.94
395.005	83.94
395.229	82.94
395.454	87.94
395.678	79.94
395.903	91.94
396.127	94.94
396.352	90.94
396.576	100.94
396.801	110.94
397.025	100.94
397.249	90.94
397.474	92.94
397.698	80.94
397.922	78.94
398.147	87.94
398.371	86.94
398.595	74.94
398.82	91.94
399.044	80.94
399.268	79.94
399.492	91.94
399.717	84.94
399.941	75.94
400.165	75.94
400.389	76.94
400.613	76.94
400.837	75.94
401.062	78.94
401.286	82.94
401.51	85.94
401.734	83.94
401.958	83.94
402.182	70.94
402.406	81.94
402.63	81.94
402.854	88.94
403.078	70.94
403.302	70.94
403.526	73.94
403.75	74.94
403.974	92.94
404.198	84.94
404.422	83.94
404.645	91.94
404.869	96.94
405.093	70.94
405.317	86.94
405.541	90.94
405.765	83.94
405.988	86.94
406.212	67.94
406.436	79.94
406.66	88.94
406.883	81.94
407.107	76.94
407.331	72.94
407.555	74.94
407.778	67.94
408.002	88.94
408.226	94.94
408.449	80.94
408.673	71.94
408.896	79.94
409.12	66.94
409.344	93.94
409.567	70.94
409.791	82.94
410.014	86.94
410.238	79.94
410.461	71.94
410.685	84.94
410.908	79.94
411.132	82.94
411.355	75.94
411.578	74.94
411.802	78.94
412.025	95.94
412.249	79.94
412.472	71.94
412.695	78.94
412.919	78.94
413.142	80.94
413.365	95.94
413.589	70.94
413.812	74.94
414.035	97.94
414.258	71.94
414.482	79.94
414.705	81.94
414.928	78.94
415.151	73.94
415.374	87.94
415.597	80.94
415.821	69.94
416.044	80.94
416.267	90.94
416.49	70.94
416.713	84.94
416.936	88.94
417.159	72.94
417.382	76.94
417.605	90.94
417.828	79.94
418.051	73.94
418.274	77.94
418.497	83.94
418.72	83.94
418.943	86.94
419.166	98.94
419.389	77.94
419.611	78.94
419.834	90.94
420.057	83.94
420.28	83.94
420.503	86.94
420.726	77.94
420.948	73.94
421.171	75.94
421.394	73.94
421.617	80.94
421.839	79.94
422.062	102.94
422.285	87.94
422.507	88.94
422.73	134.94
422.953	120.94
423.175	82.94
423.398	78.94
423.621	77.94
423.843	71.94
424.066	76.94
424.288	74.94
424.511	80.94
424.733	90.94
424.956	69.94
425.178	78.94
425.401	78.94
425.623	75.94
425.846	67.94
426.068	70.94
426.291	86.94
426.513	86.94
426.735	91.94
426.958	64.94
427.18	90.94
427.402	84.94
427.625	76.94
427.847	69.94
428.069	78.94
428.292	82.94
428.514	90.94
428.736	89.94
428.958	70.94
429.181	83.94
429.403	83.94
429.625	90.94
429.847	85.94
430.069	85.94
430.292	89.94
430.514	95.94
430.736	95.94
430.958	93.94
431.18	85.94
431.402	80.94
431.624	87.94
431.846	81.94
432.068	87.94
432.29	80.94
432.512	84.94
432.734	92.94
432.956	72.94
433.178	80.94
433.4	91.94
433.622	78.94
433.844	74.94
434.066	88.94
434.287	76.94
434.509	82.94
434.731	85.94
434.953	73.94
435.175	64.94
435.397	87.94
435.618	80.94
435.84	62.94
436.062	76.94
436.284	84.94
436.505	78.94
436.727	88.94
436.949	85.94
437.17	60.94
437.392	81.94
437.614	75.94
437.835	81.94
438.057	77.94
438.278	94.94
438.5	78.94
438.721	86.94
438.943	66.94
439.165	82.94
439.386	82.94
439.608	67.94
439.829	68.94
440.05	65.94
440.272	84.94
440.493	72.94
440.715	80.94
440.936	76.94
441.158	91.94
441.379	78.94
441.6	64.94
441.822	73.94
442.043	90.94
442.264	78.94
442.486	94.94
442.707	94.94
442.928	99.94
443.149	66.94
443.371	81.94
443.592	94.94
443.813	85.94
444.034	82.94
444.255	70.94
444.476	82.94
444.698	74.94
444.919	72.94
445.14	162.94
445.361	129.94
445.582	111.94
445.803	106.94
446.024	65.94
446.245	74.94
446.466	79.94
446.687	86.94
446.908	64.94
447.129	80.94
447.35	72.94
447.571	65.94
447.792	86.94
448.013	90.94
448.234	78.94
448.455	83.94
448.675	91.94
448.896	92.94
449.117	81.94
449.338	75.94
449.559	84.94
449.779	69.94
450	73.94
450.221	77.94
450.442	70.94
450.662	67.94
450.883	98.94
451.104	78.94
451.324	73.94
451.545	78.94
451.766	76.94
451.986	64.94
452.207	80.94
452.428	92.94
452.648	92.94
452.869	82.94
453.089	79.94
453.31	71.94
453.53	86.94
453.751	77.94
453.971	67.94
454.192	78.94
454.412	88.94
454.633	90.94
454.853	82.94
455.073	71.94
455.294	83.94
455.514	79.94
455.734	69.94
455.955	71.94
456.175	76.94
456.395	85.94
456.616	78.94
456.836	71.94
457.056	88.94
457.276	84.94
457.497	83.94
457.717	88.94
457.937	78.94
458.157	73.94
458.377	83.94
458.598	75.94
458.818	92.94
459.038	78.94
459.258	90.94
459.478	95.94
459.698	82.94
459.918	74.94
460.138	86.94
460.358	78.94
460.578	90.94
460.798	84.94
461.018	100.94
461.238	88.94
461.458	84.94
461.678	68.94
461.898	72.94
462.118	77.94
462.338	68.94
462.558	69.94
462.777	64.94
462.997	84.94
463.217	82.94
463.437	84.94
463.657	79.94
463.876	68.94
464.096	90.94
464.316	80.94
464.536	78.94
464.755	81.94
464.975	92.94
465.195	80.94
465.414	82.94
465.634	74.94
465.854	78.94
466.073	72.94
466.293	74.94
466.512	82.94
466.732	91.94
466.951	72.94
467.171	82.94
467.391	82.94
467.61	85.94
467.829	63.94
468.049	70.94
468.268	79.94
468.488	70.94
468.707	62.94
468.927	93.94
469.146	70.94
469.365	86.94
469.585	78.94
469.804	84.94
470.023	69.94
470.243	90.94
470.462	93.94
470.681	78.94
470.901	67.94
471.12	75.94
471.339	73.94
471.558	86.94
471.777	83.94
471.997	74.94
472.216	80.94
472.435	75.94
472.654	84.94
472.873	91.94
473.092	88.94
473.311	74.94
473.53	88.94
473.749	78.94
473.968	86.94
474.187	93.94
474.406	76.94
474.625	85.94
474.844	77.94
475.063	76.94
475.282	66.94
475.501	68.94
475.72	82.94
475.939	74.94
476.158	85.94
476.377	67.94
476.596	79.94
476.814	83.94
477.033	75.94
477.252	78.94
477.471	80.94
477.69	69.94
477.908	92.94
478.127	85.94
478.346	79.94
478.564	81.94
478.783	66.94
479.002	88.94
479.22	81.94
479.439	95.94
479.658	80.94
479.876	73.94
480.095	80.94
480.313	82.94
480.532	84.94
480.751	79.94
480.969	87.94
481.188	78.94
481.406	80.94
481.624	80.94
481.843	80.94
482.061	76.94
482.28	98.94
482.498	78.94
482.717	83.94
482.935	85.94
483.153	82.94
483.372	98.94
483.59	100.94
483.808	72.94
484.027	99.94
484.245	77.94
484.463	76.94
484.681	87.94
484.9	79.94
485.118	79.94
485.336	78.94
485.554	82.94
485.772	79.94
485.99	84.94
486.209	88.94
486.427	90.94
486.645	86.94
486.863	79.94
487.081	78.94
487.299	78.94
487.517	72.94
487.735	87.94
487.953	93.94
488.171	79.94
488.389	86.94
488.607	88.94
488.825	81.94
489.043	86.94
489.261	88.94
489.479	78.94
489.696	78.94
489.914	80.94
490.132	84.94
490.35	73.94
490.568	88.94
490.786	87.94
491.003	85.94
491.221	88.94
491.439	82.94
491.657	76.94
491.874	94.94
492.092	77.94
492.31	84.94
492.527	80.94
492.745	82.94
492.963	78.94
493.18	83.94
493.398	78.94
493.615	91.94
493.833	78.94
494.05	75.94
494.268	78.94
494.485	78.94
494.703	76.94
494.92	70.94
495.138	99.94
495.355	72.94
495.573	82.94
495.79	90.94
496.008	92.94
496.225	87.94
496.442	72.94
496.66	85.94
496.877	77.94
497.094	76.94
497.312	56.94
497.529	84.94
497.746	81.94
497.963	73.94
498.181	83.94
498.398	83.94
498.615	74.94
498.832	95.94
499.049	81.94
499.267	87.94
499.484	88.94
499.701	84.94
499.918	91.94
500.135	87.94
500.352	78.94
500.569	92.94
500.786	81.94
501.003	72.94
501.22	91.94
501.437	78.94
501.654	82.94
501.871	96.94
502.088	84.94
502.305	88.94
502.522	88.94
502.739	86.94
502.956	92.94
503.172	85.94
503.389	72.94
503.606	100.94
503.823	89.94
504.04	88.94
504.256	94.94
504.473	84.94
504.69	82.94
504.907	81.94
505.123	75.94
505.34	67.94
505.557	86.94
505.773	80.94
505.99	96.94
506.207	90.94
506.423	93.94
506.64	86.94
506.856	90.94
507.073	90.94
507.289	83.94
507.506	74.94
507.722	66.94
507.939	82.94
508.155	65.94
508.372	80.94
508.588	64.94
508.805	84.94
509.021	80.94
509.238	75.94
509.454	80.94
509.67	77.94
509.887	85.94
510.103	74.94
510.319	80.94
510.536	86.94
510.752	78.94
510.968	76.94
511.184	83.94
511.401	81.94
511.617	81.94
511.833	80.94
512.049	85.94
512.265	84.94
512.481	88.94
512.698	83.94
512.914	82.94
513.13	88.94
513.346	75.94
513.562	75.94
513.778	78.94
513.994	83.94
514.21	93.94
514.426	71.94
514.642	71.94
514.858	84.94
515.074	85.94
515.29	82.94
515.506	91.94
515.721	86.94
515.937	93.94
516.153	75.94
516.369	80.94
516.585	65.94
516.801	82.94
517.016	98.94
517.232	75.94
517.448	86.94
517.664	87.94
517.879	86.94
518.095	89.94
518.311	85.94
518.527	95.94
518.742	96.94
518.958	90.94
519.173	84.94
519.389	76.94
519.605	78.94
519.82	82.94
520.036	78.94
