Data from 1600_1_HRD10591_00024.txt Node
Date: Mon Jan 19 13:47:53 EST 2026
User: Yrep
Spectrometer: HR+D1059
Trigger mode: 1
Integration Time (sec): 1.000000E-1
Scans to average: 1
Electric dark correction enabled: true
Nonlinearity correction enabled: false
Boxcar width: 0
XAxis mode: Wavelengths
Number of Pixels in Spectrum: 2048
>>>>>Begin Spectral Data<<<<<
223.165	1.12
223.4	1.12
223.635	1.12
223.869	-14.88
224.104	-8.88
224.338	-13.88
224.573	-22.88
224.808	-9.88
225.042	-12.88
225.277	-7.88
225.511	-14.88
225.746	4.12
225.98	1.12
226.215	1.12
226.449	15.12
226.683	18.12
226.918	26.12
227.152	39.12
227.387	24.12
227.621	43.12
227.856	35.12
228.09	41.12
228.324	43.12
228.559	53.12
228.793	55.12
229.027	62.12
229.262	64.12
229.496	59.12
229.73	55.12
229.964	79.12
230.199	73.12
230.433	70.12
230.667	63.12
230.901	85.12
231.136	79.12
231.37	78.12
231.604	81.12
231.838	92.12
232.072	76.12
232.306	81.12
232.541	63.12
232.775	83.12
233.009	67.12
233.243	84.12
233.477	77.12
233.711	83.12
233.945	67.12
234.179	97.12
234.413	78.12
234.647	83.12
234.881	86.12
235.115	84.12
235.349	81.12
235.583	72.12
235.817	88.12
236.051	86.12
236.285	70.12
236.519	82.12
236.753	69.12
236.987	74.12
237.221	86.12
237.455	63.12
237.689	79.12
237.922	74.12
238.156	70.12
238.39	76.12
238.624	76.12
238.858	69.12
239.091	85.12
239.325	71.12
239.559	72.12
239.793	75.12
240.027	69.12
240.26	85.12
240.494	67.12
240.728	81.12
240.961	64.12
241.195	62.12
241.429	72.12
241.662	79.12
241.896	71.12
242.13	75.12
242.363	62.12
242.597	76.12
242.83	71.12
243.064	67.12
243.298	71.12
243.531	72.12
243.765	59.12
243.998	72.12
244.232	83.12
244.465	74.12
244.699	69.12
244.932	70.12
245.166	63.12
245.399	84.12
245.633	71.12
245.866	80.12
246.099	83.12
246.333	79.12
246.566	86.12
246.8	61.12
247.033	71.12
247.266	82.12
247.5	75.12
247.733	78.12
247.966	76.12
248.2	75.12
248.433	68.12
248.666	81.12
248.899	77.12
249.133	72.12
249.366	78.12
249.599	71.12
249.832	71.12
250.066	70.12
250.299	69.12
250.532	79.12
250.765	85.12
250.998	77.12
251.231	70.12
251.465	72.12
251.698	67.12
251.931	86.12
252.164	73.12
252.397	80.12
252.63	70.12
252.863	74.12
253.096	69.12
253.329	73.12
253.562	72.12
253.795	84.12
254.028	83.12
254.261	80.12
254.494	81.12
254.727	64.12
254.96	85.12
255.193	76.12
255.426	84.12
255.659	67.12
255.892	71.12
256.124	65.12
256.357	87.12
256.59	71.12
256.823	102.12
257.056	79.12
257.289	74.12
257.521	89.12
257.754	74.12
257.987	78.12
258.22	74.12
258.452	79.12
258.685	69.12
258.918	83.12
259.151	91.12
259.383	84.12
259.616	75.12
259.849	85.12
260.081	59.12
260.314	83.12
260.547	63.12
260.779	87.12
261.012	81.12
261.244	75.12
261.477	81.12
261.71	88.12
261.942	76.12
262.175	81.12
262.407	68.12
262.64	75.12
262.872	73.12
263.105	79.12
263.337	80.12
263.57	67.12
263.802	80.12
264.035	79.12
264.267	76.12
264.499	74.12
264.732	86.12
264.964	76.12
265.197	77.12
265.429	86.12
265.661	87.12
265.894	49.12
266.126	67.12
266.358	76.12
266.591	89.12
266.823	79.12
267.055	77.12
267.287	81.12
267.52	77.12
267.752	89.12
267.984	77.12
268.216	86.12
268.448	85.12
268.681	77.12
268.913	82.12
269.145	81.12
269.377	88.12
269.609	75.12
269.841	71.12
270.073	73.12
270.306	67.12
270.538	76.12
270.77	85.12
271.002	77.12
271.234	81.12
271.466	83.12
271.698	64.12
271.93	79.12
272.162	75.12
272.394	100.12
272.626	81.12
272.858	75.12
273.09	77.12
273.322	82.12
273.553	92.12
273.785	85.12
274.017	78.12
274.249	81.12
274.481	69.12
274.713	81.12
274.945	89.12
275.176	81.12
275.408	90.12
275.64	74.12
275.872	76.12
276.104	93.12
276.335	84.12
276.567	81.12
276.799	76.12
277.031	77.12
277.262	79.12
277.494	77.12
277.726	78.12
277.957	92.12
278.189	90.12
278.421	65.12
278.652	85.12
278.884	85.12
279.115	77.12
279.347	78.12
279.579	81.12
279.81	77.12
280.042	78.12
280.273	87.12
280.505	84.12
280.736	86.12
280.968	83.12
281.199	84.12
281.431	77.12
281.662	76.12
281.894	82.12
282.125	78.12
282.356	78.12
282.588	69.12
282.819	87.12
283.051	94.12
283.282	82.12
283.513	85.12
283.745	80.12
283.976	90.12
284.207	73.12
284.439	97.12
284.67	91.12
284.901	69.12
285.132	93.12
285.364	75.12
285.595	88.12
285.826	79.12
286.057	83.12
286.288	82.12
286.52	94.12
286.751	88.12
286.982	68.12
287.213	75.12
287.444	77.12
287.675	87.12
287.906	75.12
288.138	68.12
288.369	85.12
288.6	85.12
288.831	71.12
289.062	77.12
289.293	72.12
289.524	88.12
289.755	78.12
289.986	82.12
290.217	79.12
290.448	87.12
290.679	74.12
290.91	86.12
291.141	75.12
291.371	81.12
291.602	88.12
291.833	79.12
292.064	85.12
292.295	84.12
292.526	74.12
292.757	79.12
292.987	86.12
293.218	93.12
293.449	83.12
293.68	76.12
293.91	79.12
294.141	91.12
294.372	77.12
294.603	78.12
294.833	81.12
295.064	74.12
295.295	79.12
295.525	77.12
295.756	82.12
295.987	105.12
296.217	76.12
296.448	73.12
296.679	92.12
296.909	82.12
297.14	81.12
297.37	89.12
297.601	89.12
297.831	81.12
298.062	70.12
298.292	64.12
298.523	99.12
298.753	94.12
298.984	93.12
299.214	89.12
299.445	83.12
299.675	69.12
299.905	79.12
300.136	79.12
300.366	93.12
300.597	87.12
300.827	79.12
301.057	96.12
301.288	89.12
301.518	73.12
301.748	86.12
301.979	89.12
302.209	82.12
302.439	83.12
302.669	76.12
302.9	77.12
303.13	88.12
303.36	75.12
303.59	83.12
303.82	75.12
304.051	73.12
304.281	80.12
304.511	79.12
304.741	95.12
304.971	96.12
305.201	74.12
305.431	90.12
305.661	83.12
305.891	86.12
306.121	68.12
306.352	90.12
306.582	75.12
306.812	89.12
307.042	81.12
307.272	89.12
307.502	74.12
307.731	85.12
307.961	77.12
308.191	85.12
308.421	96.12
308.651	82.12
308.881	81.12
309.111	99.12
309.341	89.12
309.571	85.12
309.8	76.12
310.03	80.12
310.26	71.12
310.49	86.12
310.72	85.12
310.949	91.12
311.179	87.12
311.409	98.12
311.639	83.12
311.868	74.12
312.098	83.12
312.328	77.12
312.557	77.12
312.787	83.12
313.017	82.12
313.246	81.12
313.476	85.12
313.706	82.12
313.935	82.12
314.165	79.12
314.394	83.12
314.624	73.12
314.853	87.12
315.083	86.12
315.312	101.12
315.542	85.12
315.771	72.12
316.001	98.12
316.23	86.12
316.46	82.12
316.689	84.12
316.919	88.12
317.148	81.12
317.377	85.12
317.607	89.12
317.836	75.12
318.065	81.12
318.295	82.12
318.524	71.12
318.753	79.12
318.983	86.12
319.212	84.12
319.441	79.12
319.67	83.12
319.9	82.12
320.129	89.12
320.358	88.12
320.587	83.12
320.816	87.12
321.046	71.12
321.275	73.12
321.504	76.12
321.733	91.12
321.962	80.12
322.191	80.12
322.42	83.12
322.649	85.12
322.878	68.12
323.108	82.12
323.337	88.12
323.566	84.12
323.795	84.12
324.024	99.12
324.253	95.12
324.482	68.12
324.71	75.12
324.939	92.12
325.168	98.12
325.397	76.12
325.626	74.12
325.855	91.12
326.084	86.12
326.313	84.12
326.542	96.12
326.77	97.12
326.999	82.12
327.228	84.12
327.457	97.12
327.686	67.12
327.914	81.12
328.143	85.12
328.372	75.12
328.6	75.12
328.829	77.12
329.058	78.12
329.287	81.12
329.515	81.12
329.744	98.12
329.972	77.12
330.201	79.12
330.43	73.12
330.658	79.12
330.887	77.12
331.115	90.12
331.344	82.12
331.572	87.12
331.801	83.12
332.03	84.12
332.258	84.12
332.486	86.12
332.715	72.12
332.943	63.12
333.172	94.12
333.4	99.12
333.629	78.12
333.857	80.12
334.085	90.12
334.314	69.12
334.542	82.12
334.771	80.12
334.999	80.12
335.227	93.12
335.455	61.12
335.684	94.12
335.912	83.12
336.14	73.12
336.369	91.12
336.597	89.12
336.825	91.12
337.053	87.12
337.281	85.12
337.51	78.12
337.738	77.12
337.966	81.12
338.194	93.12
338.422	95.12
338.65	99.12
338.878	85.12
339.106	74.12
339.334	85.12
339.562	92.12
339.79	92.12
340.018	69.12
340.246	78.12
340.474	84.12
340.702	73.12
340.93	79.12
341.158	79.12
341.386	79.12
341.614	74.12
341.842	80.12
342.07	76.12
342.298	98.12
342.526	77.12
342.754	72.12
342.981	74.12
343.209	90.12
343.437	94.12
343.665	82.12
343.893	88.12
344.12	80.12
344.348	97.12
344.576	75.12
344.804	79.12
345.031	82.12
345.259	90.12
345.487	86.12
345.714	79.12
345.942	92.12
346.17	77.12
346.397	82.12
346.625	82.12
346.853	79.12
347.08	71.12
347.308	94.12
347.535	76.12
347.763	77.12
347.99	89.12
348.218	77.12
348.445	88.12
348.673	77.12
348.9	87.12
349.128	93.12
349.355	65.12
349.583	77.12
349.81	87.12
350.037	70.12
350.265	84.12
350.492	92.12
350.72	80.12
350.947	91.12
351.174	83.12
351.402	72.12
351.629	81.12
351.856	81.12
352.083	63.12
352.311	89.12
352.538	75.12
352.765	82.12
352.992	71.12
353.22	79.12
353.447	79.12
353.674	80.12
353.901	76.12
354.128	85.12
354.355	94.12
354.583	81.12
354.81	79.12
355.037	67.12
355.264	65.12
355.491	77.12
355.718	69.12
355.945	77.12
356.172	87.12
356.399	77.12
356.626	68.12
356.853	83.12
357.08	102.12
357.307	92.12
357.534	72.12
357.761	75.12
357.988	85.12
358.215	70.12
358.441	77.12
358.668	68.12
358.895	84.12
359.122	77.12
359.349	73.12
359.576	82.12
359.802	84.12
360.029	81.12
360.256	79.12
360.483	79.12
360.709	81.12
360.936	110.12
361.163	90.12
361.39	73.12
361.616	85.12
361.843	80.12
362.07	90.12
362.296	89.12
362.523	80.12
362.749	77.12
362.976	87.12
363.203	89.12
363.429	85.12
363.656	77.12
363.882	73.12
364.109	82.12
364.335	86.12
364.562	77.12
364.788	95.12
365.015	82.12
365.241	81.12
365.468	84.12
365.694	59.12
365.92	83.12
366.147	70.12
366.373	94.12
366.599	77.12
366.826	78.12
367.052	97.12
367.278	86.12
367.505	83.12
367.731	95.12
367.957	96.12
368.184	78.12
368.41	70.12
368.636	76.12
368.862	77.12
369.089	81.12
369.315	62.12
369.541	84.12
369.767	79.12
369.993	85.12
370.219	74.12
370.445	79.12
370.672	75.12
370.898	74.12
371.124	86.12
371.35	74.12
371.576	89.12
371.802	80.12
372.028	93.12
372.254	82.12
372.48	71.12
372.706	81.12
372.932	79.12
373.158	80.12
373.384	80.12
373.61	76.12
373.835	90.12
374.061	76.12
374.287	76.12
374.513	99.12
374.739	85.12
374.965	82.12
375.191	82.12
375.416	86.12
375.642	78.12
375.868	84.12
376.094	73.12
376.319	87.12
376.545	84.12
376.771	79.12
376.997	81.12
377.222	91.12
377.448	86.12
377.674	82.12
377.899	75.12
378.125	79.12
378.35	100.12
378.576	67.12
378.802	92.12
379.027	91.12
379.253	94.12
379.478	72.12
379.704	83.12
379.929	87.12
380.155	70.12
380.38	77.12
380.606	74.12
380.831	88.12
381.057	85.12
381.282	89.12
381.507	64.12
381.733	84.12
381.958	91.12
382.184	91.12
382.409	79.12
382.634	68.12
382.86	78.12
383.085	63.12
383.31	72.12
383.535	81.12
383.761	92.12
383.986	87.12
384.211	79.12
384.436	86.12
384.662	81.12
384.887	81.12
385.112	81.12
385.337	80.12
385.562	74.12
385.787	90.12
386.013	80.12
386.238	72.12
386.463	80.12
386.688	89.12
386.913	84.12
387.138	69.12
387.363	79.12
387.588	97.12
387.813	84.12
388.038	75.12
388.263	84.12
388.488	86.12
388.713	84.12
388.938	86.12
389.163	79.12
389.387	82.12
389.612	86.12
389.837	68.12
390.062	78.12
390.287	80.12
390.512	79.12
390.736	91.12
390.961	67.12
391.186	70.12
391.411	76.12
391.636	89.12
391.86	81.12
392.085	72.12
392.31	100.12
392.534	74.12
392.759	85.12
392.984	74.12
393.208	77.12
393.433	87.12
393.658	89.12
393.882	98.12
394.107	67.12
394.331	70.12
394.556	89.12
394.78	92.12
395.005	82.12
395.229	76.12
395.454	89.12
395.678	91.12
395.903	94.12
396.127	80.12
396.352	84.12
396.576	77.12
396.801	85.12
397.025	78.12
397.249	78.12
397.474	73.12
397.698	79.12
397.922	78.12
398.147	81.12
398.371	69.12
398.595	74.12
398.82	80.12
399.044	82.12
399.268	86.12
399.492	93.12
399.717	85.12
399.941	68.12
400.165	63.12
400.389	76.12
400.613	87.12
400.837	68.12
401.062	63.12
401.286	83.12
401.51	75.12
401.734	65.12
401.958	74.12
402.182	90.12
402.406	85.12
402.63	86.12
402.854	73.12
403.078	83.12
403.302	83.12
403.526	77.12
403.75	80.12
403.974	77.12
404.198	81.12
404.422	86.12
404.645	89.12
404.869	87.12
405.093	61.12
405.317	75.12
405.541	70.12
405.765	84.12
405.988	81.12
406.212	75.12
406.436	77.12
406.66	84.12
406.883	82.12
407.107	70.12
407.331	76.12
407.555	93.12
407.778	73.12
408.002	70.12
408.226	71.12
408.449	84.12
408.673	74.12
408.896	83.12
409.12	67.12
409.344	80.12
409.567	81.12
409.791	70.12
410.014	83.12
410.238	89.12
410.461	86.12
410.685	75.12
410.908	77.12
411.132	81.12
411.355	70.12
411.578	77.12
411.802	72.12
412.025	85.12
412.249	82.12
412.472	93.12
412.695	77.12
412.919	72.12
413.142	68.12
413.365	70.12
413.589	83.12
413.812	71.12
414.035	89.12
414.258	78.12
414.482	81.12
414.705	71.12
414.928	77.12
415.151	94.12
415.374	73.12
415.597	93.12
415.821	72.12
416.044	89.12
416.267	90.12
416.49	99.12
416.713	66.12
416.936	65.12
417.159	71.12
417.382	87.12
417.605	75.12
417.828	82.12
418.051	85.12
418.274	80.12
418.497	66.12
418.72	78.12
418.943	79.12
419.166	80.12
419.389	71.12
419.611	70.12
419.834	85.12
420.057	84.12
420.28	82.12
420.503	85.12
420.726	79.12
420.948	71.12
421.171	78.12
421.394	83.12
421.617	73.12
421.839	71.12
422.062	83.12
422.285	81.12
422.507	83.12
422.73	92.12
422.953	99.12
423.175	78.12
423.398	83.12
423.621	85.12
423.843	82.12
424.066	81.12
424.288	95.12
424.511	91.12
424.733	84.12
424.956	82.12
425.178	75.12
425.401	67.12
425.623	82.12
425.846	73.12
426.068	91.12
426.291	81.12
426.513	79.12
426.735	81.12
426.958	80.12
427.18	80.12
427.402	77.12
427.625	69.12
427.847	81.12
428.069	78.12
428.292	91.12
428.514	75.12
428.736	83.12
428.958	80.12
429.181	76.12
429.403	75.12
429.625	70.12
429.847	86.12
430.069	87.12
430.292	75.12
430.514	89.12
430.736	80.12
430.958	78.12
431.18	76.12
431.402	80.12
431.624	80.12
431.846	77.12
432.068	76.12
432.29	82.12
432.512	94.12
432.734	71.12
432.956	100.12
433.178	84.12
433.4	88.12
433.622	82.12
433.844	80.12
434.066	76.12
434.287	67.12
434.509	84.12
434.731	85.12
434.953	74.12
435.175	87.12
435.397	79.12
435.618	68.12
435.84	71.12
436.062	68.12
436.284	89.12
436.505	85.12
436.727	74.12
436.949	84.12
437.17	62.12
437.392	71.12
437.614	74.12
437.835	71.12
438.057	71.12
438.278	83.12
438.5	78.12
438.721	73.12
438.943	78.12
439.165	76.12
439.386	74.12
439.608	71.12
439.829	77.12
440.05	86.12
440.272	66.12
440.493	67.12
440.715	82.12
440.936	71.12
441.158	78.12
441.379	72.12
441.6	76.12
441.822	74.12
442.043	61.12
442.264	82.12
442.486	77.12
442.707	80.12
442.928	75.12
443.149	75.12
443.371	86.12
443.592	74.12
443.813	81.12
444.034	70.12
444.255	88.12
444.476	82.12
444.698	81.12
444.919	72.12
445.14	147.12
445.361	121.12
445.582	77.12
445.803	67.12
446.024	66.12
446.245	83.12
446.466	86.12
446.687	74.12
446.908	80.12
447.129	84.12
447.35	75.12
447.571	62.12
447.792	77.12
448.013	72.12
448.234	79.12
448.455	78.12
448.675	73.12
448.896	81.12
449.117	77.12
449.338	82.12
449.559	89.12
449.779	71.12
450	79.12
450.221	83.12
450.442	76.12
450.662	78.12
450.883	83.12
451.104	83.12
451.324	87.12
451.545	82.12
451.766	66.12
451.986	78.12
452.207	66.12
452.428	82.12
452.648	83.12
452.869	76.12
453.089	68.12
453.31	68.12
453.53	76.12
453.751	78.12
453.971	83.12
454.192	69.12
454.412	84.12
454.633	69.12
454.853	77.12
455.073	89.12
455.294	75.12
455.514	69.12
455.734	78.12
455.955	72.12
456.175	83.12
456.395	86.12
456.616	95.12
456.836	74.12
457.056	71.12
457.276	84.12
457.497	81.12
457.717	74.12
457.937	81.12
458.157	68.12
458.377	71.12
458.598	72.12
458.818	89.12
459.038	79.12
459.258	72.12
459.478	65.12
459.698	81.12
459.918	82.12
460.138	76.12
460.358	81.12
460.578	85.12
460.798	85.12
461.018	74.12
461.238	83.12
461.458	75.12
461.678	65.12
461.898	93.12
462.118	77.12
462.338	81.12
462.558	82.12
462.777	86.12
462.997	85.12
463.217	70.12
463.437	73.12
463.657	67.12
463.876	94.12
464.096	85.12
464.316	89.12
464.536	74.12
464.755	74.12
464.975	82.12
465.195	89.12
465.414	87.12
465.634	62.12
465.854	89.12
466.073	66.12
466.293	79.12
466.512	75.12
466.732	76.12
466.951	71.12
467.171	66.12
467.391	71.12
467.61	63.12
467.829	83.12
468.049	91.12
468.268	73.12
468.488	84.12
468.707	69.12
468.927	73.12
469.146	89.12
469.365	80.12
469.585	78.12
469.804	79.12
470.023	74.12
470.243	76.12
470.462	79.12
470.681	82.12
470.901	75.12
471.12	88.12
471.339	77.12
471.558	75.12
471.777	90.12
471.997	81.12
472.216	74.12
472.435	65.12
472.654	79.12
472.873	87.12
473.092	81.12
473.311	79.12
473.53	84.12
473.749	81.12
473.968	83.12
474.187	65.12
474.406	79.12
474.625	78.12
474.844	78.12
475.063	75.12
475.282	81.12
475.501	78.12
475.72	89.12
475.939	77.12
476.158	74.12
476.377	74.12
476.596	77.12
476.814	79.12
477.033	64.12
477.252	74.12
477.471	72.12
477.69	77.12
477.908	78.12
478.127	71.12
478.346	99.12
478.564	85.12
478.783	86.12
479.002	81.12
479.22	83.12
479.439	91.12
479.658	81.12
479.876	71.12
480.095	99.12
480.313	80.12
480.532	78.12
480.751	74.12
480.969	78.12
481.188	78.12
481.406	86.12
481.624	78.12
481.843	74.12
482.061	67.12
482.28	85.12
482.498	93.12
482.717	83.12
482.935	76.12
483.153	75.12
483.372	79.12
483.59	63.12
483.808	94.12
484.027	97.12
484.245	65.12
484.463	74.12
484.681	70.12
484.9	75.12
485.118	77.12
485.336	73.12
485.554	82.12
485.772	89.12
485.99	85.12
486.209	76.12
486.427	85.12
486.645	80.12
486.863	90.12
487.081	76.12
487.299	70.12
487.517	81.12
487.735	92.12
487.953	85.12
488.171	84.12
488.389	82.12
488.607	89.12
488.825	81.12
489.043	73.12
489.261	81.12
489.479	69.12
489.696	78.12
489.914	76.12
490.132	85.12
490.35	86.12
490.568	70.12
490.786	68.12
491.003	71.12
491.221	81.12
491.439	65.12
491.657	93.12
491.874	86.12
492.092	78.12
492.31	76.12
492.527	61.12
492.745	65.12
492.963	82.12
493.18	82.12
493.398	84.12
493.615	83.12
493.833	81.12
494.05	71.12
494.268	65.12
494.485	75.12
494.703	72.12
494.92	83.12
495.138	81.12
495.355	74.12
495.573	80.12
495.79	81.12
496.008	84.12
496.225	81.12
496.442	69.12
496.66	90.12
496.877	76.12
497.094	94.12
497.312	68.12
497.529	68.12
497.746	79.12
497.963	71.12
498.181	76.12
498.398	79.12
498.615	76.12
498.832	71.12
499.049	88.12
499.267	88.12
499.484	93.12
499.701	92.12
499.918	89.12
500.135	74.12
500.352	90.12
500.569	71.12
500.786	85.12
501.003	89.12
501.22	65.12
501.437	77.12
501.654	89.12
501.871	91.12
502.088	93.12
502.305	83.12
502.522	79.12
502.739	85.12
502.956	80.12
503.172	77.12
503.389	76.12
503.606	75.12
503.823	79.12
504.04	75.12
504.256	95.12
504.473	83.12
504.69	73.12
504.907	79.12
505.123	74.12
505.34	78.12
505.557	84.12
505.773	75.12
505.99	75.12
506.207	79.12
506.423	73.12
506.64	84.12
506.856	86.12
507.073	84.12
507.289	76.12
507.506	87.12
507.722	78.12
507.939	85.12
508.155	86.12
508.372	81.12
508.588	88.12
508.805	85.12
509.021	82.12
509.238	78.12
509.454	76.12
509.67	84.12
509.887	76.12
510.103	82.12
510.319	90.12
510.536	81.12
510.752	81.12
510.968	79.12
511.184	91.12
511.401	70.12
511.617	75.12
511.833	77.12
512.049	84.12
512.265	82.12
512.481	82.12
512.698	72.12
512.914	75.12
513.13	69.12
513.346	71.12
513.562	81.12
513.778	86.12
513.994	77.12
514.21	86.12
514.426	99.12
514.642	79.12
514.858	79.12
515.074	89.12
515.29	99.12
515.506	75.12
515.721	78.12
515.937	71.12
516.153	83.12
516.369	75.12
516.585	79.12
516.801	79.12
517.016	66.12
517.232	78.12
517.448	86.12
517.664	77.12
517.879	73.12
518.095	69.12
518.311	75.12
518.527	79.12
518.742	73.12
518.958	70.12
519.173	71.12
519.389	77.12
519.605	67.12
519.82	78.12
520.036	84.12
520.251	83.12
