Data from 1600_1_HRD10591_00032.txt Node
Date: Mon Jan 19 13:47:57 EST 2026
User: Yrep
Spectrometer: HR+D1059
Trigger mode: 1
Integration Time (sec): 1.000000E-1
Scans to average: 1
Electric dark correction enabled: true
Nonlinearity correction enabled: false
Boxcar width: 0
XAxis mode: Wavelengths
Number of Pixels in Spectrum: 2048
>>>>>Begin Spectral Data<<<<<
223.165	-26.38
223.4	-26.38
223.635	-26.38
223.869	-11.38
224.104	-11.38
224.338	-15.38
224.573	-27.38
224.808	-10.38
225.042	-14.38
225.277	-18.38
225.511	-0.38
225.746	0.62
225.98	20.62
226.215	20.62
226.449	21.62
226.683	17.62
226.918	24.62
227.152	29.62
227.387	34.62
227.621	38.62
227.856	48.62
228.09	42.62
228.324	49.62
228.559	62.62
228.793	52.62
229.027	62.62
229.262	66.62
229.496	73.62
229.73	63.62
229.964	77.62
230.199	78.62
230.433	69.62
230.667	72.62
230.901	66.62
231.136	75.62
231.37	76.62
231.604	81.62
231.838	88.62
232.072	89.62
232.306	89.62
232.541	71.62
232.775	84.62
233.009	74.62
233.243	63.62
233.477	77.62
233.711	85.62
233.945	69.62
234.179	83.62
234.413	73.62
234.647	77.62
234.881	67.62
235.115	71.62
235.349	82.62
235.583	64.62
235.817	76.62
236.051	74.62
236.285	68.62
236.519	69.62
236.753	73.62
236.987	62.62
237.221	76.62
237.455	65.62
237.689	75.62
237.922	74.62
238.156	90.62
238.39	74.62
238.624	88.62
238.858	75.62
239.091	74.62
239.325	68.62
239.559	76.62
239.793	84.62
240.027	79.62
240.26	81.62
240.494	95.62
240.728	68.62
240.961	77.62
241.195	75.62
241.429	69.62
241.662	62.62
241.896	58.62
242.13	65.62
242.363	66.62
242.597	73.62
242.83	83.62
243.064	83.62
243.298	73.62
243.531	62.62
243.765	74.62
243.998	84.62
244.232	80.62
244.465	75.62
244.699	71.62
244.932	68.62
245.166	81.62
245.399	84.62
245.633	66.62
245.866	79.62
246.099	75.62
246.333	72.62
246.566	79.62
246.8	88.62
247.033	84.62
247.266	81.62
247.5	73.62
247.733	73.62
247.966	68.62
248.2	77.62
248.433	71.62
248.666	80.62
248.899	79.62
249.133	78.62
249.366	69.62
249.599	78.62
249.832	65.62
250.066	77.62
250.299	76.62
250.532	83.62
250.765	83.62
250.998	78.62
251.231	71.62
251.465	88.62
251.698	74.62
251.931	74.62
252.164	78.62
252.397	76.62
252.63	66.62
252.863	74.62
253.096	77.62
253.329	74.62
253.562	82.62
253.795	84.62
254.028	70.62
254.261	74.62
254.494	84.62
254.727	64.62
254.96	66.62
255.193	88.62
255.426	76.62
255.659	68.62
255.892	88.62
256.124	84.62
256.357	81.62
256.59	92.62
256.823	86.62
257.056	73.62
257.289	77.62
257.521	65.62
257.754	76.62
257.987	81.62
258.22	80.62
258.452	74.62
258.685	68.62
258.918	62.62
259.151	78.62
259.383	92.62
259.616	78.62
259.849	83.62
260.081	89.62
260.314	93.62
260.547	90.62
260.779	77.62
261.012	68.62
261.244	88.62
261.477	100.62
261.71	91.62
261.942	81.62
262.175	82.62
262.407	77.62
262.64	68.62
262.872	58.62
263.105	84.62
263.337	88.62
263.57	70.62
263.802	77.62
264.035	64.62
264.267	78.62
264.499	61.62
264.732	85.62
264.964	69.62
265.197	71.62
265.429	66.62
265.661	80.62
265.894	75.62
266.126	82.62
266.358	78.62
266.591	81.62
266.823	72.62
267.055	70.62
267.287	81.62
267.52	75.62
267.752	86.62
267.984	76.62
268.216	86.62
268.448	76.62
268.681	104.62
268.913	92.62
269.145	72.62
269.377	85.62
269.609	77.62
269.841	81.62
270.073	75.62
270.306	77.62
270.538	75.62
270.77	71.62
271.002	72.62
271.234	75.62
271.466	66.62
271.698	81.62
271.93	78.62
272.162	72.62
272.394	80.62
272.626	76.62
272.858	91.62
273.09	74.62
273.322	83.62
273.553	86.62
273.785	74.62
274.017	78.62
274.249	82.62
274.481	85.62
274.713	84.62
274.945	93.62
275.176	77.62
275.408	75.62
275.64	90.62
275.872	74.62
276.104	84.62
276.335	80.62
276.567	84.62
276.799	85.62
277.031	88.62
277.262	82.62
277.494	81.62
277.726	83.62
277.957	89.62
278.189	86.62
278.421	80.62
278.652	88.62
278.884	85.62
279.115	76.62
279.347	93.62
279.579	74.62
279.81	84.62
280.042	68.62
280.273	78.62
280.505	83.62
280.736	78.62
280.968	70.62
281.199	73.62
281.431	86.62
281.662	70.62
281.894	79.62
282.125	86.62
282.356	71.62
282.588	76.62
282.819	66.62
283.051	76.62
283.282	83.62
283.513	80.62
283.745	77.62
283.976	91.62
284.207	94.62
284.439	70.62
284.67	77.62
284.901	93.62
285.132	81.62
285.364	83.62
285.595	85.62
285.826	82.62
286.057	86.62
286.288	92.62
286.52	83.62
286.751	76.62
286.982	84.62
287.213	83.62
287.444	81.62
287.675	78.62
287.906	81.62
288.138	66.62
288.369	70.62
288.6	79.62
288.831	92.62
289.062	75.62
289.293	77.62
289.524	84.62
289.755	91.62
289.986	79.62
290.217	85.62
290.448	78.62
290.679	86.62
290.91	96.62
291.141	76.62
291.371	91.62
291.602	92.62
291.833	98.62
292.064	77.62
292.295	84.62
292.526	76.62
292.757	78.62
292.987	78.62
293.218	80.62
293.449	76.62
293.68	95.62
293.91	62.62
294.141	82.62
294.372	74.62
294.603	75.62
294.833	77.62
295.064	78.62
295.295	69.62
295.525	72.62
295.756	75.62
295.987	67.62
296.217	93.62
296.448	69.62
296.679	78.62
296.909	87.62
297.14	95.62
297.37	79.62
297.601	81.62
297.831	78.62
298.062	76.62
298.292	80.62
298.523	89.62
298.753	76.62
298.984	72.62
299.214	83.62
299.445	95.62
299.675	81.62
299.905	75.62
300.136	80.62
300.366	102.62
300.597	69.62
300.827	71.62
301.057	75.62
301.288	69.62
301.518	89.62
301.748	82.62
301.979	109.62
302.209	88.62
302.439	76.62
302.669	83.62
302.9	84.62
303.13	92.62
303.36	82.62
303.59	95.62
303.82	89.62
304.051	90.62
304.281	96.62
304.511	95.62
304.741	84.62
304.971	85.62
305.201	90.62
305.431	76.62
305.661	81.62
305.891	80.62
306.121	90.62
306.352	87.62
306.582	87.62
306.812	67.62
307.042	69.62
307.272	81.62
307.502	77.62
307.731	76.62
307.961	87.62
308.191	71.62
308.421	88.62
308.651	82.62
308.881	76.62
309.111	94.62
309.341	83.62
309.571	80.62
309.8	82.62
310.03	69.62
310.26	72.62
310.49	99.62
310.72	77.62
310.949	86.62
311.179	70.62
311.409	88.62
311.639	84.62
311.868	76.62
312.098	79.62
312.328	75.62
312.557	77.62
312.787	77.62
313.017	74.62
313.246	82.62
313.476	89.62
313.706	83.62
313.935	74.62
314.165	79.62
314.394	74.62
314.624	80.62
314.853	66.62
315.083	81.62
315.312	70.62
315.542	90.62
315.771	93.62
316.001	86.62
316.23	84.62
316.46	85.62
316.689	83.62
316.919	82.62
317.148	76.62
317.377	76.62
317.607	86.62
317.836	87.62
318.065	76.62
318.295	83.62
318.524	60.62
318.753	76.62
318.983	88.62
319.212	82.62
319.441	68.62
319.67	77.62
319.9	80.62
320.129	79.62
320.358	83.62
320.587	82.62
320.816	81.62
321.046	83.62
321.275	83.62
321.504	78.62
321.733	89.62
321.962	92.62
322.191	78.62
322.42	85.62
322.649	87.62
322.878	85.62
323.108	97.62
323.337	79.62
323.566	80.62
323.795	61.62
324.024	78.62
324.253	82.62
324.482	88.62
324.71	80.62
324.939	66.62
325.168	64.62
325.397	74.62
325.626	75.62
325.855	91.62
326.084	75.62
326.313	71.62
326.542	90.62
326.77	85.62
326.999	73.62
327.228	82.62
327.457	78.62
327.686	61.62
327.914	85.62
328.143	86.62
328.372	82.62
328.6	85.62
328.829	88.62
329.058	80.62
329.287	82.62
329.515	71.62
329.744	92.62
329.972	80.62
330.201	70.62
330.43	88.62
330.658	74.62
330.887	82.62
331.115	88.62
331.344	85.62
331.572	80.62
331.801	88.62
332.03	88.62
332.258	83.62
332.486	92.62
332.715	89.62
332.943	90.62
333.172	75.62
333.4	81.62
333.629	79.62
333.857	86.62
334.085	70.62
334.314	65.62
334.542	71.62
334.771	90.62
334.999	85.62
335.227	97.62
335.455	93.62
335.684	76.62
335.912	76.62
336.14	55.62
336.369	70.62
336.597	86.62
336.825	85.62
337.053	92.62
337.281	88.62
337.51	74.62
337.738	79.62
337.966	88.62
338.194	82.62
338.422	83.62
338.65	75.62
338.878	73.62
339.106	89.62
339.334	93.62
339.562	98.62
339.79	84.62
340.018	78.62
340.246	84.62
340.474	85.62
340.702	78.62
340.93	94.62
341.158	78.62
341.386	73.62
341.614	91.62
341.842	88.62
342.07	80.62
342.298	98.62
342.526	73.62
342.754	80.62
342.981	84.62
343.209	76.62
343.437	90.62
343.665	83.62
343.893	78.62
344.12	79.62
344.348	84.62
344.576	83.62
344.804	92.62
345.031	84.62
345.259	83.62
345.487	85.62
345.714	90.62
345.942	82.62
346.17	89.62
346.397	78.62
346.625	74.62
346.853	85.62
347.08	79.62
347.308	82.62
347.535	88.62
347.763	94.62
347.99	73.62
348.218	89.62
348.445	87.62
348.673	85.62
348.9	80.62
349.128	80.62
349.355	86.62
349.583	84.62
349.81	77.62
350.037	83.62
350.265	85.62
350.492	80.62
350.72	65.62
350.947	88.62
351.174	80.62
351.402	73.62
351.629	78.62
351.856	92.62
352.083	81.62
352.311	91.62
352.538	70.62
352.765	81.62
352.992	72.62
353.22	72.62
353.447	85.62
353.674	86.62
353.901	73.62
354.128	83.62
354.355	68.62
354.583	82.62
354.81	66.62
355.037	60.62
355.264	71.62
355.491	74.62
355.718	76.62
355.945	89.62
356.172	80.62
356.399	80.62
356.626	70.62
356.853	74.62
357.08	86.62
357.307	69.62
357.534	82.62
357.761	92.62
357.988	84.62
358.215	78.62
358.441	82.62
358.668	84.62
358.895	63.62
359.122	83.62
359.349	79.62
359.576	85.62
359.802	73.62
360.029	84.62
360.256	93.62
360.483	84.62
360.709	91.62
360.936	93.62
361.163	84.62
361.39	90.62
361.616	88.62
361.843	87.62
362.07	91.62
362.296	75.62
362.523	76.62
362.749	78.62
362.976	74.62
363.203	80.62
363.429	77.62
363.656	86.62
363.882	67.62
364.109	81.62
364.335	89.62
364.562	90.62
364.788	73.62
365.015	76.62
365.241	74.62
365.468	99.62
365.694	69.62
365.92	93.62
366.147	76.62
366.373	81.62
366.599	80.62
366.826	82.62
367.052	91.62
367.278	70.62
367.505	84.62
367.731	90.62
367.957	76.62
368.184	91.62
368.41	93.62
368.636	91.62
368.862	76.62
369.089	81.62
369.315	67.62
369.541	78.62
369.767	92.62
369.993	79.62
370.219	84.62
370.445	82.62
370.672	74.62
370.898	75.62
371.124	82.62
371.35	78.62
371.576	88.62
371.802	89.62
372.028	87.62
372.254	84.62
372.48	76.62
372.706	70.62
372.932	75.62
373.158	80.62
373.384	81.62
373.61	69.62
373.835	82.62
374.061	88.62
374.287	73.62
374.513	84.62
374.739	81.62
374.965	76.62
375.191	68.62
375.416	78.62
375.642	95.62
375.868	61.62
376.094	85.62
376.319	68.62
376.545	90.62
376.771	88.62
376.997	89.62
377.222	76.62
377.448	95.62
377.674	92.62
377.899	70.62
378.125	76.62
378.35	80.62
378.576	87.62
378.802	82.62
379.027	76.62
379.253	67.62
379.478	85.62
379.704	79.62
379.929	59.62
380.155	63.62
380.38	76.62
380.606	82.62
380.831	85.62
381.057	87.62
381.282	74.62
381.507	80.62
381.733	74.62
381.958	83.62
382.184	66.62
382.409	81.62
382.634	83.62
382.86	94.62
383.085	78.62
383.31	84.62
383.535	94.62
383.761	80.62
383.986	88.62
384.211	74.62
384.436	75.62
384.662	67.62
384.887	77.62
385.112	75.62
385.337	91.62
385.562	82.62
385.787	70.62
386.013	74.62
386.238	72.62
386.463	77.62
386.688	92.62
386.913	76.62
387.138	75.62
387.363	81.62
387.588	91.62
387.813	86.62
388.038	81.62
388.263	81.62
388.488	79.62
388.713	84.62
388.938	74.62
389.163	94.62
389.387	75.62
389.612	76.62
389.837	80.62
390.062	83.62
390.287	78.62
390.512	74.62
390.736	69.62
390.961	86.62
391.186	84.62
391.411	89.62
391.636	74.62
391.86	65.62
392.085	90.62
392.31	74.62
392.534	79.62
392.759	74.62
392.984	82.62
393.208	83.62
393.433	90.62
393.658	78.62
393.882	87.62
394.107	84.62
394.331	89.62
394.556	78.62
394.78	90.62
395.005	76.62
395.229	82.62
395.454	86.62
395.678	77.62
395.903	72.62
396.127	93.62
396.352	99.62
396.576	78.62
396.801	99.62
397.025	88.62
397.249	92.62
397.474	81.62
397.698	77.62
397.922	66.62
398.147	94.62
398.371	83.62
398.595	91.62
398.82	85.62
399.044	65.62
399.268	85.62
399.492	74.62
399.717	73.62
399.941	80.62
400.165	77.62
400.389	84.62
400.613	77.62
400.837	88.62
401.062	86.62
401.286	78.62
401.51	76.62
401.734	84.62
401.958	69.62
402.182	77.62
402.406	70.62
402.63	87.62
402.854	74.62
403.078	85.62
403.302	86.62
403.526	81.62
403.75	67.62
403.974	82.62
404.198	81.62
404.422	81.62
404.645	73.62
404.869	82.62
405.093	89.62
405.317	77.62
405.541	71.62
405.765	78.62
405.988	76.62
406.212	76.62
406.436	83.62
406.66	85.62
406.883	73.62
407.107	90.62
407.331	69.62
407.555	83.62
407.778	66.62
408.002	72.62
408.226	83.62
408.449	83.62
408.673	91.62
408.896	84.62
409.12	76.62
409.344	78.62
409.567	77.62
409.791	80.62
410.014	78.62
410.238	82.62
410.461	83.62
410.685	79.62
410.908	78.62
411.132	82.62
411.355	76.62
411.578	80.62
411.802	70.62
412.025	81.62
412.249	74.62
412.472	88.62
412.695	84.62
412.919	74.62
413.142	69.62
413.365	70.62
413.589	84.62
413.812	66.62
414.035	83.62
414.258	74.62
414.482	78.62
414.705	64.62
414.928	80.62
415.151	76.62
415.374	69.62
415.597	84.62
415.821	94.62
416.044	77.62
416.267	83.62
416.49	86.62
416.713	86.62
416.936	70.62
417.159	77.62
417.382	75.62
417.605	82.62
417.828	68.62
418.051	68.62
418.274	89.62
418.497	89.62
418.72	78.62
418.943	80.62
419.166	82.62
419.389	89.62
419.611	82.62
419.834	67.62
420.057	88.62
420.28	69.62
420.503	89.62
420.726	83.62
420.948	76.62
421.171	73.62
421.394	74.62
421.617	79.62
421.839	80.62
422.062	70.62
422.285	76.62
422.507	102.62
422.73	97.62
422.953	107.62
423.175	82.62
423.398	74.62
423.621	89.62
423.843	81.62
424.066	70.62
424.288	72.62
424.511	80.62
424.733	74.62
424.956	81.62
425.178	88.62
425.401	85.62
425.623	66.62
425.846	77.62
426.068	70.62
426.291	76.62
426.513	86.62
426.735	88.62
426.958	80.62
427.18	62.62
427.402	72.62
427.625	88.62
427.847	85.62
428.069	67.62
428.292	79.62
428.514	89.62
428.736	76.62
428.958	85.62
429.181	78.62
429.403	73.62
429.625	78.62
429.847	94.62
430.069	80.62
430.292	78.62
430.514	77.62
430.736	74.62
430.958	86.62
431.18	70.62
431.402	76.62
431.624	79.62
431.846	78.62
432.068	87.62
432.29	77.62
432.512	95.62
432.734	70.62
432.956	86.62
433.178	80.62
433.4	73.62
433.622	74.62
433.844	85.62
434.066	75.62
434.287	76.62
434.509	71.62
434.731	82.62
434.953	76.62
435.175	83.62
435.397	85.62
435.618	76.62
435.84	83.62
436.062	81.62
436.284	83.62
436.505	80.62
436.727	69.62
436.949	79.62
437.17	68.62
437.392	81.62
437.614	89.62
437.835	68.62
438.057	82.62
438.278	78.62
438.5	84.62
438.721	74.62
438.943	83.62
439.165	77.62
439.386	80.62
439.608	81.62
439.829	77.62
440.05	70.62
440.272	80.62
440.493	66.62
440.715	86.62
440.936	87.62
441.158	90.62
441.379	78.62
441.6	64.62
441.822	76.62
442.043	73.62
442.264	85.62
442.486	81.62
442.707	84.62
442.928	73.62
443.149	67.62
443.371	81.62
443.592	85.62
443.813	91.62
444.034	77.62
444.255	84.62
444.476	73.62
444.698	85.62
444.919	69.62
445.14	163.62
445.361	110.62
445.582	86.62
445.803	82.62
446.024	86.62
446.245	84.62
446.466	73.62
446.687	81.62
446.908	87.62
447.129	86.62
447.35	78.62
447.571	74.62
447.792	70.62
448.013	70.62
448.234	78.62
448.455	82.62
448.675	88.62
448.896	76.62
449.117	79.62
449.338	77.62
449.559	82.62
449.779	75.62
450	74.62
450.221	76.62
450.442	68.62
450.662	86.62
450.883	76.62
451.104	77.62
451.324	82.62
451.545	66.62
451.766	78.62
451.986	91.62
452.207	76.62
452.428	68.62
452.648	72.62
452.869	82.62
453.089	84.62
453.31	80.62
453.53	83.62
453.751	84.62
453.971	84.62
454.192	85.62
454.412	80.62
454.633	76.62
454.853	86.62
455.073	78.62
455.294	89.62
455.514	69.62
455.734	74.62
455.955	85.62
456.175	74.62
456.395	80.62
456.616	68.62
456.836	71.62
457.056	77.62
457.276	80.62
457.497	65.62
457.717	70.62
457.937	92.62
458.157	83.62
458.377	70.62
458.598	77.62
458.818	71.62
459.038	69.62
459.258	74.62
459.478	92.62
459.698	90.62
459.918	83.62
460.138	78.62
460.358	78.62
460.578	72.62
460.798	84.62
461.018	74.62
461.238	70.62
461.458	81.62
461.678	70.62
461.898	94.62
462.118	90.62
462.338	91.62
462.558	77.62
462.777	75.62
462.997	88.62
463.217	66.62
463.437	53.62
463.657	81.62
463.876	77.62
464.096	89.62
464.316	70.62
464.536	76.62
464.755	76.62
464.975	84.62
465.195	78.62
465.414	78.62
465.634	68.62
465.854	92.62
466.073	77.62
466.293	78.62
466.512	90.62
466.732	74.62
466.951	83.62
467.171	66.62
467.391	78.62
467.61	86.62
467.829	101.62
468.049	77.62
468.268	67.62
468.488	68.62
468.707	73.62
468.927	83.62
469.146	80.62
469.365	77.62
469.585	84.62
469.804	97.62
470.023	80.62
470.243	76.62
470.462	95.62
470.681	79.62
470.901	79.62
471.12	72.62
471.339	79.62
471.558	71.62
471.777	90.62
471.997	79.62
472.216	76.62
472.435	81.62
472.654	71.62
472.873	81.62
473.092	88.62
473.311	83.62
473.53	80.62
473.749	68.62
473.968	71.62
474.187	78.62
474.406	78.62
474.625	75.62
474.844	81.62
475.063	86.62
475.282	92.62
475.501	92.62
475.72	98.62
475.939	76.62
476.158	81.62
476.377	89.62
476.596	72.62
476.814	64.62
477.033	82.62
477.252	75.62
477.471	78.62
477.69	87.62
477.908	76.62
478.127	86.62
478.346	75.62
478.564	82.62
478.783	64.62
479.002	72.62
479.22	88.62
479.439	71.62
479.658	85.62
479.876	70.62
480.095	83.62
480.313	83.62
480.532	69.62
480.751	85.62
480.969	75.62
481.188	82.62
481.406	60.62
481.624	77.62
481.843	77.62
482.061	93.62
482.28	80.62
482.498	66.62
482.717	79.62
482.935	69.62
483.153	84.62
483.372	82.62
483.59	79.62
483.808	80.62
484.027	73.62
484.245	56.62
484.463	82.62
484.681	79.62
484.9	72.62
485.118	69.62
485.336	87.62
485.554	91.62
485.772	76.62
485.99	85.62
486.209	78.62
486.427	68.62
486.645	82.62
486.863	85.62
487.081	75.62
487.299	78.62
487.517	91.62
487.735	88.62
487.953	96.62
488.171	75.62
488.389	69.62
488.607	69.62
488.825	78.62
489.043	68.62
489.261	84.62
489.479	74.62
489.696	83.62
489.914	78.62
490.132	72.62
490.35	74.62
490.568	78.62
490.786	85.62
491.003	92.62
491.221	66.62
491.439	76.62
491.657	80.62
491.874	96.62
492.092	94.62
492.31	78.62
492.527	84.62
492.745	71.62
492.963	64.62
493.18	93.62
493.398	83.62
493.615	81.62
493.833	70.62
494.05	74.62
494.268	80.62
494.485	76.62
494.703	88.62
494.92	77.62
495.138	83.62
495.355	69.62
495.573	74.62
495.79	80.62
496.008	86.62
496.225	78.62
496.442	85.62
496.66	93.62
496.877	80.62
497.094	88.62
497.312	97.62
497.529	84.62
497.746	86.62
497.963	81.62
498.181	77.62
498.398	85.62
498.615	67.62
498.832	76.62
499.049	77.62
499.267	83.62
499.484	82.62
499.701	86.62
499.918	73.62
500.135	82.62
500.352	81.62
500.569	77.62
500.786	74.62
501.003	81.62
501.22	81.62
501.437	68.62
501.654	78.62
501.871	79.62
502.088	81.62
502.305	85.62
502.522	89.62
502.739	76.62
502.956	82.62
503.172	75.62
503.389	76.62
503.606	100.62
503.823	78.62
504.04	80.62
504.256	88.62
504.473	89.62
504.69	76.62
504.907	87.62
505.123	93.62
505.34	81.62
505.557	70.62
505.773	82.62
505.99	77.62
506.207	85.62
506.423	74.62
506.64	81.62
506.856	93.62
507.073	74.62
507.289	80.62
507.506	72.62
507.722	86.62
507.939	62.62
508.155	84.62
508.372	78.62
508.588	89.62
508.805	86.62
509.021	80.62
509.238	82.62
509.454	90.62
509.67	97.62
509.887	75.62
510.103	93.62
510.319	80.62
510.536	73.62
510.752	74.62
510.968	88.62
511.184	75.62
511.401	91.62
511.617	82.62
511.833	80.62
512.049	83.62
512.265	86.62
512.481	91.62
512.698	79.62
512.914	74.62
513.13	78.62
513.346	86.62
513.562	73.62
513.778	80.62
513.994	87.62
514.21	79.62
514.426	89.62
514.642	75.62
514.858	82.62
515.074	79.62
515.29	82.62
515.506	82.62
515.721	79.62
515.937	78.62
516.153	65.62
516.369	82.62
516.585	86.62
516.801	79.62
517.016	81.62
517.232	82.62
517.448	76.62
517.664	83.62
517.879	70.62
518.095	75.62
518.311	70.62
518.527	86.62
518.742	88.62
518.958	80.62
519.173	78.62
519.389	88.62
519.605	86.62
519.82	79.62
520.036	80.62
