Data from 1600_1_HRD10591_00016.txt Node
Date: Mon Jan 19 13:47:49 EST 2026
User: Yrep
Spectrometer: HR+D1059
Trigger mode: 1
Integration Time (sec): 1.000000E-1
Scans to average: 1
Electric dark correction enabled: true
Nonlinearity correction enabled: false
Boxcar width: 0
XAxis mode: Wavelengths
Number of Pixels in Spectrum: 2048
>>>>>Begin Spectral Data<<<<<
223.165	0.06
223.4	0.06
223.635	0.06
223.869	-33.94
224.104	-27.94
224.338	-23.94
224.573	-18.94
224.808	-13.94
225.042	-4.94
225.277	-13.94
225.511	-6.94
225.746	10.06
225.98	16.06
226.215	26.06
226.449	14.06
226.683	8.06
226.918	26.06
227.152	44.06
227.387	43.06
227.621	43.06
227.856	36.06
228.09	32.06
228.324	47.06
228.559	52.06
228.793	56.06
229.027	50.06
229.262	63.06
229.496	51.06
229.73	77.06
229.964	66.06
230.199	62.06
230.433	75.06
230.667	76.06
230.901	75.06
231.136	78.06
231.37	70.06
231.604	93.06
231.838	82.06
232.072	76.06
232.306	80.06
232.541	85.06
232.775	82.06
233.009	76.06
233.243	85.06
233.477	79.06
233.711	71.06
233.945	71.06
234.179	74.06
234.413	88.06
234.647	80.06
234.881	69.06
235.115	76.06
235.349	77.06
235.583	78.06
235.817	76.06
236.051	79.06
236.285	72.06
236.519	81.06
236.753	74.06
236.987	70.06
237.221	68.06
237.455	85.06
237.689	68.06
237.922	68.06
238.156	64.06
238.39	78.06
238.624	85.06
238.858	81.06
239.091	84.06
239.325	72.06
239.559	88.06
239.793	76.06
240.027	87.06
240.26	59.06
240.494	79.06
240.728	76.06
240.961	79.06
241.195	77.06
241.429	78.06
241.662	81.06
241.896	73.06
242.13	69.06
242.363	68.06
242.597	79.06
242.83	60.06
243.064	71.06
243.298	83.06
243.531	79.06
243.765	94.06
243.998	67.06
244.232	77.06
244.465	88.06
244.699	92.06
244.932	86.06
245.166	74.06
245.399	75.06
245.633	81.06
245.866	80.06
246.099	74.06
246.333	70.06
246.566	70.06
246.8	80.06
247.033	77.06
247.266	77.06
247.5	88.06
247.733	79.06
247.966	77.06
248.2	67.06
248.433	76.06
248.666	78.06
248.899	69.06
249.133	72.06
249.366	85.06
249.599	67.06
249.832	75.06
250.066	78.06
250.299	77.06
250.532	58.06
250.765	84.06
250.998	71.06
251.231	88.06
251.465	83.06
251.698	78.06
251.931	76.06
252.164	80.06
252.397	73.06
252.63	69.06
252.863	75.06
253.096	78.06
253.329	90.06
253.562	89.06
253.795	78.06
254.028	84.06
254.261	85.06
254.494	88.06
254.727	84.06
254.96	82.06
255.193	83.06
255.426	78.06
255.659	85.06
255.892	85.06
256.124	92.06
256.357	80.06
256.59	62.06
256.823	93.06
257.056	86.06
257.289	76.06
257.521	74.06
257.754	91.06
257.987	74.06
258.22	78.06
258.452	82.06
258.685	73.06
258.918	72.06
259.151	77.06
259.383	75.06
259.616	86.06
259.849	82.06
260.081	84.06
260.314	82.06
260.547	82.06
260.779	73.06
261.012	86.06
261.244	82.06
261.477	77.06
261.71	89.06
261.942	73.06
262.175	70.06
262.407	81.06
262.64	79.06
262.872	73.06
263.105	73.06
263.337	74.06
263.57	68.06
263.802	82.06
264.035	85.06
264.267	81.06
264.499	81.06
264.732	80.06
264.964	78.06
265.197	94.06
265.429	76.06
265.661	84.06
265.894	83.06
266.126	82.06
266.358	78.06
266.591	80.06
266.823	77.06
267.055	86.06
267.287	79.06
267.52	68.06
267.752	69.06
267.984	86.06
268.216	88.06
268.448	80.06
268.681	86.06
268.913	99.06
269.145	73.06
269.377	72.06
269.609	70.06
269.841	74.06
270.073	96.06
270.306	79.06
270.538	71.06
270.77	80.06
271.002	70.06
271.234	93.06
271.466	85.06
271.698	73.06
271.93	74.06
272.162	77.06
272.394	72.06
272.626	72.06
272.858	84.06
273.09	74.06
273.322	77.06
273.553	82.06
273.785	79.06
274.017	86.06
274.249	84.06
274.481	68.06
274.713	82.06
274.945	81.06
275.176	83.06
275.408	99.06
275.64	84.06
275.872	78.06
276.104	101.06
276.335	89.06
276.567	70.06
276.799	74.06
277.031	77.06
277.262	75.06
277.494	78.06
277.726	81.06
277.957	80.06
278.189	81.06
278.421	81.06
278.652	75.06
278.884	86.06
279.115	77.06
279.347	93.06
279.579	77.06
279.81	79.06
280.042	88.06
280.273	69.06
280.505	66.06
280.736	76.06
280.968	89.06
281.199	72.06
281.431	85.06
281.662	86.06
281.894	94.06
282.125	81.06
282.356	80.06
282.588	89.06
282.819	98.06
283.051	73.06
283.282	89.06
283.513	82.06
283.745	82.06
283.976	83.06
284.207	73.06
284.439	65.06
284.67	73.06
284.901	84.06
285.132	84.06
285.364	83.06
285.595	80.06
285.826	70.06
286.057	89.06
286.288	68.06
286.52	76.06
286.751	79.06
286.982	84.06
287.213	70.06
287.444	79.06
287.675	86.06
287.906	80.06
288.138	85.06
288.369	75.06
288.6	68.06
288.831	82.06
289.062	85.06
289.293	67.06
289.524	71.06
289.755	70.06
289.986	82.06
290.217	88.06
290.448	92.06
290.679	64.06
290.91	93.06
291.141	88.06
291.371	81.06
291.602	85.06
291.833	88.06
292.064	76.06
292.295	70.06
292.526	71.06
292.757	90.06
292.987	64.06
293.218	90.06
293.449	86.06
293.68	64.06
293.91	86.06
294.141	83.06
294.372	87.06
294.603	84.06
294.833	76.06
295.064	69.06
295.295	81.06
295.525	86.06
295.756	90.06
295.987	91.06
296.217	77.06
296.448	84.06
296.679	92.06
296.909	91.06
297.14	70.06
297.37	77.06
297.601	67.06
297.831	80.06
298.062	80.06
298.292	76.06
298.523	80.06
298.753	79.06
298.984	84.06
299.214	93.06
299.445	80.06
299.675	76.06
299.905	86.06
300.136	79.06
300.366	85.06
300.597	66.06
300.827	73.06
301.057	80.06
301.288	85.06
301.518	75.06
301.748	86.06
301.979	97.06
302.209	93.06
302.439	81.06
302.669	91.06
302.9	93.06
303.13	81.06
303.36	81.06
303.59	77.06
303.82	87.06
304.051	82.06
304.281	100.06
304.511	71.06
304.741	80.06
304.971	77.06
305.201	84.06
305.431	86.06
305.661	90.06
305.891	75.06
306.121	96.06
306.352	98.06
306.582	83.06
306.812	88.06
307.042	66.06
307.272	82.06
307.502	96.06
307.731	84.06
307.961	81.06
308.191	84.06
308.421	89.06
308.651	85.06
308.881	88.06
309.111	81.06
309.341	82.06
309.571	100.06
309.8	80.06
310.03	84.06
310.26	89.06
310.49	85.06
310.72	81.06
310.949	77.06
311.179	90.06
311.409	72.06
311.639	85.06
311.868	97.06
312.098	89.06
312.328	86.06
312.557	88.06
312.787	81.06
313.017	76.06
313.246	69.06
313.476	77.06
313.706	75.06
313.935	77.06
314.165	69.06
314.394	82.06
314.624	76.06
314.853	86.06
315.083	98.06
315.312	88.06
315.542	76.06
315.771	88.06
316.001	82.06
316.23	74.06
316.46	88.06
316.689	86.06
316.919	84.06
317.148	94.06
317.377	81.06
317.607	89.06
317.836	80.06
318.065	74.06
318.295	78.06
318.524	80.06
318.753	82.06
318.983	92.06
319.212	85.06
319.441	74.06
319.67	70.06
319.9	77.06
320.129	88.06
320.358	89.06
320.587	85.06
320.816	79.06
321.046	78.06
321.275	83.06
321.504	66.06
321.733	80.06
321.962	80.06
322.191	92.06
322.42	88.06
322.649	78.06
322.878	79.06
323.108	84.06
323.337	85.06
323.566	80.06
323.795	78.06
324.024	77.06
324.253	69.06
324.482	79.06
324.71	78.06
324.939	93.06
325.168	93.06
325.397	81.06
325.626	84.06
325.855	96.06
326.084	93.06
326.313	90.06
326.542	98.06
326.77	85.06
326.999	82.06
327.228	84.06
327.457	88.06
327.686	70.06
327.914	80.06
328.143	76.06
328.372	81.06
328.6	87.06
328.829	81.06
329.058	70.06
329.287	83.06
329.515	76.06
329.744	97.06
329.972	78.06
330.201	82.06
330.43	80.06
330.658	66.06
330.887	89.06
331.115	76.06
331.344	91.06
331.572	91.06
331.801	92.06
332.03	77.06
332.258	61.06
332.486	80.06
332.715	70.06
332.943	76.06
333.172	83.06
333.4	81.06
333.629	93.06
333.857	92.06
334.085	85.06
334.314	75.06
334.542	74.06
334.771	98.06
334.999	85.06
335.227	88.06
335.455	83.06
335.684	98.06
335.912	90.06
336.14	83.06
336.369	86.06
336.597	76.06
336.825	95.06
337.053	78.06
337.281	68.06
337.51	81.06
337.738	74.06
337.966	73.06
338.194	73.06
338.422	71.06
338.65	82.06
338.878	76.06
339.106	72.06
339.334	92.06
339.562	96.06
339.79	70.06
340.018	78.06
340.246	73.06
340.474	83.06
340.702	85.06
340.93	98.06
341.158	85.06
341.386	85.06
341.614	76.06
341.842	79.06
342.07	87.06
342.298	78.06
342.526	77.06
342.754	80.06
342.981	82.06
343.209	82.06
343.437	81.06
343.665	69.06
343.893	77.06
344.12	83.06
344.348	84.06
344.576	70.06
344.804	78.06
345.031	82.06
345.259	88.06
345.487	82.06
345.714	78.06
345.942	68.06
346.17	88.06
346.397	82.06
346.625	66.06
346.853	84.06
347.08	78.06
347.308	85.06
347.535	81.06
347.763	75.06
347.99	84.06
348.218	80.06
348.445	84.06
348.673	74.06
348.9	86.06
349.128	81.06
349.355	87.06
349.583	89.06
349.81	81.06
350.037	75.06
350.265	81.06
350.492	86.06
350.72	74.06
350.947	88.06
351.174	68.06
351.402	85.06
351.629	67.06
351.856	82.06
352.083	72.06
352.311	91.06
352.538	76.06
352.765	71.06
352.992	77.06
353.22	72.06
353.447	76.06
353.674	75.06
353.901	78.06
354.128	81.06
354.355	78.06
354.583	66.06
354.81	68.06
355.037	81.06
355.264	88.06
355.491	90.06
355.718	77.06
355.945	78.06
356.172	81.06
356.399	74.06
356.626	73.06
356.853	76.06
357.08	78.06
357.307	72.06
357.534	68.06
357.761	78.06
357.988	87.06
358.215	89.06
358.441	90.06
358.668	84.06
358.895	79.06
359.122	68.06
359.349	74.06
359.576	87.06
359.802	90.06
360.029	87.06
360.256	84.06
360.483	85.06
360.709	98.06
360.936	64.06
361.163	83.06
361.39	74.06
361.616	88.06
361.843	89.06
362.07	94.06
362.296	80.06
362.523	79.06
362.749	83.06
362.976	77.06
363.203	81.06
363.429	80.06
363.656	89.06
363.882	84.06
364.109	82.06
364.335	82.06
364.562	84.06
364.788	68.06
365.015	85.06
365.241	83.06
365.468	73.06
365.694	82.06
365.92	85.06
366.147	78.06
366.373	87.06
366.599	66.06
366.826	88.06
367.052	75.06
367.278	93.06
367.505	76.06
367.731	78.06
367.957	81.06
368.184	80.06
368.41	72.06
368.636	79.06
368.862	82.06
369.089	84.06
369.315	83.06
369.541	73.06
369.767	84.06
369.993	85.06
370.219	78.06
370.445	80.06
370.672	80.06
370.898	80.06
371.124	84.06
371.35	71.06
371.576	74.06
371.802	76.06
372.028	86.06
372.254	79.06
372.48	83.06
372.706	82.06
372.932	93.06
373.158	71.06
373.384	74.06
373.61	67.06
373.835	76.06
374.061	86.06
374.287	91.06
374.513	87.06
374.739	74.06
374.965	83.06
375.191	86.06
375.416	86.06
375.642	80.06
375.868	74.06
376.094	62.06
376.319	76.06
376.545	75.06
376.771	81.06
376.997	83.06
377.222	73.06
377.448	97.06
377.674	85.06
377.899	83.06
378.125	75.06
378.35	98.06
378.576	64.06
378.802	76.06
379.027	86.06
379.253	81.06
379.478	80.06
379.704	70.06
379.929	76.06
380.155	91.06
380.38	72.06
380.606	83.06
380.831	90.06
381.057	80.06
381.282	77.06
381.507	81.06
381.733	75.06
381.958	65.06
382.184	88.06
382.409	63.06
382.634	74.06
382.86	72.06
383.085	78.06
383.31	69.06
383.535	82.06
383.761	66.06
383.986	75.06
384.211	80.06
384.436	73.06
384.662	68.06
384.887	84.06
385.112	80.06
385.337	77.06
385.562	73.06
385.787	63.06
386.013	82.06
386.238	74.06
386.463	71.06
386.688	87.06
386.913	75.06
387.138	80.06
387.363	84.06
387.588	80.06
387.813	78.06
388.038	86.06
388.263	78.06
388.488	71.06
388.713	74.06
388.938	69.06
389.163	72.06
389.387	74.06
389.612	81.06
389.837	86.06
390.062	71.06
390.287	79.06
390.512	80.06
390.736	90.06
390.961	89.06
391.186	71.06
391.411	82.06
391.636	76.06
391.86	74.06
392.085	83.06
392.31	75.06
392.534	80.06
392.759	85.06
392.984	74.06
393.208	82.06
393.433	95.06
393.658	88.06
393.882	68.06
394.107	81.06
394.331	91.06
394.556	96.06
394.78	81.06
395.005	85.06
395.229	75.06
395.454	78.06
395.678	92.06
395.903	77.06
396.127	81.06
396.352	85.06
396.576	74.06
396.801	84.06
397.025	94.06
397.249	75.06
397.474	85.06
397.698	71.06
397.922	71.06
398.147	84.06
398.371	79.06
398.595	82.06
398.82	80.06
399.044	75.06
399.268	86.06
399.492	80.06
399.717	64.06
399.941	73.06
400.165	84.06
400.389	101.06
400.613	76.06
400.837	76.06
401.062	71.06
401.286	68.06
401.51	87.06
401.734	76.06
401.958	71.06
402.182	90.06
402.406	78.06
402.63	61.06
402.854	90.06
403.078	85.06
403.302	78.06
403.526	83.06
403.75	80.06
403.974	70.06
404.198	75.06
404.422	77.06
404.645	70.06
404.869	84.06
405.093	82.06
405.317	75.06
405.541	81.06
405.765	75.06
405.988	74.06
406.212	79.06
406.436	76.06
406.66	89.06
406.883	83.06
407.107	74.06
407.331	70.06
407.555	96.06
407.778	86.06
408.002	91.06
408.226	73.06
408.449	76.06
408.673	77.06
408.896	83.06
409.12	76.06
409.344	80.06
409.567	78.06
409.791	67.06
410.014	75.06
410.238	75.06
410.461	71.06
410.685	75.06
410.908	85.06
411.132	81.06
411.355	81.06
411.578	86.06
411.802	68.06
412.025	84.06
412.249	88.06
412.472	78.06
412.695	83.06
412.919	75.06
413.142	66.06
413.365	79.06
413.589	86.06
413.812	87.06
414.035	63.06
414.258	98.06
414.482	80.06
414.705	104.06
414.928	73.06
415.151	78.06
415.374	76.06
415.597	55.06
415.821	70.06
416.044	73.06
416.267	76.06
416.49	69.06
416.713	76.06
416.936	88.06
417.159	72.06
417.382	86.06
417.605	89.06
417.828	80.06
418.051	92.06
418.274	86.06
418.497	72.06
418.72	75.06
418.943	72.06
419.166	77.06
419.389	76.06
419.611	81.06
419.834	78.06
420.057	79.06
420.28	75.06
420.503	98.06
420.726	85.06
420.948	78.06
421.171	78.06
421.394	72.06
421.617	74.06
421.839	69.06
422.062	88.06
422.285	81.06
422.507	89.06
422.73	106.06
422.953	109.06
423.175	83.06
423.398	84.06
423.621	72.06
423.843	77.06
424.066	79.06
424.288	68.06
424.511	68.06
424.733	80.06
424.956	79.06
425.178	76.06
425.401	66.06
425.623	70.06
425.846	74.06
426.068	77.06
426.291	76.06
426.513	72.06
426.735	84.06
426.958	79.06
427.18	100.06
427.402	94.06
427.625	80.06
427.847	80.06
428.069	70.06
428.292	67.06
428.514	58.06
428.736	92.06
428.958	77.06
429.181	85.06
429.403	73.06
429.625	82.06
429.847	83.06
430.069	80.06
430.292	94.06
430.514	73.06
430.736	68.06
430.958	76.06
431.18	69.06
431.402	86.06
431.624	87.06
431.846	82.06
432.068	82.06
432.29	73.06
432.512	84.06
432.734	81.06
432.956	84.06
433.178	86.06
433.4	72.06
433.622	82.06
433.844	71.06
434.066	85.06
434.287	77.06
434.509	76.06
434.731	83.06
434.953	75.06
435.175	79.06
435.397	84.06
435.618	67.06
435.84	77.06
436.062	78.06
436.284	84.06
436.505	90.06
436.727	73.06
436.949	92.06
437.17	67.06
437.392	75.06
437.614	74.06
437.835	78.06
438.057	77.06
438.278	78.06
438.5	60.06
438.721	77.06
438.943	74.06
439.165	84.06
439.386	72.06
439.608	84.06
439.829	74.06
440.05	87.06
440.272	79.06
440.493	78.06
440.715	73.06
440.936	68.06
441.158	87.06
441.379	80.06
441.6	79.06
441.822	77.06
442.043	92.06
442.264	76.06
442.486	97.06
442.707	88.06
442.928	71.06
443.149	80.06
443.371	86.06
443.592	75.06
443.813	79.06
444.034	86.06
444.255	76.06
444.476	89.06
444.698	69.06
444.919	72.06
445.14	152.06
445.361	103.06
445.582	74.06
445.803	94.06
446.024	82.06
446.245	81.06
446.466	62.06
446.687	70.06
446.908	76.06
447.129	69.06
447.35	78.06
447.571	82.06
447.792	83.06
448.013	75.06
448.234	65.06
448.455	80.06
448.675	70.06
448.896	74.06
449.117	78.06
449.338	73.06
449.559	85.06
449.779	90.06
450	98.06
450.221	78.06
450.442	59.06
450.662	76.06
450.883	65.06
451.104	68.06
451.324	88.06
451.545	68.06
451.766	76.06
451.986	76.06
452.207	87.06
452.428	56.06
452.648	73.06
452.869	80.06
453.089	76.06
453.31	81.06
453.53	66.06
453.751	89.06
453.971	77.06
454.192	76.06
454.412	84.06
454.633	79.06
454.853	80.06
455.073	84.06
455.294	84.06
455.514	68.06
455.734	74.06
455.955	74.06
456.175	76.06
456.395	81.06
456.616	70.06
456.836	76.06
457.056	78.06
457.276	91.06
457.497	73.06
457.717	74.06
457.937	75.06
458.157	73.06
458.377	72.06
458.598	77.06
458.818	82.06
459.038	76.06
459.258	73.06
459.478	81.06
459.698	71.06
459.918	79.06
460.138	83.06
460.358	79.06
460.578	81.06
460.798	80.06
461.018	86.06
461.238	81.06
461.458	77.06
461.678	72.06
461.898	84.06
462.118	83.06
462.338	78.06
462.558	80.06
462.777	81.06
462.997	89.06
463.217	80.06
463.437	74.06
463.657	85.06
463.876	81.06
464.096	81.06
464.316	76.06
464.536	81.06
464.755	74.06
464.975	75.06
465.195	83.06
465.414	88.06
465.634	92.06
465.854	65.06
466.073	70.06
466.293	78.06
466.512	91.06
466.732	86.06
466.951	73.06
467.171	88.06
467.391	67.06
467.61	73.06
467.829	81.06
468.049	94.06
468.268	64.06
468.488	72.06
468.707	75.06
468.927	80.06
469.146	88.06
469.365	86.06
469.585	75.06
469.804	90.06
470.023	66.06
470.243	79.06
470.462	83.06
470.681	84.06
470.901	87.06
471.12	86.06
471.339	74.06
471.558	80.06
471.777	86.06
471.997	78.06
472.216	85.06
472.435	77.06
472.654	86.06
472.873	76.06
473.092	86.06
473.311	71.06
473.53	77.06
473.749	83.06
473.968	65.06
474.187	80.06
474.406	83.06
474.625	76.06
474.844	75.06
475.063	88.06
475.282	82.06
475.501	70.06
475.72	77.06
475.939	74.06
476.158	86.06
476.377	80.06
476.596	69.06
476.814	69.06
477.033	74.06
477.252	76.06
477.471	74.06
477.69	101.06
477.908	80.06
478.127	91.06
478.346	90.06
478.564	78.06
478.783	74.06
479.002	79.06
479.22	62.06
479.439	90.06
479.658	69.06
479.876	94.06
480.095	73.06
480.313	86.06
480.532	80.06
480.751	91.06
480.969	95.06
481.188	78.06
481.406	82.06
481.624	71.06
481.843	69.06
482.061	78.06
482.28	78.06
482.498	77.06
482.717	79.06
482.935	92.06
483.153	86.06
483.372	74.06
483.59	82.06
483.808	77.06
484.027	89.06
484.245	77.06
484.463	83.06
484.681	87.06
484.9	85.06
485.118	78.06
485.336	89.06
485.554	77.06
485.772	69.06
485.99	70.06
486.209	73.06
486.427	83.06
486.645	75.06
486.863	83.06
487.081	77.06
487.299	82.06
487.517	84.06
487.735	84.06
487.953	78.06
488.171	81.06
488.389	83.06
488.607	69.06
488.825	75.06
489.043	78.06
489.261	72.06
489.479	92.06
489.696	89.06
489.914	81.06
490.132	88.06
490.35	92.06
490.568	80.06
490.786	81.06
491.003	81.06
491.221	96.06
491.439	80.06
491.657	90.06
491.874	99.06
492.092	62.06
492.31	69.06
492.527	52.06
492.745	71.06
492.963	79.06
493.18	76.06
493.398	88.06
493.615	76.06
493.833	80.06
494.05	78.06
494.268	64.06
494.485	80.06
494.703	76.06
494.92	82.06
495.138	78.06
495.355	86.06
495.573	81.06
495.79	90.06
496.008	76.06
496.225	74.06
496.442	82.06
496.66	70.06
496.877	91.06
497.094	81.06
497.312	92.06
497.529	91.06
497.746	84.06
497.963	81.06
498.181	79.06
498.398	87.06
498.615	67.06
498.832	92.06
499.049	93.06
499.267	95.06
499.484	90.06
499.701	80.06
499.918	91.06
500.135	80.06
500.352	69.06
500.569	79.06
500.786	90.06
501.003	70.06
501.22	78.06
501.437	73.06
501.654	84.06
501.871	74.06
502.088	72.06
502.305	68.06
502.522	81.06
502.739	80.06
502.956	93.06
503.172	78.06
503.389	83.06
503.606	64.06
503.823	77.06
504.04	82.06
504.256	76.06
504.473	74.06
504.69	77.06
504.907	89.06
505.123	93.06
505.34	80.06
505.557	87.06
505.773	85.06
505.99	70.06
506.207	66.06
506.423	80.06
506.64	63.06
506.856	78.06
507.073	83.06
507.289	78.06
507.506	96.06
507.722	78.06
507.939	94.06
508.155	82.06
508.372	74.06
508.588	92.06
508.805	75.06
509.021	60.06
509.238	83.06
509.454	89.06
509.67	68.06
509.887	85.06
510.103	85.06
510.319	68.06
510.536	87.06
510.752	80.06
510.968	80.06
511.184	79.06
511.401	85.06
511.617	88.06
511.833	95.06
512.049	71.06
512.265	81.06
512.481	74.06
512.698	92.06
512.914	91.06
513.13	78.06
513.346	89.06
513.562	85.06
513.778	79.06
513.994	80.06
514.21	89.06
514.426	89.06
514.642	88.06
514.858	80.06
515.074	93.06
515.29	74.06
515.506	92.06
515.721	75.06
515.937	78.06
516.153	60.06
516.369	76.06
516.585	88.06
516.801	81.06
517.016	92.06
517.232	90.06
517.448	80.06
517.664	80.06
517.879	73.06
518.095	94.06
518.311	94.06
518.527	87.06
518.742	86.06
518.958	85.06
519.173	95.06
519.389	92.06
519.605	88.06
519.82	90.06
520.036	82.06
520.251	95.06
