Data from 1600_1_HRD10591_00017.txt Node
Date: Mon Jan 19 13:47:49 EST 2026
User: Yrep
Spectrometer: HR+D1059
Trigger mode: 1
Integration Time (sec): 1.000000E-1
Scans to average: 1
Electric dark correction enabled: true
Nonlinearity correction enabled: false
Boxcar width: 0
XAxis mode: Wavelengths
Number of Pixels in Spectrum: 2048
>>>>>Begin Spectral Data<<<<<
223.165	-13
223.4	-13
223.635	-13
223.869	-32
224.104	-23
224.338	-22
224.573	-15
224.808	-15
225.042	-2
225.277	1
225.511	-5
225.746	2
225.98	13
226.215	15
226.449	11
226.683	36
226.918	27
227.152	22
227.387	30
227.621	47
227.856	57
228.09	41
228.324	45
228.559	56
228.793	61
229.027	73
229.262	60
229.496	84
229.73	71
229.964	75
230.199	69
230.433	69
230.667	76
230.901	73
231.136	85
231.37	71
231.604	67
231.838	76
232.072	82
232.306	78
232.541	80
232.775	78
233.009	82
233.243	84
233.477	86
233.711	85
233.945	80
234.179	59
234.413	65
234.647	76
234.881	63
235.115	72
235.349	69
235.583	74
235.817	75
236.051	82
236.285	76
236.519	79
236.753	89
236.987	78
237.221	76
237.455	63
237.689	72
237.922	85
238.156	80
238.39	70
238.624	73
238.858	87
239.091	83
239.325	69
239.559	83
239.793	82
240.027	77
240.26	76
240.494	64
240.728	64
240.961	89
241.195	83
241.429	72
241.662	64
241.896	65
242.13	78
242.363	61
242.597	70
242.83	85
243.064	80
243.298	72
243.531	72
243.765	74
243.998	78
244.232	72
244.465	83
244.699	81
244.932	79
245.166	83
245.399	69
245.633	70
245.866	79
246.099	81
246.333	82
246.566	83
246.8	71
247.033	82
247.266	76
247.5	62
247.733	60
247.966	86
248.2	78
248.433	69
248.666	66
248.899	65
249.133	72
249.366	69
249.599	77
249.832	87
250.066	85
250.299	82
250.532	75
250.765	73
250.998	80
251.231	79
251.465	83
251.698	67
251.931	71
252.164	84
252.397	76
252.63	72
252.863	87
253.096	91
253.329	72
253.562	84
253.795	83
254.028	76
254.261	72
254.494	74
254.727	77
254.96	85
255.193	82
255.426	71
255.659	74
255.892	81
256.124	63
256.357	84
256.59	87
256.823	77
257.056	77
257.289	78
257.521	91
257.754	79
257.987	75
258.22	89
258.452	78
258.685	73
258.918	67
259.151	82
259.383	71
259.616	70
259.849	81
260.081	68
260.314	62
260.547	74
260.779	74
261.012	84
261.244	82
261.477	89
261.71	79
261.942	94
262.175	73
262.407	80
262.64	78
262.872	73
263.105	94
263.337	72
263.57	83
263.802	80
264.035	69
264.267	79
264.499	86
264.732	88
264.964	90
265.197	77
265.429	85
265.661	77
265.894	65
266.126	85
266.358	75
266.591	75
266.823	81
267.055	77
267.287	91
267.52	76
267.752	71
267.984	81
268.216	78
268.448	77
268.681	75
268.913	92
269.145	84
269.377	96
269.609	71
269.841	72
270.073	71
270.306	73
270.538	80
270.77	82
271.002	85
271.234	77
271.466	79
271.698	75
271.93	71
272.162	83
272.394	88
272.626	77
272.858	81
273.09	77
273.322	86
273.553	80
273.785	87
274.017	77
274.249	82
274.481	81
274.713	77
274.945	83
275.176	80
275.408	87
275.64	75
275.872	80
276.104	81
276.335	84
276.567	67
276.799	71
277.031	80
277.262	84
277.494	82
277.726	97
277.957	76
278.189	84
278.421	83
278.652	64
278.884	74
279.115	71
279.347	86
279.579	65
279.81	89
280.042	79
280.273	87
280.505	74
280.736	70
280.968	80
281.199	87
281.431	76
281.662	71
281.894	89
282.125	78
282.356	88
282.588	95
282.819	82
283.051	76
283.282	88
283.513	85
283.745	92
283.976	91
284.207	76
284.439	93
284.67	81
284.901	99
285.132	69
285.364	71
285.595	81
285.826	89
286.057	71
286.288	95
286.52	77
286.751	83
286.982	77
287.213	68
287.444	79
287.675	81
287.906	98
288.138	79
288.369	82
288.6	85
288.831	85
289.062	86
289.293	80
289.524	94
289.755	77
289.986	82
290.217	89
290.448	92
290.679	91
290.91	74
291.141	85
291.371	82
291.602	85
291.833	76
292.064	80
292.295	92
292.526	83
292.757	89
292.987	75
293.218	87
293.449	62
293.68	81
293.91	82
294.141	79
294.372	69
294.603	84
294.833	90
295.064	81
295.295	78
295.525	68
295.756	80
295.987	79
296.217	95
296.448	77
296.679	72
296.909	89
297.14	86
297.37	80
297.601	66
297.831	82
298.062	83
298.292	79
298.523	82
298.753	59
298.984	73
299.214	82
299.445	85
299.675	85
299.905	95
300.136	82
300.366	86
300.597	94
300.827	86
301.057	76
301.288	83
301.518	87
301.748	81
301.979	94
302.209	92
302.439	82
302.669	85
302.9	89
303.13	87
303.36	74
303.59	79
303.82	93
304.051	100
304.281	81
304.511	81
304.741	78
304.971	86
305.201	86
305.431	73
305.661	83
305.891	84
306.121	82
306.352	70
306.582	76
306.812	95
307.042	81
307.272	94
307.502	84
307.731	80
307.961	80
308.191	85
308.421	71
308.651	83
308.881	81
309.111	85
309.341	69
309.571	81
309.8	76
310.03	73
310.26	75
310.49	79
310.72	95
310.949	85
311.179	81
311.409	78
311.639	101
311.868	86
312.098	77
312.328	79
312.557	81
312.787	71
313.017	96
313.246	95
313.476	89
313.706	78
313.935	93
314.165	89
314.394	79
314.624	66
314.853	77
315.083	81
315.312	75
315.542	77
315.771	86
316.001	84
316.23	70
316.46	70
316.689	71
316.919	79
317.148	78
317.377	76
317.607	80
317.836	83
318.065	77
318.295	85
318.524	76
318.753	69
318.983	85
319.212	97
319.441	91
319.67	65
319.9	91
320.129	81
320.358	86
320.587	73
320.816	82
321.046	76
321.275	94
321.504	96
321.733	95
321.962	73
322.191	96
322.42	83
322.649	88
322.878	73
323.108	90
323.337	71
323.566	85
323.795	90
324.024	95
324.253	94
324.482	75
324.71	83
324.939	92
325.168	80
325.397	70
325.626	96
325.855	79
326.084	84
326.313	84
326.542	76
326.77	85
326.999	85
327.228	88
327.457	85
327.686	81
327.914	80
328.143	85
328.372	78
328.6	95
328.829	104
329.058	67
329.287	87
329.515	78
329.744	70
329.972	80
330.201	78
330.43	83
330.658	75
330.887	81
331.115	93
331.344	85
331.572	86
331.801	82
332.03	89
332.258	84
332.486	71
332.715	91
332.943	77
333.172	83
333.4	73
333.629	76
333.857	82
334.085	84
334.314	100
334.542	79
334.771	90
334.999	80
335.227	78
335.455	79
335.684	96
335.912	90
336.14	81
336.369	69
336.597	76
336.825	92
337.053	89
337.281	86
337.51	84
337.738	87
337.966	86
338.194	80
338.422	80
338.65	86
338.878	78
339.106	84
339.334	77
339.562	88
339.79	79
340.018	68
340.246	89
340.474	76
340.702	86
340.93	75
341.158	61
341.386	70
341.614	86
341.842	95
342.07	78
342.298	73
342.526	85
342.754	77
342.981	82
343.209	87
343.437	87
343.665	82
343.893	71
344.12	75
344.348	85
344.576	85
344.804	74
345.031	80
345.259	85
345.487	92
345.714	86
345.942	74
346.17	77
346.397	99
346.625	84
346.853	85
347.08	93
347.308	63
347.535	78
347.763	80
347.99	84
348.218	69
348.445	74
348.673	77
348.9	88
349.128	89
349.355	81
349.583	90
349.81	93
350.037	67
350.265	83
350.492	79
350.72	92
350.947	90
351.174	86
351.402	79
351.629	68
351.856	91
352.083	79
352.311	89
352.538	82
352.765	79
352.992	95
353.22	82
353.447	87
353.674	91
353.901	82
354.128	80
354.355	79
354.583	82
354.81	80
355.037	86
355.264	85
355.491	64
355.718	90
355.945	78
356.172	76
356.399	74
356.626	86
356.853	99
357.08	97
357.307	85
357.534	81
357.761	78
357.988	78
358.215	82
358.441	82
358.668	86
358.895	79
359.122	65
359.349	77
359.576	74
359.802	73
360.029	91
360.256	88
360.483	86
360.709	76
360.936	83
361.163	90
361.39	88
361.616	83
361.843	67
362.07	90
362.296	65
362.523	80
362.749	84
362.976	90
363.203	87
363.429	82
363.656	76
363.882	78
364.109	98
364.335	83
364.562	78
364.788	80
365.015	77
365.241	71
365.468	81
365.694	74
365.92	83
366.147	84
366.373	58
366.599	78
366.826	82
367.052	76
367.278	77
367.505	84
367.731	90
367.957	83
368.184	77
368.41	83
368.636	87
368.862	77
369.089	72
369.315	75
369.541	90
369.767	75
369.993	86
370.219	79
370.445	82
370.672	70
370.898	81
371.124	94
371.35	75
371.576	80
371.802	71
372.028	77
372.254	77
372.48	90
372.706	72
372.932	69
373.158	87
373.384	91
373.61	99
373.835	84
374.061	74
374.287	69
374.513	85
374.739	76
374.965	75
375.191	91
375.416	83
375.642	82
375.868	87
376.094	90
376.319	70
376.545	79
376.771	85
376.997	82
377.222	70
377.448	81
377.674	70
377.899	93
378.125	88
378.35	83
378.576	88
378.802	65
379.027	67
379.253	88
379.478	66
379.704	77
379.929	87
380.155	74
380.38	76
380.606	83
380.831	73
381.057	90
381.282	74
381.507	83
381.733	76
381.958	98
382.184	82
382.409	80
382.634	85
382.86	80
383.085	79
383.31	81
383.535	85
383.761	83
383.986	75
384.211	85
384.436	92
384.662	75
384.887	86
385.112	94
385.337	82
385.562	74
385.787	73
386.013	83
386.238	84
386.463	68
386.688	100
386.913	85
387.138	84
387.363	82
387.588	82
387.813	64
388.038	81
388.263	85
388.488	76
388.713	74
388.938	81
389.163	80
389.387	93
389.612	78
389.837	83
390.062	89
390.287	80
390.512	78
390.736	74
390.961	91
391.186	87
391.411	80
391.636	85
391.86	79
392.085	89
392.31	92
392.534	86
392.759	84
392.984	81
393.208	89
393.433	119
393.658	90
393.882	86
394.107	98
394.331	75
394.556	85
394.78	63
395.005	77
395.229	83
395.454	82
395.678	84
395.903	88
396.127	91
396.352	76
396.576	101
396.801	90
397.025	91
397.249	85
397.474	92
397.698	77
397.922	73
398.147	83
398.371	78
398.595	75
398.82	75
399.044	88
399.268	85
399.492	85
399.717	75
399.941	85
400.165	70
400.389	68
400.613	81
400.837	80
401.062	77
401.286	53
401.51	66
401.734	77
401.958	72
402.182	66
402.406	71
402.63	73
402.854	67
403.078	78
403.302	81
403.526	72
403.75	77
403.974	72
404.198	74
404.422	78
404.645	84
404.869	83
405.093	82
405.317	56
405.541	70
405.765	71
405.988	78
406.212	74
406.436	81
406.66	64
406.883	74
407.107	77
407.331	74
407.555	77
407.778	86
408.002	68
408.226	98
408.449	78
408.673	78
408.896	78
409.12	78
409.344	77
409.567	75
409.791	85
410.014	86
410.238	83
410.461	80
410.685	75
410.908	73
411.132	69
411.355	79
411.578	89
411.802	81
412.025	93
412.249	82
412.472	70
412.695	67
412.919	84
413.142	80
413.365	85
413.589	88
413.812	65
414.035	96
414.258	89
414.482	78
414.705	84
414.928	80
415.151	71
415.374	74
415.597	76
415.821	75
416.044	78
416.267	82
416.49	76
416.713	79
416.936	92
417.159	86
417.382	84
417.605	86
417.828	96
418.051	78
418.274	86
418.497	81
418.72	79
418.943	73
419.166	93
419.389	69
419.611	77
419.834	79
420.057	84
420.28	84
420.503	81
420.726	72
420.948	80
421.171	78
421.394	79
421.617	77
421.839	64
422.062	83
422.285	73
422.507	90
422.73	116
422.953	123
423.175	89
423.398	93
423.621	78
423.843	76
424.066	75
424.288	87
424.511	84
424.733	75
424.956	71
425.178	85
425.401	79
425.623	94
425.846	85
426.068	75
426.291	69
426.513	75
426.735	83
426.958	92
427.18	85
427.402	81
427.625	85
427.847	83
428.069	79
428.292	84
428.514	98
428.736	86
428.958	89
429.181	79
429.403	83
429.625	74
429.847	69
430.069	85
430.292	79
430.514	99
430.736	87
430.958	82
431.18	93
431.402	81
431.624	76
431.846	79
432.068	100
432.29	84
432.512	89
432.734	82
432.956	66
433.178	90
433.4	94
433.622	78
433.844	78
434.066	78
434.287	89
434.509	89
434.731	75
434.953	72
435.175	77
435.397	81
435.618	76
435.84	69
436.062	75
436.284	72
436.505	76
436.727	78
436.949	89
437.17	85
437.392	72
437.614	80
437.835	67
438.057	89
438.278	86
438.5	75
438.721	77
438.943	78
439.165	74
439.386	68
439.608	85
439.829	77
440.05	67
440.272	74
440.493	79
440.715	74
440.936	84
441.158	86
441.379	84
441.6	75
441.822	89
442.043	83
442.264	81
442.486	76
442.707	83
442.928	81
443.149	82
443.371	91
443.592	90
443.813	95
444.034	77
444.255	79
444.476	78
444.698	81
444.919	79
445.14	157
445.361	112
445.582	97
445.803	89
446.024	78
446.245	92
446.466	83
446.687	80
446.908	70
447.129	84
447.35	73
447.571	88
447.792	75
448.013	84
448.234	78
448.455	83
448.675	89
448.896	76
449.117	71
449.338	77
449.559	82
449.779	71
450	73
450.221	77
450.442	82
450.662	57
450.883	77
451.104	89
451.324	77
451.545	71
451.766	72
451.986	69
452.207	77
452.428	74
452.648	78
452.869	71
453.089	81
453.31	81
453.53	82
453.751	89
453.971	88
454.192	79
454.412	82
454.633	74
454.853	78
455.073	76
455.294	81
455.514	76
455.734	69
455.955	71
456.175	69
456.395	76
456.616	77
456.836	70
457.056	88
457.276	79
457.497	75
457.717	78
457.937	82
458.157	69
458.377	71
458.598	86
458.818	75
459.038	75
459.258	77
459.478	89
459.698	83
459.918	81
460.138	76
460.358	72
460.578	78
460.798	89
461.018	84
461.238	89
461.458	84
461.678	78
461.898	77
462.118	86
462.338	85
462.558	72
462.777	86
462.997	83
463.217	70
463.437	80
463.657	75
463.876	74
464.096	74
464.316	83
464.536	72
464.755	83
464.975	87
465.195	83
465.414	89
465.634	82
465.854	77
466.073	84
466.293	86
466.512	75
466.732	83
466.951	84
467.171	72
467.391	84
467.61	64
467.829	83
468.049	85
468.268	71
468.488	91
468.707	72
468.927	79
469.146	84
469.365	76
469.585	91
469.804	89
470.023	75
470.243	72
470.462	68
470.681	72
470.901	77
471.12	67
471.339	86
471.558	82
471.777	79
471.997	77
472.216	82
472.435	76
472.654	80
472.873	73
473.092	69
473.311	83
473.53	70
473.749	81
473.968	67
474.187	77
474.406	78
474.625	85
474.844	68
475.063	91
475.282	86
475.501	70
475.72	91
475.939	79
476.158	79
476.377	78
476.596	76
476.814	75
477.033	82
477.252	82
477.471	94
477.69	89
477.908	72
478.127	85
478.346	70
478.564	71
478.783	79
479.002	93
479.22	84
479.439	84
479.658	79
479.876	69
480.095	90
480.313	77
480.532	77
480.751	61
480.969	72
481.188	81
481.406	81
481.624	88
481.843	89
482.061	76
482.28	76
482.498	81
482.717	77
482.935	76
483.153	89
483.372	79
483.59	84
483.808	81
484.027	78
484.245	98
484.463	78
484.681	85
484.9	86
485.118	81
485.336	85
485.554	84
485.772	79
485.99	85
486.209	79
486.427	78
486.645	83
486.863	82
487.081	88
487.299	100
487.517	86
487.735	90
487.953	83
488.171	79
488.389	82
488.607	79
488.825	84
489.043	94
489.261	77
489.479	81
489.696	66
489.914	77
490.132	82
490.35	77
490.568	78
490.786	86
491.003	97
491.221	73
491.439	79
491.657	81
491.874	87
492.092	84
492.31	81
492.527	86
492.745	81
492.963	79
493.18	80
493.398	77
493.615	67
493.833	68
494.05	87
494.268	73
494.485	78
494.703	82
494.92	86
495.138	71
495.355	85
495.573	91
495.79	75
496.008	80
496.225	76
496.442	86
496.66	81
496.877	84
497.094	79
497.312	84
497.529	71
497.746	63
497.963	68
498.181	70
498.398	88
498.615	82
498.832	73
499.049	83
499.267	90
499.484	78
499.701	99
499.918	72
500.135	80
500.352	82
500.569	74
500.786	76
501.003	76
501.22	65
501.437	64
501.654	78
501.871	69
502.088	78
502.305	84
502.522	74
502.739	85
502.956	76
503.172	73
503.389	86
503.606	86
503.823	75
504.04	89
504.256	93
504.473	86
504.69	71
504.907	90
505.123	75
505.34	79
505.557	81
505.773	87
505.99	90
506.207	94
506.423	84
506.64	78
506.856	81
507.073	75
507.289	77
507.506	79
507.722	80
507.939	85
508.155	82
508.372	85
508.588	73
508.805	88
509.021	89
509.238	71
509.454	80
509.67	83
509.887	89
510.103	84
510.319	81
510.536	72
510.752	76
510.968	65
511.184	84
511.401	77
511.617	84
511.833	78
512.049	71
512.265	71
512.481	79
512.698	66
512.914	79
513.13	66
513.346	68
513.562	74
513.778	62
513.994	82
514.21	82
514.426	81
514.642	81
514.858	77
515.074	79
515.29	81
515.506	78
515.721	78
515.937	89
516.153	76
516.369	79
516.585	76
516.801	74
517.016	70
517.232	72
517.448	77
517.664	76
517.879	79
518.095	96
518.311	75
518.527	85
518.742	83
518.958	80
519.173	82
519.389	80
519.605	70
519.82	80
520.036	75
520.251	87
520.467	91
520.682	87
520.898	83
521.113	90
521.329	97
521.544	78
521.76	83
521.975	77
522.19	79
522.406	82
522.621	97
522.836	81
523.052	94
523.267	90
523.482	91
523.698	69
523.913	86
524.128	95
524.343	87
524.559	86
524.774	71
524.989	87
525.204	86
525.419	82
525.634	85
525.849	77
526.064	83
526.28	94
526.495	93
526.71	99
526.925	86
527.14	99
527.355	82
527.57	77
527.785	74
527.999	85
528.214	76
528.429	78
528.644	70
528.859	72
529.074	74
529.289	82
529.503	86
529.718	92
529.933	80
530.148	84
530.363	82
530.577	75
530.792	82
531.007	66
531.221	80
531.436	83
531.651	77
531.865	76
532.08	74
532.295	76
532.509	83
532.724	69
532.938	79
533.153	71
533.367	80
533.582	79
533.796	77
534.011	69
534.225	80
534.44	81
534.654	75
534.868	82
535.083	83
535.297	87
535.511	92
535.726	79
535.94	78
536.154	82
536.369	79
536.583	82
536.797	92
537.011	78
537.225	87
537.44	93
537.654	84
537.868	75
538.082	83
538.296	86
538.51	78
538.724	70
538.938	77
539.153	86
539.367	70
539.581	90
539.795	72
540.009	95
540.222	89
540.436	86
540.65	66
540.864	70
541.078	83
541.292	89
541.506	93
541.72	80
541.934	77
542.147	86
542.361	86
542.575	71
542.789	69
543.002	79
543.216	83
543.43	86
543.644	92
543.857	90
544.071	84
544.285	83
544.498	75
544.712	74
544.925	71
545.139	82
545.352	97
545.566	80
545.779	81
545.993	105
546.206	95
546.42	79
546.633	85
546.847	82
547.06	80
547.274	96
547.487	92
547.7	85
547.914	81
548.127	83
548.34	68
548.554	98
548.767	100
548.98	93
549.193	96
549.407	90
549.62	83
549.833	94
550.046	90
550.259	93
550.473	89
550.686	87
550.899	98
551.112	93
551.325	94
551.538	86
551.751	96
551.964	89
552.177	93
552.39	106
552.603	97
552.816	110
553.029	101
553.242	105
553.455	106
553.667	106
553.88	98
554.093	94
554.306	92
554.519	92
554.732	81
554.944	88
555.157	81
555.37	80
555.583	90
555.795	100
556.008	89
556.221	80
556.433	96
556.646	90
556.859	90
557.071	101
557.284	91
557.496	79
557.709	89
557.921	81
558.134	93
558.346	87
558.559	87
558.771	91
558.984	94
559.196	118
559.409	105
559.621	106
559.833	83
560.046	90
560.258	94
560.47	90
560.683	78
560.895	80
561.107	83
561.32	93
561.532	82
561.744	77
561.956	83
562.168	83
562.381	83
562.593	83
562.805	92
563.017	82
563.229	85
563.441	85
563.653	71
563.865	75
564.077	86
564.289	82
564.501	84
564.713	74
564.925	80
565.137	78
565.349	77
565.561	100
565.773	77
565.985	81
566.197	61
566.408	81
566.62	79
566.832	73
567.044	70
567.255	83
567.467	80
567.679	78
567.891	78
568.102	89
568.314	91
568.526	87
568.737	92
568.949	85
569.161	66
569.372	86
569.584	84
569.795	81
570.007	76
570.218	82
570.43	77
570.641	93
570.853	94
571.064	75
571.276	94
571.487	68
571.698	90
571.91	97
572.121	84
572.333	88
572.544	79
572.755	77
572.966	90
573.178	87
573.389	86
573.6	87
573.811	77
574.023	87
574.234	93
574.445	93
574.656	91
574.867	81
575.078	72
575.289	99
575.501	79
575.712	73
575.923	75
576.134	89
576.345	74
576.556	76
576.767	77
576.978	77
577.188	89
577.399	86
577.61	91
577.821	77
578.032	91
578.243	80
578.454	77
578.665	73
578.875	82
579.086	81
579.297	75
579.508	79
579.718	86
579.929	86
580.14	72
580.35	96
580.561	86
580.772	89
580.982	89
581.193	76
581.403	79
581.614	63
581.825	89
582.035	85
582.246	89
582.456	74
582.667	82
582.877	95
583.087	76
583.298	94
583.508	83
583.719	89
583.929	94
584.139	73
584.35	84
584.56	81
584.77	76
584.981	88
585.191	73
585.401	78
585.611	91
585.821	91
586.032	97
586.242	79
586.452	82
586.662	75
586.872	80
587.082	74
587.292	70
587.502	84
587.713	74
587.923	89
588.133	69
588.343	86
588.553	81
588.762	88
588.972	102
589.182	149
589.392	111
589.602	95
589.812	138
590.022	108
590.232	85
590.441	91
