Data from 1600_1_HRD10591_00033.txt Node
Date: Mon Jan 19 13:47:57 EST 2026
User: Yrep
Spectrometer: HR+D1059
Trigger mode: 1
Integration Time (sec): 1.000000E-1
Scans to average: 1
Electric dark correction enabled: true
Nonlinearity correction enabled: false
Boxcar width: 0
XAxis mode: Wavelengths
Number of Pixels in Spectrum: 2048
>>>>>Begin Spectral Data<<<<<
223.165	-16.5
223.4	-16.5
223.635	-16.5
223.869	-17.5
224.104	-22.5
224.338	-13.5
224.573	-17.5
224.808	1.5
225.042	-2.5
225.277	-17.5
225.511	-8.5
225.746	6.5
225.98	12.5
226.215	17.5
226.449	11.5
226.683	18.5
226.918	19.5
227.152	28.5
227.387	40.5
227.621	28.5
227.856	51.5
228.09	36.5
228.324	68.5
228.559	54.5
228.793	70.5
229.027	77.5
229.262	55.5
229.496	71.5
229.73	65.5
229.964	70.5
230.199	68.5
230.433	70.5
230.667	86.5
230.901	64.5
231.136	71.5
231.37	95.5
231.604	68.5
231.838	79.5
232.072	83.5
232.306	78.5
232.541	80.5
232.775	81.5
233.009	81.5
233.243	89.5
233.477	91.5
233.711	64.5
233.945	89.5
234.179	72.5
234.413	68.5
234.647	73.5
234.881	83.5
235.115	67.5
235.349	79.5
235.583	78.5
235.817	81.5
236.051	75.5
236.285	68.5
236.519	77.5
236.753	79.5
236.987	76.5
237.221	81.5
237.455	72.5
237.689	82.5
237.922	77.5
238.156	86.5
238.39	70.5
238.624	77.5
238.858	78.5
239.091	71.5
239.325	62.5
239.559	80.5
239.793	74.5
240.027	71.5
240.26	74.5
240.494	82.5
240.728	77.5
240.961	84.5
241.195	79.5
241.429	73.5
241.662	72.5
241.896	87.5
242.13	76.5
242.363	75.5
242.597	59.5
242.83	82.5
243.064	84.5
243.298	90.5
243.531	72.5
243.765	72.5
243.998	69.5
244.232	77.5
244.465	80.5
244.699	79.5
244.932	76.5
245.166	73.5
245.399	81.5
245.633	90.5
245.866	86.5
246.099	71.5
246.333	84.5
246.566	88.5
246.8	84.5
247.033	89.5
247.266	73.5
247.5	82.5
247.733	80.5
247.966	83.5
248.2	73.5
248.433	65.5
248.666	64.5
248.899	85.5
249.133	83.5
249.366	88.5
249.599	84.5
249.832	70.5
250.066	89.5
250.299	92.5
250.532	74.5
250.765	78.5
250.998	78.5
251.231	88.5
251.465	88.5
251.698	90.5
251.931	81.5
252.164	80.5
252.397	73.5
252.63	75.5
252.863	84.5
253.096	78.5
253.329	89.5
253.562	84.5
253.795	82.5
254.028	86.5
254.261	98.5
254.494	92.5
254.727	79.5
254.96	87.5
255.193	83.5
255.426	83.5
255.659	79.5
255.892	99.5
256.124	78.5
256.357	77.5
256.59	82.5
256.823	83.5
257.056	94.5
257.289	71.5
257.521	75.5
257.754	89.5
257.987	94.5
258.22	80.5
258.452	88.5
258.685	82.5
258.918	78.5
259.151	77.5
259.383	65.5
259.616	76.5
259.849	85.5
260.081	73.5
260.314	78.5
260.547	80.5
260.779	77.5
261.012	88.5
261.244	65.5
261.477	85.5
261.71	75.5
261.942	89.5
262.175	69.5
262.407	86.5
262.64	78.5
262.872	79.5
263.105	87.5
263.337	77.5
263.57	88.5
263.802	96.5
264.035	87.5
264.267	95.5
264.499	82.5
264.732	80.5
264.964	100.5
265.197	88.5
265.429	82.5
265.661	83.5
265.894	88.5
266.126	87.5
266.358	78.5
266.591	69.5
266.823	84.5
267.055	66.5
267.287	80.5
267.52	83.5
267.752	92.5
267.984	88.5
268.216	78.5
268.448	72.5
268.681	75.5
268.913	79.5
269.145	76.5
269.377	87.5
269.609	72.5
269.841	63.5
270.073	81.5
270.306	81.5
270.538	88.5
270.77	90.5
271.002	82.5
271.234	82.5
271.466	89.5
271.698	87.5
271.93	75.5
272.162	69.5
272.394	88.5
272.626	87.5
272.858	71.5
273.09	86.5
273.322	84.5
273.553	84.5
273.785	74.5
274.017	74.5
274.249	90.5
274.481	77.5
274.713	81.5
274.945	84.5
275.176	74.5
275.408	83.5
275.64	90.5
275.872	80.5
276.104	80.5
276.335	79.5
276.567	79.5
276.799	74.5
277.031	82.5
277.262	89.5
277.494	87.5
277.726	86.5
277.957	104.5
278.189	81.5
278.421	80.5
278.652	79.5
278.884	77.5
279.115	75.5
279.347	94.5
279.579	77.5
279.81	78.5
280.042	87.5
280.273	81.5
280.505	84.5
280.736	77.5
280.968	71.5
281.199	89.5
281.431	82.5
281.662	81.5
281.894	85.5
282.125	76.5
282.356	89.5
282.588	80.5
282.819	92.5
283.051	79.5
283.282	92.5
283.513	92.5
283.745	74.5
283.976	88.5
284.207	72.5
284.439	80.5
284.67	88.5
284.901	78.5
285.132	79.5
285.364	86.5
285.595	86.5
285.826	73.5
286.057	89.5
286.288	79.5
286.52	89.5
286.751	74.5
286.982	87.5
287.213	89.5
287.444	85.5
287.675	90.5
287.906	90.5
288.138	95.5
288.369	91.5
288.6	73.5
288.831	87.5
289.062	94.5
289.293	95.5
289.524	82.5
289.755	90.5
289.986	72.5
290.217	81.5
290.448	94.5
290.679	91.5
290.91	78.5
291.141	78.5
291.371	78.5
291.602	78.5
291.833	74.5
292.064	90.5
292.295	89.5
292.526	73.5
292.757	76.5
292.987	74.5
293.218	83.5
293.449	86.5
293.68	67.5
293.91	78.5
294.141	81.5
294.372	85.5
294.603	81.5
294.833	83.5
295.064	87.5
295.295	82.5
295.525	87.5
295.756	80.5
295.987	65.5
296.217	87.5
296.448	84.5
296.679	93.5
296.909	90.5
297.14	71.5
297.37	78.5
297.601	73.5
297.831	66.5
298.062	86.5
298.292	88.5
298.523	85.5
298.753	66.5
298.984	85.5
299.214	77.5
299.445	84.5
299.675	86.5
299.905	97.5
300.136	73.5
300.366	80.5
300.597	83.5
300.827	88.5
301.057	89.5
301.288	75.5
301.518	90.5
301.748	77.5
301.979	104.5
302.209	84.5
302.439	71.5
302.669	93.5
302.9	90.5
303.13	85.5
303.36	78.5
303.59	69.5
303.82	91.5
304.051	82.5
304.281	75.5
304.511	80.5
304.741	70.5
304.971	93.5
305.201	90.5
305.431	101.5
305.661	85.5
305.891	77.5
306.121	88.5
306.352	82.5
306.582	81.5
306.812	88.5
307.042	78.5
307.272	80.5
307.502	93.5
307.731	93.5
307.961	92.5
308.191	86.5
308.421	97.5
308.651	88.5
308.881	86.5
309.111	82.5
309.341	96.5
309.571	95.5
309.8	72.5
310.03	66.5
310.26	100.5
310.49	85.5
310.72	72.5
310.949	88.5
311.179	83.5
311.409	95.5
311.639	86.5
311.868	85.5
312.098	90.5
312.328	80.5
312.557	80.5
312.787	80.5
313.017	92.5
313.246	83.5
313.476	72.5
313.706	74.5
313.935	71.5
314.165	76.5
314.394	76.5
314.624	84.5
314.853	83.5
315.083	103.5
315.312	89.5
315.542	79.5
315.771	94.5
316.001	86.5
316.23	96.5
316.46	72.5
316.689	74.5
316.919	80.5
317.148	80.5
317.377	100.5
317.607	90.5
317.836	78.5
318.065	70.5
318.295	93.5
318.524	93.5
318.753	77.5
318.983	97.5
319.212	98.5
319.441	80.5
319.67	78.5
319.9	93.5
320.129	84.5
320.358	96.5
320.587	96.5
320.816	89.5
321.046	82.5
321.275	97.5
321.504	86.5
321.733	96.5
321.962	88.5
322.191	69.5
322.42	84.5
322.649	86.5
322.878	87.5
323.108	87.5
323.337	94.5
323.566	86.5
323.795	84.5
324.024	90.5
324.253	83.5
324.482	80.5
324.71	92.5
324.939	97.5
325.168	82.5
325.397	78.5
325.626	84.5
325.855	94.5
326.084	93.5
326.313	93.5
326.542	88.5
326.77	83.5
326.999	79.5
327.228	83.5
327.457	91.5
327.686	98.5
327.914	100.5
328.143	93.5
328.372	83.5
328.6	76.5
328.829	92.5
329.058	78.5
329.287	93.5
329.515	89.5
329.744	75.5
329.972	72.5
330.201	90.5
330.43	78.5
330.658	89.5
330.887	82.5
331.115	83.5
331.344	91.5
331.572	89.5
331.801	84.5
332.03	81.5
332.258	95.5
332.486	86.5
332.715	94.5
332.943	94.5
333.172	94.5
333.4	89.5
333.629	110.5
333.857	94.5
334.085	88.5
334.314	68.5
334.542	77.5
334.771	97.5
334.999	88.5
335.227	89.5
335.455	85.5
335.684	81.5
335.912	87.5
336.14	95.5
336.369	94.5
336.597	82.5
336.825	86.5
337.053	75.5
337.281	86.5
337.51	88.5
337.738	95.5
337.966	79.5
338.194	88.5
338.422	93.5
338.65	110.5
338.878	101.5
339.106	84.5
339.334	85.5
339.562	71.5
339.79	101.5
340.018	93.5
340.246	80.5
340.474	89.5
340.702	89.5
340.93	84.5
341.158	78.5
341.386	80.5
341.614	77.5
341.842	92.5
342.07	78.5
342.298	97.5
342.526	87.5
342.754	84.5
342.981	93.5
343.209	78.5
343.437	87.5
343.665	103.5
343.893	89.5
344.12	86.5
344.348	93.5
344.576	83.5
344.804	84.5
345.031	88.5
345.259	71.5
345.487	79.5
345.714	92.5
345.942	81.5
346.17	92.5
346.397	84.5
346.625	104.5
346.853	77.5
347.08	84.5
347.308	95.5
347.535	94.5
347.763	92.5
347.99	92.5
348.218	88.5
348.445	89.5
348.673	92.5
348.9	80.5
349.128	83.5
349.355	81.5
349.583	85.5
349.81	78.5
350.037	93.5
350.265	87.5
350.492	88.5
350.72	82.5
350.947	95.5
351.174	92.5
351.402	89.5
351.629	78.5
351.856	96.5
352.083	77.5
352.311	71.5
352.538	85.5
352.765	86.5
352.992	93.5
353.22	80.5
353.447	82.5
353.674	96.5
353.901	84.5
354.128	82.5
354.355	88.5
354.583	82.5
354.81	88.5
355.037	82.5
355.264	79.5
355.491	91.5
355.718	73.5
355.945	83.5
356.172	76.5
356.399	100.5
356.626	75.5
356.853	83.5
357.08	100.5
357.307	81.5
357.534	71.5
357.761	93.5
357.988	86.5
358.215	90.5
358.441	92.5
358.668	86.5
358.895	88.5
359.122	90.5
359.349	79.5
359.576	96.5
359.802	71.5
360.029	74.5
360.256	82.5
360.483	69.5
360.709	86.5
360.936	89.5
361.163	82.5
361.39	85.5
361.616	69.5
361.843	88.5
362.07	85.5
362.296	86.5
362.523	80.5
362.749	94.5
362.976	81.5
363.203	86.5
363.429	81.5
363.656	72.5
363.882	92.5
364.109	93.5
364.335	82.5
364.562	73.5
364.788	90.5
365.015	84.5
365.241	79.5
365.468	89.5
365.694	95.5
365.92	87.5
366.147	86.5
366.373	84.5
366.599	78.5
366.826	98.5
367.052	72.5
367.278	87.5
367.505	81.5
367.731	91.5
367.957	88.5
368.184	91.5
368.41	69.5
368.636	86.5
368.862	88.5
369.089	92.5
369.315	90.5
369.541	87.5
369.767	81.5
369.993	81.5
370.219	71.5
370.445	81.5
370.672	84.5
370.898	76.5
371.124	72.5
371.35	86.5
371.576	100.5
371.802	88.5
372.028	100.5
372.254	74.5
372.48	82.5
372.706	77.5
372.932	97.5
373.158	85.5
373.384	88.5
373.61	89.5
373.835	88.5
374.061	70.5
374.287	66.5
374.513	92.5
374.739	79.5
374.965	94.5
375.191	72.5
375.416	69.5
375.642	95.5
375.868	90.5
376.094	88.5
376.319	84.5
376.545	93.5
376.771	90.5
376.997	96.5
377.222	86.5
377.448	78.5
377.674	94.5
377.899	78.5
378.125	85.5
378.35	88.5
378.576	82.5
378.802	96.5
379.027	82.5
379.253	88.5
379.478	83.5
379.704	70.5
379.929	82.5
380.155	70.5
380.38	70.5
380.606	75.5
380.831	86.5
381.057	90.5
381.282	85.5
381.507	82.5
381.733	75.5
381.958	82.5
382.184	91.5
382.409	85.5
382.634	89.5
382.86	91.5
383.085	89.5
383.31	82.5
383.535	97.5
383.761	101.5
383.986	74.5
384.211	79.5
384.436	71.5
384.662	79.5
384.887	92.5
385.112	81.5
385.337	73.5
385.562	86.5
385.787	83.5
386.013	92.5
386.238	89.5
386.463	78.5
386.688	101.5
386.913	74.5
387.138	90.5
387.363	75.5
387.588	94.5
387.813	88.5
388.038	73.5
388.263	100.5
388.488	84.5
388.713	92.5
388.938	89.5
389.163	86.5
389.387	85.5
389.612	86.5
389.837	93.5
390.062	104.5
390.287	81.5
390.512	78.5
390.736	88.5
390.961	79.5
391.186	86.5
391.411	90.5
391.636	94.5
391.86	92.5
392.085	80.5
392.31	92.5
392.534	90.5
392.759	84.5
392.984	94.5
393.208	93.5
393.433	105.5
393.658	95.5
393.882	81.5
394.107	88.5
394.331	86.5
394.556	88.5
394.78	81.5
395.005	81.5
395.229	77.5
395.454	82.5
395.678	83.5
395.903	73.5
396.127	97.5
396.352	93.5
396.576	99.5
396.801	81.5
397.025	84.5
397.249	87.5
397.474	86.5
397.698	81.5
397.922	77.5
398.147	70.5
398.371	75.5
398.595	84.5
398.82	80.5
399.044	76.5
399.268	79.5
399.492	84.5
399.717	95.5
399.941	82.5
400.165	80.5
400.389	80.5
400.613	79.5
400.837	77.5
401.062	66.5
401.286	78.5
401.51	87.5
401.734	83.5
401.958	92.5
402.182	74.5
402.406	80.5
402.63	74.5
402.854	85.5
403.078	82.5
403.302	79.5
403.526	73.5
403.75	78.5
403.974	84.5
404.198	85.5
404.422	90.5
404.645	75.5
404.869	75.5
405.093	87.5
405.317	77.5
405.541	93.5
405.765	89.5
405.988	89.5
406.212	90.5
406.436	82.5
406.66	82.5
406.883	92.5
407.107	91.5
407.331	70.5
407.555	99.5
407.778	92.5
408.002	77.5
408.226	92.5
408.449	81.5
408.673	72.5
408.896	93.5
409.12	89.5
409.344	92.5
409.567	86.5
409.791	86.5
410.014	86.5
410.238	81.5
410.461	75.5
410.685	90.5
410.908	86.5
411.132	89.5
411.355	85.5
411.578	101.5
411.802	79.5
412.025	88.5
412.249	73.5
412.472	99.5
412.695	89.5
412.919	83.5
413.142	76.5
413.365	76.5
413.589	80.5
413.812	95.5
414.035	84.5
414.258	79.5
414.482	81.5
414.705	88.5
414.928	89.5
415.151	83.5
415.374	95.5
415.597	88.5
415.821	97.5
416.044	93.5
416.267	85.5
416.49	90.5
416.713	86.5
416.936	88.5
417.159	86.5
417.382	78.5
417.605	81.5
417.828	78.5
418.051	77.5
418.274	75.5
418.497	86.5
418.72	78.5
418.943	80.5
419.166	77.5
419.389	71.5
419.611	88.5
419.834	92.5
420.057	82.5
420.28	96.5
420.503	81.5
420.726	84.5
420.948	80.5
421.171	84.5
421.394	72.5
421.617	86.5
421.839	88.5
422.062	87.5
422.285	75.5
422.507	80.5
422.73	113.5
422.953	99.5
423.175	94.5
423.398	89.5
423.621	72.5
423.843	74.5
424.066	85.5
424.288	86.5
424.511	80.5
424.733	81.5
424.956	77.5
425.178	86.5
425.401	74.5
425.623	71.5
425.846	82.5
426.068	80.5
426.291	80.5
426.513	79.5
426.735	81.5
426.958	82.5
427.18	88.5
427.402	87.5
427.625	84.5
427.847	81.5
428.069	96.5
428.292	88.5
428.514	89.5
428.736	82.5
428.958	82.5
429.181	83.5
429.403	75.5
429.625	73.5
429.847	89.5
430.069	96.5
430.292	94.5
430.514	69.5
430.736	86.5
430.958	91.5
431.18	90.5
431.402	78.5
431.624	77.5
431.846	82.5
432.068	81.5
432.29	83.5
432.512	83.5
432.734	75.5
432.956	71.5
433.178	86.5
433.4	85.5
433.622	91.5
433.844	80.5
434.066	87.5
434.287	95.5
434.509	88.5
434.731	83.5
434.953	95.5
435.175	80.5
435.397	94.5
435.618	78.5
435.84	83.5
436.062	75.5
436.284	99.5
436.505	88.5
436.727	97.5
436.949	89.5
437.17	81.5
437.392	89.5
437.614	79.5
437.835	81.5
438.057	90.5
438.278	86.5
438.5	59.5
438.721	80.5
438.943	84.5
439.165	78.5
439.386	87.5
439.608	79.5
439.829	87.5
440.05	79.5
440.272	89.5
440.493	84.5
440.715	81.5
440.936	77.5
441.158	69.5
441.379	74.5
441.6	85.5
441.822	83.5
442.043	90.5
442.264	92.5
442.486	71.5
442.707	85.5
442.928	91.5
443.149	78.5
443.371	92.5
443.592	75.5
443.813	96.5
444.034	79.5
444.255	84.5
444.476	85.5
444.698	95.5
444.919	74.5
445.14	158.5
445.361	106.5
445.582	103.5
445.803	103.5
446.024	93.5
446.245	88.5
446.466	93.5
446.687	78.5
446.908	77.5
447.129	68.5
447.35	86.5
447.571	80.5
447.792	73.5
448.013	78.5
448.234	88.5
448.455	82.5
448.675	87.5
448.896	80.5
449.117	74.5
449.338	77.5
449.559	89.5
449.779	80.5
450	93.5
450.221	90.5
450.442	93.5
450.662	102.5
450.883	72.5
451.104	73.5
451.324	69.5
451.545	86.5
451.766	80.5
451.986	79.5
452.207	86.5
452.428	79.5
452.648	84.5
452.869	81.5
453.089	77.5
453.31	81.5
453.53	74.5
453.751	94.5
453.971	84.5
454.192	66.5
454.412	72.5
454.633	82.5
454.853	78.5
455.073	70.5
455.294	90.5
455.514	85.5
455.734	75.5
455.955	85.5
456.175	72.5
456.395	79.5
456.616	81.5
456.836	78.5
457.056	87.5
457.276	78.5
457.497	93.5
457.717	84.5
457.937	77.5
458.157	85.5
458.377	79.5
458.598	75.5
458.818	68.5
459.038	89.5
459.258	73.5
459.478	72.5
459.698	84.5
459.918	74.5
460.138	77.5
460.358	82.5
460.578	75.5
460.798	73.5
461.018	94.5
461.238	84.5
461.458	89.5
461.678	71.5
461.898	87.5
462.118	90.5
462.338	89.5
462.558	82.5
462.777	82.5
462.997	94.5
463.217	90.5
463.437	78.5
463.657	66.5
463.876	89.5
464.096	90.5
464.316	79.5
464.536	85.5
464.755	79.5
464.975	77.5
465.195	85.5
465.414	88.5
465.634	89.5
465.854	93.5
466.073	89.5
466.293	88.5
466.512	96.5
466.732	75.5
466.951	86.5
467.171	84.5
467.391	88.5
467.61	79.5
467.829	89.5
468.049	88.5
468.268	87.5
468.488	80.5
468.707	81.5
468.927	79.5
469.146	72.5
469.365	84.5
469.585	83.5
469.804	88.5
470.023	94.5
470.243	80.5
470.462	92.5
470.681	82.5
470.901	81.5
471.12	89.5
471.339	86.5
471.558	74.5
471.777	70.5
471.997	100.5
472.216	80.5
472.435	86.5
472.654	85.5
472.873	94.5
473.092	94.5
473.311	80.5
473.53	87.5
473.749	91.5
473.968	88.5
474.187	81.5
474.406	84.5
474.625	78.5
474.844	78.5
475.063	82.5
475.282	95.5
475.501	78.5
475.72	79.5
475.939	82.5
476.158	79.5
476.377	86.5
476.596	80.5
476.814	75.5
477.033	86.5
477.252	77.5
477.471	83.5
477.69	70.5
477.908	78.5
478.127	85.5
478.346	77.5
478.564	76.5
478.783	84.5
479.002	78.5
479.22	82.5
479.439	78.5
479.658	88.5
479.876	80.5
480.095	86.5
480.313	83.5
480.532	91.5
480.751	93.5
480.969	85.5
481.188	80.5
481.406	79.5
481.624	86.5
481.843	80.5
482.061	87.5
482.28	75.5
482.498	91.5
482.717	88.5
482.935	79.5
483.153	76.5
483.372	86.5
483.59	88.5
483.808	79.5
484.027	83.5
484.245	92.5
484.463	88.5
484.681	84.5
484.9	80.5
485.118	86.5
485.336	74.5
485.554	80.5
485.772	95.5
485.99	80.5
486.209	79.5
486.427	72.5
486.645	66.5
486.863	71.5
487.081	88.5
487.299	74.5
487.517	78.5
487.735	81.5
487.953	83.5
488.171	86.5
488.389	93.5
488.607	78.5
488.825	87.5
489.043	92.5
489.261	93.5
489.479	81.5
489.696	77.5
489.914	73.5
490.132	96.5
490.35	85.5
490.568	83.5
490.786	72.5
491.003	82.5
491.221	78.5
491.439	81.5
491.657	84.5
491.874	79.5
492.092	114.5
492.31	91.5
492.527	88.5
492.745	90.5
492.963	76.5
493.18	86.5
493.398	83.5
493.615	92.5
493.833	66.5
494.05	95.5
494.268	80.5
494.485	88.5
494.703	87.5
494.92	83.5
495.138	88.5
495.355	86.5
495.573	83.5
495.79	86.5
496.008	86.5
496.225	82.5
496.442	84.5
496.66	84.5
496.877	69.5
497.094	77.5
497.312	80.5
497.529	73.5
497.746	82.5
497.963	92.5
498.181	75.5
498.398	82.5
498.615	78.5
498.832	89.5
499.049	88.5
499.267	69.5
499.484	86.5
499.701	86.5
499.918	80.5
500.135	77.5
500.352	80.5
500.569	88.5
500.786	88.5
501.003	84.5
501.22	82.5
501.437	95.5
501.654	85.5
501.871	84.5
502.088	84.5
502.305	86.5
502.522	88.5
502.739	80.5
502.956	81.5
503.172	84.5
503.389	99.5
503.606	76.5
503.823	82.5
504.04	94.5
504.256	89.5
504.473	90.5
504.69	71.5
504.907	97.5
505.123	65.5
505.34	79.5
505.557	79.5
505.773	87.5
505.99	74.5
506.207	93.5
506.423	93.5
506.64	89.5
506.856	93.5
507.073	85.5
507.289	67.5
507.506	80.5
507.722	88.5
507.939	85.5
508.155	81.5
508.372	75.5
508.588	83.5
508.805	82.5
509.021	89.5
509.238	87.5
509.454	96.5
509.67	75.5
509.887	80.5
510.103	77.5
510.319	79.5
510.536	81.5
510.752	82.5
510.968	82.5
511.184	72.5
511.401	89.5
511.617	84.5
511.833	90.5
512.049	94.5
512.265	63.5
512.481	92.5
512.698	92.5
512.914	75.5
513.13	74.5
513.346	91.5
513.562	78.5
513.778	83.5
513.994	89.5
514.21	66.5
514.426	79.5
514.642	86.5
514.858	84.5
515.074	86.5
515.29	79.5
515.506	89.5
515.721	90.5
515.937	86.5
516.153	90.5
516.369	79.5
516.585	73.5
516.801	84.5
517.016	69.5
517.232	103.5
517.448	93.5
517.664	84.5
517.879	84.5
518.095	83.5
518.311	80.5
518.527	88.5
518.742	72.5
518.958	78.5
519.173	104.5
519.389	88.5
519.605	92.5
519.82	75.5
520.036	74.5
520.251	76.5
520.467	74.5
520.682	74.5
520.898	75.5
521.113	80.5
521.329	81.5
521.544	85.5
521.76	79.5
521.975	95.5
522.19	85.5
522.406	79.5
522.621	81.5
522.836	72.5
523.052	89.5
523.267	74.5
523.482	78.5
523.698	86.5
523.913	89.5
524.128	81.5
524.343	98.5
524.559	92.5
524.774	81.5
524.989	92.5
525.204	74.5
525.419	77.5
525.634	87.5
525.849	90.5
526.064	88.5
526.28	93.5
526.495	83.5
526.71	102.5
526.925	93.5
527.14	88.5
527.355	94.5
527.57	86.5
527.785	80.5
527.999	75.5
528.214	98.5
528.429	78.5
528.644	70.5
528.859	74.5
529.074	74.5
529.289	91.5
529.503	65.5
529.718	84.5
529.933	80.5
530.148	78.5
530.363	77.5
530.577	88.5
530.792	81.5
531.007	92.5
531.221	71.5
531.436	93.5
531.651	84.5
531.865	78.5
532.08	81.5
532.295	80.5
532.509	84.5
532.724	85.5
532.938	85.5
533.153	87.5
533.367	81.5
533.582	89.5
533.796	89.5
534.011	95.5
534.225	82.5
534.44	96.5
534.654	78.5
534.868	94.5
535.083	92.5
535.297	89.5
535.511	93.5
535.726	94.5
535.94	86.5
536.154	93.5
536.369	92.5
536.583	84.5
536.797	82.5
537.011	88.5
537.225	87.5
537.44	82.5
537.654	91.5
537.868	98.5
538.082	72.5
538.296	85.5
538.51	92.5
538.724	86.5
538.938	91.5
539.153	79.5
539.367	84.5
539.581	90.5
539.795	95.5
540.009	73.5
540.222	80.5
