Data from 1600_1_HRD10591_00040.txt Node
Date: Mon Jan 19 13:48:01 EST 2026
User: Yrep
Spectrometer: HR+D1059
Trigger mode: 1
Integration Time (sec): 1.000000E-1
Scans to average: 1
Electric dark correction enabled: true
Nonlinearity correction enabled: false
Boxcar width: 0
XAxis mode: Wavelengths
Number of Pixels in Spectrum: 2048
>>>>>Begin Spectral Data<<<<<
223.165	-23.94
223.4	-23.94
223.635	-23.94
223.869	-15.94
224.104	-31.94
224.338	-25.94
224.573	-14.94
224.808	-9.94
225.042	5.06
225.277	-4.94
225.511	-2.94
225.746	4.06
225.98	16.06
226.215	10.06
226.449	10.06
226.683	30.06
226.918	26.06
227.152	29.06
227.387	40.06
227.621	52.06
227.856	47.06
228.09	68.06
228.324	55.06
228.559	56.06
228.793	52.06
229.027	59.06
229.262	67.06
229.496	57.06
229.73	72.06
229.964	71.06
230.199	85.06
230.433	70.06
230.667	83.06
230.901	89.06
231.136	75.06
231.37	85.06
231.604	68.06
231.838	79.06
232.072	79.06
232.306	84.06
232.541	91.06
232.775	98.06
233.009	74.06
233.243	78.06
233.477	82.06
233.711	76.06
233.945	76.06
234.179	86.06
234.413	77.06
234.647	73.06
234.881	68.06
235.115	77.06
235.349	79.06
235.583	82.06
235.817	71.06
236.051	70.06
236.285	67.06
236.519	70.06
236.753	76.06
236.987	87.06
237.221	65.06
237.455	69.06
237.689	81.06
237.922	83.06
238.156	74.06
238.39	79.06
238.624	75.06
238.858	79.06
239.091	82.06
239.325	66.06
239.559	75.06
239.793	75.06
240.027	88.06
240.26	79.06
240.494	83.06
240.728	83.06
240.961	71.06
241.195	78.06
241.429	69.06
241.662	67.06
241.896	71.06
242.13	75.06
242.363	77.06
242.597	73.06
242.83	75.06
243.064	78.06
243.298	82.06
243.531	79.06
243.765	71.06
243.998	74.06
244.232	81.06
244.465	82.06
244.699	64.06
244.932	87.06
245.166	79.06
245.399	84.06
245.633	75.06
245.866	61.06
246.099	71.06
246.333	64.06
246.566	70.06
246.8	76.06
247.033	73.06
247.266	69.06
247.5	81.06
247.733	83.06
247.966	74.06
248.2	83.06
248.433	76.06
248.666	70.06
248.899	89.06
249.133	66.06
249.366	91.06
249.599	86.06
249.832	85.06
250.066	73.06
250.299	75.06
250.532	93.06
250.765	92.06
250.998	71.06
251.231	79.06
251.465	81.06
251.698	79.06
251.931	73.06
252.164	91.06
252.397	81.06
252.63	82.06
252.863	73.06
253.096	74.06
253.329	86.06
253.562	88.06
253.795	80.06
254.028	90.06
254.261	50.06
254.494	74.06
254.727	85.06
254.96	87.06
255.193	97.06
255.426	83.06
255.659	72.06
255.892	95.06
256.124	91.06
256.357	77.06
256.59	80.06
256.823	78.06
257.056	73.06
257.289	75.06
257.521	77.06
257.754	84.06
257.987	92.06
258.22	84.06
258.452	64.06
258.685	78.06
258.918	65.06
259.151	84.06
259.383	75.06
259.616	86.06
259.849	80.06
260.081	88.06
260.314	83.06
260.547	78.06
260.779	78.06
261.012	90.06
261.244	84.06
261.477	76.06
261.71	70.06
261.942	83.06
262.175	77.06
262.407	83.06
262.64	69.06
262.872	81.06
263.105	89.06
263.337	71.06
263.57	85.06
263.802	81.06
264.035	80.06
264.267	93.06
264.499	92.06
264.732	76.06
264.964	73.06
265.197	81.06
265.429	86.06
265.661	82.06
265.894	72.06
266.126	97.06
266.358	82.06
266.591	93.06
266.823	79.06
267.055	89.06
267.287	91.06
267.52	73.06
267.752	82.06
267.984	83.06
268.216	83.06
268.448	80.06
268.681	91.06
268.913	98.06
269.145	88.06
269.377	88.06
269.609	68.06
269.841	90.06
270.073	87.06
270.306	83.06
270.538	55.06
270.77	79.06
271.002	88.06
271.234	83.06
271.466	89.06
271.698	73.06
271.93	83.06
272.162	80.06
272.394	75.06
272.626	81.06
272.858	88.06
273.09	87.06
273.322	81.06
273.553	79.06
273.785	89.06
274.017	87.06
274.249	89.06
274.481	91.06
274.713	85.06
274.945	85.06
275.176	77.06
275.408	91.06
275.64	86.06
275.872	81.06
276.104	77.06
276.335	74.06
276.567	74.06
276.799	74.06
277.031	86.06
277.262	79.06
277.494	79.06
277.726	79.06
277.957	81.06
278.189	86.06
278.421	81.06
278.652	94.06
278.884	88.06
279.115	96.06
279.347	91.06
279.579	83.06
279.81	81.06
280.042	85.06
280.273	92.06
280.505	86.06
280.736	73.06
280.968	89.06
281.199	82.06
281.431	96.06
281.662	76.06
281.894	85.06
282.125	95.06
282.356	83.06
282.588	82.06
282.819	83.06
283.051	84.06
283.282	91.06
283.513	87.06
283.745	95.06
283.976	84.06
284.207	72.06
284.439	83.06
284.67	87.06
284.901	74.06
285.132	78.06
285.364	80.06
285.595	99.06
285.826	80.06
286.057	91.06
286.288	80.06
286.52	86.06
286.751	72.06
286.982	77.06
287.213	97.06
287.444	75.06
287.675	89.06
287.906	73.06
288.138	80.06
288.369	97.06
288.6	78.06
288.831	84.06
289.062	93.06
289.293	93.06
289.524	79.06
289.755	94.06
289.986	87.06
290.217	83.06
290.448	85.06
290.679	87.06
290.91	85.06
291.141	93.06
291.371	89.06
291.602	73.06
291.833	76.06
292.064	77.06
292.295	91.06
292.526	79.06
292.757	79.06
292.987	85.06
293.218	89.06
293.449	88.06
293.68	81.06
293.91	92.06
294.141	97.06
294.372	83.06
294.603	97.06
294.833	86.06
295.064	86.06
295.295	86.06
295.525	99.06
295.756	88.06
295.987	81.06
296.217	84.06
296.448	68.06
296.679	83.06
296.909	87.06
297.14	79.06
297.37	95.06
297.601	88.06
297.831	92.06
298.062	85.06
298.292	84.06
298.523	80.06
298.753	81.06
298.984	90.06
299.214	85.06
299.445	89.06
299.675	94.06
299.905	77.06
300.136	91.06
300.366	91.06
300.597	80.06
300.827	77.06
301.057	99.06
301.288	95.06
301.518	91.06
301.748	88.06
301.979	100.06
302.209	78.06
302.439	87.06
302.669	76.06
302.9	83.06
303.13	95.06
303.36	77.06
303.59	98.06
303.82	95.06
304.051	91.06
304.281	78.06
304.511	85.06
304.741	92.06
304.971	85.06
305.201	83.06
305.431	80.06
305.661	93.06
305.891	85.06
306.121	89.06
306.352	91.06
306.582	67.06
306.812	82.06
307.042	91.06
307.272	77.06
307.502	76.06
307.731	89.06
307.961	99.06
308.191	85.06
308.421	87.06
308.651	72.06
308.881	88.06
309.111	85.06
309.341	86.06
309.571	76.06
309.8	72.06
310.03	73.06
310.26	89.06
310.49	73.06
310.72	88.06
310.949	91.06
311.179	88.06
311.409	97.06
311.639	91.06
311.868	93.06
312.098	79.06
312.328	89.06
312.557	92.06
312.787	84.06
313.017	101.06
313.246	88.06
313.476	98.06
313.706	88.06
313.935	89.06
314.165	80.06
314.394	99.06
314.624	91.06
314.853	84.06
315.083	81.06
315.312	93.06
315.542	81.06
315.771	73.06
316.001	82.06
316.23	87.06
316.46	78.06
316.689	92.06
316.919	99.06
317.148	83.06
317.377	81.06
317.607	75.06
317.836	76.06
318.065	95.06
318.295	85.06
318.524	88.06
318.753	81.06
318.983	89.06
319.212	86.06
319.441	94.06
319.67	97.06
319.9	71.06
320.129	86.06
320.358	81.06
320.587	71.06
320.816	83.06
321.046	94.06
321.275	93.06
321.504	83.06
321.733	74.06
321.962	88.06
322.191	101.06
322.42	95.06
322.649	92.06
322.878	95.06
323.108	80.06
323.337	83.06
323.566	83.06
323.795	93.06
324.024	81.06
324.253	87.06
324.482	87.06
324.71	91.06
324.939	81.06
325.168	83.06
325.397	77.06
325.626	85.06
325.855	88.06
326.084	83.06
326.313	81.06
326.542	81.06
326.77	85.06
326.999	71.06
327.228	87.06
327.457	82.06
327.686	87.06
327.914	77.06
328.143	92.06
328.372	82.06
328.6	76.06
328.829	78.06
329.058	92.06
329.287	97.06
329.515	78.06
329.744	92.06
329.972	72.06
330.201	81.06
330.43	88.06
330.658	81.06
330.887	79.06
331.115	81.06
331.344	98.06
331.572	94.06
331.801	74.06
332.03	82.06
332.258	73.06
332.486	82.06
332.715	83.06
332.943	85.06
333.172	88.06
333.4	62.06
333.629	76.06
333.857	98.06
334.085	91.06
334.314	82.06
334.542	91.06
334.771	87.06
334.999	72.06
335.227	93.06
335.455	99.06
335.684	83.06
335.912	79.06
336.14	85.06
336.369	88.06
336.597	76.06
336.825	87.06
337.053	92.06
337.281	86.06
337.51	75.06
337.738	78.06
337.966	87.06
338.194	96.06
338.422	100.06
338.65	76.06
338.878	84.06
339.106	84.06
339.334	94.06
339.562	85.06
339.79	70.06
340.018	79.06
340.246	91.06
340.474	87.06
340.702	91.06
340.93	83.06
341.158	92.06
341.386	93.06
341.614	89.06
341.842	85.06
342.07	91.06
342.298	85.06
342.526	87.06
342.754	79.06
342.981	70.06
343.209	85.06
343.437	94.06
343.665	83.06
343.893	93.06
344.12	77.06
344.348	79.06
344.576	85.06
344.804	84.06
345.031	77.06
345.259	78.06
345.487	93.06
345.714	102.06
345.942	85.06
346.17	95.06
346.397	81.06
346.625	77.06
346.853	93.06
347.08	88.06
347.308	71.06
347.535	86.06
347.763	93.06
347.99	87.06
348.218	92.06
348.445	75.06
348.673	81.06
348.9	95.06
349.128	79.06
349.355	76.06
349.583	95.06
349.81	83.06
350.037	88.06
350.265	73.06
350.492	83.06
350.72	84.06
350.947	86.06
351.174	80.06
351.402	83.06
351.629	92.06
351.856	87.06
352.083	81.06
352.311	80.06
352.538	89.06
352.765	84.06
352.992	90.06
353.22	93.06
353.447	88.06
353.674	80.06
353.901	88.06
354.128	74.06
354.355	79.06
354.583	71.06
354.81	87.06
355.037	84.06
355.264	95.06
355.491	81.06
355.718	82.06
355.945	84.06
356.172	75.06
356.399	83.06
356.626	84.06
356.853	76.06
357.08	78.06
357.307	93.06
357.534	95.06
357.761	89.06
357.988	72.06
358.215	86.06
358.441	76.06
358.668	93.06
358.895	82.06
359.122	73.06
359.349	95.06
359.576	86.06
359.802	84.06
360.029	96.06
360.256	81.06
360.483	90.06
360.709	79.06
360.936	81.06
361.163	89.06
361.39	77.06
361.616	95.06
361.843	76.06
362.07	85.06
362.296	98.06
362.523	91.06
362.749	74.06
362.976	92.06
363.203	89.06
363.429	80.06
363.656	92.06
363.882	76.06
364.109	92.06
364.335	97.06
364.562	79.06
364.788	92.06
365.015	85.06
365.241	79.06
365.468	75.06
365.694	91.06
365.92	89.06
366.147	93.06
366.373	77.06
366.599	80.06
366.826	78.06
367.052	85.06
367.278	99.06
367.505	77.06
367.731	99.06
367.957	78.06
368.184	83.06
368.41	79.06
368.636	91.06
368.862	93.06
369.089	78.06
369.315	85.06
369.541	82.06
369.767	77.06
369.993	95.06
370.219	93.06
370.445	104.06
370.672	94.06
370.898	86.06
371.124	97.06
371.35	101.06
371.576	92.06
371.802	83.06
372.028	71.06
372.254	74.06
372.48	80.06
372.706	73.06
372.932	80.06
373.158	95.06
373.384	95.06
373.61	83.06
373.835	79.06
374.061	86.06
374.287	89.06
374.513	83.06
374.739	85.06
374.965	104.06
375.191	82.06
375.416	85.06
375.642	88.06
375.868	70.06
376.094	75.06
376.319	79.06
376.545	78.06
376.771	80.06
376.997	95.06
377.222	87.06
377.448	94.06
377.674	93.06
377.899	87.06
378.125	79.06
378.35	78.06
378.576	88.06
378.802	89.06
379.027	79.06
379.253	84.06
379.478	91.06
379.704	73.06
379.929	98.06
380.155	100.06
380.38	81.06
380.606	86.06
380.831	90.06
381.057	91.06
381.282	94.06
381.507	84.06
381.733	80.06
381.958	74.06
382.184	89.06
382.409	102.06
382.634	99.06
382.86	85.06
383.085	85.06
383.31	84.06
383.535	84.06
383.761	93.06
383.986	110.06
384.211	79.06
384.436	77.06
384.662	89.06
384.887	91.06
385.112	83.06
385.337	90.06
385.562	84.06
385.787	78.06
386.013	86.06
386.238	85.06
386.463	94.06
386.688	94.06
386.913	83.06
387.138	78.06
387.363	83.06
387.588	88.06
387.813	95.06
388.038	95.06
388.263	81.06
388.488	91.06
388.713	79.06
388.938	85.06
389.163	72.06
389.387	85.06
389.612	83.06
389.837	91.06
390.062	84.06
390.287	86.06
390.512	76.06
390.736	80.06
390.961	88.06
391.186	84.06
391.411	89.06
391.636	67.06
391.86	79.06
392.085	85.06
392.31	84.06
392.534	82.06
392.759	83.06
392.984	95.06
393.208	92.06
393.433	113.06
393.658	93.06
393.882	87.06
394.107	84.06
394.331	87.06
394.556	109.06
394.78	83.06
395.005	74.06
395.229	74.06
395.454	91.06
395.678	79.06
395.903	79.06
396.127	99.06
396.352	82.06
396.576	87.06
396.801	105.06
397.025	112.06
397.249	89.06
397.474	80.06
397.698	60.06
397.922	73.06
398.147	76.06
398.371	86.06
398.595	93.06
398.82	74.06
399.044	76.06
399.268	81.06
399.492	89.06
399.717	83.06
399.941	75.06
400.165	68.06
400.389	72.06
400.613	93.06
400.837	91.06
401.062	77.06
401.286	77.06
401.51	75.06
401.734	74.06
401.958	85.06
402.182	81.06
402.406	72.06
402.63	93.06
402.854	76.06
403.078	80.06
403.302	80.06
403.526	75.06
403.75	75.06
403.974	87.06
404.198	88.06
404.422	90.06
404.645	103.06
404.869	92.06
405.093	94.06
405.317	79.06
405.541	78.06
405.765	84.06
405.988	81.06
406.212	92.06
406.436	85.06
406.66	94.06
406.883	95.06
407.107	72.06
407.331	73.06
407.555	84.06
407.778	68.06
408.002	77.06
408.226	74.06
408.449	72.06
408.673	101.06
408.896	85.06
409.12	81.06
409.344	84.06
409.567	79.06
409.791	69.06
410.014	94.06
410.238	92.06
410.461	71.06
410.685	85.06
410.908	83.06
411.132	80.06
411.355	81.06
411.578	73.06
411.802	81.06
412.025	79.06
412.249	80.06
412.472	73.06
412.695	91.06
412.919	82.06
413.142	82.06
413.365	79.06
413.589	79.06
413.812	79.06
414.035	89.06
414.258	87.06
414.482	83.06
414.705	90.06
414.928	93.06
415.151	77.06
415.374	86.06
415.597	91.06
415.821	77.06
416.044	85.06
416.267	77.06
416.49	71.06
416.713	79.06
416.936	71.06
417.159	83.06
417.382	79.06
417.605	75.06
417.828	81.06
418.051	82.06
418.274	80.06
418.497	91.06
418.72	97.06
418.943	83.06
419.166	79.06
419.389	79.06
419.611	76.06
419.834	85.06
420.057	86.06
420.28	77.06
420.503	74.06
420.726	82.06
420.948	82.06
421.171	88.06
421.394	91.06
421.617	83.06
421.839	77.06
422.062	76.06
422.285	94.06
422.507	95.06
422.73	128.06
422.953	127.06
423.175	100.06
423.398	84.06
423.621	89.06
423.843	78.06
424.066	86.06
424.288	71.06
424.511	83.06
424.733	82.06
424.956	76.06
425.178	85.06
425.401	82.06
425.623	70.06
425.846	82.06
426.068	83.06
426.291	72.06
426.513	80.06
426.735	80.06
426.958	78.06
427.18	80.06
427.402	87.06
427.625	90.06
427.847	79.06
428.069	90.06
428.292	74.06
428.514	80.06
428.736	79.06
428.958	72.06
429.181	95.06
429.403	80.06
429.625	64.06
429.847	77.06
430.069	88.06
430.292	100.06
430.514	99.06
430.736	97.06
430.958	85.06
431.18	85.06
431.402	71.06
431.624	89.06
431.846	99.06
432.068	75.06
432.29	83.06
432.512	85.06
432.734	83.06
432.956	80.06
433.178	93.06
433.4	89.06
433.622	83.06
433.844	70.06
434.066	89.06
434.287	92.06
434.509	69.06
434.731	76.06
434.953	83.06
435.175	68.06
435.397	96.06
435.618	79.06
435.84	79.06
436.062	88.06
436.284	83.06
436.505	77.06
436.727	82.06
436.949	70.06
437.17	82.06
437.392	96.06
437.614	86.06
437.835	89.06
438.057	77.06
438.278	65.06
438.5	85.06
438.721	81.06
438.943	83.06
439.165	69.06
439.386	94.06
439.608	82.06
439.829	73.06
440.05	93.06
440.272	86.06
440.493	84.06
440.715	77.06
440.936	81.06
441.158	78.06
441.379	96.06
441.6	101.06
441.822	84.06
442.043	88.06
442.264	70.06
442.486	80.06
442.707	102.06
442.928	79.06
443.149	87.06
443.371	87.06
443.592	96.06
443.813	99.06
444.034	84.06
444.255	72.06
444.476	79.06
444.698	84.06
444.919	80.06
445.14	166.06
445.361	140.06
445.582	99.06
445.803	89.06
446.024	80.06
446.245	91.06
446.466	76.06
446.687	85.06
446.908	88.06
447.129	77.06
447.35	77.06
447.571	104.06
447.792	74.06
448.013	82.06
448.234	79.06
448.455	63.06
448.675	63.06
448.896	82.06
449.117	80.06
449.338	87.06
449.559	86.06
449.779	68.06
450	81.06
450.221	88.06
450.442	72.06
450.662	81.06
450.883	77.06
451.104	97.06
451.324	81.06
451.545	80.06
451.766	69.06
451.986	87.06
452.207	79.06
452.428	82.06
452.648	72.06
452.869	71.06
453.089	74.06
453.31	78.06
453.53	84.06
453.751	93.06
453.971	87.06
454.192	84.06
454.412	92.06
454.633	77.06
454.853	80.06
455.073	86.06
455.294	89.06
455.514	92.06
455.734	81.06
455.955	79.06
456.175	86.06
456.395	67.06
456.616	83.06
456.836	96.06
457.056	88.06
457.276	73.06
457.497	87.06
457.717	89.06
457.937	85.06
458.157	84.06
458.377	81.06
458.598	87.06
458.818	87.06
459.038	88.06
459.258	82.06
459.478	82.06
459.698	82.06
459.918	86.06
460.138	83.06
460.358	88.06
460.578	83.06
460.798	77.06
461.018	77.06
461.238	80.06
461.458	72.06
461.678	88.06
461.898	74.06
462.118	72.06
462.338	83.06
462.558	79.06
462.777	68.06
462.997	74.06
463.217	74.06
463.437	81.06
463.657	83.06
463.876	79.06
464.096	83.06
464.316	80.06
464.536	73.06
464.755	88.06
464.975	80.06
465.195	77.06
465.414	73.06
465.634	91.06
465.854	83.06
466.073	69.06
466.293	79.06
466.512	80.06
466.732	78.06
466.951	81.06
467.171	73.06
467.391	84.06
467.61	77.06
467.829	80.06
468.049	86.06
468.268	99.06
468.488	86.06
468.707	88.06
468.927	79.06
469.146	65.06
469.365	81.06
469.585	84.06
469.804	80.06
470.023	80.06
470.243	88.06
470.462	83.06
470.681	94.06
470.901	79.06
471.12	72.06
471.339	90.06
471.558	82.06
471.777	83.06
471.997	71.06
472.216	85.06
472.435	69.06
472.654	77.06
472.873	69.06
473.092	90.06
473.311	77.06
473.53	69.06
473.749	82.06
473.968	94.06
474.187	89.06
474.406	95.06
474.625	79.06
474.844	92.06
475.063	72.06
475.282	88.06
475.501	79.06
475.72	77.06
475.939	91.06
476.158	80.06
476.377	69.06
476.596	80.06
476.814	87.06
477.033	87.06
477.252	93.06
477.471	85.06
477.69	74.06
477.908	75.06
478.127	93.06
478.346	74.06
478.564	78.06
478.783	74.06
479.002	86.06
479.22	84.06
479.439	81.06
479.658	74.06
479.876	85.06
480.095	87.06
480.313	77.06
480.532	91.06
480.751	87.06
480.969	80.06
481.188	72.06
481.406	91.06
481.624	99.06
481.843	90.06
482.061	96.06
482.28	75.06
482.498	80.06
482.717	73.06
482.935	91.06
483.153	74.06
483.372	85.06
483.59	82.06
483.808	87.06
484.027	96.06
484.245	95.06
484.463	71.06
484.681	80.06
484.9	75.06
485.118	92.06
485.336	82.06
485.554	96.06
485.772	81.06
485.99	91.06
486.209	76.06
486.427	74.06
486.645	71.06
486.863	90.06
487.081	85.06
487.299	87.06
487.517	91.06
487.735	81.06
487.953	78.06
488.171	86.06
488.389	87.06
488.607	89.06
488.825	64.06
489.043	87.06
489.261	78.06
489.479	93.06
489.696	81.06
489.914	84.06
490.132	72.06
490.35	94.06
490.568	84.06
490.786	98.06
491.003	79.06
491.221	79.06
491.439	87.06
491.657	95.06
491.874	92.06
492.092	97.06
492.31	83.06
492.527	74.06
492.745	76.06
492.963	92.06
493.18	79.06
493.398	96.06
493.615	83.06
493.833	86.06
494.05	93.06
494.268	91.06
494.485	80.06
494.703	88.06
494.92	75.06
495.138	72.06
495.355	104.06
495.573	86.06
495.79	91.06
496.008	90.06
496.225	83.06
496.442	78.06
496.66	91.06
496.877	88.06
497.094	82.06
497.312	80.06
497.529	91.06
497.746	82.06
497.963	91.06
498.181	70.06
498.398	79.06
498.615	86.06
498.832	89.06
499.049	74.06
499.267	73.06
499.484	77.06
499.701	91.06
499.918	80.06
500.135	95.06
500.352	94.06
500.569	75.06
500.786	92.06
501.003	88.06
501.22	67.06
501.437	83.06
501.654	85.06
501.871	79.06
502.088	70.06
502.305	88.06
502.522	78.06
502.739	78.06
502.956	81.06
503.172	76.06
503.389	82.06
503.606	70.06
503.823	83.06
504.04	83.06
504.256	77.06
504.473	85.06
504.69	76.06
504.907	102.06
505.123	92.06
505.34	89.06
505.557	81.06
505.773	77.06
505.99	75.06
506.207	68.06
506.423	80.06
506.64	85.06
506.856	94.06
507.073	85.06
507.289	83.06
507.506	79.06
507.722	81.06
507.939	86.06
508.155	87.06
508.372	92.06
508.588	78.06
508.805	85.06
509.021	92.06
509.238	87.06
509.454	81.06
509.67	70.06
509.887	77.06
510.103	91.06
510.319	83.06
510.536	87.06
510.752	89.06
510.968	88.06
511.184	76.06
511.401	89.06
511.617	89.06
511.833	90.06
512.049	85.06
512.265	97.06
512.481	75.06
512.698	89.06
512.914	77.06
513.13	80.06
513.346	81.06
513.562	83.06
513.778	83.06
513.994	84.06
514.21	85.06
514.426	83.06
514.642	71.06
514.858	89.06
515.074	79.06
515.29	73.06
515.506	60.06
515.721	83.06
515.937	84.06
516.153	70.06
516.369	87.06
516.585	71.06
516.801	109.06
517.016	73.06
517.232	81.06
517.448	85.06
517.664	89.06
517.879	83.06
518.095	77.06
518.311	92.06
518.527	84.06
518.742	88.06
518.958	85.06
519.173	91.06
519.389	81.06
519.605	87.06
519.82	84.06
