Data from 1600_1_HRD10591_00004.txt Node
Date: Mon Jan 19 13:47:43 EST 2026
User: Yrep
Spectrometer: HR+D1059
Trigger mode: 1
Integration Time (sec): 1.000000E-1
Scans to average: 1
Electric dark correction enabled: true
Nonlinearity correction enabled: false
Boxcar width: 0
XAxis mode: Wavelengths
Number of Pixels in Spectrum: 2048
>>>>>Begin Spectral Data<<<<<
223.165	-18.12
223.4	-18.12
223.635	-18.12
223.869	-24.12
224.104	-18.12
224.338	-17.12
224.573	-28.12
224.808	-13.12
225.042	-7.12
225.277	-2.12
225.511	2.88
225.746	3.88
225.98	15.88
226.215	17.88
226.449	19.88
226.683	21.88
226.918	19.88
227.152	25.88
227.387	48.88
227.621	33.88
227.856	50.88
228.09	40.88
228.324	48.88
228.559	54.88
228.793	67.88
229.027	65.88
229.262	57.88
229.496	72.88
229.73	77.88
229.964	80.88
230.199	79.88
230.433	76.88
230.667	75.88
230.901	67.88
231.136	63.88
231.37	84.88
231.604	76.88
231.838	84.88
232.072	88.88
232.306	69.88
232.541	90.88
232.775	104.88
233.009	114.88
233.243	64.88
233.477	78.88
233.711	83.88
233.945	80.88
234.179	93.88
234.413	88.88
234.647	75.88
234.881	86.88
235.115	84.88
235.349	74.88
235.583	95.88
235.817	74.88
236.051	76.88
236.285	89.88
236.519	78.88
236.753	61.88
236.987	78.88
237.221	88.88
237.455	72.88
237.689	79.88
237.922	80.88
238.156	75.88
238.39	89.88
238.624	78.88
238.858	75.88
239.091	82.88
239.325	75.88
239.559	77.88
239.793	70.88
240.027	77.88
240.26	85.88
240.494	72.88
240.728	75.88
240.961	68.88
241.195	74.88
241.429	71.88
241.662	85.88
241.896	87.88
242.13	81.88
242.363	70.88
242.597	83.88
242.83	74.88
243.064	78.88
243.298	74.88
243.531	86.88
243.765	76.88
243.998	73.88
244.232	88.88
244.465	73.88
244.699	75.88
244.932	76.88
245.166	87.88
245.399	77.88
245.633	70.88
245.866	77.88
246.099	89.88
246.333	70.88
246.566	73.88
246.8	90.88
247.033	82.88
247.266	71.88
247.5	73.88
247.733	79.88
247.966	74.88
248.2	80.88
248.433	81.88
248.666	82.88
248.899	71.88
249.133	80.88
249.366	75.88
249.599	85.88
249.832	78.88
250.066	93.88
250.299	70.88
250.532	74.88
250.765	76.88
250.998	72.88
251.231	88.88
251.465	72.88
251.698	96.88
251.931	80.88
252.164	73.88
252.397	88.88
252.63	72.88
252.863	95.88
253.096	88.88
253.329	71.88
253.562	81.88
253.795	71.88
254.028	70.88
254.261	89.88
254.494	73.88
254.727	81.88
254.96	78.88
255.193	89.88
255.426	63.88
255.659	86.88
255.892	79.88
256.124	80.88
256.357	75.88
256.59	72.88
256.823	78.88
257.056	85.88
257.289	87.88
257.521	84.88
257.754	98.88
257.987	80.88
258.22	74.88
258.452	76.88
258.685	88.88
258.918	85.88
259.151	83.88
259.383	93.88
259.616	69.88
259.849	84.88
260.081	79.88
260.314	80.88
260.547	73.88
260.779	77.88
261.012	83.88
261.244	71.88
261.477	88.88
261.71	82.88
261.942	78.88
262.175	71.88
262.407	72.88
262.64	73.88
262.872	89.88
263.105	83.88
263.337	79.88
263.57	88.88
263.802	86.88
264.035	77.88
264.267	90.88
264.499	80.88
264.732	95.88
264.964	90.88
265.197	79.88
265.429	73.88
265.661	96.88
265.894	73.88
266.126	72.88
266.358	95.88
266.591	89.88
266.823	78.88
267.055	87.88
267.287	82.88
267.52	77.88
267.752	89.88
267.984	87.88
268.216	89.88
268.448	87.88
268.681	76.88
268.913	84.88
269.145	98.88
269.377	85.88
269.609	71.88
269.841	76.88
270.073	78.88
270.306	84.88
270.538	83.88
270.77	82.88
271.002	77.88
271.234	91.88
271.466	71.88
271.698	88.88
271.93	82.88
272.162	84.88
272.394	81.88
272.626	88.88
272.858	76.88
273.09	68.88
273.322	96.88
273.553	76.88
273.785	92.88
274.017	86.88
274.249	88.88
274.481	73.88
274.713	86.88
274.945	89.88
275.176	77.88
275.408	82.88
275.64	80.88
275.872	73.88
276.104	84.88
276.335	74.88
276.567	88.88
276.799	78.88
277.031	87.88
277.262	87.88
277.494	105.88
277.726	84.88
277.957	92.88
278.189	77.88
278.421	93.88
278.652	81.88
278.884	80.88
279.115	96.88
279.347	96.88
279.579	77.88
279.81	79.88
280.042	71.88
280.273	78.88
280.505	80.88
280.736	93.88
280.968	78.88
281.199	82.88
281.431	86.88
281.662	84.88
281.894	78.88
282.125	89.88
282.356	80.88
282.588	79.88
282.819	83.88
283.051	81.88
283.282	77.88
283.513	97.88
283.745	96.88
283.976	66.88
284.207	95.88
284.439	94.88
284.67	88.88
284.901	80.88
285.132	98.88
285.364	87.88
285.595	72.88
285.826	90.88
286.057	95.88
286.288	87.88
286.52	82.88
286.751	88.88
286.982	86.88
287.213	87.88
287.444	87.88
287.675	85.88
287.906	88.88
288.138	74.88
288.369	93.88
288.6	81.88
288.831	69.88
289.062	92.88
289.293	81.88
289.524	74.88
289.755	92.88
289.986	86.88
290.217	79.88
290.448	72.88
290.679	81.88
290.91	86.88
291.141	103.88
291.371	96.88
291.602	77.88
291.833	90.88
292.064	95.88
292.295	74.88
292.526	88.88
292.757	80.88
292.987	84.88
293.218	84.88
293.449	84.88
293.68	78.88
293.91	83.88
294.141	80.88
294.372	88.88
294.603	88.88
294.833	75.88
295.064	90.88
295.295	93.88
295.525	88.88
295.756	101.88
295.987	92.88
296.217	78.88
296.448	82.88
296.679	90.88
296.909	87.88
297.14	81.88
297.37	82.88
297.601	101.88
297.831	81.88
298.062	83.88
298.292	78.88
298.523	87.88
298.753	73.88
298.984	90.88
299.214	88.88
299.445	80.88
299.675	89.88
299.905	93.88
300.136	100.88
300.366	81.88
300.597	88.88
300.827	98.88
301.057	80.88
301.288	99.88
301.518	80.88
301.748	88.88
301.979	97.88
302.209	82.88
302.439	92.88
302.669	92.88
302.9	81.88
303.13	74.88
303.36	77.88
303.59	82.88
303.82	92.88
304.051	86.88
304.281	91.88
304.511	80.88
304.741	81.88
304.971	85.88
305.201	87.88
305.431	79.88
305.661	94.88
305.891	84.88
306.121	83.88
306.352	74.88
306.582	89.88
306.812	85.88
307.042	80.88
307.272	84.88
307.502	97.88
307.731	75.88
307.961	78.88
308.191	72.88
308.421	80.88
308.651	91.88
308.881	82.88
309.111	76.88
309.341	88.88
309.571	85.88
309.8	78.88
310.03	92.88
310.26	94.88
310.49	84.88
310.72	82.88
310.949	95.88
311.179	89.88
311.409	93.88
311.639	81.88
311.868	98.88
312.098	84.88
312.328	98.88
312.557	97.88
312.787	79.88
313.017	93.88
313.246	81.88
313.476	86.88
313.706	103.88
313.935	84.88
314.165	80.88
314.394	101.88
314.624	90.88
314.853	88.88
315.083	83.88
315.312	88.88
315.542	75.88
315.771	84.88
316.001	99.88
316.23	87.88
316.46	83.88
316.689	82.88
316.919	78.88
317.148	88.88
317.377	85.88
317.607	84.88
317.836	98.88
318.065	90.88
318.295	94.88
318.524	93.88
318.753	85.88
318.983	96.88
319.212	81.88
319.441	82.88
319.67	87.88
319.9	98.88
320.129	85.88
320.358	88.88
320.587	85.88
320.816	86.88
321.046	90.88
321.275	78.88
321.504	77.88
321.733	97.88
321.962	85.88
322.191	81.88
322.42	78.88
322.649	98.88
322.878	92.88
323.108	93.88
323.337	78.88
323.566	95.88
323.795	78.88
324.024	78.88
324.253	80.88
324.482	88.88
324.71	95.88
324.939	84.88
325.168	85.88
325.397	81.88
325.626	82.88
325.855	65.88
326.084	72.88
326.313	93.88
326.542	95.88
326.77	84.88
326.999	98.88
327.228	89.88
327.457	78.88
327.686	71.88
327.914	96.88
328.143	96.88
328.372	90.88
328.6	89.88
328.829	72.88
329.058	87.88
329.287	93.88
329.515	98.88
329.744	99.88
329.972	97.88
330.201	93.88
330.43	96.88
330.658	84.88
330.887	85.88
331.115	85.88
331.344	101.88
331.572	102.88
331.801	88.88
332.03	93.88
332.258	92.88
332.486	83.88
332.715	96.88
332.943	88.88
333.172	91.88
333.4	85.88
333.629	102.88
333.857	87.88
334.085	93.88
334.314	90.88
334.542	89.88
334.771	93.88
334.999	83.88
335.227	92.88
335.455	90.88
335.684	95.88
335.912	102.88
336.14	81.88
336.369	84.88
336.597	95.88
336.825	95.88
337.053	93.88
337.281	86.88
337.51	85.88
337.738	91.88
337.966	90.88
338.194	87.88
338.422	83.88
338.65	85.88
338.878	85.88
339.106	94.88
339.334	80.88
339.562	79.88
339.79	92.88
340.018	94.88
340.246	94.88
340.474	91.88
340.702	96.88
340.93	88.88
341.158	92.88
341.386	81.88
341.614	78.88
341.842	82.88
342.07	88.88
342.298	85.88
342.526	81.88
342.754	93.88
342.981	85.88
343.209	83.88
343.437	105.88
343.665	89.88
343.893	88.88
344.12	79.88
344.348	88.88
344.576	101.88
344.804	80.88
345.031	92.88
345.259	84.88
345.487	87.88
345.714	80.88
345.942	77.88
346.17	87.88
346.397	104.88
346.625	90.88
346.853	92.88
347.08	78.88
347.308	98.88
347.535	75.88
347.763	80.88
347.99	84.88
348.218	79.88
348.445	86.88
348.673	81.88
348.9	78.88
349.128	84.88
349.355	93.88
349.583	80.88
349.81	92.88
350.037	80.88
350.265	89.88
350.492	84.88
350.72	84.88
350.947	87.88
351.174	90.88
351.402	85.88
351.629	81.88
351.856	84.88
352.083	100.88
352.311	95.88
352.538	72.88
352.765	101.88
352.992	87.88
353.22	85.88
353.447	91.88
353.674	80.88
353.901	93.88
354.128	102.88
354.355	93.88
354.583	86.88
354.81	98.88
355.037	89.88
355.264	94.88
355.491	88.88
355.718	98.88
355.945	95.88
356.172	89.88
356.399	88.88
356.626	89.88
356.853	79.88
357.08	92.88
357.307	66.88
357.534	81.88
357.761	87.88
357.988	92.88
358.215	84.88
358.441	93.88
358.668	76.88
358.895	90.88
359.122	76.88
359.349	92.88
359.576	77.88
359.802	77.88
360.029	90.88
360.256	93.88
360.483	80.88
360.709	89.88
360.936	97.88
361.163	85.88
361.39	85.88
361.616	71.88
361.843	85.88
362.07	87.88
362.296	80.88
362.523	92.88
362.749	89.88
362.976	92.88
363.203	92.88
363.429	88.88
363.656	91.88
363.882	92.88
364.109	89.88
364.335	76.88
364.562	88.88
364.788	75.88
365.015	73.88
365.241	80.88
365.468	88.88
365.694	84.88
365.92	86.88
366.147	81.88
366.373	77.88
366.599	92.88
366.826	97.88
367.052	92.88
367.278	88.88
367.505	87.88
367.731	90.88
367.957	84.88
368.184	88.88
368.41	94.88
368.636	80.88
368.862	97.88
369.089	88.88
369.315	89.88
369.541	85.88
369.767	85.88
369.993	81.88
370.219	69.88
370.445	96.88
370.672	80.88
370.898	86.88
371.124	80.88
371.35	93.88
371.576	82.88
371.802	74.88
372.028	92.88
372.254	88.88
372.48	87.88
372.706	82.88
372.932	82.88
373.158	85.88
373.384	95.88
373.61	94.88
373.835	87.88
374.061	82.88
374.287	82.88
374.513	92.88
374.739	101.88
374.965	90.88
375.191	79.88
375.416	69.88
375.642	88.88
375.868	80.88
376.094	88.88
376.319	74.88
376.545	85.88
376.771	92.88
376.997	86.88
377.222	78.88
377.448	95.88
377.674	90.88
377.899	95.88
378.125	73.88
378.35	83.88
378.576	87.88
378.802	77.88
379.027	87.88
379.253	83.88
379.478	79.88
379.704	85.88
379.929	89.88
380.155	94.88
380.38	90.88
380.606	73.88
380.831	82.88
381.057	89.88
381.282	80.88
381.507	89.88
381.733	93.88
381.958	82.88
382.184	92.88
382.409	89.88
382.634	73.88
382.86	87.88
383.085	92.88
383.31	79.88
383.535	72.88
383.761	80.88
383.986	84.88
384.211	96.88
384.436	83.88
384.662	71.88
384.887	69.88
385.112	71.88
385.337	74.88
385.562	82.88
385.787	99.88
386.013	94.88
386.238	85.88
386.463	88.88
386.688	98.88
386.913	104.88
387.138	92.88
387.363	86.88
387.588	77.88
387.813	76.88
388.038	89.88
388.263	88.88
388.488	81.88
388.713	77.88
388.938	74.88
389.163	72.88
389.387	78.88
389.612	69.88
389.837	80.88
390.062	88.88
390.287	85.88
390.512	91.88
390.736	89.88
390.961	91.88
391.186	88.88
391.411	89.88
391.636	93.88
391.86	83.88
392.085	75.88
392.31	87.88
392.534	79.88
392.759	81.88
392.984	84.88
393.208	110.88
393.433	112.88
393.658	86.88
393.882	82.88
394.107	94.88
394.331	82.88
394.556	79.88
394.78	99.88
395.005	80.88
395.229	89.88
395.454	75.88
395.678	88.88
395.903	83.88
396.127	84.88
396.352	85.88
396.576	93.88
396.801	97.88
397.025	90.88
397.249	94.88
397.474	92.88
397.698	84.88
397.922	87.88
398.147	88.88
398.371	80.88
398.595	86.88
398.82	87.88
399.044	80.88
399.268	89.88
399.492	81.88
399.717	79.88
399.941	89.88
400.165	77.88
400.389	87.88
400.613	85.88
400.837	80.88
401.062	94.88
401.286	88.88
401.51	80.88
401.734	87.88
401.958	81.88
402.182	73.88
402.406	73.88
402.63	86.88
402.854	83.88
403.078	88.88
403.302	86.88
403.526	78.88
403.75	72.88
403.974	89.88
404.198	85.88
404.422	90.88
404.645	79.88
404.869	81.88
405.093	65.88
405.317	74.88
405.541	92.88
405.765	87.88
405.988	80.88
406.212	88.88
406.436	77.88
406.66	79.88
406.883	80.88
407.107	79.88
407.331	78.88
407.555	76.88
407.778	95.88
408.002	86.88
408.226	94.88
408.449	97.88
408.673	74.88
408.896	92.88
409.12	94.88
409.344	84.88
409.567	81.88
409.791	78.88
410.014	88.88
410.238	78.88
410.461	81.88
410.685	70.88
410.908	68.88
411.132	84.88
411.355	79.88
411.578	87.88
411.802	79.88
412.025	71.88
412.249	80.88
412.472	78.88
412.695	71.88
412.919	86.88
413.142	72.88
413.365	82.88
413.589	81.88
413.812	82.88
414.035	87.88
414.258	88.88
414.482	88.88
414.705	74.88
414.928	86.88
415.151	104.88
415.374	87.88
415.597	79.88
415.821	83.88
416.044	88.88
416.267	78.88
416.49	86.88
416.713	95.88
416.936	82.88
417.159	75.88
417.382	95.88
417.605	90.88
417.828	80.88
418.051	90.88
418.274	69.88
418.497	85.88
418.72	75.88
418.943	62.88
419.166	67.88
419.389	83.88
419.611	69.88
419.834	68.88
420.057	82.88
420.28	84.88
420.503	77.88
420.726	79.88
420.948	67.88
421.171	85.88
421.394	93.88
421.617	88.88
421.839	84.88
422.062	70.88
422.285	92.88
422.507	99.88
422.73	129.88
422.953	128.88
423.175	94.88
423.398	72.88
423.621	81.88
423.843	103.88
424.066	82.88
424.288	76.88
424.511	82.88
424.733	82.88
424.956	90.88
425.178	88.88
425.401	90.88
425.623	69.88
425.846	92.88
426.068	70.88
426.291	89.88
426.513	84.88
426.735	91.88
426.958	92.88
427.18	88.88
427.402	83.88
427.625	92.88
427.847	86.88
428.069	88.88
428.292	70.88
428.514	77.88
428.736	81.88
428.958	78.88
429.181	76.88
429.403	87.88
429.625	76.88
429.847	85.88
430.069	86.88
430.292	80.88
430.514	90.88
430.736	67.88
430.958	95.88
431.18	70.88
431.402	82.88
431.624	74.88
431.846	86.88
432.068	85.88
432.29	86.88
432.512	91.88
432.734	88.88
432.956	84.88
433.178	77.88
433.4	80.88
433.622	70.88
433.844	78.88
434.066	90.88
434.287	73.88
434.509	80.88
434.731	79.88
434.953	84.88
435.175	80.88
435.397	83.88
435.618	80.88
435.84	82.88
436.062	74.88
436.284	72.88
436.505	74.88
436.727	78.88
436.949	88.88
437.17	86.88
437.392	71.88
437.614	84.88
437.835	74.88
438.057	85.88
438.278	90.88
438.5	84.88
438.721	85.88
438.943	80.88
439.165	76.88
439.386	73.88
439.608	78.88
439.829	78.88
440.05	78.88
440.272	68.88
440.493	85.88
440.715	80.88
440.936	73.88
441.158	86.88
441.379	76.88
441.6	87.88
441.822	88.88
442.043	65.88
442.264	83.88
442.486	84.88
442.707	88.88
442.928	84.88
443.149	76.88
443.371	88.88
443.592	86.88
443.813	88.88
444.034	65.88
444.255	84.88
444.476	92.88
444.698	84.88
444.919	73.88
445.14	163.88
445.361	116.88
445.582	98.88
445.803	104.88
446.024	81.88
446.245	64.88
446.466	90.88
446.687	72.88
446.908	70.88
447.129	88.88
447.35	82.88
447.571	77.88
447.792	89.88
448.013	71.88
448.234	86.88
448.455	88.88
448.675	103.88
448.896	91.88
449.117	75.88
449.338	86.88
449.559	80.88
449.779	85.88
450	82.88
450.221	69.88
450.442	75.88
450.662	78.88
450.883	88.88
451.104	86.88
451.324	89.88
451.545	75.88
451.766	82.88
451.986	66.88
452.207	88.88
452.428	69.88
452.648	79.88
452.869	81.88
453.089	87.88
453.31	76.88
453.53	80.88
453.751	86.88
453.971	101.88
454.192	73.88
454.412	92.88
454.633	82.88
454.853	88.88
455.073	100.88
455.294	82.88
455.514	83.88
455.734	89.88
455.955	81.88
456.175	83.88
456.395	86.88
456.616	79.88
456.836	83.88
457.056	78.88
457.276	82.88
457.497	76.88
457.717	87.88
457.937	68.88
458.157	87.88
458.377	75.88
458.598	84.88
458.818	85.88
459.038	72.88
459.258	73.88
459.478	74.88
459.698	91.88
459.918	83.88
460.138	90.88
460.358	71.88
460.578	75.88
460.798	79.88
461.018	82.88
461.238	88.88
461.458	81.88
461.678	99.88
461.898	87.88
462.118	76.88
462.338	81.88
462.558	81.88
462.777	81.88
462.997	85.88
463.217	85.88
463.437	90.88
463.657	65.88
463.876	73.88
464.096	85.88
464.316	79.88
464.536	85.88
464.755	85.88
464.975	87.88
465.195	87.88
465.414	83.88
465.634	79.88
465.854	86.88
466.073	84.88
466.293	77.88
466.512	86.88
466.732	74.88
466.951	73.88
467.171	87.88
467.391	67.88
467.61	73.88
467.829	92.88
468.049	78.88
468.268	82.88
468.488	77.88
468.707	97.88
468.927	86.88
469.146	79.88
469.365	85.88
469.585	88.88
469.804	82.88
470.023	85.88
470.243	87.88
470.462	71.88
470.681	77.88
470.901	76.88
471.12	70.88
471.339	88.88
471.558	78.88
471.777	89.88
471.997	81.88
472.216	96.88
472.435	80.88
472.654	74.88
472.873	91.88
473.092	83.88
473.311	85.88
473.53	77.88
473.749	78.88
473.968	73.88
474.187	86.88
474.406	78.88
474.625	84.88
474.844	81.88
475.063	93.88
475.282	92.88
475.501	89.88
475.72	100.88
475.939	83.88
476.158	77.88
476.377	88.88
476.596	77.88
476.814	87.88
477.033	92.88
477.252	80.88
477.471	92.88
477.69	78.88
477.908	93.88
478.127	88.88
478.346	65.88
478.564	76.88
478.783	79.88
479.002	92.88
479.22	82.88
479.439	89.88
479.658	74.88
479.876	79.88
480.095	99.88
480.313	68.88
480.532	86.88
480.751	94.88
480.969	78.88
481.188	97.88
481.406	99.88
481.624	93.88
481.843	79.88
482.061	80.88
482.28	64.88
482.498	71.88
482.717	87.88
482.935	86.88
483.153	78.88
483.372	80.88
483.59	81.88
483.808	100.88
484.027	80.88
484.245	87.88
484.463	80.88
484.681	92.88
484.9	92.88
485.118	80.88
485.336	100.88
485.554	86.88
485.772	85.88
485.99	74.88
486.209	87.88
486.427	84.88
486.645	86.88
486.863	90.88
487.081	69.88
487.299	72.88
487.517	76.88
487.735	78.88
487.953	92.88
488.171	68.88
488.389	85.88
488.607	93.88
488.825	81.88
489.043	93.88
489.261	88.88
489.479	97.88
489.696	74.88
489.914	97.88
490.132	84.88
490.35	78.88
490.568	81.88
490.786	67.88
491.003	78.88
491.221	88.88
491.439	69.88
491.657	96.88
491.874	97.88
492.092	87.88
492.31	79.88
492.527	83.88
492.745	85.88
492.963	90.88
493.18	74.88
493.398	79.88
493.615	88.88
493.833	92.88
494.05	74.88
494.268	88.88
494.485	90.88
494.703	90.88
494.92	82.88
495.138	90.88
495.355	87.88
495.573	88.88
495.79	83.88
496.008	78.88
496.225	56.88
496.442	82.88
496.66	93.88
496.877	93.88
497.094	100.88
497.312	95.88
497.529	90.88
497.746	69.88
497.963	81.88
498.181	80.88
498.398	85.88
498.615	75.88
498.832	81.88
499.049	95.88
499.267	84.88
499.484	76.88
499.701	81.88
499.918	82.88
500.135	83.88
500.352	86.88
500.569	86.88
500.786	89.88
501.003	85.88
501.22	80.88
501.437	80.88
501.654	85.88
501.871	88.88
502.088	81.88
502.305	86.88
502.522	85.88
502.739	91.88
502.956	85.88
503.172	104.88
503.389	81.88
503.606	84.88
503.823	92.88
504.04	98.88
504.256	84.88
504.473	85.88
504.69	88.88
504.907	93.88
505.123	84.88
505.34	100.88
505.557	94.88
505.773	88.88
505.99	73.88
506.207	82.88
506.423	78.88
506.64	86.88
506.856	84.88
507.073	99.88
507.289	85.88
507.506	95.88
507.722	79.88
507.939	98.88
508.155	87.88
508.372	80.88
508.588	88.88
508.805	86.88
509.021	88.88
509.238	88.88
509.454	71.88
509.67	78.88
509.887	94.88
510.103	83.88
510.319	72.88
510.536	69.88
510.752	88.88
510.968	84.88
511.184	80.88
511.401	85.88
511.617	98.88
511.833	83.88
512.049	88.88
512.265	92.88
512.481	90.88
512.698	82.88
512.914	83.88
513.13	85.88
513.346	75.88
513.562	85.88
513.778	86.88
513.994	87.88
514.21	78.88
514.426	79.88
514.642	78.88
514.858	88.88
515.074	94.88
515.29	84.88
515.506	81.88
515.721	70.88
515.937	89.88
516.153	66.88
516.369	83.88
516.585	87.88
516.801	81.88
517.016	82.88
517.232	65.88
517.448	81.88
517.664	72.88
517.879	74.88
518.095	80.88
518.311	82.88
518.527	85.88
518.742	84.88
518.958	80.88
519.173	84.88
519.389	88.88
519.605	89.88
519.82	73.88
