Data from 1600_1_HRD10591_00046.txt Node
Date: Mon Jan 19 13:48:04 EST 2026
User: Yrep
Spectrometer: HR+D1059
Trigger mode: 1
Integration Time (sec): 1.000000E-1
Scans to average: 1
Electric dark correction enabled: true
Nonlinearity correction enabled: false
Boxcar width: 0
XAxis mode: Wavelengths
Number of Pixels in Spectrum: 2048
>>>>>Begin Spectral Data<<<<<
223.165	-15.06
223.4	-15.06
223.635	-15.06
223.869	-14.06
224.104	-23.06
224.338	-15.06
224.573	-13.06
224.808	-5.06
225.042	-20.06
225.277	-11.06
225.511	3.94
225.746	7.94
225.98	0.94
226.215	15.94
226.449	8.94
226.683	20.94
226.918	25.94
227.152	31.94
227.387	47.94
227.621	44.94
227.856	35.94
228.09	44.94
228.324	46.94
228.559	57.94
228.793	56.94
229.027	75.94
229.262	63.94
229.496	60.94
229.73	67.94
229.964	80.94
230.199	71.94
230.433	83.94
230.667	67.94
230.901	86.94
231.136	85.94
231.37	84.94
231.604	83.94
231.838	76.94
232.072	84.94
232.306	77.94
232.541	100.94
232.775	90.94
233.009	83.94
233.243	84.94
233.477	73.94
233.711	83.94
233.945	79.94
234.179	87.94
234.413	87.94
234.647	85.94
234.881	77.94
235.115	64.94
235.349	81.94
235.583	75.94
235.817	74.94
236.051	69.94
236.285	73.94
236.519	79.94
236.753	77.94
236.987	68.94
237.221	80.94
237.455	70.94
237.689	80.94
237.922	72.94
238.156	76.94
238.39	71.94
238.624	68.94
238.858	70.94
239.091	71.94
239.325	83.94
239.559	68.94
239.793	80.94
240.027	78.94
240.26	71.94
240.494	77.94
240.728	75.94
240.961	83.94
241.195	78.94
241.429	83.94
241.662	73.94
241.896	70.94
242.13	83.94
242.363	79.94
242.597	79.94
242.83	73.94
243.064	75.94
243.298	87.94
243.531	68.94
243.765	80.94
243.998	81.94
244.232	77.94
244.465	73.94
244.699	79.94
244.932	72.94
245.166	98.94
245.399	76.94
245.633	67.94
245.866	80.94
246.099	75.94
246.333	74.94
246.566	70.94
246.8	75.94
247.033	86.94
247.266	92.94
247.5	66.94
247.733	80.94
247.966	80.94
248.2	83.94
248.433	70.94
248.666	79.94
248.899	81.94
249.133	65.94
249.366	92.94
249.599	92.94
249.832	83.94
250.066	89.94
250.299	67.94
250.532	82.94
250.765	81.94
250.998	74.94
251.231	74.94
251.465	74.94
251.698	88.94
251.931	81.94
252.164	90.94
252.397	69.94
252.63	77.94
252.863	85.94
253.096	72.94
253.329	75.94
253.562	73.94
253.795	78.94
254.028	83.94
254.261	82.94
254.494	79.94
254.727	74.94
254.96	73.94
255.193	81.94
255.426	102.94
255.659	77.94
255.892	83.94
256.124	76.94
256.357	83.94
256.59	80.94
256.823	71.94
257.056	93.94
257.289	93.94
257.521	75.94
257.754	80.94
257.987	90.94
258.22	79.94
258.452	83.94
258.685	70.94
258.918	84.94
259.151	80.94
259.383	79.94
259.616	83.94
259.849	96.94
260.081	79.94
260.314	80.94
260.547	78.94
260.779	87.94
261.012	79.94
261.244	78.94
261.477	81.94
261.71	94.94
261.942	94.94
262.175	93.94
262.407	95.94
262.64	85.94
262.872	69.94
263.105	78.94
263.337	77.94
263.57	76.94
263.802	87.94
264.035	73.94
264.267	76.94
264.499	65.94
264.732	86.94
264.964	89.94
265.197	79.94
265.429	81.94
265.661	81.94
265.894	94.94
266.126	93.94
266.358	87.94
266.591	83.94
266.823	80.94
267.055	87.94
267.287	86.94
267.52	77.94
267.752	82.94
267.984	91.94
268.216	86.94
268.448	81.94
268.681	93.94
268.913	94.94
269.145	79.94
269.377	76.94
269.609	89.94
269.841	89.94
270.073	80.94
270.306	72.94
270.538	80.94
270.77	93.94
271.002	79.94
271.234	74.94
271.466	85.94
271.698	77.94
271.93	87.94
272.162	73.94
272.394	95.94
272.626	67.94
272.858	70.94
273.09	94.94
273.322	85.94
273.553	75.94
273.785	78.94
274.017	77.94
274.249	86.94
274.481	82.94
274.713	100.94
274.945	87.94
275.176	86.94
275.408	83.94
275.64	72.94
275.872	83.94
276.104	80.94
276.335	85.94
276.567	83.94
276.799	80.94
277.031	92.94
277.262	93.94
277.494	84.94
277.726	87.94
277.957	92.94
278.189	90.94
278.421	88.94
278.652	72.94
278.884	93.94
279.115	84.94
279.347	81.94
279.579	83.94
279.81	79.94
280.042	73.94
280.273	87.94
280.505	87.94
280.736	81.94
280.968	92.94
281.199	83.94
281.431	85.94
281.662	71.94
281.894	95.94
282.125	65.94
282.356	82.94
282.588	83.94
282.819	86.94
283.051	69.94
283.282	88.94
283.513	86.94
283.745	86.94
283.976	84.94
284.207	72.94
284.439	91.94
284.67	81.94
284.901	89.94
285.132	86.94
285.364	87.94
285.595	87.94
285.826	83.94
286.057	85.94
286.288	97.94
286.52	82.94
286.751	79.94
286.982	93.94
287.213	81.94
287.444	78.94
287.675	89.94
287.906	84.94
288.138	82.94
288.369	77.94
288.6	72.94
288.831	79.94
289.062	77.94
289.293	92.94
289.524	93.94
289.755	74.94
289.986	76.94
290.217	80.94
290.448	78.94
290.679	92.94
290.91	71.94
291.141	75.94
291.371	85.94
291.602	95.94
291.833	86.94
292.064	86.94
292.295	81.94
292.526	80.94
292.757	80.94
292.987	91.94
293.218	85.94
293.449	92.94
293.68	79.94
293.91	96.94
294.141	92.94
294.372	85.94
294.603	90.94
294.833	88.94
295.064	72.94
295.295	81.94
295.525	85.94
295.756	82.94
295.987	68.94
296.217	78.94
296.448	77.94
296.679	73.94
296.909	82.94
297.14	101.94
297.37	85.94
297.601	87.94
297.831	108.94
298.062	85.94
298.292	91.94
298.523	81.94
298.753	85.94
298.984	92.94
299.214	73.94
299.445	78.94
299.675	91.94
299.905	85.94
300.136	83.94
300.366	83.94
300.597	88.94
300.827	79.94
301.057	91.94
301.288	87.94
301.518	84.94
301.748	79.94
301.979	87.94
302.209	76.94
302.439	101.94
302.669	82.94
302.9	88.94
303.13	89.94
303.36	68.94
303.59	83.94
303.82	88.94
304.051	95.94
304.281	76.94
304.511	93.94
304.741	75.94
304.971	83.94
305.201	93.94
305.431	92.94
305.661	78.94
305.891	98.94
306.121	69.94
306.352	101.94
306.582	87.94
306.812	84.94
307.042	88.94
307.272	67.94
307.502	75.94
307.731	79.94
307.961	103.94
308.191	85.94
308.421	93.94
308.651	80.94
308.881	97.94
309.111	102.94
309.341	95.94
309.571	81.94
309.8	86.94
310.03	85.94
310.26	98.94
310.49	86.94
310.72	92.94
310.949	90.94
311.179	91.94
311.409	78.94
311.639	83.94
311.868	73.94
312.098	77.94
312.328	72.94
312.557	88.94
312.787	73.94
313.017	65.94
313.246	75.94
313.476	79.94
313.706	100.94
313.935	82.94
314.165	80.94
314.394	77.94
314.624	95.94
314.853	76.94
315.083	80.94
315.312	94.94
315.542	80.94
315.771	86.94
316.001	67.94
316.23	71.94
316.46	85.94
316.689	93.94
316.919	88.94
317.148	89.94
317.377	97.94
317.607	94.94
317.836	81.94
318.065	83.94
318.295	82.94
318.524	88.94
318.753	76.94
318.983	96.94
319.212	86.94
319.441	73.94
319.67	85.94
319.9	94.94
320.129	93.94
320.358	76.94
320.587	81.94
320.816	76.94
321.046	101.94
321.275	98.94
321.504	96.94
321.733	73.94
321.962	83.94
322.191	97.94
322.42	89.94
322.649	96.94
322.878	88.94
323.108	83.94
323.337	74.94
323.566	82.94
323.795	91.94
324.024	81.94
324.253	72.94
324.482	85.94
324.71	83.94
324.939	79.94
325.168	77.94
325.397	73.94
325.626	95.94
325.855	85.94
326.084	83.94
326.313	82.94
326.542	87.94
326.77	75.94
326.999	92.94
327.228	79.94
327.457	82.94
327.686	82.94
327.914	93.94
328.143	77.94
328.372	84.94
328.6	94.94
328.829	87.94
329.058	80.94
329.287	85.94
329.515	83.94
329.744	78.94
329.972	91.94
330.201	79.94
330.43	72.94
330.658	87.94
330.887	97.94
331.115	84.94
331.344	83.94
331.572	75.94
331.801	87.94
332.03	93.94
332.258	81.94
332.486	95.94
332.715	104.94
332.943	95.94
333.172	97.94
333.4	70.94
333.629	88.94
333.857	91.94
334.085	89.94
334.314	74.94
334.542	87.94
334.771	86.94
334.999	86.94
335.227	81.94
335.455	75.94
335.684	87.94
335.912	87.94
336.14	81.94
336.369	83.94
336.597	92.94
336.825	85.94
337.053	99.94
337.281	82.94
337.51	84.94
337.738	87.94
337.966	80.94
338.194	70.94
338.422	74.94
338.65	79.94
338.878	80.94
339.106	76.94
339.334	89.94
339.562	87.94
339.79	78.94
340.018	72.94
340.246	92.94
340.474	89.94
340.702	81.94
340.93	82.94
341.158	85.94
341.386	95.94
341.614	92.94
341.842	87.94
342.07	79.94
342.298	73.94
342.526	83.94
342.754	83.94
342.981	82.94
343.209	80.94
343.437	96.94
343.665	76.94
343.893	94.94
344.12	83.94
344.348	92.94
344.576	71.94
344.804	64.94
345.031	84.94
345.259	82.94
345.487	80.94
345.714	84.94
345.942	82.94
346.17	80.94
346.397	104.94
346.625	70.94
346.853	80.94
347.08	86.94
347.308	92.94
347.535	81.94
347.763	87.94
347.99	92.94
348.218	73.94
348.445	87.94
348.673	83.94
348.9	98.94
349.128	90.94
349.355	89.94
349.583	100.94
349.81	77.94
350.037	79.94
350.265	79.94
350.492	75.94
350.72	79.94
350.947	80.94
351.174	68.94
351.402	90.94
351.629	87.94
351.856	79.94
352.083	90.94
352.311	100.94
352.538	85.94
352.765	82.94
352.992	81.94
353.22	90.94
353.447	77.94
353.674	86.94
353.901	85.94
354.128	76.94
354.355	89.94
354.583	73.94
354.81	93.94
355.037	81.94
355.264	107.94
355.491	85.94
355.718	91.94
355.945	85.94
356.172	92.94
356.399	83.94
356.626	92.94
356.853	79.94
357.08	91.94
357.307	83.94
357.534	73.94
357.761	84.94
357.988	81.94
358.215	92.94
358.441	87.94
358.668	88.94
358.895	79.94
359.122	81.94
359.349	84.94
359.576	85.94
359.802	95.94
360.029	93.94
360.256	80.94
360.483	88.94
360.709	77.94
360.936	89.94
361.163	71.94
361.39	77.94
361.616	81.94
361.843	84.94
362.07	90.94
362.296	87.94
362.523	89.94
362.749	81.94
362.976	72.94
363.203	93.94
363.429	91.94
363.656	78.94
363.882	77.94
364.109	80.94
364.335	91.94
364.562	77.94
364.788	87.94
365.015	83.94
365.241	86.94
365.468	77.94
365.694	87.94
365.92	64.94
366.147	72.94
366.373	81.94
366.599	70.94
366.826	81.94
367.052	74.94
367.278	91.94
367.505	83.94
367.731	84.94
367.957	69.94
368.184	72.94
368.41	84.94
368.636	87.94
368.862	86.94
369.089	95.94
369.315	75.94
369.541	92.94
369.767	92.94
369.993	76.94
370.219	93.94
370.445	81.94
370.672	93.94
370.898	80.94
371.124	75.94
371.35	91.94
371.576	91.94
371.802	71.94
372.028	84.94
372.254	100.94
372.48	77.94
372.706	102.94
372.932	77.94
373.158	82.94
373.384	87.94
373.61	81.94
373.835	92.94
374.061	98.94
374.287	84.94
374.513	78.94
374.739	65.94
374.965	73.94
375.191	82.94
375.416	84.94
375.642	79.94
375.868	79.94
376.094	97.94
376.319	79.94
376.545	74.94
376.771	91.94
376.997	91.94
377.222	79.94
377.448	81.94
377.674	72.94
377.899	83.94
378.125	83.94
378.35	78.94
378.576	72.94
378.802	92.94
379.027	91.94
379.253	83.94
379.478	109.94
379.704	72.94
379.929	78.94
380.155	85.94
380.38	77.94
380.606	90.94
380.831	76.94
381.057	84.94
381.282	79.94
381.507	81.94
381.733	72.94
381.958	88.94
382.184	74.94
382.409	74.94
382.634	82.94
382.86	84.94
383.085	93.94
383.31	70.94
383.535	75.94
383.761	74.94
383.986	88.94
384.211	84.94
384.436	77.94
384.662	75.94
384.887	71.94
385.112	72.94
385.337	77.94
385.562	80.94
385.787	71.94
386.013	79.94
386.238	91.94
386.463	89.94
386.688	98.94
386.913	77.94
387.138	94.94
387.363	85.94
387.588	82.94
387.813	85.94
388.038	80.94
388.263	81.94
388.488	77.94
388.713	72.94
388.938	83.94
389.163	81.94
389.387	78.94
389.612	73.94
389.837	71.94
390.062	98.94
390.287	92.94
390.512	88.94
390.736	81.94
390.961	76.94
391.186	76.94
391.411	94.94
391.636	78.94
391.86	81.94
392.085	83.94
392.31	83.94
392.534	82.94
392.759	90.94
392.984	69.94
393.208	78.94
393.433	99.94
393.658	98.94
393.882	73.94
394.107	64.94
394.331	89.94
394.556	85.94
394.78	92.94
395.005	85.94
395.229	86.94
395.454	85.94
395.678	78.94
395.903	67.94
396.127	78.94
396.352	91.94
396.576	82.94
396.801	108.94
397.025	93.94
397.249	80.94
397.474	85.94
397.698	80.94
397.922	75.94
398.147	82.94
398.371	71.94
398.595	79.94
398.82	86.94
399.044	85.94
399.268	82.94
399.492	90.94
399.717	85.94
399.941	74.94
400.165	81.94
400.389	78.94
400.613	86.94
400.837	70.94
401.062	93.94
401.286	73.94
401.51	74.94
401.734	79.94
401.958	79.94
402.182	89.94
402.406	71.94
402.63	84.94
402.854	81.94
403.078	73.94
403.302	95.94
403.526	82.94
403.75	89.94
403.974	92.94
404.198	73.94
404.422	79.94
404.645	82.94
404.869	83.94
405.093	83.94
405.317	80.94
405.541	91.94
405.765	95.94
405.988	81.94
406.212	84.94
406.436	72.94
406.66	89.94
406.883	76.94
407.107	83.94
407.331	71.94
407.555	85.94
407.778	80.94
408.002	90.94
408.226	103.94
408.449	78.94
408.673	78.94
408.896	88.94
409.12	86.94
409.344	81.94
409.567	81.94
409.791	76.94
410.014	80.94
410.238	76.94
410.461	74.94
410.685	84.94
410.908	86.94
411.132	78.94
411.355	81.94
411.578	88.94
411.802	81.94
412.025	75.94
412.249	78.94
412.472	79.94
412.695	89.94
412.919	85.94
413.142	89.94
413.365	98.94
413.589	89.94
413.812	79.94
414.035	93.94
414.258	79.94
414.482	85.94
414.705	89.94
414.928	81.94
415.151	69.94
415.374	75.94
415.597	91.94
415.821	73.94
416.044	77.94
416.267	79.94
416.49	72.94
416.713	77.94
416.936	81.94
417.159	81.94
417.382	68.94
417.605	84.94
417.828	65.94
418.051	66.94
418.274	87.94
418.497	92.94
418.72	71.94
418.943	86.94
419.166	93.94
419.389	81.94
419.611	79.94
419.834	89.94
420.057	85.94
420.28	68.94
420.503	94.94
420.726	77.94
420.948	90.94
421.171	79.94
421.394	75.94
421.617	89.94
421.839	70.94
422.062	77.94
422.285	92.94
422.507	82.94
422.73	105.94
422.953	98.94
423.175	78.94
423.398	70.94
423.621	95.94
423.843	87.94
424.066	79.94
424.288	75.94
424.511	73.94
424.733	70.94
424.956	72.94
425.178	84.94
425.401	74.94
425.623	75.94
425.846	88.94
426.068	80.94
426.291	82.94
426.513	73.94
426.735	66.94
426.958	81.94
427.18	65.94
427.402	88.94
427.625	73.94
427.847	83.94
428.069	79.94
428.292	69.94
428.514	71.94
428.736	86.94
428.958	91.94
429.181	79.94
429.403	79.94
429.625	81.94
429.847	83.94
430.069	78.94
430.292	81.94
430.514	70.94
430.736	73.94
430.958	81.94
431.18	68.94
431.402	77.94
431.624	72.94
431.846	87.94
432.068	91.94
432.29	74.94
432.512	82.94
432.734	73.94
432.956	96.94
433.178	87.94
433.4	75.94
433.622	81.94
433.844	76.94
434.066	82.94
434.287	67.94
434.509	77.94
434.731	88.94
434.953	79.94
435.175	72.94
435.397	86.94
435.618	79.94
435.84	79.94
436.062	74.94
436.284	77.94
436.505	61.94
436.727	85.94
436.949	75.94
437.17	85.94
437.392	83.94
437.614	84.94
437.835	81.94
438.057	77.94
438.278	82.94
438.5	69.94
438.721	70.94
438.943	94.94
439.165	78.94
439.386	84.94
439.608	76.94
439.829	91.94
440.05	86.94
440.272	84.94
440.493	61.94
440.715	58.94
440.936	85.94
441.158	80.94
441.379	87.94
441.6	85.94
441.822	79.94
442.043	77.94
442.264	90.94
442.486	81.94
442.707	73.94
442.928	71.94
443.149	70.94
443.371	88.94
443.592	73.94
443.813	79.94
444.034	84.94
444.255	72.94
444.476	66.94
444.698	81.94
444.919	79.94
445.14	151.94
445.361	113.94
445.582	84.94
445.803	108.94
446.024	89.94
446.245	75.94
446.466	73.94
446.687	84.94
446.908	79.94
447.129	75.94
447.35	84.94
447.571	93.94
447.792	85.94
448.013	80.94
448.234	78.94
448.455	84.94
448.675	73.94
448.896	55.94
449.117	65.94
449.338	57.94
449.559	86.94
449.779	82.94
450	74.94
450.221	84.94
450.442	77.94
450.662	85.94
450.883	85.94
451.104	83.94
451.324	79.94
451.545	81.94
451.766	86.94
451.986	91.94
452.207	71.94
452.428	74.94
452.648	69.94
452.869	107.94
453.089	85.94
453.31	68.94
453.53	89.94
453.751	70.94
453.971	84.94
454.192	72.94
454.412	82.94
454.633	85.94
454.853	79.94
455.073	75.94
455.294	85.94
455.514	96.94
455.734	82.94
455.955	63.94
456.175	70.94
456.395	75.94
456.616	79.94
456.836	73.94
457.056	83.94
457.276	69.94
457.497	64.94
457.717	68.94
457.937	69.94
458.157	88.94
458.377	75.94
458.598	96.94
458.818	89.94
459.038	89.94
459.258	89.94
459.478	84.94
459.698	85.94
459.918	80.94
460.138	59.94
460.358	84.94
460.578	78.94
460.798	85.94
461.018	86.94
461.238	80.94
461.458	81.94
461.678	74.94
461.898	79.94
462.118	67.94
462.338	82.94
462.558	78.94
462.777	75.94
462.997	91.94
463.217	79.94
463.437	81.94
463.657	84.94
463.876	78.94
464.096	88.94
464.316	83.94
464.536	66.94
464.755	81.94
464.975	79.94
465.195	78.94
465.414	96.94
465.634	91.94
465.854	83.94
466.073	77.94
466.293	79.94
466.512	76.94
466.732	68.94
466.951	70.94
467.171	77.94
467.391	80.94
467.61	97.94
467.829	83.94
468.049	71.94
468.268	66.94
468.488	72.94
468.707	79.94
468.927	81.94
469.146	78.94
469.365	80.94
469.585	80.94
469.804	86.94
470.023	77.94
470.243	88.94
470.462	96.94
470.681	72.94
470.901	68.94
471.12	79.94
471.339	85.94
471.558	86.94
471.777	87.94
471.997	69.94
472.216	79.94
472.435	87.94
472.654	81.94
472.873	81.94
473.092	59.94
473.311	73.94
473.53	79.94
473.749	79.94
473.968	78.94
474.187	77.94
474.406	80.94
474.625	64.94
474.844	89.94
475.063	81.94
475.282	81.94
475.501	77.94
475.72	79.94
475.939	73.94
476.158	73.94
476.377	73.94
476.596	78.94
476.814	83.94
477.033	79.94
477.252	83.94
477.471	88.94
477.69	75.94
477.908	102.94
478.127	82.94
478.346	59.94
478.564	73.94
478.783	87.94
479.002	88.94
479.22	80.94
479.439	78.94
479.658	77.94
479.876	84.94
480.095	82.94
480.313	74.94
480.532	81.94
480.751	89.94
480.969	89.94
481.188	76.94
481.406	99.94
481.624	79.94
481.843	82.94
482.061	77.94
482.28	76.94
482.498	76.94
482.717	76.94
482.935	77.94
483.153	70.94
483.372	85.94
483.59	86.94
483.808	77.94
484.027	103.94
484.245	82.94
484.463	87.94
484.681	90.94
484.9	93.94
485.118	83.94
485.336	87.94
485.554	80.94
485.772	82.94
485.99	83.94
486.209	92.94
486.427	69.94
486.645	71.94
486.863	72.94
487.081	77.94
487.299	77.94
487.517	73.94
487.735	86.94
487.953	87.94
488.171	68.94
488.389	87.94
488.607	77.94
488.825	85.94
489.043	87.94
489.261	84.94
489.479	72.94
489.696	85.94
489.914	83.94
490.132	72.94
490.35	85.94
490.568	64.94
490.786	91.94
491.003	75.94
491.221	92.94
491.439	83.94
491.657	74.94
491.874	78.94
492.092	72.94
492.31	89.94
492.527	85.94
492.745	74.94
492.963	85.94
493.18	96.94
493.398	95.94
493.615	88.94
493.833	78.94
494.05	78.94
494.268	81.94
494.485	77.94
494.703	80.94
494.92	68.94
495.138	78.94
495.355	93.94
495.573	76.94
495.79	73.94
496.008	81.94
496.225	84.94
496.442	85.94
496.66	67.94
496.877	91.94
497.094	107.94
497.312	73.94
497.529	86.94
497.746	93.94
497.963	79.94
498.181	71.94
498.398	95.94
498.615	79.94
498.832	78.94
499.049	86.94
499.267	74.94
499.484	80.94
499.701	82.94
499.918	88.94
500.135	81.94
500.352	84.94
500.569	82.94
500.786	82.94
501.003	77.94
501.22	84.94
501.437	92.94
501.654	76.94
501.871	81.94
502.088	78.94
502.305	78.94
502.522	87.94
502.739	80.94
502.956	78.94
503.172	86.94
503.389	77.94
503.606	84.94
503.823	92.94
504.04	80.94
504.256	88.94
504.473	74.94
504.69	80.94
504.907	91.94
505.123	75.94
505.34	93.94
505.557	80.94
505.773	88.94
505.99	82.94
506.207	93.94
506.423	81.94
506.64	89.94
506.856	76.94
507.073	98.94
507.289	93.94
507.506	69.94
507.722	79.94
507.939	88.94
508.155	96.94
508.372	69.94
508.588	67.94
508.805	73.94
509.021	92.94
509.238	78.94
509.454	78.94
509.67	87.94
509.887	95.94
510.103	81.94
510.319	83.94
510.536	81.94
510.752	96.94
510.968	66.94
511.184	80.94
511.401	85.94
511.617	89.94
511.833	90.94
512.049	94.94
512.265	78.94
512.481	77.94
512.698	96.94
512.914	73.94
513.13	77.94
513.346	73.94
513.562	79.94
513.778	77.94
513.994	78.94
514.21	70.94
514.426	90.94
514.642	93.94
514.858	74.94
515.074	92.94
515.29	102.94
515.506	82.94
515.721	85.94
515.937	91.94
516.153	93.94
516.369	80.94
516.585	84.94
516.801	85.94
517.016	82.94
517.232	85.94
517.448	81.94
517.664	77.94
517.879	71.94
518.095	77.94
518.311	93.94
518.527	86.94
518.742	78.94
518.958	78.94
519.173	75.94
519.389	92.94
519.605	93.94
519.82	70.94
