Data from 1600_1_HRD10591_00047.txt Node
Date: Mon Jan 19 13:48:04 EST 2026
User: Yrep
Spectrometer: HR+D1059
Trigger mode: 1
Integration Time (sec): 1.000000E-1
Scans to average: 1
Electric dark correction enabled: true
Nonlinearity correction enabled: false
Boxcar width: 0
XAxis mode: Wavelengths
Number of Pixels in Spectrum: 2048
>>>>>Begin Spectral Data<<<<<
223.165	-13.12
223.4	-13.12
223.635	-13.12
223.869	-23.12
224.104	-11.12
224.338	-5.12
224.573	-24.12
224.808	-11.12
225.042	-19.12
225.277	-15.12
225.511	-6.12
225.746	-6.12
225.98	8.88
226.215	19.88
226.449	19.88
226.683	31.88
226.918	21.88
227.152	31.88
227.387	41.88
227.621	41.88
227.856	48.88
228.09	50.88
228.324	56.88
228.559	54.88
228.793	40.88
229.027	60.88
229.262	75.88
229.496	72.88
229.73	75.88
229.964	72.88
230.199	71.88
230.433	63.88
230.667	76.88
230.901	78.88
231.136	79.88
231.37	76.88
231.604	89.88
231.838	72.88
232.072	81.88
232.306	74.88
232.541	91.88
232.775	88.88
233.009	89.88
233.243	92.88
233.477	78.88
233.711	95.88
233.945	96.88
234.179	81.88
234.413	78.88
234.647	78.88
234.881	86.88
235.115	70.88
235.349	79.88
235.583	86.88
235.817	84.88
236.051	72.88
236.285	86.88
236.519	77.88
236.753	78.88
236.987	68.88
237.221	78.88
237.455	64.88
237.689	78.88
237.922	78.88
238.156	69.88
238.39	72.88
238.624	70.88
238.858	67.88
239.091	67.88
239.325	76.88
239.559	68.88
239.793	77.88
240.027	71.88
240.26	84.88
240.494	78.88
240.728	63.88
240.961	73.88
241.195	84.88
241.429	70.88
241.662	82.88
241.896	72.88
242.13	76.88
242.363	82.88
242.597	78.88
242.83	77.88
243.064	76.88
243.298	91.88
243.531	81.88
243.765	82.88
243.998	89.88
244.232	83.88
244.465	69.88
244.699	80.88
244.932	66.88
245.166	85.88
245.399	80.88
245.633	80.88
245.866	69.88
246.099	78.88
246.333	77.88
246.566	71.88
246.8	65.88
247.033	73.88
247.266	78.88
247.5	84.88
247.733	85.88
247.966	80.88
248.2	64.88
248.433	72.88
248.666	74.88
248.899	73.88
249.133	89.88
249.366	85.88
249.599	84.88
249.832	72.88
250.066	64.88
250.299	81.88
250.532	68.88
250.765	66.88
250.998	77.88
251.231	74.88
251.465	80.88
251.698	75.88
251.931	85.88
252.164	77.88
252.397	80.88
252.63	73.88
252.863	91.88
253.096	82.88
253.329	81.88
253.562	80.88
253.795	79.88
254.028	67.88
254.261	85.88
254.494	74.88
254.727	86.88
254.96	82.88
255.193	76.88
255.426	84.88
255.659	91.88
255.892	66.88
256.124	86.88
256.357	68.88
256.59	85.88
256.823	75.88
257.056	80.88
257.289	81.88
257.521	86.88
257.754	87.88
257.987	93.88
258.22	94.88
258.452	82.88
258.685	85.88
258.918	78.88
259.151	77.88
259.383	85.88
259.616	73.88
259.849	87.88
260.081	79.88
260.314	89.88
260.547	94.88
260.779	74.88
261.012	86.88
261.244	79.88
261.477	102.88
261.71	72.88
261.942	81.88
262.175	88.88
262.407	87.88
262.64	82.88
262.872	73.88
263.105	65.88
263.337	88.88
263.57	80.88
263.802	77.88
264.035	86.88
264.267	85.88
264.499	85.88
264.732	87.88
264.964	73.88
265.197	82.88
265.429	80.88
265.661	98.88
265.894	82.88
266.126	81.88
266.358	75.88
266.591	85.88
266.823	82.88
267.055	84.88
267.287	79.88
267.52	85.88
267.752	101.88
267.984	77.88
268.216	82.88
268.448	91.88
268.681	75.88
268.913	89.88
269.145	74.88
269.377	86.88
269.609	75.88
269.841	89.88
270.073	91.88
270.306	84.88
270.538	83.88
270.77	88.88
271.002	92.88
271.234	87.88
271.466	84.88
271.698	84.88
271.93	83.88
272.162	90.88
272.394	93.88
272.626	65.88
272.858	86.88
273.09	79.88
273.322	91.88
273.553	89.88
273.785	84.88
274.017	82.88
274.249	78.88
274.481	90.88
274.713	81.88
274.945	75.88
275.176	72.88
275.408	86.88
275.64	82.88
275.872	86.88
276.104	79.88
276.335	81.88
276.567	75.88
276.799	83.88
277.031	67.88
277.262	79.88
277.494	90.88
277.726	96.88
277.957	89.88
278.189	77.88
278.421	75.88
278.652	80.88
278.884	92.88
279.115	76.88
279.347	91.88
279.579	79.88
279.81	71.88
280.042	80.88
280.273	84.88
280.505	83.88
280.736	80.88
280.968	87.88
281.199	80.88
281.431	94.88
281.662	91.88
281.894	70.88
282.125	87.88
282.356	66.88
282.588	76.88
282.819	96.88
283.051	89.88
283.282	72.88
283.513	82.88
283.745	86.88
283.976	94.88
284.207	90.88
284.439	80.88
284.67	69.88
284.901	84.88
285.132	81.88
285.364	83.88
285.595	87.88
285.826	79.88
286.057	85.88
286.288	82.88
286.52	92.88
286.751	74.88
286.982	68.88
287.213	87.88
287.444	93.88
287.675	83.88
287.906	88.88
288.138	84.88
288.369	98.88
288.6	68.88
288.831	80.88
289.062	89.88
289.293	84.88
289.524	80.88
289.755	81.88
289.986	96.88
290.217	73.88
290.448	78.88
290.679	92.88
290.91	82.88
291.141	84.88
291.371	77.88
291.602	79.88
291.833	84.88
292.064	74.88
292.295	84.88
292.526	73.88
292.757	80.88
292.987	68.88
293.218	80.88
293.449	74.88
293.68	86.88
293.91	82.88
294.141	95.88
294.372	88.88
294.603	81.88
294.833	87.88
295.064	80.88
295.295	68.88
295.525	63.88
295.756	92.88
295.987	84.88
296.217	82.88
296.448	94.88
296.679	86.88
296.909	95.88
297.14	92.88
297.37	78.88
297.601	80.88
297.831	92.88
298.062	84.88
298.292	76.88
298.523	99.88
298.753	99.88
298.984	71.88
299.214	87.88
299.445	92.88
299.675	87.88
299.905	94.88
300.136	72.88
300.366	81.88
300.597	89.88
300.827	77.88
301.057	82.88
301.288	83.88
301.518	84.88
301.748	92.88
301.979	93.88
302.209	88.88
302.439	80.88
302.669	76.88
302.9	75.88
303.13	77.88
303.36	94.88
303.59	84.88
303.82	89.88
304.051	89.88
304.281	77.88
304.511	78.88
304.741	85.88
304.971	90.88
305.201	79.88
305.431	87.88
305.661	94.88
305.891	90.88
306.121	71.88
306.352	78.88
306.582	86.88
306.812	79.88
307.042	91.88
307.272	80.88
307.502	89.88
307.731	96.88
307.961	88.88
308.191	82.88
308.421	87.88
308.651	96.88
308.881	84.88
309.111	81.88
309.341	88.88
309.571	90.88
309.8	94.88
310.03	80.88
310.26	84.88
310.49	79.88
310.72	74.88
310.949	91.88
311.179	69.88
311.409	86.88
311.639	87.88
311.868	90.88
312.098	75.88
312.328	85.88
312.557	89.88
312.787	82.88
313.017	84.88
313.246	82.88
313.476	85.88
313.706	72.88
313.935	77.88
314.165	75.88
314.394	95.88
314.624	95.88
314.853	90.88
315.083	79.88
315.312	93.88
315.542	82.88
315.771	78.88
316.001	72.88
316.23	80.88
316.46	82.88
316.689	75.88
316.919	83.88
317.148	87.88
317.377	98.88
317.607	81.88
317.836	98.88
318.065	88.88
318.295	79.88
318.524	92.88
318.753	85.88
318.983	75.88
319.212	80.88
319.441	90.88
319.67	87.88
319.9	80.88
320.129	73.88
320.358	70.88
320.587	86.88
320.816	88.88
321.046	82.88
321.275	87.88
321.504	77.88
321.733	94.88
321.962	81.88
322.191	86.88
322.42	82.88
322.649	88.88
322.878	73.88
323.108	78.88
323.337	82.88
323.566	86.88
323.795	86.88
324.024	96.88
324.253	74.88
324.482	82.88
324.71	97.88
324.939	85.88
325.168	89.88
325.397	78.88
325.626	85.88
325.855	89.88
326.084	69.88
326.313	75.88
326.542	73.88
326.77	81.88
326.999	90.88
327.228	89.88
327.457	75.88
327.686	92.88
327.914	97.88
328.143	84.88
328.372	84.88
328.6	80.88
328.829	102.88
329.058	74.88
329.287	88.88
329.515	92.88
329.744	81.88
329.972	78.88
330.201	81.88
330.43	80.88
330.658	87.88
330.887	89.88
331.115	87.88
331.344	71.88
331.572	92.88
331.801	96.88
332.03	98.88
332.258	90.88
332.486	72.88
332.715	89.88
332.943	88.88
333.172	87.88
333.4	84.88
333.629	82.88
333.857	94.88
334.085	77.88
334.314	87.88
334.542	82.88
334.771	74.88
334.999	79.88
335.227	80.88
335.455	79.88
335.684	87.88
335.912	91.88
336.14	84.88
336.369	82.88
336.597	78.88
336.825	65.88
337.053	85.88
337.281	90.88
337.51	64.88
337.738	83.88
337.966	84.88
338.194	83.88
338.422	71.88
338.65	86.88
338.878	87.88
339.106	86.88
339.334	80.88
339.562	92.88
339.79	80.88
340.018	87.88
340.246	91.88
340.474	87.88
340.702	78.88
340.93	77.88
341.158	77.88
341.386	69.88
341.614	67.88
341.842	91.88
342.07	84.88
342.298	92.88
342.526	89.88
342.754	93.88
342.981	99.88
343.209	82.88
343.437	109.88
343.665	85.88
343.893	73.88
344.12	93.88
344.348	80.88
344.576	64.88
344.804	88.88
345.031	86.88
345.259	92.88
345.487	83.88
345.714	90.88
345.942	82.88
346.17	88.88
346.397	87.88
346.625	86.88
346.853	91.88
347.08	90.88
347.308	88.88
347.535	72.88
347.763	83.88
347.99	82.88
348.218	72.88
348.445	74.88
348.673	86.88
348.9	77.88
349.128	84.88
349.355	80.88
349.583	73.88
349.81	90.88
350.037	85.88
350.265	77.88
350.492	80.88
350.72	94.88
350.947	82.88
351.174	78.88
351.402	83.88
351.629	108.88
351.856	90.88
352.083	74.88
352.311	86.88
352.538	87.88
352.765	90.88
352.992	87.88
353.22	80.88
353.447	98.88
353.674	81.88
353.901	88.88
354.128	75.88
354.355	89.88
354.583	96.88
354.81	92.88
355.037	84.88
355.264	86.88
355.491	90.88
355.718	87.88
355.945	81.88
356.172	77.88
356.399	83.88
356.626	75.88
356.853	97.88
357.08	85.88
357.307	86.88
357.534	84.88
357.761	84.88
357.988	93.88
358.215	90.88
358.441	86.88
358.668	97.88
358.895	76.88
359.122	78.88
359.349	80.88
359.576	88.88
359.802	84.88
360.029	78.88
360.256	83.88
360.483	86.88
360.709	78.88
360.936	85.88
361.163	90.88
361.39	94.88
361.616	80.88
361.843	80.88
362.07	86.88
362.296	89.88
362.523	89.88
362.749	90.88
362.976	93.88
363.203	110.88
363.429	89.88
363.656	88.88
363.882	59.88
364.109	84.88
364.335	75.88
364.562	88.88
364.788	89.88
365.015	90.88
365.241	78.88
365.468	85.88
365.694	85.88
365.92	81.88
366.147	77.88
366.373	75.88
366.599	84.88
366.826	74.88
367.052	93.88
367.278	85.88
367.505	87.88
367.731	91.88
367.957	88.88
368.184	78.88
368.41	86.88
368.636	92.88
368.862	77.88
369.089	103.88
369.315	95.88
369.541	87.88
369.767	90.88
369.993	81.88
370.219	78.88
370.445	86.88
370.672	73.88
370.898	85.88
371.124	81.88
371.35	79.88
371.576	91.88
371.802	79.88
372.028	80.88
372.254	89.88
372.48	97.88
372.706	93.88
372.932	95.88
373.158	85.88
373.384	98.88
373.61	93.88
373.835	97.88
374.061	88.88
374.287	70.88
374.513	90.88
374.739	91.88
374.965	82.88
375.191	88.88
375.416	72.88
375.642	94.88
375.868	83.88
376.094	78.88
376.319	94.88
376.545	78.88
376.771	108.88
376.997	89.88
377.222	74.88
377.448	77.88
377.674	95.88
377.899	87.88
378.125	78.88
378.35	80.88
378.576	91.88
378.802	80.88
379.027	78.88
379.253	75.88
379.478	85.88
379.704	97.88
379.929	70.88
380.155	81.88
380.38	75.88
380.606	81.88
380.831	78.88
381.057	87.88
381.282	86.88
381.507	91.88
381.733	83.88
381.958	92.88
382.184	94.88
382.409	101.88
382.634	77.88
382.86	85.88
383.085	94.88
383.31	86.88
383.535	85.88
383.761	81.88
383.986	89.88
384.211	82.88
384.436	74.88
384.662	91.88
384.887	81.88
385.112	78.88
385.337	96.88
385.562	86.88
385.787	77.88
386.013	89.88
386.238	92.88
386.463	90.88
386.688	85.88
386.913	89.88
387.138	82.88
387.363	80.88
387.588	87.88
387.813	78.88
388.038	83.88
388.263	78.88
388.488	66.88
388.713	83.88
388.938	75.88
389.163	78.88
389.387	79.88
389.612	81.88
389.837	89.88
390.062	82.88
390.287	97.88
390.512	89.88
390.736	78.88
390.961	67.88
391.186	91.88
391.411	83.88
391.636	73.88
391.86	82.88
392.085	70.88
392.31	85.88
392.534	72.88
392.759	94.88
392.984	90.88
393.208	101.88
393.433	116.88
393.658	101.88
393.882	87.88
394.107	88.88
394.331	80.88
394.556	94.88
394.78	90.88
395.005	90.88
395.229	77.88
395.454	81.88
395.678	83.88
395.903	97.88
396.127	96.88
396.352	94.88
396.576	74.88
396.801	95.88
397.025	123.88
397.249	102.88
397.474	92.88
397.698	89.88
397.922	87.88
398.147	81.88
398.371	95.88
398.595	76.88
398.82	82.88
399.044	81.88
399.268	96.88
399.492	84.88
399.717	80.88
399.941	89.88
400.165	83.88
400.389	97.88
400.613	84.88
400.837	86.88
401.062	100.88
401.286	86.88
401.51	71.88
401.734	80.88
401.958	79.88
402.182	83.88
402.406	86.88
402.63	88.88
402.854	76.88
403.078	82.88
403.302	90.88
403.526	80.88
403.75	78.88
403.974	73.88
404.198	100.88
404.422	93.88
404.645	91.88
404.869	83.88
405.093	83.88
405.317	83.88
405.541	73.88
405.765	82.88
405.988	90.88
406.212	92.88
406.436	84.88
406.66	79.88
406.883	76.88
407.107	84.88
407.331	83.88
407.555	78.88
407.778	74.88
408.002	71.88
408.226	84.88
408.449	88.88
408.673	78.88
408.896	66.88
409.12	74.88
409.344	85.88
409.567	84.88
409.791	81.88
410.014	99.88
410.238	76.88
410.461	87.88
410.685	86.88
410.908	60.88
411.132	93.88
411.355	78.88
411.578	79.88
411.802	91.88
412.025	84.88
412.249	84.88
412.472	80.88
412.695	78.88
412.919	75.88
413.142	85.88
413.365	104.88
413.589	85.88
413.812	73.88
414.035	82.88
414.258	83.88
414.482	76.88
414.705	95.88
414.928	75.88
415.151	74.88
415.374	85.88
415.597	91.88
415.821	80.88
416.044	86.88
416.267	94.88
416.49	101.88
416.713	78.88
416.936	88.88
417.159	81.88
417.382	88.88
417.605	81.88
417.828	93.88
418.051	84.88
418.274	85.88
418.497	69.88
418.72	78.88
418.943	83.88
419.166	76.88
419.389	74.88
419.611	95.88
419.834	90.88
420.057	77.88
420.28	88.88
420.503	73.88
420.726	89.88
420.948	83.88
421.171	89.88
421.394	84.88
421.617	94.88
421.839	89.88
422.062	89.88
422.285	100.88
422.507	96.88
422.73	132.88
422.953	116.88
423.175	102.88
423.398	96.88
423.621	95.88
423.843	84.88
424.066	86.88
424.288	80.88
424.511	82.88
424.733	81.88
424.956	73.88
425.178	86.88
425.401	82.88
425.623	80.88
425.846	86.88
426.068	78.88
426.291	85.88
426.513	83.88
426.735	80.88
426.958	82.88
427.18	94.88
427.402	83.88
427.625	83.88
427.847	91.88
428.069	81.88
428.292	85.88
428.514	100.88
428.736	94.88
428.958	93.88
429.181	84.88
429.403	69.88
429.625	82.88
429.847	88.88
430.069	86.88
430.292	102.88
430.514	78.88
430.736	87.88
430.958	85.88
431.18	78.88
431.402	72.88
431.624	92.88
431.846	94.88
432.068	91.88
432.29	78.88
432.512	92.88
432.734	80.88
432.956	76.88
433.178	92.88
433.4	82.88
433.622	89.88
433.844	83.88
434.066	77.88
434.287	81.88
434.509	88.88
434.731	94.88
434.953	86.88
435.175	80.88
435.397	80.88
435.618	81.88
435.84	84.88
436.062	72.88
436.284	71.88
436.505	88.88
436.727	86.88
436.949	82.88
437.17	71.88
437.392	72.88
437.614	75.88
437.835	74.88
438.057	70.88
438.278	65.88
438.5	86.88
438.721	83.88
438.943	87.88
439.165	98.88
439.386	73.88
439.608	70.88
439.829	86.88
440.05	89.88
440.272	80.88
440.493	86.88
440.715	83.88
440.936	84.88
441.158	85.88
441.379	74.88
441.6	88.88
441.822	85.88
442.043	72.88
442.264	88.88
442.486	82.88
442.707	85.88
442.928	83.88
443.149	89.88
443.371	75.88
443.592	105.88
443.813	84.88
444.034	100.88
444.255	73.88
444.476	69.88
444.698	69.88
444.919	80.88
445.14	142.88
445.361	117.88
445.582	94.88
445.803	94.88
446.024	88.88
446.245	84.88
446.466	75.88
446.687	74.88
446.908	88.88
447.129	84.88
447.35	68.88
447.571	80.88
447.792	93.88
448.013	85.88
448.234	73.88
448.455	83.88
448.675	84.88
448.896	78.88
449.117	88.88
449.338	70.88
449.559	91.88
449.779	80.88
450	96.88
450.221	80.88
450.442	80.88
450.662	83.88
450.883	80.88
451.104	94.88
451.324	84.88
451.545	74.88
451.766	89.88
451.986	90.88
452.207	84.88
452.428	72.88
452.648	77.88
452.869	85.88
453.089	77.88
453.31	57.88
453.53	84.88
453.751	86.88
453.971	69.88
454.192	96.88
454.412	84.88
454.633	73.88
454.853	92.88
455.073	93.88
455.294	84.88
455.514	81.88
455.734	100.88
455.955	86.88
456.175	88.88
456.395	93.88
456.616	78.88
456.836	77.88
457.056	96.88
457.276	83.88
457.497	81.88
457.717	70.88
457.937	85.88
458.157	86.88
458.377	78.88
458.598	90.88
458.818	77.88
459.038	87.88
459.258	88.88
459.478	92.88
459.698	77.88
459.918	81.88
460.138	84.88
460.358	71.88
460.578	85.88
460.798	100.88
461.018	102.88
461.238	71.88
461.458	83.88
461.678	73.88
461.898	77.88
462.118	81.88
462.338	77.88
462.558	88.88
462.777	81.88
462.997	97.88
463.217	87.88
463.437	84.88
463.657	81.88
463.876	82.88
464.096	85.88
464.316	75.88
464.536	92.88
464.755	87.88
464.975	80.88
465.195	76.88
465.414	88.88
465.634	68.88
465.854	66.88
466.073	80.88
466.293	80.88
466.512	75.88
466.732	78.88
466.951	82.88
467.171	74.88
467.391	77.88
467.61	78.88
467.829	80.88
468.049	100.88
468.268	93.88
468.488	95.88
468.707	83.88
468.927	88.88
469.146	83.88
469.365	71.88
469.585	84.88
469.804	72.88
470.023	80.88
470.243	88.88
470.462	72.88
470.681	82.88
470.901	97.88
471.12	64.88
471.339	81.88
471.558	86.88
471.777	93.88
471.997	79.88
472.216	77.88
472.435	80.88
472.654	82.88
472.873	75.88
473.092	82.88
473.311	86.88
473.53	86.88
473.749	86.88
473.968	97.88
474.187	76.88
474.406	73.88
474.625	86.88
474.844	80.88
475.063	98.88
475.282	85.88
475.501	80.88
475.72	100.88
475.939	88.88
476.158	84.88
476.377	87.88
476.596	80.88
476.814	85.88
477.033	93.88
477.252	99.88
477.471	85.88
477.69	87.88
477.908	89.88
478.127	80.88
478.346	84.88
478.564	74.88
478.783	90.88
479.002	73.88
479.22	82.88
479.439	82.88
479.658	73.88
479.876	84.88
480.095	92.88
480.313	94.88
480.532	96.88
480.751	89.88
480.969	71.88
481.188	91.88
481.406	74.88
481.624	98.88
481.843	86.88
482.061	90.88
482.28	84.88
482.498	82.88
482.717	74.88
482.935	76.88
483.153	88.88
483.372	82.88
483.59	78.88
483.808	84.88
484.027	89.88
484.245	82.88
484.463	70.88
484.681	96.88
484.9	85.88
485.118	72.88
485.336	86.88
485.554	84.88
485.772	85.88
485.99	93.88
486.209	88.88
486.427	93.88
486.645	90.88
486.863	73.88
487.081	68.88
487.299	77.88
487.517	82.88
487.735	88.88
487.953	87.88
488.171	103.88
488.389	84.88
488.607	87.88
488.825	89.88
489.043	92.88
489.261	90.88
489.479	92.88
489.696	90.88
489.914	88.88
490.132	79.88
490.35	88.88
490.568	90.88
490.786	87.88
491.003	81.88
491.221	78.88
491.439	85.88
491.657	80.88
491.874	81.88
492.092	86.88
492.31	65.88
492.527	73.88
492.745	85.88
492.963	80.88
493.18	82.88
493.398	82.88
493.615	83.88
493.833	81.88
494.05	86.88
494.268	89.88
494.485	92.88
494.703	94.88
494.92	72.88
495.138	76.88
495.355	80.88
495.573	78.88
495.79	70.88
496.008	94.88
496.225	81.88
496.442	73.88
496.66	88.88
496.877	94.88
497.094	88.88
497.312	86.88
497.529	83.88
497.746	81.88
497.963	89.88
498.181	83.88
498.398	77.88
498.615	82.88
498.832	71.88
499.049	84.88
499.267	104.88
499.484	95.88
499.701	69.88
499.918	94.88
500.135	73.88
500.352	80.88
500.569	87.88
500.786	90.88
501.003	88.88
501.22	86.88
501.437	80.88
501.654	73.88
501.871	86.88
502.088	80.88
502.305	96.88
502.522	80.88
502.739	84.88
502.956	84.88
503.172	76.88
503.389	76.88
503.606	81.88
503.823	88.88
504.04	92.88
504.256	77.88
504.473	96.88
504.69	89.88
504.907	94.88
505.123	88.88
505.34	84.88
505.557	88.88
505.773	92.88
505.99	77.88
506.207	83.88
506.423	94.88
506.64	75.88
506.856	70.88
507.073	81.88
507.289	82.88
507.506	95.88
507.722	81.88
507.939	92.88
508.155	81.88
508.372	98.88
508.588	78.88
508.805	92.88
509.021	84.88
509.238	85.88
509.454	75.88
509.67	79.88
509.887	89.88
510.103	88.88
510.319	87.88
510.536	87.88
510.752	70.88
510.968	89.88
511.184	78.88
511.401	80.88
511.617	82.88
511.833	83.88
512.049	79.88
512.265	85.88
512.481	77.88
512.698	77.88
512.914	83.88
513.13	87.88
513.346	103.88
513.562	89.88
513.778	83.88
513.994	75.88
514.21	84.88
514.426	83.88
514.642	91.88
514.858	83.88
515.074	73.88
515.29	92.88
515.506	80.88
515.721	90.88
515.937	88.88
516.153	72.88
516.369	85.88
516.585	86.88
516.801	83.88
517.016	84.88
517.232	98.88
517.448	104.88
517.664	81.88
517.879	86.88
518.095	94.88
518.311	88.88
518.527	77.88
518.742	82.88
518.958	84.88
519.173	83.88
519.389	94.88
519.605	68.88
519.82	79.88
