Data from 1600_1_HRD10591_00030.txt Node
Date: Mon Jan 19 13:47:56 EST 2026
User: Yrep
Spectrometer: HR+D1059
Trigger mode: 1
Integration Time (sec): 1.000000E-1
Scans to average: 1
Electric dark correction enabled: true
Nonlinearity correction enabled: false
Boxcar width: 0
XAxis mode: Wavelengths
Number of Pixels in Spectrum: 2048
>>>>>Begin Spectral Data<<<<<
223.165	-23.94
223.4	-23.94
223.635	-23.94
223.869	-21.94
224.104	-26.94
224.338	-21.94
224.573	6.06
224.808	-12.94
225.042	-8.94
225.277	-12.94
225.511	-18.94
225.746	4.06
225.98	16.06
226.215	27.06
226.449	20.06
226.683	14.06
226.918	29.06
227.152	32.06
227.387	33.06
227.621	53.06
227.856	44.06
228.09	52.06
228.324	60.06
228.559	54.06
228.793	53.06
229.027	64.06
229.262	60.06
229.496	71.06
229.73	66.06
229.964	56.06
230.199	79.06
230.433	70.06
230.667	64.06
230.901	76.06
231.136	72.06
231.37	72.06
231.604	65.06
231.838	85.06
232.072	89.06
232.306	85.06
232.541	80.06
232.775	78.06
233.009	82.06
233.243	84.06
233.477	85.06
233.711	78.06
233.945	91.06
234.179	75.06
234.413	73.06
234.647	86.06
234.881	69.06
235.115	77.06
235.349	86.06
235.583	81.06
235.817	73.06
236.051	84.06
236.285	77.06
236.519	81.06
236.753	73.06
236.987	71.06
237.221	84.06
237.455	76.06
237.689	73.06
237.922	76.06
238.156	88.06
238.39	66.06
238.624	72.06
238.858	82.06
239.091	69.06
239.325	66.06
239.559	80.06
239.793	75.06
240.027	85.06
240.26	63.06
240.494	86.06
240.728	78.06
240.961	83.06
241.195	88.06
241.429	69.06
241.662	76.06
241.896	75.06
242.13	81.06
242.363	75.06
242.597	83.06
242.83	76.06
243.064	78.06
243.298	69.06
243.531	84.06
243.765	87.06
243.998	88.06
244.232	72.06
244.465	73.06
244.699	84.06
244.932	98.06
245.166	92.06
245.399	79.06
245.633	79.06
245.866	83.06
246.099	80.06
246.333	77.06
246.566	92.06
246.8	81.06
247.033	68.06
247.266	74.06
247.5	88.06
247.733	88.06
247.966	88.06
248.2	82.06
248.433	84.06
248.666	75.06
248.899	76.06
249.133	83.06
249.366	82.06
249.599	91.06
249.832	82.06
250.066	66.06
250.299	82.06
250.532	79.06
250.765	73.06
250.998	82.06
251.231	84.06
251.465	92.06
251.698	72.06
251.931	74.06
252.164	72.06
252.397	72.06
252.63	88.06
252.863	82.06
253.096	70.06
253.329	73.06
253.562	99.06
253.795	72.06
254.028	66.06
254.261	80.06
254.494	72.06
254.727	78.06
254.96	85.06
255.193	84.06
255.426	79.06
255.659	86.06
255.892	81.06
256.124	93.06
256.357	90.06
256.59	89.06
256.823	77.06
257.056	81.06
257.289	89.06
257.521	81.06
257.754	80.06
257.987	89.06
258.22	76.06
258.452	79.06
258.685	73.06
258.918	100.06
259.151	78.06
259.383	93.06
259.616	97.06
259.849	85.06
260.081	82.06
260.314	71.06
260.547	88.06
260.779	81.06
261.012	87.06
261.244	82.06
261.477	84.06
261.71	80.06
261.942	81.06
262.175	97.06
262.407	75.06
262.64	93.06
262.872	74.06
263.105	82.06
263.337	92.06
263.57	85.06
263.802	79.06
264.035	92.06
264.267	66.06
264.499	101.06
264.732	91.06
264.964	89.06
265.197	80.06
265.429	88.06
265.661	86.06
265.894	80.06
266.126	86.06
266.358	93.06
266.591	81.06
266.823	97.06
267.055	86.06
267.287	73.06
267.52	89.06
267.752	82.06
267.984	81.06
268.216	70.06
268.448	75.06
268.681	80.06
268.913	82.06
269.145	90.06
269.377	86.06
269.609	94.06
269.841	80.06
270.073	88.06
270.306	75.06
270.538	78.06
270.77	80.06
271.002	75.06
271.234	73.06
271.466	89.06
271.698	84.06
271.93	88.06
272.162	77.06
272.394	78.06
272.626	79.06
272.858	84.06
273.09	87.06
273.322	88.06
273.553	86.06
273.785	84.06
274.017	69.06
274.249	74.06
274.481	90.06
274.713	71.06
274.945	84.06
275.176	79.06
275.408	99.06
275.64	70.06
275.872	82.06
276.104	85.06
276.335	78.06
276.567	76.06
276.799	85.06
277.031	81.06
277.262	77.06
277.494	83.06
277.726	71.06
277.957	89.06
278.189	84.06
278.421	97.06
278.652	87.06
278.884	92.06
279.115	78.06
279.347	78.06
279.579	80.06
279.81	76.06
280.042	81.06
280.273	78.06
280.505	87.06
280.736	80.06
280.968	78.06
281.199	83.06
281.431	83.06
281.662	68.06
281.894	83.06
282.125	87.06
282.356	89.06
282.588	87.06
282.819	86.06
283.051	90.06
283.282	83.06
283.513	84.06
283.745	75.06
283.976	80.06
284.207	86.06
284.439	94.06
284.67	82.06
284.901	85.06
285.132	87.06
285.364	79.06
285.595	72.06
285.826	85.06
286.057	85.06
286.288	82.06
286.52	74.06
286.751	76.06
286.982	86.06
287.213	83.06
287.444	96.06
287.675	84.06
287.906	75.06
288.138	84.06
288.369	78.06
288.6	77.06
288.831	77.06
289.062	90.06
289.293	78.06
289.524	96.06
289.755	93.06
289.986	88.06
290.217	80.06
290.448	90.06
290.679	72.06
290.91	68.06
291.141	77.06
291.371	94.06
291.602	88.06
291.833	89.06
292.064	86.06
292.295	97.06
292.526	97.06
292.757	91.06
292.987	78.06
293.218	81.06
293.449	90.06
293.68	85.06
293.91	78.06
294.141	88.06
294.372	85.06
294.603	94.06
294.833	86.06
295.064	81.06
295.295	80.06
295.525	85.06
295.756	78.06
295.987	84.06
296.217	92.06
296.448	84.06
296.679	100.06
296.909	100.06
297.14	90.06
297.37	81.06
297.601	81.06
297.831	76.06
298.062	81.06
298.292	89.06
298.523	84.06
298.753	90.06
298.984	99.06
299.214	87.06
299.445	80.06
299.675	98.06
299.905	85.06
300.136	94.06
300.366	87.06
300.597	82.06
300.827	83.06
301.057	80.06
301.288	75.06
301.518	80.06
301.748	89.06
301.979	106.06
302.209	100.06
302.439	81.06
302.669	84.06
302.9	78.06
303.13	90.06
303.36	84.06
303.59	93.06
303.82	92.06
304.051	88.06
304.281	81.06
304.511	96.06
304.741	80.06
304.971	81.06
305.201	85.06
305.431	86.06
305.661	83.06
305.891	83.06
306.121	83.06
306.352	80.06
306.582	87.06
306.812	74.06
307.042	78.06
307.272	85.06
307.502	90.06
307.731	84.06
307.961	77.06
308.191	90.06
308.421	86.06
308.651	87.06
308.881	80.06
309.111	70.06
309.341	83.06
309.571	77.06
309.8	81.06
310.03	99.06
310.26	71.06
310.49	84.06
310.72	91.06
310.949	93.06
311.179	85.06
311.409	87.06
311.639	84.06
311.868	81.06
312.098	70.06
312.328	93.06
312.557	87.06
312.787	83.06
313.017	90.06
313.246	95.06
313.476	80.06
313.706	81.06
313.935	65.06
314.165	88.06
314.394	102.06
314.624	79.06
314.853	87.06
315.083	99.06
315.312	77.06
315.542	97.06
315.771	87.06
316.001	80.06
316.23	83.06
316.46	67.06
316.689	73.06
316.919	78.06
317.148	94.06
317.377	92.06
317.607	103.06
317.836	82.06
318.065	87.06
318.295	87.06
318.524	87.06
318.753	75.06
318.983	77.06
319.212	85.06
319.441	73.06
319.67	76.06
319.9	74.06
320.129	68.06
320.358	86.06
320.587	87.06
320.816	86.06
321.046	79.06
321.275	87.06
321.504	83.06
321.733	81.06
321.962	75.06
322.191	87.06
322.42	95.06
322.649	88.06
322.878	83.06
323.108	94.06
323.337	92.06
323.566	82.06
323.795	80.06
324.024	88.06
324.253	79.06
324.482	79.06
324.71	89.06
324.939	86.06
325.168	84.06
325.397	91.06
325.626	78.06
325.855	89.06
326.084	93.06
326.313	83.06
326.542	84.06
326.77	88.06
326.999	95.06
327.228	111.06
327.457	111.06
327.686	69.06
327.914	82.06
328.143	81.06
328.372	75.06
328.6	83.06
328.829	88.06
329.058	83.06
329.287	97.06
329.515	84.06
329.744	82.06
329.972	88.06
330.201	88.06
330.43	86.06
330.658	97.06
330.887	86.06
331.115	82.06
331.344	80.06
331.572	78.06
331.801	79.06
332.03	79.06
332.258	76.06
332.486	83.06
332.715	80.06
332.943	73.06
333.172	73.06
333.4	75.06
333.629	84.06
333.857	87.06
334.085	95.06
334.314	88.06
334.542	85.06
334.771	79.06
334.999	84.06
335.227	92.06
335.455	88.06
335.684	89.06
335.912	78.06
336.14	95.06
336.369	81.06
336.597	88.06
336.825	83.06
337.053	84.06
337.281	99.06
337.51	93.06
337.738	84.06
337.966	95.06
338.194	87.06
338.422	87.06
338.65	89.06
338.878	97.06
339.106	89.06
339.334	82.06
339.562	77.06
339.79	89.06
340.018	85.06
340.246	93.06
340.474	82.06
340.702	88.06
340.93	90.06
341.158	79.06
341.386	86.06
341.614	80.06
341.842	101.06
342.07	87.06
342.298	79.06
342.526	93.06
342.754	94.06
342.981	95.06
343.209	90.06
343.437	100.06
343.665	94.06
343.893	86.06
344.12	87.06
344.348	92.06
344.576	70.06
344.804	78.06
345.031	90.06
345.259	76.06
345.487	90.06
345.714	97.06
345.942	84.06
346.17	90.06
346.397	95.06
346.625	90.06
346.853	87.06
347.08	75.06
347.308	87.06
347.535	91.06
347.763	90.06
347.99	92.06
348.218	81.06
348.445	77.06
348.673	84.06
348.9	85.06
349.128	89.06
349.355	80.06
349.583	96.06
349.81	89.06
350.037	83.06
350.265	90.06
350.492	80.06
350.72	86.06
350.947	88.06
351.174	82.06
351.402	70.06
351.629	80.06
351.856	74.06
352.083	77.06
352.311	85.06
352.538	80.06
352.765	92.06
352.992	91.06
353.22	97.06
353.447	98.06
353.674	78.06
353.901	83.06
354.128	81.06
354.355	92.06
354.583	91.06
354.81	82.06
355.037	92.06
355.264	80.06
355.491	85.06
355.718	77.06
355.945	85.06
356.172	73.06
356.399	87.06
356.626	83.06
356.853	73.06
357.08	76.06
357.307	106.06
357.534	84.06
357.761	86.06
357.988	82.06
358.215	79.06
358.441	99.06
358.668	93.06
358.895	85.06
359.122	87.06
359.349	75.06
359.576	79.06
359.802	90.06
360.029	87.06
360.256	78.06
360.483	77.06
360.709	74.06
360.936	88.06
361.163	106.06
361.39	75.06
361.616	89.06
361.843	91.06
362.07	99.06
362.296	91.06
362.523	90.06
362.749	81.06
362.976	69.06
363.203	91.06
363.429	89.06
363.656	78.06
363.882	96.06
364.109	89.06
364.335	88.06
364.562	84.06
364.788	93.06
365.015	84.06
365.241	84.06
365.468	79.06
365.694	82.06
365.92	106.06
366.147	70.06
366.373	81.06
366.599	82.06
366.826	102.06
367.052	85.06
367.278	77.06
367.505	75.06
367.731	85.06
367.957	95.06
368.184	72.06
368.41	82.06
368.636	88.06
368.862	78.06
369.089	71.06
369.315	77.06
369.541	80.06
369.767	80.06
369.993	88.06
370.219	93.06
370.445	85.06
370.672	78.06
370.898	76.06
371.124	79.06
371.35	74.06
371.576	86.06
371.802	82.06
372.028	87.06
372.254	90.06
372.48	89.06
372.706	98.06
372.932	84.06
373.158	86.06
373.384	83.06
373.61	95.06
373.835	91.06
374.061	84.06
374.287	81.06
374.513	89.06
374.739	97.06
374.965	85.06
375.191	81.06
375.416	82.06
375.642	89.06
375.868	83.06
376.094	88.06
376.319	81.06
376.545	94.06
376.771	64.06
376.997	98.06
377.222	76.06
377.448	78.06
377.674	80.06
377.899	77.06
378.125	94.06
378.35	76.06
378.576	85.06
378.802	88.06
379.027	81.06
379.253	73.06
379.478	82.06
379.704	85.06
379.929	100.06
380.155	80.06
380.38	71.06
380.606	81.06
380.831	92.06
381.057	90.06
381.282	75.06
381.507	68.06
381.733	88.06
381.958	75.06
382.184	85.06
382.409	78.06
382.634	98.06
382.86	82.06
383.085	83.06
383.31	69.06
383.535	98.06
383.761	84.06
383.986	93.06
384.211	77.06
384.436	70.06
384.662	74.06
384.887	82.06
385.112	91.06
385.337	73.06
385.562	92.06
385.787	78.06
386.013	92.06
386.238	86.06
386.463	88.06
386.688	95.06
386.913	80.06
387.138	81.06
387.363	97.06
387.588	73.06
387.813	80.06
388.038	74.06
388.263	87.06
388.488	83.06
388.713	83.06
388.938	82.06
389.163	88.06
389.387	83.06
389.612	83.06
389.837	75.06
390.062	92.06
390.287	80.06
390.512	87.06
390.736	106.06
390.961	83.06
391.186	96.06
391.411	93.06
391.636	87.06
391.86	81.06
392.085	86.06
392.31	81.06
392.534	83.06
392.759	92.06
392.984	95.06
393.208	88.06
393.433	81.06
393.658	108.06
393.882	89.06
394.107	83.06
394.331	86.06
394.556	86.06
394.78	97.06
395.005	87.06
395.229	75.06
395.454	91.06
395.678	81.06
395.903	97.06
396.127	81.06
396.352	75.06
396.576	82.06
396.801	92.06
397.025	74.06
397.249	94.06
397.474	86.06
397.698	86.06
397.922	98.06
398.147	92.06
398.371	79.06
398.595	85.06
398.82	88.06
399.044	78.06
399.268	88.06
399.492	67.06
399.717	74.06
399.941	88.06
400.165	85.06
400.389	74.06
400.613	92.06
400.837	89.06
401.062	84.06
401.286	85.06
401.51	79.06
401.734	81.06
401.958	84.06
402.182	71.06
402.406	75.06
402.63	77.06
402.854	72.06
403.078	88.06
403.302	79.06
403.526	93.06
403.75	85.06
403.974	86.06
404.198	72.06
404.422	81.06
404.645	90.06
404.869	88.06
405.093	74.06
405.317	84.06
405.541	87.06
405.765	81.06
405.988	61.06
406.212	80.06
406.436	76.06
406.66	93.06
406.883	82.06
407.107	85.06
407.331	77.06
407.555	76.06
407.778	72.06
408.002	82.06
408.226	81.06
408.449	86.06
408.673	83.06
408.896	82.06
409.12	95.06
409.344	86.06
409.567	80.06
409.791	74.06
410.014	82.06
410.238	88.06
410.461	79.06
410.685	84.06
410.908	88.06
411.132	77.06
411.355	74.06
411.578	83.06
411.802	80.06
412.025	75.06
412.249	78.06
412.472	93.06
412.695	82.06
412.919	87.06
413.142	92.06
413.365	88.06
413.589	77.06
413.812	78.06
414.035	70.06
414.258	74.06
414.482	64.06
414.705	82.06
414.928	90.06
415.151	66.06
415.374	82.06
415.597	78.06
415.821	71.06
416.044	68.06
416.267	79.06
416.49	89.06
416.713	83.06
416.936	90.06
417.159	86.06
417.382	72.06
417.605	84.06
417.828	86.06
418.051	77.06
418.274	94.06
418.497	91.06
418.72	93.06
418.943	76.06
419.166	84.06
419.389	89.06
419.611	90.06
419.834	84.06
420.057	96.06
420.28	95.06
420.503	93.06
420.726	98.06
420.948	88.06
421.171	86.06
421.394	70.06
421.617	82.06
421.839	94.06
422.062	89.06
422.285	83.06
422.507	89.06
422.73	101.06
422.953	102.06
423.175	92.06
423.398	80.06
423.621	74.06
423.843	77.06
424.066	89.06
424.288	84.06
424.511	74.06
424.733	76.06
424.956	85.06
425.178	72.06
425.401	92.06
425.623	88.06
425.846	83.06
426.068	72.06
426.291	88.06
426.513	90.06
426.735	89.06
426.958	93.06
427.18	84.06
427.402	68.06
427.625	87.06
427.847	84.06
428.069	75.06
428.292	83.06
428.514	81.06
428.736	76.06
428.958	84.06
429.181	88.06
429.403	83.06
429.625	94.06
429.847	85.06
430.069	86.06
430.292	90.06
430.514	72.06
430.736	92.06
430.958	93.06
431.18	80.06
431.402	78.06
431.624	68.06
431.846	79.06
432.068	85.06
432.29	81.06
432.512	94.06
432.734	88.06
432.956	83.06
433.178	92.06
433.4	77.06
433.622	80.06
433.844	84.06
434.066	72.06
434.287	85.06
434.509	76.06
434.731	82.06
434.953	65.06
435.175	83.06
435.397	90.06
435.618	91.06
435.84	100.06
436.062	73.06
436.284	81.06
436.505	91.06
436.727	86.06
436.949	81.06
437.17	70.06
437.392	74.06
437.614	85.06
437.835	84.06
438.057	90.06
438.278	95.06
438.5	66.06
438.721	74.06
438.943	101.06
439.165	81.06
439.386	88.06
439.608	89.06
439.829	77.06
440.05	78.06
440.272	77.06
440.493	72.06
440.715	88.06
440.936	94.06
441.158	91.06
441.379	93.06
441.6	83.06
441.822	92.06
442.043	74.06
442.264	77.06
442.486	78.06
442.707	82.06
442.928	84.06
443.149	71.06
443.371	96.06
443.592	95.06
443.813	86.06
444.034	86.06
444.255	74.06
444.476	86.06
444.698	76.06
444.919	85.06
445.14	149.06
445.361	130.06
445.582	99.06
445.803	80.06
446.024	84.06
446.245	97.06
446.466	84.06
446.687	84.06
446.908	91.06
447.129	87.06
447.35	79.06
447.571	86.06
447.792	83.06
448.013	87.06
448.234	71.06
448.455	74.06
448.675	80.06
448.896	81.06
449.117	74.06
449.338	83.06
449.559	64.06
449.779	78.06
450	87.06
450.221	94.06
450.442	74.06
450.662	68.06
450.883	76.06
451.104	70.06
451.324	75.06
451.545	83.06
451.766	84.06
451.986	81.06
452.207	92.06
452.428	69.06
452.648	85.06
452.869	97.06
453.089	89.06
453.31	78.06
453.53	92.06
453.751	84.06
453.971	87.06
454.192	91.06
454.412	77.06
454.633	90.06
454.853	95.06
455.073	83.06
455.294	82.06
455.514	88.06
455.734	89.06
455.955	88.06
456.175	75.06
456.395	82.06
456.616	82.06
456.836	77.06
457.056	95.06
457.276	102.06
457.497	69.06
457.717	92.06
457.937	80.06
458.157	65.06
458.377	77.06
458.598	91.06
458.818	74.06
459.038	80.06
459.258	85.06
459.478	85.06
459.698	77.06
459.918	88.06
460.138	81.06
460.358	95.06
460.578	82.06
460.798	75.06
461.018	78.06
461.238	93.06
461.458	88.06
461.678	74.06
461.898	81.06
462.118	70.06
462.338	84.06
462.558	78.06
462.777	79.06
462.997	85.06
463.217	88.06
463.437	91.06
463.657	80.06
463.876	68.06
464.096	73.06
464.316	77.06
464.536	82.06
464.755	86.06
464.975	74.06
465.195	81.06
465.414	81.06
465.634	89.06
465.854	92.06
466.073	86.06
466.293	81.06
466.512	92.06
466.732	80.06
466.951	85.06
467.171	78.06
467.391	70.06
467.61	102.06
467.829	73.06
468.049	80.06
468.268	86.06
468.488	89.06
468.707	72.06
468.927	64.06
469.146	102.06
469.365	100.06
469.585	90.06
469.804	81.06
470.023	65.06
470.243	64.06
470.462	77.06
470.681	90.06
470.901	71.06
471.12	72.06
471.339	89.06
471.558	96.06
471.777	70.06
471.997	68.06
472.216	79.06
472.435	82.06
472.654	85.06
472.873	91.06
473.092	94.06
473.311	83.06
473.53	85.06
473.749	93.06
473.968	98.06
474.187	83.06
474.406	80.06
474.625	77.06
474.844	95.06
475.063	92.06
475.282	96.06
475.501	75.06
475.72	95.06
475.939	77.06
476.158	84.06
476.377	87.06
476.596	86.06
476.814	86.06
477.033	87.06
477.252	80.06
477.471	90.06
477.69	89.06
477.908	81.06
478.127	102.06
478.346	82.06
478.564	81.06
478.783	76.06
479.002	84.06
479.22	73.06
479.439	86.06
479.658	76.06
479.876	89.06
480.095	88.06
480.313	88.06
480.532	82.06
480.751	81.06
480.969	93.06
481.188	81.06
481.406	72.06
481.624	89.06
481.843	101.06
482.061	86.06
482.28	82.06
482.498	102.06
482.717	86.06
482.935	75.06
483.153	80.06
483.372	88.06
483.59	72.06
483.808	87.06
484.027	88.06
484.245	72.06
484.463	78.06
484.681	99.06
484.9	87.06
485.118	89.06
485.336	79.06
485.554	109.06
485.772	97.06
485.99	87.06
486.209	90.06
486.427	68.06
486.645	83.06
486.863	69.06
487.081	82.06
487.299	88.06
487.517	96.06
487.735	80.06
487.953	80.06
488.171	90.06
488.389	81.06
488.607	78.06
488.825	74.06
489.043	92.06
489.261	87.06
489.479	79.06
489.696	81.06
489.914	92.06
490.132	86.06
490.35	73.06
490.568	86.06
490.786	88.06
491.003	83.06
491.221	92.06
491.439	78.06
491.657	83.06
491.874	81.06
492.092	90.06
492.31	80.06
492.527	75.06
492.745	81.06
492.963	85.06
493.18	94.06
493.398	74.06
493.615	75.06
493.833	77.06
494.05	83.06
494.268	63.06
494.485	74.06
494.703	79.06
494.92	83.06
495.138	84.06
495.355	84.06
495.573	84.06
495.79	89.06
496.008	83.06
496.225	85.06
496.442	77.06
496.66	99.06
496.877	78.06
497.094	96.06
497.312	83.06
497.529	97.06
497.746	85.06
497.963	78.06
498.181	81.06
498.398	95.06
498.615	84.06
498.832	89.06
499.049	73.06
499.267	89.06
499.484	86.06
499.701	86.06
499.918	78.06
500.135	85.06
500.352	91.06
500.569	82.06
500.786	75.06
501.003	91.06
501.22	87.06
501.437	87.06
501.654	85.06
501.871	78.06
502.088	78.06
502.305	93.06
502.522	82.06
502.739	65.06
502.956	90.06
503.172	84.06
503.389	84.06
503.606	81.06
503.823	90.06
504.04	81.06
504.256	85.06
504.473	78.06
504.69	80.06
504.907	94.06
505.123	74.06
505.34	102.06
505.557	90.06
505.773	90.06
505.99	77.06
506.207	90.06
506.423	69.06
506.64	84.06
506.856	79.06
507.073	84.06
507.289	76.06
507.506	71.06
507.722	80.06
507.939	85.06
508.155	84.06
508.372	81.06
508.588	84.06
508.805	100.06
509.021	72.06
509.238	80.06
509.454	86.06
509.67	98.06
509.887	81.06
510.103	74.06
510.319	77.06
510.536	77.06
510.752	83.06
510.968	97.06
511.184	83.06
511.401	98.06
511.617	81.06
511.833	89.06
512.049	70.06
512.265	80.06
512.481	80.06
512.698	85.06
512.914	89.06
513.13	80.06
513.346	84.06
513.562	85.06
513.778	92.06
513.994	91.06
514.21	87.06
514.426	86.06
514.642	82.06
514.858	84.06
515.074	84.06
515.29	93.06
515.506	80.06
515.721	86.06
515.937	92.06
516.153	76.06
516.369	83.06
516.585	78.06
516.801	93.06
517.016	85.06
517.232	81.06
517.448	92.06
517.664	72.06
517.879	82.06
518.095	83.06
518.311	91.06
518.527	79.06
518.742	92.06
518.958	90.06
519.173	80.06
519.389	82.06
519.605	91.06
519.82	89.06
