Data from 17600_2_HRD10591_00040.txt Node
Date: Mon Jan 19 14:08:42 EST 2026
User: Yrep
Spectrometer: HR+D1059
Trigger mode: 1
Integration Time (sec): 1.000000E-1
Scans to average: 1
Electric dark correction enabled: true
Nonlinearity correction enabled: false
Boxcar width: 0
XAxis mode: Wavelengths
Number of Pixels in Spectrum: 2048
>>>>>Begin Spectral Data<<<<<
223.165	-29.44
223.4	-29.44
223.635	-29.44
223.869	-19.44
224.104	-12.44
224.338	-14.44
224.573	-12.44
224.808	-2.44
225.042	-17.44
225.277	-10.44
225.511	-4.44
225.746	3.56
225.98	16.56
226.215	0.56
226.449	7.56
226.683	30.56
226.918	24.56
227.152	39.56
227.387	34.56
227.621	46.56
227.856	42.56
228.09	50.56
228.324	52.56
228.559	67.56
228.793	66.56
229.027	76.56
229.262	61.56
229.496	86.56
229.73	62.56
229.964	86.56
230.199	83.56
230.433	91.56
230.667	83.56
230.901	75.56
231.136	90.56
231.37	85.56
231.604	90.56
231.838	79.56
232.072	97.56
232.306	88.56
232.541	85.56
232.775	95.56
233.009	95.56
233.243	86.56
233.477	89.56
233.711	68.56
233.945	95.56
234.179	62.56
234.413	82.56
234.647	67.56
234.881	90.56
235.115	89.56
235.349	76.56
235.583	91.56
235.817	84.56
236.051	73.56
236.285	76.56
236.519	85.56
236.753	69.56
236.987	81.56
237.221	87.56
237.455	81.56
237.689	87.56
237.922	82.56
238.156	75.56
238.39	80.56
238.624	89.56
238.858	84.56
239.091	74.56
239.325	72.56
239.559	77.56
239.793	91.56
240.027	80.56
240.26	73.56
240.494	81.56
240.728	82.56
240.961	75.56
241.195	69.56
241.429	83.56
241.662	78.56
241.896	68.56
242.13	85.56
242.363	88.56
242.597	85.56
242.83	91.56
243.064	85.56
243.298	66.56
243.531	78.56
243.765	72.56
243.998	68.56
244.232	74.56
244.465	83.56
244.699	88.56
244.932	83.56
245.166	83.56
245.399	84.56
245.633	87.56
245.866	85.56
246.099	85.56
246.333	77.56
246.566	80.56
246.8	103.56
247.033	80.56
247.266	87.56
247.5	90.56
247.733	75.56
247.966	70.56
248.2	76.56
248.433	86.56
248.666	82.56
248.899	86.56
249.133	82.56
249.366	68.56
249.599	87.56
249.832	88.56
250.066	100.56
250.299	74.56
250.532	96.56
250.765	89.56
250.998	69.56
251.231	86.56
251.465	77.56
251.698	81.56
251.931	89.56
252.164	72.56
252.397	74.56
252.63	83.56
252.863	93.56
253.096	99.56
253.329	97.56
253.562	85.56
253.795	82.56
254.028	73.56
254.261	77.56
254.494	95.56
254.727	81.56
254.96	86.56
255.193	100.56
255.426	83.56
255.659	82.56
255.892	79.56
256.124	69.56
256.357	94.56
256.59	88.56
256.823	83.56
257.056	86.56
257.289	89.56
257.521	85.56
257.754	84.56
257.987	99.56
258.22	83.56
258.452	75.56
258.685	85.56
258.918	91.56
259.151	78.56
259.383	97.56
259.616	83.56
259.849	84.56
260.081	92.56
260.314	80.56
260.547	88.56
260.779	86.56
261.012	82.56
261.244	61.56
261.477	87.56
261.71	87.56
261.942	106.56
262.175	88.56
262.407	75.56
262.64	92.56
262.872	89.56
263.105	80.56
263.337	82.56
263.57	77.56
263.802	73.56
264.035	98.56
264.267	80.56
264.499	96.56
264.732	91.56
264.964	81.56
265.197	96.56
265.429	75.56
265.661	78.56
265.894	88.56
266.126	83.56
266.358	74.56
266.591	83.56
266.823	101.56
267.055	99.56
267.287	81.56
267.52	87.56
267.752	86.56
267.984	80.56
268.216	89.56
268.448	86.56
268.681	83.56
268.913	81.56
269.145	82.56
269.377	83.56
269.609	86.56
269.841	93.56
270.073	85.56
270.306	87.56
270.538	80.56
270.77	76.56
271.002	89.56
271.234	83.56
271.466	93.56
271.698	80.56
271.93	80.56
272.162	91.56
272.394	82.56
272.626	104.56
272.858	91.56
273.09	95.56
273.322	87.56
273.553	99.56
273.785	89.56
274.017	89.56
274.249	79.56
274.481	82.56
274.713	93.56
274.945	85.56
275.176	87.56
275.408	88.56
275.64	95.56
275.872	78.56
276.104	94.56
276.335	84.56
276.567	83.56
276.799	90.56
277.031	79.56
277.262	89.56
277.494	79.56
277.726	81.56
277.957	95.56
278.189	96.56
278.421	91.56
278.652	94.56
278.884	90.56
279.115	87.56
279.347	88.56
279.579	101.56
279.81	92.56
280.042	83.56
280.273	105.56
280.505	86.56
280.736	82.56
280.968	77.56
281.199	94.56
281.431	86.56
281.662	98.56
281.894	97.56
282.125	75.56
282.356	83.56
282.588	90.56
282.819	74.56
283.051	79.56
283.282	84.56
283.513	95.56
283.745	97.56
283.976	93.56
284.207	95.56
284.439	86.56
284.67	70.56
284.901	91.56
285.132	90.56
285.364	92.56
285.595	93.56
285.826	79.56
286.057	81.56
286.288	95.56
286.52	87.56
286.751	87.56
286.982	77.56
287.213	83.56
287.444	84.56
287.675	91.56
287.906	71.56
288.138	93.56
288.369	100.56
288.6	91.56
288.831	84.56
289.062	93.56
289.293	104.56
289.524	85.56
289.755	94.56
289.986	80.56
290.217	78.56
290.448	93.56
290.679	97.56
290.91	95.56
291.141	98.56
291.371	85.56
291.602	90.56
291.833	76.56
292.064	87.56
292.295	101.56
292.526	79.56
292.757	89.56
292.987	88.56
293.218	100.56
293.449	93.56
293.68	81.56
293.91	87.56
294.141	88.56
294.372	86.56
294.603	77.56
294.833	85.56
295.064	93.56
295.295	87.56
295.525	84.56
295.756	86.56
295.987	85.56
296.217	83.56
296.448	100.56
296.679	91.56
296.909	91.56
297.14	91.56
297.37	93.56
297.601	97.56
297.831	77.56
298.062	78.56
298.292	85.56
298.523	85.56
298.753	87.56
298.984	84.56
299.214	73.56
299.445	83.56
299.675	86.56
299.905	91.56
300.136	85.56
300.366	96.56
300.597	94.56
300.827	91.56
301.057	102.56
301.288	80.56
301.518	91.56
301.748	84.56
301.979	105.56
302.209	104.56
302.439	87.56
302.669	79.56
302.9	83.56
303.13	88.56
303.36	100.56
303.59	80.56
303.82	84.56
304.051	83.56
304.281	73.56
304.511	94.56
304.741	82.56
304.971	97.56
305.201	78.56
305.431	93.56
305.661	96.56
305.891	93.56
306.121	88.56
306.352	78.56
306.582	76.56
306.812	91.56
307.042	97.56
307.272	79.56
307.502	85.56
307.731	103.56
307.961	87.56
308.191	94.56
308.421	97.56
308.651	81.56
308.881	92.56
309.111	102.56
309.341	88.56
309.571	93.56
309.8	92.56
310.03	89.56
310.26	85.56
310.49	90.56
310.72	84.56
310.949	98.56
311.179	89.56
311.409	85.56
311.639	82.56
311.868	99.56
312.098	106.56
312.328	89.56
312.557	78.56
312.787	104.56
313.017	92.56
313.246	85.56
313.476	91.56
313.706	84.56
313.935	94.56
314.165	91.56
314.394	85.56
314.624	80.56
314.853	84.56
315.083	85.56
315.312	80.56
315.542	117.56
315.771	99.56
316.001	115.56
316.23	98.56
316.46	90.56
316.689	95.56
316.919	92.56
317.148	93.56
317.377	91.56
317.607	94.56
317.836	104.56
318.065	103.56
318.295	109.56
318.524	107.56
318.753	102.56
318.983	84.56
319.212	103.56
319.441	85.56
319.67	84.56
319.9	92.56
320.129	80.56
320.358	74.56
320.587	83.56
320.816	69.56
321.046	83.56
321.275	91.56
321.504	80.56
321.733	97.56
321.962	95.56
322.191	101.56
322.42	77.56
322.649	91.56
322.878	86.56
323.108	89.56
323.337	94.56
323.566	100.56
323.795	87.56
324.024	76.56
324.253	85.56
324.482	89.56
324.71	94.56
324.939	86.56
325.168	92.56
325.397	91.56
325.626	90.56
325.855	72.56
326.084	83.56
326.313	81.56
326.542	101.56
326.77	94.56
326.999	87.56
327.228	92.56
327.457	103.56
327.686	83.56
327.914	86.56
328.143	92.56
328.372	86.56
328.6	85.56
328.829	70.56
329.058	85.56
329.287	90.56
329.515	86.56
329.744	85.56
329.972	83.56
330.201	70.56
330.43	96.56
330.658	81.56
330.887	84.56
331.115	93.56
331.344	78.56
331.572	97.56
331.801	75.56
332.03	89.56
332.258	82.56
332.486	102.56
332.715	89.56
332.943	90.56
333.172	100.56
333.4	81.56
333.629	97.56
333.857	90.56
334.085	97.56
334.314	95.56
334.542	100.56
334.771	98.56
334.999	85.56
335.227	94.56
335.455	96.56
335.684	94.56
335.912	85.56
336.14	108.56
336.369	101.56
336.597	82.56
336.825	91.56
337.053	87.56
337.281	88.56
337.51	93.56
337.738	88.56
337.966	90.56
338.194	91.56
338.422	89.56
338.65	88.56
338.878	83.56
339.106	84.56
339.334	79.56
339.562	81.56
339.79	72.56
340.018	100.56
340.246	85.56
340.474	95.56
340.702	81.56
340.93	84.56
341.158	87.56
341.386	89.56
341.614	104.56
341.842	99.56
342.07	78.56
342.298	79.56
342.526	93.56
342.754	87.56
342.981	110.56
343.209	91.56
343.437	110.56
343.665	82.56
343.893	93.56
344.12	105.56
344.348	78.56
344.576	87.56
344.804	103.56
345.031	86.56
345.259	68.56
345.487	92.56
345.714	87.56
345.942	91.56
346.17	91.56
346.397	97.56
346.625	85.56
346.853	76.56
347.08	85.56
347.308	71.56
347.535	99.56
347.763	86.56
347.99	95.56
348.218	89.56
348.445	82.56
348.673	78.56
348.9	85.56
349.128	87.56
349.355	88.56
349.583	106.56
349.81	79.56
350.037	94.56
350.265	71.56
350.492	89.56
350.72	81.56
350.947	77.56
351.174	81.56
351.402	95.56
351.629	86.56
351.856	106.56
352.083	99.56
352.311	91.56
352.538	88.56
352.765	93.56
352.992	103.56
353.22	99.56
353.447	84.56
353.674	105.56
353.901	77.56
354.128	78.56
354.355	87.56
354.583	81.56
354.81	100.56
355.037	83.56
355.264	87.56
355.491	67.56
355.718	77.56
355.945	87.56
356.172	93.56
356.399	86.56
356.626	87.56
356.853	83.56
357.08	82.56
357.307	100.56
357.534	85.56
357.761	105.56
357.988	98.56
358.215	91.56
358.441	72.56
358.668	89.56
358.895	93.56
359.122	95.56
359.349	91.56
359.576	83.56
359.802	83.56
360.029	94.56
360.256	86.56
360.483	94.56
360.709	86.56
360.936	89.56
361.163	92.56
361.39	79.56
361.616	95.56
361.843	91.56
362.07	102.56
362.296	93.56
362.523	85.56
362.749	105.56
362.976	96.56
363.203	103.56
363.429	101.56
363.656	87.56
363.882	94.56
364.109	97.56
364.335	99.56
364.562	113.56
364.788	85.56
365.015	78.56
365.241	89.56
365.468	89.56
365.694	90.56
365.92	91.56
366.147	95.56
366.373	87.56
366.599	87.56
366.826	84.56
367.052	87.56
367.278	83.56
367.505	88.56
367.731	91.56
367.957	82.56
368.184	89.56
368.41	87.56
368.636	87.56
368.862	90.56
369.089	79.56
369.315	98.56
369.541	96.56
369.767	99.56
369.993	87.56
370.219	102.56
370.445	82.56
370.672	93.56
370.898	98.56
371.124	78.56
371.35	80.56
371.576	91.56
371.802	97.56
372.028	88.56
372.254	101.56
372.48	101.56
372.706	92.56
372.932	92.56
373.158	82.56
373.384	92.56
373.61	120.56
373.835	119.56
374.061	96.56
374.287	97.56
374.513	94.56
374.739	106.56
374.965	106.56
375.191	80.56
375.416	98.56
375.642	95.56
375.868	99.56
376.094	90.56
376.319	83.56
376.545	98.56
376.771	85.56
376.997	77.56
377.222	76.56
377.448	91.56
377.674	90.56
377.899	89.56
378.125	77.56
378.35	87.56
378.576	93.56
378.802	80.56
379.027	101.56
379.253	95.56
379.478	97.56
379.704	89.56
379.929	86.56
380.155	97.56
380.38	94.56
380.606	88.56
380.831	87.56
381.057	80.56
381.282	83.56
381.507	95.56
381.733	88.56
381.958	86.56
382.184	97.56
382.409	98.56
382.634	102.56
382.86	101.56
383.085	90.56
383.31	102.56
383.535	83.56
383.761	98.56
383.986	83.56
384.211	95.56
384.436	100.56
384.662	101.56
384.887	90.56
385.112	99.56
385.337	80.56
385.562	102.56
385.787	103.56
386.013	90.56
386.238	99.56
386.463	91.56
386.688	113.56
386.913	102.56
387.138	93.56
387.363	93.56
387.588	84.56
387.813	102.56
388.038	99.56
388.263	103.56
388.488	95.56
388.713	89.56
388.938	79.56
389.163	73.56
389.387	87.56
389.612	76.56
389.837	85.56
390.062	87.56
390.287	102.56
390.512	89.56
390.736	89.56
390.961	90.56
391.186	104.56
391.411	92.56
391.636	97.56
391.86	77.56
392.085	96.56
392.31	106.56
392.534	98.56
392.759	127.56
392.984	193.56
393.208	345.56
393.433	565.56
393.658	394.56
393.882	162.56
394.107	113.56
394.331	114.56
394.556	114.56
394.78	114.56
395.005	102.56
395.229	106.56
395.454	100.56
395.678	86.56
395.903	119.56
396.127	142.56
396.352	157.56
396.576	234.56
396.801	367.56
397.025	417.56
397.249	201.56
397.474	123.56
397.698	113.56
397.922	87.56
398.147	96.56
398.371	99.56
398.595	75.56
398.82	87.56
399.044	93.56
399.268	86.56
399.492	86.56
399.717	88.56
399.941	97.56
400.165	106.56
400.389	83.56
400.613	102.56
400.837	84.56
401.062	88.56
401.286	77.56
401.51	90.56
401.734	91.56
401.958	80.56
402.182	73.56
402.406	84.56
402.63	86.56
402.854	87.56
403.078	99.56
403.302	87.56
403.526	79.56
403.75	89.56
403.974	102.56
404.198	95.56
404.422	75.56
404.645	91.56
404.869	93.56
405.093	89.56
405.317	88.56
405.541	86.56
405.765	86.56
405.988	85.56
406.212	83.56
406.436	97.56
406.66	98.56
406.883	94.56
407.107	93.56
407.331	104.56
407.555	113.56
407.778	137.56
408.002	138.56
408.226	113.56
408.449	100.56
408.673	90.56
408.896	95.56
409.12	83.56
409.344	98.56
409.567	107.56
409.791	100.56
410.014	100.56
410.238	91.56
410.461	81.56
410.685	94.56
410.908	90.56
411.132	95.56
411.355	85.56
411.578	94.56
411.802	86.56
412.025	77.56
412.249	85.56
412.472	79.56
412.695	85.56
412.919	107.56
413.142	95.56
413.365	93.56
413.589	91.56
413.812	89.56
414.035	82.56
414.258	70.56
414.482	86.56
414.705	80.56
414.928	88.56
415.151	77.56
415.374	92.56
415.597	81.56
415.821	80.56
416.044	86.56
416.267	111.56
416.49	89.56
416.713	84.56
416.936	94.56
417.159	76.56
417.382	89.56
417.605	93.56
417.828	83.56
418.051	84.56
418.274	91.56
418.497	85.56
418.72	77.56
418.943	85.56
419.166	98.56
419.389	70.56
419.611	78.56
419.834	85.56
420.057	92.56
420.28	92.56
420.503	94.56
420.726	84.56
420.948	92.56
421.171	100.56
421.394	106.56
421.617	149.56
421.839	139.56
422.062	115.56
422.285	151.56
422.507	249.56
422.73	406.56
422.953	365.56
423.175	155.56
423.398	124.56
423.621	98.56
423.843	101.56
424.066	101.56
424.288	95.56
424.511	74.56
424.733	90.56
424.956	84.56
425.178	105.56
425.401	80.56
425.623	91.56
425.846	84.56
426.068	104.56
426.291	93.56
426.513	77.56
426.735	98.56
426.958	88.56
427.18	95.56
427.402	102.56
427.625	85.56
427.847	75.56
428.069	99.56
428.292	104.56
428.514	137.56
428.736	113.56
428.958	110.56
429.181	131.56
429.403	111.56
429.625	99.56
429.847	114.56
430.069	144.56
430.292	180.56
430.514	170.56
430.736	126.56
430.958	139.56
431.18	106.56
431.402	85.56
431.624	98.56
431.846	117.56
432.068	133.56
432.29	93.56
432.512	94.56
432.734	83.56
432.956	90.56
433.178	101.56
433.4	86.56
433.622	93.56
433.844	100.56
434.066	79.56
434.287	93.56
434.509	77.56
434.731	90.56
434.953	80.56
435.175	93.56
435.397	94.56
435.618	105.56
435.84	94.56
436.062	76.56
436.284	99.56
436.505	79.56
436.727	93.56
436.949	78.56
437.17	81.56
437.392	84.56
437.614	83.56
437.835	95.56
438.057	88.56
438.278	85.56
438.5	96.56
438.721	86.56
438.943	86.56
439.165	85.56
439.386	85.56
439.608	97.56
439.829	83.56
440.05	94.56
440.272	98.56
440.493	85.56
440.715	98.56
440.936	89.56
441.158	90.56
441.379	84.56
441.6	82.56
441.822	99.56
442.043	102.56
442.264	95.56
442.486	131.56
442.707	153.56
442.928	118.56
443.149	102.56
443.371	127.56
443.592	223.56
443.813	177.56
444.034	106.56
444.255	105.56
444.476	100.56
444.698	84.56
444.919	98.56
445.14	176.56
445.361	182.56
445.582	258.56
445.803	217.56
446.024	118.56
446.245	89.56
446.466	78.56
446.687	92.56
446.908	83.56
447.129	92.56
447.35	77.56
447.571	87.56
447.792	89.56
448.013	87.56
448.234	92.56
448.455	92.56
448.675	101.56
448.896	71.56
449.117	87.56
449.338	104.56
449.559	78.56
449.779	84.56
450	95.56
450.221	92.56
450.442	62.56
450.662	92.56
450.883	73.56
451.104	91.56
451.324	92.56
451.545	101.56
451.766	76.56
451.986	91.56
452.207	96.56
452.428	93.56
452.648	90.56
452.869	101.56
453.089	89.56
453.31	76.56
453.53	101.56
453.751	80.56
453.971	89.56
454.192	79.56
454.412	65.56
454.633	71.56
454.853	90.56
455.073	85.56
455.294	80.56
455.514	92.56
455.734	92.56
455.955	83.56
456.175	69.56
456.395	98.56
456.616	78.56
456.836	79.56
457.056	88.56
457.276	81.56
457.497	91.56
457.717	82.56
457.937	101.56
458.157	106.56
458.377	117.56
458.598	119.56
458.818	103.56
459.038	93.56
459.258	83.56
459.478	82.56
459.698	81.56
459.918	92.56
460.138	92.56
460.358	92.56
460.578	102.56
460.798	124.56
461.018	123.56
461.238	104.56
461.458	88.56
461.678	97.56
461.898	94.56
462.118	83.56
462.338	88.56
462.558	87.56
462.777	81.56
462.997	83.56
463.217	87.56
463.437	91.56
463.657	73.56
463.876	78.56
464.096	90.56
464.316	91.56
464.536	101.56
464.755	70.56
464.975	90.56
465.195	86.56
465.414	94.56
465.634	88.56
465.854	95.56
466.073	90.56
466.293	83.56
466.512	95.56
466.732	86.56
466.951	88.56
467.171	108.56
467.391	96.56
467.61	85.56
467.829	96.56
468.049	91.56
468.268	91.56
468.488	91.56
468.707	83.56
468.927	86.56
469.146	79.56
469.365	82.56
469.585	78.56
469.804	99.56
470.023	93.56
470.243	86.56
470.462	82.56
470.681	71.56
470.901	83.56
471.12	85.56
471.339	74.56
471.558	76.56
471.777	93.56
471.997	93.56
472.216	95.56
472.435	78.56
472.654	93.56
472.873	83.56
473.092	67.56
473.311	85.56
473.53	92.56
473.749	102.56
473.968	95.56
474.187	92.56
474.406	93.56
474.625	91.56
474.844	77.56
475.063	87.56
475.282	87.56
475.501	99.56
475.72	100.56
475.939	89.56
476.158	83.56
476.377	81.56
476.596	98.56
476.814	92.56
477.033	85.56
477.252	78.56
477.471	86.56
477.69	86.56
477.908	87.56
478.127	87.56
478.346	94.56
478.564	89.56
478.783	89.56
479.002	86.56
479.22	87.56
479.439	92.56
479.658	82.56
479.876	77.56
480.095	81.56
480.313	96.56
480.532	77.56
480.751	100.56
480.969	81.56
481.188	89.56
481.406	94.56
481.624	93.56
481.843	85.56
482.061	85.56
482.28	88.56
482.498	92.56
482.717	93.56
482.935	88.56
483.153	90.56
483.372	93.56
483.59	87.56
483.808	77.56
484.027	90.56
484.245	79.56
484.463	78.56
484.681	94.56
484.9	89.56
485.118	88.56
485.336	97.56
485.554	92.56
485.772	94.56
485.99	99.56
486.209	83.56
486.427	85.56
486.645	90.56
486.863	98.56
487.081	89.56
487.299	73.56
487.517	94.56
487.735	115.56
487.953	153.56
488.171	113.56
488.389	67.56
488.607	74.56
488.825	88.56
489.043	88.56
489.261	93.56
489.479	94.56
489.696	103.56
489.914	83.56
490.132	95.56
490.35	93.56
490.568	95.56
490.786	80.56
491.003	101.56
491.221	89.56
491.439	87.56
491.657	101.56
491.874	93.56
492.092	99.56
492.31	100.56
492.527	85.56
492.745	90.56
492.963	86.56
493.18	94.56
493.398	90.56
493.615	89.56
493.833	99.56
494.05	92.56
494.268	88.56
494.485	90.56
494.703	86.56
494.92	78.56
495.138	110.56
495.355	89.56
495.573	96.56
495.79	92.56
496.008	90.56
496.225	99.56
496.442	91.56
496.66	93.56
496.877	76.56
497.094	94.56
497.312	92.56
497.529	82.56
497.746	86.56
497.963	85.56
498.181	106.56
498.398	95.56
498.615	88.56
498.832	83.56
499.049	93.56
499.267	97.56
499.484	89.56
499.701	90.56
499.918	84.56
500.135	94.56
500.352	102.56
500.569	82.56
500.786	94.56
501.003	89.56
501.22	85.56
501.437	93.56
501.654	96.56
501.871	83.56
502.088	74.56
502.305	89.56
502.522	89.56
502.739	87.56
502.956	78.56
503.172	103.56
503.389	73.56
503.606	97.56
503.823	81.56
504.04	106.56
504.256	125.56
504.473	114.56
504.69	85.56
504.907	84.56
505.123	85.56
505.34	83.56
505.557	97.56
505.773	101.56
505.99	88.56
506.207	83.56
506.423	107.56
506.64	89.56
506.856	90.56
507.073	87.56
507.289	99.56
507.506	86.56
507.722	83.56
507.939	85.56
508.155	95.56
508.372	93.56
508.588	86.56
508.805	98.56
509.021	93.56
509.238	86.56
509.454	86.56
509.67	81.56
509.887	101.56
510.103	95.56
510.319	80.56
510.536	90.56
510.752	90.56
510.968	100.56
511.184	85.56
511.401	93.56
511.617	93.56
511.833	101.56
512.049	66.56
512.265	81.56
512.481	79.56
512.698	89.56
512.914	79.56
513.13	86.56
513.346	83.56
513.562	90.56
513.778	90.56
513.994	94.56
514.21	74.56
514.426	88.56
514.642	85.56
514.858	90.56
515.074	95.56
515.29	93.56
515.506	100.56
515.721	86.56
515.937	77.56
516.153	90.56
516.369	95.56
516.585	101.56
516.801	88.56
517.016	81.56
517.232	78.56
517.448	97.56
