Data from 17600_2_HRD10591_00001.txt Node
Date: Mon Jan 19 14:08:23 EST 2026
User: Yrep
Spectrometer: HR+D1059
Trigger mode: 1
Integration Time (sec): 1.000000E-1
Scans to average: 1
Electric dark correction enabled: true
Nonlinearity correction enabled: false
Boxcar width: 0
XAxis mode: Wavelengths
Number of Pixels in Spectrum: 2048
>>>>>Begin Spectral Data<<<<<
223.165	-12
223.4	-12
223.635	-12
223.869	-18
224.104	-22
224.338	-25
224.573	-2
224.808	-8
225.042	-8
225.277	-6
225.511	-4
225.746	7
225.98	7
226.215	12
226.449	12
226.683	10
226.918	27
227.152	30
227.387	39
227.621	38
227.856	48
228.09	62
228.324	52
228.559	64
228.793	54
229.027	62
229.262	58
229.496	56
229.73	82
229.964	58
230.199	79
230.433	81
230.667	82
230.901	63
231.136	70
231.37	77
231.604	81
231.838	71
232.072	82
232.306	88
232.541	66
232.775	96
233.009	83
233.243	95
233.477	84
233.711	66
233.945	72
234.179	90
234.413	83
234.647	79
234.881	89
235.115	80
235.349	73
235.583	71
235.817	79
236.051	80
236.285	72
236.519	74
236.753	71
236.987	84
237.221	83
237.455	87
237.689	76
237.922	80
238.156	93
238.39	76
238.624	93
238.858	76
239.091	69
239.325	60
239.559	70
239.793	74
240.027	81
240.26	70
240.494	94
240.728	71
240.961	84
241.195	80
241.429	89
241.662	86
241.896	82
242.13	73
242.363	81
242.597	84
242.83	81
243.064	84
243.298	72
243.531	85
243.765	80
243.998	83
244.232	68
244.465	82
244.699	78
244.932	82
245.166	94
245.399	66
245.633	73
245.866	96
246.099	72
246.333	88
246.566	81
246.8	75
247.033	73
247.266	69
247.5	82
247.733	84
247.966	81
248.2	85
248.433	71
248.666	77
248.899	90
249.133	68
249.366	71
249.599	83
249.832	73
250.066	75
250.299	70
250.532	88
250.765	89
250.998	71
251.231	82
251.465	64
251.698	86
251.931	80
252.164	78
252.397	67
252.63	77
252.863	78
253.096	93
253.329	78
253.562	83
253.795	74
254.028	90
254.261	74
254.494	83
254.727	86
254.96	78
255.193	80
255.426	75
255.659	71
255.892	95
256.124	58
256.357	85
256.59	84
256.823	78
257.056	82
257.289	75
257.521	82
257.754	75
257.987	96
258.22	98
258.452	86
258.685	86
258.918	86
259.151	90
259.383	84
259.616	91
259.849	79
260.081	84
260.314	68
260.547	86
260.779	80
261.012	65
261.244	74
261.477	77
261.71	88
261.942	74
262.175	68
262.407	73
262.64	68
262.872	80
263.105	87
263.337	86
263.57	75
263.802	76
264.035	75
264.267	71
264.499	84
264.732	82
264.964	81
265.197	84
265.429	82
265.661	86
265.894	66
266.126	75
266.358	86
266.591	66
266.823	82
267.055	68
267.287	89
267.52	78
267.752	82
267.984	75
268.216	85
268.448	78
268.681	72
268.913	79
269.145	76
269.377	75
269.609	93
269.841	90
270.073	81
270.306	94
270.538	76
270.77	95
271.002	83
271.234	83
271.466	80
271.698	89
271.93	86
272.162	82
272.394	97
272.626	82
272.858	78
273.09	85
273.322	78
273.553	72
273.785	81
274.017	84
274.249	87
274.481	86
274.713	82
274.945	84
275.176	82
275.408	74
275.64	90
275.872	87
276.104	98
276.335	91
276.567	84
276.799	79
277.031	63
277.262	83
277.494	83
277.726	92
277.957	74
278.189	80
278.421	77
278.652	98
278.884	76
279.115	86
279.347	92
279.579	76
279.81	79
280.042	83
280.273	97
280.505	76
280.736	87
280.968	83
281.199	83
281.431	93
281.662	96
281.894	95
282.125	91
282.356	76
282.588	72
282.819	77
283.051	86
283.282	84
283.513	80
283.745	79
283.976	78
284.207	67
284.439	100
284.67	88
284.901	90
285.132	80
285.364	79
285.595	97
285.826	95
286.057	77
286.288	92
286.52	70
286.751	81
286.982	84
287.213	88
287.444	70
287.675	90
287.906	67
288.138	86
288.369	83
288.6	89
288.831	82
289.062	85
289.293	96
289.524	90
289.755	84
289.986	86
290.217	72
290.448	80
290.679	74
290.91	91
291.141	68
291.371	84
291.602	73
291.833	87
292.064	89
292.295	80
292.526	102
292.757	89
292.987	86
293.218	91
293.449	89
293.68	84
293.91	82
294.141	92
294.372	94
294.603	76
294.833	88
295.064	98
295.295	77
295.525	72
295.756	88
295.987	83
296.217	79
296.448	84
296.679	88
296.909	86
297.14	100
297.37	96
297.601	90
297.831	96
298.062	74
298.292	76
298.523	89
298.753	77
298.984	85
299.214	103
299.445	79
299.675	85
299.905	103
300.136	88
300.366	83
300.597	83
300.827	99
301.057	92
301.288	90
301.518	84
301.748	90
301.979	109
302.209	107
302.439	92
302.669	86
302.9	91
303.13	82
303.36	84
303.59	96
303.82	92
304.051	71
304.281	90
304.511	78
304.741	91
304.971	95
305.201	88
305.431	82
305.661	91
305.891	89
306.121	93
306.352	81
306.582	93
306.812	91
307.042	89
307.272	89
307.502	83
307.731	81
307.961	88
308.191	84
308.421	95
308.651	87
308.881	85
309.111	91
309.341	88
309.571	105
309.8	99
310.03	79
310.26	94
310.49	91
310.72	72
310.949	78
311.179	82
311.409	92
311.639	65
311.868	78
312.098	89
312.328	99
312.557	85
312.787	96
313.017	93
313.246	78
313.476	88
313.706	94
313.935	83
314.165	91
314.394	92
314.624	64
314.853	76
315.083	96
315.312	80
315.542	91
315.771	102
316.001	84
316.23	92
316.46	92
316.689	78
316.919	95
317.148	88
317.377	87
317.607	84
317.836	84
318.065	86
318.295	79
318.524	74
318.753	85
318.983	76
319.212	78
319.441	62
319.67	86
319.9	94
320.129	99
320.358	82
320.587	97
320.816	91
321.046	87
321.275	95
321.504	86
321.733	86
321.962	95
322.191	91
322.42	83
322.649	100
322.878	81
323.108	85
323.337	94
323.566	77
323.795	84
324.024	98
324.253	93
324.482	76
324.71	89
324.939	86
325.168	92
325.397	86
325.626	94
325.855	90
326.084	95
326.313	84
326.542	104
326.77	90
326.999	85
327.228	85
327.457	95
327.686	90
327.914	105
328.143	73
328.372	76
328.6	87
328.829	88
329.058	91
329.287	94
329.515	96
329.744	95
329.972	93
330.201	88
330.43	90
330.658	86
330.887	92
331.115	76
331.344	79
331.572	87
331.801	94
332.03	90
332.258	104
332.486	77
332.715	82
332.943	86
333.172	74
333.4	94
333.629	87
333.857	91
334.085	92
334.314	84
334.542	79
334.771	100
334.999	93
335.227	96
335.455	86
335.684	90
335.912	93
336.14	94
336.369	100
336.597	95
336.825	86
337.053	87
337.281	88
337.51	81
337.738	90
337.966	86
338.194	99
338.422	91
338.65	90
338.878	88
339.106	86
339.334	78
339.562	87
339.79	89
340.018	78
340.246	90
340.474	70
340.702	105
340.93	100
341.158	83
341.386	74
341.614	91
341.842	78
342.07	85
342.298	74
342.526	69
342.754	93
342.981	77
343.209	80
343.437	100
343.665	89
343.893	88
344.12	98
344.348	92
344.576	80
344.804	97
345.031	83
345.259	92
345.487	84
345.714	82
345.942	72
346.17	90
346.397	92
346.625	85
346.853	92
347.08	67
347.308	96
347.535	96
347.763	83
347.99	89
348.218	83
348.445	82
348.673	84
348.9	86
349.128	89
349.355	91
349.583	86
349.81	83
350.037	80
350.265	91
350.492	80
350.72	90
350.947	87
351.174	86
351.402	94
351.629	87
351.856	91
352.083	91
352.311	94
352.538	82
352.765	88
352.992	76
353.22	80
353.447	90
353.674	83
353.901	76
354.128	85
354.355	80
354.583	78
354.81	67
355.037	103
355.264	78
355.491	80
355.718	75
355.945	94
356.172	90
356.399	80
356.626	91
356.853	90
357.08	101
357.307	102
357.534	103
357.761	102
357.988	95
358.215	97
358.441	83
358.668	84
358.895	82
359.122	80
359.349	94
359.576	93
359.802	81
360.029	86
360.256	76
360.483	81
360.709	97
360.936	100
361.163	108
361.39	88
361.616	84
361.843	98
362.07	98
362.296	102
362.523	100
362.749	112
362.976	123
363.203	139
363.429	99
363.656	110
363.882	93
364.109	107
364.335	135
364.562	156
364.788	106
365.015	94
365.241	73
365.468	89
365.694	85
365.92	102
366.147	81
366.373	90
366.599	79
366.826	91
367.052	96
367.278	89
367.505	77
367.731	97
367.957	89
368.184	88
368.41	86
368.636	92
368.862	93
369.089	88
369.315	97
369.541	94
369.767	80
369.993	83
370.219	86
370.445	85
370.672	97
370.898	79
371.124	102
371.35	79
371.576	96
371.802	77
372.028	96
372.254	95
372.48	84
372.706	94
372.932	96
373.158	96
373.384	97
373.61	106
373.835	103
374.061	103
374.287	97
374.513	102
374.739	86
374.965	91
375.191	86
375.416	102
375.642	98
375.868	98
376.094	96
376.319	78
376.545	94
376.771	96
376.997	91
377.222	93
377.448	92
377.674	91
377.899	102
378.125	95
378.35	71
378.576	88
378.802	93
379.027	97
379.253	87
379.478	95
379.704	99
379.929	101
380.155	94
380.38	93
380.606	98
380.831	75
381.057	104
381.282	74
381.507	80
381.733	83
381.958	96
382.184	97
382.409	80
382.634	100
382.86	98
383.085	94
383.31	99
383.535	103
383.761	87
383.986	113
384.211	108
384.436	100
384.662	87
384.887	110
385.112	88
385.337	105
385.562	101
385.787	82
386.013	103
386.238	90
386.463	107
386.688	123
386.913	86
387.138	104
387.363	86
387.588	113
387.813	97
388.038	97
388.263	106
388.488	89
388.713	101
388.938	94
389.163	92
389.387	99
389.612	108
389.837	93
390.062	97
390.287	99
390.512	94
390.736	92
390.961	90
391.186	87
391.411	88
391.636	87
391.86	87
392.085	113
392.31	104
392.534	110
392.759	131
392.984	160
393.208	249
393.433	318
393.658	246
393.882	158
394.107	122
394.331	122
394.556	129
394.78	120
395.005	106
395.229	93
395.454	99
395.678	116
395.903	136
396.127	150
396.352	156
396.576	178
396.801	243
397.025	288
397.249	176
397.474	134
397.698	112
397.922	91
398.147	95
398.371	82
398.595	89
398.82	86
399.044	91
399.268	86
399.492	83
399.717	96
399.941	91
400.165	84
400.389	90
400.613	99
400.837	79
401.062	86
401.286	80
401.51	90
401.734	97
401.958	80
402.182	101
402.406	86
402.63	92
402.854	89
403.078	91
403.302	88
403.526	94
403.75	78
403.974	90
404.198	103
404.422	106
404.645	106
404.869	103
405.093	96
405.317	81
405.541	77
405.765	91
405.988	96
406.212	100
406.436	90
406.66	88
406.883	73
407.107	112
407.331	99
407.555	122
407.778	128
408.002	126
408.226	107
408.449	74
408.673	89
408.896	94
409.12	102
409.344	89
409.567	108
409.791	104
410.014	106
410.238	99
410.461	83
410.685	94
410.908	82
411.132	101
411.355	98
411.578	94
411.802	87
412.025	94
412.249	85
412.472	76
412.695	85
412.919	96
413.142	95
413.365	88
413.589	102
413.812	77
414.035	105
414.258	79
414.482	95
414.705	86
414.928	100
415.151	87
415.374	88
415.597	95
415.821	78
416.044	87
416.267	100
416.49	90
416.713	96
416.936	76
417.159	87
417.382	85
417.605	91
417.828	80
418.051	72
418.274	84
418.497	94
418.72	84
418.943	96
419.166	88
419.389	97
419.611	93
419.834	94
420.057	85
420.28	93
420.503	93
420.726	91
420.948	112
421.171	109
421.394	107
421.617	135
421.839	136
422.062	129
422.285	168
422.507	270
422.73	330
422.953	320
423.175	217
423.398	146
423.621	134
423.843	91
424.066	110
424.288	107
424.511	92
424.733	92
424.956	90
425.178	104
425.401	113
425.623	86
425.846	97
426.068	86
426.291	98
426.513	87
426.735	99
426.958	85
427.18	99
427.402	100
427.625	94
427.847	100
428.069	113
428.292	153
428.514	139
428.736	105
428.958	134
429.181	128
429.403	99
429.625	112
429.847	141
430.069	159
430.292	182
430.514	177
430.736	154
430.958	136
431.18	108
431.402	106
431.624	108
431.846	119
432.068	143
432.29	116
432.512	93
432.734	79
432.956	87
433.178	89
433.4	88
433.622	91
433.844	82
434.066	94
434.287	86
434.509	87
434.731	82
434.953	78
435.175	79
435.397	93
435.618	97
435.84	108
436.062	93
436.284	103
436.505	90
436.727	80
436.949	83
437.17	88
437.392	94
437.614	100
437.835	88
438.057	82
438.278	84
438.5	94
438.721	98
438.943	95
439.165	87
439.386	97
439.608	89
439.829	90
440.05	96
440.272	91
440.493	88
440.715	91
440.936	86
441.158	81
441.379	85
441.6	100
441.822	97
442.043	103
442.264	98
442.486	142
442.707	191
442.928	123
443.149	126
443.371	159
443.592	272
443.813	229
444.034	130
444.255	92
444.476	94
444.698	82
444.919	104
445.14	194
445.361	208
445.582	315
445.803	273
446.024	137
446.245	106
446.466	83
446.687	100
446.908	89
447.129	99
447.35	93
447.571	90
447.792	98
448.013	88
448.234	97
448.455	98
448.675	83
448.896	94
449.117	76
449.338	76
449.559	87
449.779	75
450	86
450.221	88
450.442	76
450.662	82
450.883	83
451.104	86
451.324	86
451.545	88
451.766	97
451.986	83
452.207	82
452.428	104
452.648	112
452.869	122
453.089	111
453.31	76
453.53	92
453.751	95
453.971	94
454.192	77
454.412	95
454.633	85
454.853	89
455.073	81
455.294	84
455.514	98
455.734	100
455.955	87
456.175	90
456.395	85
456.616	83
456.836	81
457.056	81
457.276	92
457.497	98
457.717	105
457.937	127
458.157	146
458.377	133
458.598	126
458.818	138
459.038	114
459.258	89
459.478	87
459.698	93
459.918	91
460.138	74
460.358	91
460.578	101
460.798	138
461.018	129
461.238	98
461.458	98
461.678	104
461.898	95
462.118	106
462.338	90
462.558	91
462.777	85
462.997	84
463.217	90
463.437	95
463.657	84
463.876	75
464.096	88
464.316	80
464.536	81
464.755	96
464.975	76
465.195	81
465.414	88
465.634	78
465.854	79
466.073	100
466.293	86
466.512	91
466.732	90
466.951	89
467.171	94
467.391	78
467.61	95
467.829	87
468.049	69
468.268	89
468.488	103
468.707	91
468.927	88
469.146	88
469.365	87
469.585	91
469.804	83
470.023	81
470.243	96
470.462	88
470.681	82
470.901	86
471.12	70
471.339	85
471.558	86
471.777	90
471.997	90
472.216	90
472.435	100
472.654	94
472.873	99
473.092	90
473.311	76
473.53	86
473.749	103
473.968	80
474.187	102
474.406	92
474.625	103
474.844	95
475.063	98
475.282	94
475.501	92
475.72	85
475.939	96
476.158	97
476.377	97
476.596	92
476.814	90
477.033	84
477.252	91
477.471	93
477.69	91
477.908	87
478.127	83
478.346	82
478.564	91
478.783	88
479.002	83
479.22	88
479.439	100
479.658	87
479.876	97
480.095	79
480.313	103
480.532	87
480.751	95
480.969	93
481.188	99
481.406	106
481.624	95
481.843	103
482.061	90
482.28	89
482.498	95
482.717	94
482.935	101
483.153	100
483.372	98
483.59	110
483.808	94
484.027	98
484.245	100
484.463	106
484.681	106
484.9	91
485.118	99
485.336	115
485.554	90
485.772	90
485.99	97
486.209	96
486.427	92
486.645	92
486.863	98
487.081	110
487.299	116
487.517	121
487.735	135
487.953	194
488.171	175
488.389	130
488.607	100
488.825	72
489.043	82
489.261	88
489.479	103
489.696	88
489.914	82
490.132	101
490.35	100
490.568	116
490.786	94
491.003	100
491.221	94
491.439	99
491.657	99
491.874	92
492.092	93
492.31	95
492.527	100
492.745	90
492.963	86
493.18	86
493.398	109
493.615	95
493.833	98
494.05	77
494.268	91
494.485	96
494.703	71
494.92	77
495.138	85
495.355	102
495.573	87
495.79	97
496.008	103
496.225	96
496.442	104
496.66	90
496.877	76
497.094	86
497.312	90
497.529	91
497.746	107
497.963	94
498.181	108
498.398	103
498.615	102
498.832	89
499.049	93
499.267	101
499.484	105
499.701	88
499.918	106
500.135	103
500.352	80
500.569	82
500.786	99
501.003	86
501.22	93
501.437	103
501.654	98
501.871	97
502.088	88
502.305	88
502.522	98
502.739	100
502.956	93
503.172	94
503.389	95
503.606	101
503.823	116
504.04	104
504.256	151
504.473	160
504.69	107
504.907	93
505.123	92
505.34	106
505.557	98
505.773	94
505.99	103
506.207	82
506.423	98
506.64	103
506.856	86
507.073	72
507.289	95
507.506	84
507.722	86
507.939	86
508.155	85
508.372	85
508.588	96
508.805	90
509.021	91
509.238	98
509.454	97
509.67	96
509.887	91
510.103	101
510.319	105
510.536	97
510.752	103
510.968	102
511.184	105
511.401	92
511.617	111
511.833	89
512.049	98
512.265	85
512.481	99
512.698	95
512.914	99
513.13	111
513.346	102
513.562	97
513.778	100
513.994	91
514.21	89
514.426	97
514.642	93
514.858	95
515.074	85
515.29	98
515.506	107
515.721	111
515.937	96
516.153	106
516.369	90
516.585	102
516.801	104
517.016	99
517.232	110
517.448	109
517.664	99
517.879	82
518.095	94
518.311	93
518.527	115
518.742	130
518.958	200
519.173	190
519.389	108
519.605	105
519.82	105
520.036	84
520.251	86
520.467	86
520.682	103
520.898	95
521.113	84
521.329	103
521.544	73
521.76	95
521.975	95
522.19	100
522.406	89
522.621	105
522.836	81
523.052	102
523.267	108
523.482	89
523.698	90
523.913	107
524.128	101
524.343	90
524.559	93
524.774	87
524.989	94
525.204	109
525.419	98
525.634	94
525.849	130
526.064	138
526.28	258
526.495	372
526.71	412
526.925	243
527.14	322
527.355	284
527.57	125
527.785	100
527.999	90
528.214	109
528.429	104
528.644	98
528.859	100
529.074	103
529.289	92
529.503	88
529.718	97
529.933	94
530.148	102
530.363	99
530.577	103
530.792	102
531.007	94
531.221	114
531.436	106
531.651	110
531.865	98
532.08	102
532.295	102
532.509	118
532.724	111
532.938	96
533.153	117
533.367	97
533.582	121
533.796	110
534.011	111
534.225	110
534.44	121
534.654	115
534.868	123
535.083	190
535.297	168
535.511	126
535.726	126
535.94	113
536.154	130
536.369	97
536.583	100
536.797	107
537.011	121
537.225	112
537.44	107
537.654	127
537.868	105
538.082	103
538.296	106
538.51	113
538.724	114
538.938	112
539.153	107
539.367	125
539.581	105
539.795	118
540.009	122
540.222	100
540.436	117
540.65	118
540.864	118
541.078	121
541.292	129
541.506	110
541.72	110
541.934	112
542.147	106
542.361	122
542.575	118
542.789	126
543.002	111
543.216	122
543.43	112
543.644	107
543.857	110
544.071	105
544.285	119
544.498	121
544.712	115
544.925	111
545.139	130
545.352	121
545.566	125
545.779	115
545.993	118
546.206	129
546.42	129
546.633	123
546.847	152
547.06	154
547.274	167
547.487	191
547.7	224
547.914	203
548.127	234
548.34	232
548.554	228
548.767	244
548.98	255
549.193	259
549.407	231
549.62	258
549.833	264
550.046	291
550.259	322
550.473	313
550.686	344
550.899	360
551.112	384
551.325	404
551.538	471
551.751	417
551.964	409
552.177	402
552.39	406
552.603	410
552.816	412
553.029	407
553.242	390
553.455	422
553.667	430
553.88	448
554.093	467
554.306	473
554.519	474
554.732	481
554.944	470
555.157	452
555.37	428
555.583	412
555.795	419
556.008	355
556.221	353
556.433	341
556.646	330
556.859	319
557.071	303
557.284	309
557.496	275
557.709	263
557.921	237
558.134	238
558.346	290
558.559	270
558.771	241
558.984	387
559.196	463
559.409	287
559.621	360
559.833	286
560.046	367
560.258	310
560.47	308
560.683	222
560.895	163
561.107	146
561.32	159
561.532	152
561.744	130
561.956	144
562.168	148
562.381	130
562.593	135
562.805	118
563.017	113
563.229	98
563.441	112
563.653	122
563.865	135
564.077	119
564.289	124
564.501	122
564.713	110
564.925	111
565.137	110
565.349	106
565.561	121
565.773	120
565.985	121
566.197	117
566.408	107
566.62	134
566.832	118
567.044	121
567.255	123
567.467	132
567.679	115
567.891	122
568.102	119
568.314	122
568.526	126
568.737	118
568.949	123
569.161	117
569.372	106
569.584	118
569.795	116
570.007	110
570.218	111
570.43	116
570.641	112
570.853	127
571.064	100
571.276	97
571.487	116
571.698	106
571.91	118
572.121	126
572.333	117
572.544	122
572.755	105
572.966	121
573.178	117
573.389	118
573.6	105
573.811	102
574.023	106
574.234	114
574.445	107
574.656	108
574.867	115
575.078	110
575.289	115
575.501	100
575.712	115
575.923	110
576.134	92
576.345	91
576.556	112
576.767	111
576.978	99
577.188	96
577.399	96
577.61	107
577.821	86
578.032	114
578.243	114
578.454	116
578.665	112
578.875	104
579.086	98
579.297	104
579.508	105
579.718	105
579.929	98
580.14	119
580.35	112
580.561	110
580.772	86
580.982	107
581.193	111
581.403	114
581.614	99
581.825	104
582.035	107
582.246	108
