Data from 17600_2_HRD10591_00026.txt Node
Date: Mon Jan 19 14:08:35 EST 2026
User: Yrep
Spectrometer: HR+D1059
Trigger mode: 1
Integration Time (sec): 1.000000E-1
Scans to average: 1
Electric dark correction enabled: true
Nonlinearity correction enabled: false
Boxcar width: 0
XAxis mode: Wavelengths
Number of Pixels in Spectrum: 2048
>>>>>Begin Spectral Data<<<<<
223.165	-7.94
223.4	-7.94
223.635	-7.94
223.869	-16.94
224.104	-26.94
224.338	-21.94
224.573	-30.94
224.808	4.06
225.042	-1.94
225.277	0.06
225.511	-2.94
225.746	-0.94
225.98	4.06
226.215	14.06
226.449	12.06
226.683	23.06
226.918	26.06
227.152	27.06
227.387	17.06
227.621	17.06
227.856	37.06
228.09	49.06
228.324	57.06
228.559	61.06
228.793	65.06
229.027	57.06
229.262	60.06
229.496	65.06
229.73	70.06
229.964	57.06
230.199	69.06
230.433	62.06
230.667	89.06
230.901	76.06
231.136	75.06
231.37	76.06
231.604	59.06
231.838	67.06
232.072	76.06
232.306	85.06
232.541	68.06
232.775	80.06
233.009	88.06
233.243	67.06
233.477	79.06
233.711	77.06
233.945	74.06
234.179	68.06
234.413	86.06
234.647	90.06
234.881	66.06
235.115	77.06
235.349	73.06
235.583	76.06
235.817	83.06
236.051	88.06
236.285	74.06
236.519	89.06
236.753	75.06
236.987	66.06
237.221	67.06
237.455	74.06
237.689	78.06
237.922	61.06
238.156	58.06
238.39	69.06
238.624	67.06
238.858	76.06
239.091	79.06
239.325	76.06
239.559	77.06
239.793	83.06
240.027	93.06
240.26	69.06
240.494	73.06
240.728	97.06
240.961	77.06
241.195	84.06
241.429	75.06
241.662	73.06
241.896	78.06
242.13	83.06
242.363	76.06
242.597	83.06
242.83	75.06
243.064	87.06
243.298	89.06
243.531	73.06
243.765	77.06
243.998	88.06
244.232	84.06
244.465	78.06
244.699	71.06
244.932	83.06
245.166	83.06
245.399	79.06
245.633	87.06
245.866	82.06
246.099	76.06
246.333	90.06
246.566	72.06
246.8	73.06
247.033	84.06
247.266	73.06
247.5	91.06
247.733	82.06
247.966	81.06
248.2	87.06
248.433	82.06
248.666	72.06
248.899	72.06
249.133	93.06
249.366	89.06
249.599	66.06
249.832	73.06
250.066	92.06
250.299	82.06
250.532	62.06
250.765	92.06
250.998	80.06
251.231	78.06
251.465	84.06
251.698	85.06
251.931	74.06
252.164	77.06
252.397	72.06
252.63	82.06
252.863	78.06
253.096	83.06
253.329	75.06
253.562	86.06
253.795	77.06
254.028	77.06
254.261	67.06
254.494	77.06
254.727	77.06
254.96	82.06
255.193	70.06
255.426	82.06
255.659	72.06
255.892	89.06
256.124	80.06
256.357	73.06
256.59	72.06
256.823	90.06
257.056	86.06
257.289	83.06
257.521	89.06
257.754	86.06
257.987	90.06
258.22	77.06
258.452	86.06
258.685	67.06
258.918	87.06
259.151	74.06
259.383	74.06
259.616	73.06
259.849	76.06
260.081	77.06
260.314	93.06
260.547	98.06
260.779	67.06
261.012	82.06
261.244	75.06
261.477	73.06
261.71	79.06
261.942	84.06
262.175	85.06
262.407	88.06
262.64	86.06
262.872	85.06
263.105	80.06
263.337	82.06
263.57	71.06
263.802	94.06
264.035	73.06
264.267	66.06
264.499	82.06
264.732	85.06
264.964	78.06
265.197	83.06
265.429	82.06
265.661	73.06
265.894	82.06
266.126	79.06
266.358	88.06
266.591	76.06
266.823	74.06
267.055	85.06
267.287	83.06
267.52	77.06
267.752	76.06
267.984	91.06
268.216	81.06
268.448	85.06
268.681	78.06
268.913	84.06
269.145	83.06
269.377	89.06
269.609	74.06
269.841	82.06
270.073	83.06
270.306	93.06
270.538	85.06
270.77	100.06
271.002	83.06
271.234	86.06
271.466	81.06
271.698	86.06
271.93	81.06
272.162	95.06
272.394	77.06
272.626	75.06
272.858	94.06
273.09	75.06
273.322	69.06
273.553	88.06
273.785	85.06
274.017	90.06
274.249	87.06
274.481	88.06
274.713	90.06
274.945	76.06
275.176	75.06
275.408	86.06
275.64	84.06
275.872	85.06
276.104	91.06
276.335	91.06
276.567	73.06
276.799	74.06
277.031	62.06
277.262	89.06
277.494	75.06
277.726	97.06
277.957	81.06
278.189	97.06
278.421	83.06
278.652	79.06
278.884	93.06
279.115	66.06
279.347	99.06
279.579	86.06
279.81	81.06
280.042	86.06
280.273	74.06
280.505	73.06
280.736	99.06
280.968	74.06
281.199	78.06
281.431	87.06
281.662	72.06
281.894	78.06
282.125	96.06
282.356	73.06
282.588	86.06
282.819	85.06
283.051	77.06
283.282	79.06
283.513	90.06
283.745	79.06
283.976	82.06
284.207	82.06
284.439	80.06
284.67	91.06
284.901	80.06
285.132	82.06
285.364	82.06
285.595	89.06
285.826	83.06
286.057	67.06
286.288	79.06
286.52	93.06
286.751	97.06
286.982	86.06
287.213	70.06
287.444	70.06
287.675	89.06
287.906	97.06
288.138	93.06
288.369	95.06
288.6	96.06
288.831	90.06
289.062	81.06
289.293	92.06
289.524	99.06
289.755	89.06
289.986	73.06
290.217	79.06
290.448	84.06
290.679	81.06
290.91	88.06
291.141	86.06
291.371	79.06
291.602	74.06
291.833	85.06
292.064	84.06
292.295	85.06
292.526	72.06
292.757	84.06
292.987	79.06
293.218	62.06
293.449	85.06
293.68	100.06
293.91	82.06
294.141	86.06
294.372	97.06
294.603	85.06
294.833	87.06
295.064	88.06
295.295	75.06
295.525	96.06
295.756	79.06
295.987	79.06
296.217	96.06
296.448	96.06
296.679	97.06
296.909	86.06
297.14	90.06
297.37	87.06
297.601	101.06
297.831	79.06
298.062	71.06
298.292	82.06
298.523	103.06
298.753	69.06
298.984	90.06
299.214	91.06
299.445	91.06
299.675	94.06
299.905	87.06
300.136	93.06
300.366	81.06
300.597	92.06
300.827	87.06
301.057	84.06
301.288	96.06
301.518	91.06
301.748	90.06
301.979	93.06
302.209	97.06
302.439	95.06
302.669	85.06
302.9	83.06
303.13	90.06
303.36	87.06
303.59	79.06
303.82	90.06
304.051	100.06
304.281	88.06
304.511	94.06
304.741	79.06
304.971	91.06
305.201	92.06
305.431	88.06
305.661	93.06
305.891	86.06
306.121	87.06
306.352	75.06
306.582	86.06
306.812	98.06
307.042	100.06
307.272	95.06
307.502	85.06
307.731	79.06
307.961	89.06
308.191	85.06
308.421	102.06
308.651	97.06
308.881	88.06
309.111	94.06
309.341	90.06
309.571	106.06
309.8	83.06
310.03	89.06
310.26	89.06
310.49	86.06
310.72	79.06
310.949	90.06
311.179	85.06
311.409	94.06
311.639	75.06
311.868	83.06
312.098	83.06
312.328	95.06
312.557	95.06
312.787	84.06
313.017	80.06
313.246	70.06
313.476	97.06
313.706	101.06
313.935	95.06
314.165	69.06
314.394	75.06
314.624	90.06
314.853	81.06
315.083	88.06
315.312	81.06
315.542	76.06
315.771	100.06
316.001	102.06
316.23	96.06
316.46	89.06
316.689	82.06
316.919	86.06
317.148	82.06
317.377	78.06
317.607	96.06
317.836	104.06
318.065	103.06
318.295	95.06
318.524	74.06
318.753	70.06
318.983	83.06
319.212	98.06
319.441	95.06
319.67	83.06
319.9	79.06
320.129	78.06
320.358	78.06
320.587	85.06
320.816	99.06
321.046	96.06
321.275	73.06
321.504	91.06
321.733	82.06
321.962	93.06
322.191	87.06
322.42	99.06
322.649	79.06
322.878	83.06
323.108	73.06
323.337	81.06
323.566	96.06
323.795	82.06
324.024	83.06
324.253	72.06
324.482	89.06
324.71	94.06
324.939	93.06
325.168	85.06
325.397	88.06
325.626	88.06
325.855	82.06
326.084	87.06
326.313	109.06
326.542	81.06
326.77	76.06
326.999	88.06
327.228	74.06
327.457	85.06
327.686	88.06
327.914	83.06
328.143	88.06
328.372	91.06
328.6	76.06
328.829	92.06
329.058	76.06
329.287	98.06
329.515	80.06
329.744	79.06
329.972	82.06
330.201	85.06
330.43	85.06
330.658	85.06
330.887	73.06
331.115	83.06
331.344	66.06
331.572	80.06
331.801	88.06
332.03	79.06
332.258	97.06
332.486	84.06
332.715	88.06
332.943	68.06
333.172	75.06
333.4	72.06
333.629	83.06
333.857	90.06
334.085	84.06
334.314	91.06
334.542	99.06
334.771	84.06
334.999	93.06
335.227	74.06
335.455	95.06
335.684	99.06
335.912	82.06
336.14	88.06
336.369	98.06
336.597	99.06
336.825	80.06
337.053	84.06
337.281	86.06
337.51	91.06
337.738	76.06
337.966	73.06
338.194	90.06
338.422	88.06
338.65	84.06
338.878	87.06
339.106	76.06
339.334	96.06
339.562	87.06
339.79	86.06
340.018	73.06
340.246	74.06
340.474	82.06
340.702	91.06
340.93	93.06
341.158	95.06
341.386	91.06
341.614	77.06
341.842	87.06
342.07	82.06
342.298	101.06
342.526	90.06
342.754	85.06
342.981	85.06
343.209	80.06
343.437	95.06
343.665	72.06
343.893	69.06
344.12	99.06
344.348	90.06
344.576	85.06
344.804	86.06
345.031	100.06
345.259	86.06
345.487	90.06
345.714	83.06
345.942	86.06
346.17	77.06
346.397	77.06
346.625	81.06
346.853	85.06
347.08	84.06
347.308	83.06
347.535	86.06
347.763	97.06
347.99	83.06
348.218	101.06
348.445	94.06
348.673	86.06
348.9	86.06
349.128	96.06
349.355	93.06
349.583	93.06
349.81	77.06
350.037	105.06
350.265	90.06
350.492	95.06
350.72	79.06
350.947	86.06
351.174	80.06
351.402	89.06
351.629	98.06
351.856	89.06
352.083	80.06
352.311	87.06
352.538	87.06
352.765	89.06
352.992	97.06
353.22	75.06
353.447	85.06
353.674	96.06
353.901	88.06
354.128	81.06
354.355	96.06
354.583	86.06
354.81	97.06
355.037	74.06
355.264	95.06
355.491	87.06
355.718	85.06
355.945	77.06
356.172	74.06
356.399	90.06
356.626	100.06
356.853	75.06
357.08	88.06
357.307	87.06
357.534	87.06
357.761	91.06
357.988	89.06
358.215	94.06
358.441	93.06
358.668	80.06
358.895	92.06
359.122	102.06
359.349	69.06
359.576	75.06
359.802	85.06
360.029	98.06
360.256	78.06
360.483	98.06
360.709	98.06
360.936	97.06
361.163	94.06
361.39	90.06
361.616	95.06
361.843	91.06
362.07	91.06
362.296	107.06
362.523	100.06
362.749	97.06
362.976	122.06
363.203	115.06
363.429	94.06
363.656	100.06
363.882	90.06
364.109	94.06
364.335	114.06
364.562	133.06
364.788	107.06
365.015	98.06
365.241	89.06
365.468	90.06
365.694	103.06
365.92	92.06
366.147	87.06
366.373	85.06
366.599	99.06
366.826	90.06
367.052	103.06
367.278	79.06
367.505	80.06
367.731	88.06
367.957	87.06
368.184	68.06
368.41	86.06
368.636	86.06
368.862	87.06
369.089	102.06
369.315	79.06
369.541	91.06
369.767	97.06
369.993	80.06
370.219	90.06
370.445	97.06
370.672	95.06
370.898	97.06
371.124	96.06
371.35	74.06
371.576	88.06
371.802	88.06
372.028	93.06
372.254	92.06
372.48	96.06
372.706	93.06
372.932	91.06
373.158	93.06
373.384	109.06
373.61	117.06
373.835	106.06
374.061	94.06
374.287	102.06
374.513	107.06
374.739	89.06
374.965	106.06
375.191	82.06
375.416	90.06
375.642	87.06
375.868	101.06
376.094	81.06
376.319	95.06
376.545	101.06
376.771	75.06
376.997	91.06
377.222	75.06
377.448	83.06
377.674	78.06
377.899	98.06
378.125	89.06
378.35	94.06
378.576	75.06
378.802	87.06
379.027	88.06
379.253	83.06
379.478	89.06
379.704	81.06
379.929	79.06
380.155	85.06
380.38	85.06
380.606	100.06
380.831	94.06
381.057	86.06
381.282	95.06
381.507	96.06
381.733	85.06
381.958	85.06
382.184	97.06
382.409	98.06
382.634	100.06
382.86	101.06
383.085	96.06
383.31	90.06
383.535	93.06
383.761	95.06
383.986	96.06
384.211	105.06
384.436	82.06
384.662	93.06
384.887	95.06
385.112	88.06
385.337	95.06
385.562	97.06
385.787	103.06
386.013	96.06
386.238	101.06
386.463	101.06
386.688	97.06
386.913	93.06
387.138	91.06
387.363	103.06
387.588	101.06
387.813	94.06
388.038	97.06
388.263	114.06
388.488	92.06
388.713	97.06
388.938	81.06
389.163	89.06
389.387	78.06
389.612	83.06
389.837	96.06
390.062	107.06
390.287	97.06
390.512	100.06
390.736	85.06
390.961	91.06
391.186	89.06
391.411	90.06
391.636	93.06
391.86	85.06
392.085	100.06
392.31	103.06
392.534	96.06
392.759	111.06
392.984	153.06
393.208	259.06
393.433	407.06
393.658	322.06
393.882	167.06
394.107	111.06
394.331	125.06
394.556	135.06
394.78	109.06
395.005	100.06
395.229	87.06
395.454	95.06
395.678	96.06
395.903	123.06
396.127	141.06
396.352	147.06
396.576	169.06
396.801	279.06
397.025	319.06
397.249	174.06
397.474	126.06
397.698	113.06
397.922	104.06
398.147	87.06
398.371	83.06
398.595	86.06
398.82	87.06
399.044	93.06
399.268	107.06
399.492	84.06
399.717	100.06
399.941	92.06
400.165	90.06
400.389	91.06
400.613	103.06
400.837	79.06
401.062	74.06
401.286	85.06
401.51	83.06
401.734	82.06
401.958	89.06
402.182	87.06
402.406	86.06
402.63	92.06
402.854	90.06
403.078	78.06
403.302	90.06
403.526	90.06
403.75	101.06
403.974	94.06
404.198	98.06
404.422	110.06
404.645	105.06
404.869	103.06
405.093	90.06
405.317	87.06
405.541	90.06
405.765	86.06
405.988	89.06
406.212	96.06
406.436	96.06
406.66	95.06
406.883	71.06
407.107	102.06
407.331	97.06
407.555	99.06
407.778	130.06
408.002	112.06
408.226	86.06
408.449	75.06
408.673	83.06
408.896	82.06
409.12	91.06
409.344	106.06
409.567	93.06
409.791	91.06
410.014	106.06
410.238	90.06
410.461	97.06
410.685	91.06
410.908	90.06
411.132	79.06
411.355	73.06
411.578	83.06
411.802	85.06
412.025	88.06
412.249	86.06
412.472	78.06
412.695	93.06
412.919	87.06
413.142	81.06
413.365	87.06
413.589	73.06
413.812	85.06
414.035	94.06
414.258	83.06
414.482	65.06
414.705	83.06
414.928	86.06
415.151	87.06
415.374	87.06
415.597	81.06
415.821	89.06
416.044	87.06
416.267	81.06
416.49	80.06
416.713	79.06
416.936	76.06
417.159	88.06
417.382	95.06
417.605	81.06
417.828	83.06
418.051	86.06
418.274	94.06
418.497	94.06
418.72	89.06
418.943	83.06
419.166	81.06
419.389	83.06
419.611	71.06
419.834	83.06
420.057	85.06
420.28	101.06
420.503	95.06
420.726	86.06
420.948	97.06
421.171	102.06
421.394	105.06
421.617	129.06
421.839	128.06
422.062	131.06
422.285	176.06
422.507	284.06
422.73	384.06
422.953	379.06
423.175	215.06
423.398	135.06
423.621	117.06
423.843	97.06
424.066	89.06
424.288	93.06
424.511	97.06
424.733	90.06
424.956	84.06
425.178	98.06
425.401	98.06
425.623	98.06
425.846	96.06
426.068	81.06
426.291	100.06
426.513	77.06
426.735	96.06
426.958	93.06
427.18	92.06
427.402	98.06
427.625	82.06
427.847	86.06
428.069	90.06
428.292	120.06
428.514	140.06
428.736	101.06
428.958	118.06
429.181	123.06
429.403	100.06
429.625	105.06
429.847	137.06
430.069	145.06
430.292	177.06
430.514	170.06
430.736	136.06
430.958	154.06
431.18	97.06
431.402	104.06
431.624	103.06
431.846	123.06
432.068	129.06
432.29	111.06
432.512	90.06
432.734	93.06
432.956	74.06
433.178	83.06
433.4	96.06
433.622	103.06
433.844	88.06
434.066	95.06
434.287	89.06
434.509	92.06
434.731	82.06
434.953	105.06
435.175	105.06
435.397	91.06
435.618	78.06
435.84	87.06
436.062	72.06
436.284	77.06
436.505	77.06
436.727	79.06
436.949	82.06
437.17	89.06
437.392	74.06
437.614	74.06
437.835	62.06
438.057	76.06
438.278	93.06
438.5	91.06
438.721	87.06
438.943	67.06
439.165	78.06
439.386	93.06
439.608	89.06
439.829	86.06
440.05	88.06
440.272	94.06
440.493	85.06
440.715	93.06
440.936	74.06
441.158	102.06
441.379	85.06
441.6	81.06
441.822	94.06
442.043	94.06
442.264	102.06
442.486	126.06
442.707	165.06
442.928	125.06
443.149	113.06
443.371	145.06
443.592	237.06
443.813	203.06
444.034	111.06
444.255	89.06
444.476	95.06
444.698	91.06
444.919	80.06
445.14	162.06
445.361	202.06
445.582	284.06
445.803	226.06
446.024	121.06
446.245	102.06
446.466	91.06
446.687	92.06
446.908	100.06
447.129	88.06
447.35	86.06
447.571	76.06
447.792	101.06
448.013	97.06
448.234	82.06
448.455	88.06
448.675	84.06
448.896	83.06
449.117	90.06
449.338	82.06
449.559	82.06
449.779	89.06
450	85.06
450.221	76.06
450.442	66.06
450.662	100.06
450.883	90.06
451.104	87.06
451.324	78.06
451.545	81.06
451.766	80.06
451.986	87.06
452.207	93.06
452.428	88.06
452.648	91.06
452.869	107.06
453.089	94.06
453.31	80.06
453.53	90.06
453.751	98.06
453.971	76.06
454.192	77.06
454.412	73.06
454.633	73.06
454.853	82.06
455.073	83.06
455.294	81.06
455.514	73.06
455.734	88.06
455.955	86.06
456.175	87.06
456.395	76.06
456.616	76.06
456.836	96.06
457.056	103.06
457.276	92.06
457.497	80.06
457.717	93.06
457.937	90.06
458.157	117.06
458.377	123.06
458.598	145.06
458.818	135.06
459.038	84.06
459.258	87.06
459.478	102.06
459.698	84.06
459.918	80.06
460.138	89.06
460.358	82.06
460.578	94.06
460.798	118.06
461.018	114.06
461.238	80.06
461.458	71.06
461.678	90.06
461.898	83.06
462.118	103.06
462.338	89.06
462.558	101.06
462.777	66.06
462.997	80.06
463.217	79.06
463.437	82.06
463.657	82.06
463.876	105.06
464.096	85.06
464.316	78.06
464.536	89.06
464.755	83.06
464.975	82.06
465.195	86.06
465.414	93.06
465.634	82.06
465.854	81.06
466.073	78.06
466.293	98.06
466.512	85.06
466.732	90.06
466.951	90.06
467.171	93.06
467.391	77.06
467.61	82.06
467.829	80.06
468.049	94.06
468.268	72.06
468.488	86.06
468.707	85.06
468.927	86.06
469.146	89.06
469.365	92.06
469.585	74.06
469.804	79.06
470.023	70.06
470.243	85.06
470.462	88.06
470.681	95.06
470.901	96.06
471.12	69.06
471.339	92.06
471.558	78.06
471.777	81.06
471.997	111.06
472.216	88.06
472.435	79.06
472.654	93.06
472.873	91.06
473.092	83.06
473.311	83.06
473.53	77.06
473.749	82.06
473.968	74.06
474.187	83.06
474.406	84.06
474.625	87.06
474.844	79.06
475.063	82.06
475.282	83.06
475.501	89.06
475.72	91.06
475.939	84.06
476.158	95.06
476.377	92.06
476.596	103.06
476.814	90.06
477.033	96.06
477.252	81.06
477.471	81.06
477.69	81.06
477.908	86.06
478.127	82.06
478.346	89.06
478.564	88.06
478.783	96.06
479.002	74.06
479.22	93.06
479.439	90.06
479.658	82.06
479.876	89.06
480.095	77.06
480.313	76.06
480.532	81.06
480.751	87.06
480.969	97.06
481.188	95.06
481.406	96.06
481.624	79.06
481.843	79.06
482.061	89.06
482.28	84.06
482.498	82.06
482.717	101.06
482.935	97.06
483.153	76.06
483.372	99.06
483.59	86.06
483.808	87.06
484.027	84.06
484.245	68.06
484.463	87.06
484.681	99.06
484.9	89.06
485.118	83.06
485.336	80.06
485.554	98.06
485.772	86.06
485.99	89.06
486.209	82.06
486.427	87.06
486.645	89.06
486.863	89.06
487.081	90.06
487.299	92.06
487.517	94.06
487.735	109.06
487.953	154.06
488.171	145.06
488.389	88.06
488.607	99.06
488.825	91.06
489.043	101.06
489.261	85.06
489.479	89.06
489.696	86.06
489.914	88.06
490.132	101.06
490.35	98.06
490.568	89.06
490.786	85.06
491.003	83.06
491.221	95.06
491.439	99.06
491.657	82.06
491.874	74.06
492.092	84.06
492.31	79.06
492.527	100.06
492.745	89.06
492.963	76.06
493.18	70.06
493.398	91.06
493.615	103.06
493.833	86.06
494.05	81.06
494.268	70.06
494.485	90.06
494.703	97.06
494.92	101.06
495.138	85.06
495.355	100.06
495.573	93.06
495.79	78.06
496.008	80.06
496.225	69.06
496.442	83.06
496.66	101.06
496.877	99.06
497.094	95.06
497.312	97.06
497.529	97.06
497.746	83.06
497.963	91.06
498.181	83.06
498.398	96.06
498.615	109.06
498.832	87.06
499.049	66.06
499.267	97.06
499.484	94.06
499.701	77.06
499.918	87.06
500.135	84.06
500.352	78.06
500.569	95.06
500.786	91.06
501.003	89.06
501.22	98.06
501.437	83.06
501.654	102.06
501.871	90.06
502.088	90.06
502.305	82.06
502.522	82.06
502.739	90.06
502.956	87.06
503.172	91.06
503.389	100.06
503.606	97.06
503.823	86.06
504.04	110.06
504.256	146.06
504.473	135.06
504.69	94.06
504.907	90.06
505.123	82.06
505.34	87.06
505.557	92.06
505.773	101.06
505.99	101.06
506.207	92.06
506.423	84.06
506.64	107.06
506.856	89.06
507.073	83.06
507.289	83.06
507.506	87.06
507.722	72.06
507.939	78.06
508.155	88.06
508.372	90.06
508.588	91.06
508.805	88.06
509.021	78.06
509.238	87.06
509.454	80.06
509.67	82.06
509.887	80.06
510.103	83.06
510.319	86.06
510.536	91.06
510.752	85.06
510.968	88.06
511.184	87.06
511.401	86.06
511.617	85.06
511.833	81.06
512.049	93.06
512.265	87.06
512.481	87.06
512.698	87.06
512.914	83.06
513.13	86.06
513.346	84.06
513.562	85.06
513.778	89.06
513.994	91.06
514.21	93.06
514.426	89.06
514.642	84.06
514.858	81.06
515.074	94.06
515.29	83.06
515.506	95.06
515.721	86.06
515.937	87.06
516.153	82.06
516.369	88.06
516.585	93.06
516.801	79.06
517.016	99.06
517.232	86.06
517.448	102.06
517.664	94.06
517.879	92.06
