Data from 17600_2_HRD10591_00018.txt Node
Date: Mon Jan 19 14:08:31 EST 2026
User: Yrep
Spectrometer: HR+D1059
Trigger mode: 1
Integration Time (sec): 1.000000E-1
Scans to average: 1
Electric dark correction enabled: true
Nonlinearity correction enabled: false
Boxcar width: 0
XAxis mode: Wavelengths
Number of Pixels in Spectrum: 2048
>>>>>Begin Spectral Data<<<<<
223.165	-4.56
223.4	-4.56
223.635	-4.56
223.869	-5.56
224.104	-26.56
224.338	-18.56
224.573	-15.56
224.808	-4.56
225.042	-10.56
225.277	-15.56
225.511	-13.56
225.746	21.44
225.98	3.44
226.215	8.44
226.449	17.44
226.683	15.44
226.918	21.44
227.152	27.44
227.387	30.44
227.621	36.44
227.856	42.44
228.09	41.44
228.324	49.44
228.559	57.44
228.793	65.44
229.027	59.44
229.262	54.44
229.496	63.44
229.73	73.44
229.964	60.44
230.199	69.44
230.433	73.44
230.667	87.44
230.901	78.44
231.136	68.44
231.37	88.44
231.604	93.44
231.838	79.44
232.072	80.44
232.306	75.44
232.541	79.44
232.775	71.44
233.009	88.44
233.243	90.44
233.477	80.44
233.711	68.44
233.945	69.44
234.179	64.44
234.413	69.44
234.647	81.44
234.881	71.44
235.115	79.44
235.349	73.44
235.583	72.44
235.817	68.44
236.051	68.44
236.285	79.44
236.519	73.44
236.753	79.44
236.987	73.44
237.221	75.44
237.455	72.44
237.689	75.44
237.922	94.44
238.156	80.44
238.39	72.44
238.624	68.44
238.858	68.44
239.091	74.44
239.325	83.44
239.559	65.44
239.793	82.44
240.027	75.44
240.26	76.44
240.494	86.44
240.728	74.44
240.961	76.44
241.195	71.44
241.429	88.44
241.662	79.44
241.896	78.44
242.13	69.44
242.363	77.44
242.597	56.44
242.83	77.44
243.064	74.44
243.298	65.44
243.531	68.44
243.765	78.44
243.998	80.44
244.232	85.44
244.465	88.44
244.699	85.44
244.932	78.44
245.166	88.44
245.399	72.44
245.633	82.44
245.866	65.44
246.099	61.44
246.333	86.44
246.566	85.44
246.8	76.44
247.033	81.44
247.266	64.44
247.5	81.44
247.733	69.44
247.966	86.44
248.2	93.44
248.433	98.44
248.666	82.44
248.899	80.44
249.133	87.44
249.366	80.44
249.599	72.44
249.832	78.44
250.066	76.44
250.299	67.44
250.532	77.44
250.765	79.44
250.998	90.44
251.231	75.44
251.465	63.44
251.698	76.44
251.931	84.44
252.164	69.44
252.397	76.44
252.63	81.44
252.863	64.44
253.096	86.44
253.329	74.44
253.562	81.44
253.795	85.44
254.028	82.44
254.261	82.44
254.494	80.44
254.727	89.44
254.96	73.44
255.193	73.44
255.426	78.44
255.659	86.44
255.892	82.44
256.124	71.44
256.357	74.44
256.59	88.44
256.823	82.44
257.056	73.44
257.289	90.44
257.521	82.44
257.754	81.44
257.987	105.44
258.22	81.44
258.452	87.44
258.685	67.44
258.918	79.44
259.151	87.44
259.383	81.44
259.616	84.44
259.849	82.44
260.081	66.44
260.314	72.44
260.547	71.44
260.779	75.44
261.012	85.44
261.244	76.44
261.477	73.44
261.71	85.44
261.942	73.44
262.175	81.44
262.407	86.44
262.64	79.44
262.872	77.44
263.105	85.44
263.337	67.44
263.57	74.44
263.802	68.44
264.035	69.44
264.267	82.44
264.499	89.44
264.732	70.44
264.964	69.44
265.197	88.44
265.429	83.44
265.661	83.44
265.894	87.44
266.126	79.44
266.358	77.44
266.591	86.44
266.823	86.44
267.055	87.44
267.287	89.44
267.52	85.44
267.752	85.44
267.984	90.44
268.216	90.44
268.448	90.44
268.681	93.44
268.913	77.44
269.145	79.44
269.377	81.44
269.609	74.44
269.841	77.44
270.073	79.44
270.306	69.44
270.538	84.44
270.77	86.44
271.002	72.44
271.234	82.44
271.466	75.44
271.698	89.44
271.93	87.44
272.162	83.44
272.394	98.44
272.626	74.44
272.858	81.44
273.09	79.44
273.322	70.44
273.553	71.44
273.785	99.44
274.017	81.44
274.249	86.44
274.481	84.44
274.713	82.44
274.945	82.44
275.176	71.44
275.408	74.44
275.64	75.44
275.872	81.44
276.104	82.44
276.335	83.44
276.567	82.44
276.799	87.44
277.031	79.44
277.262	82.44
277.494	73.44
277.726	89.44
277.957	86.44
278.189	83.44
278.421	75.44
278.652	84.44
278.884	84.44
279.115	84.44
279.347	91.44
279.579	83.44
279.81	67.44
280.042	82.44
280.273	71.44
280.505	72.44
280.736	88.44
280.968	83.44
281.199	72.44
281.431	77.44
281.662	79.44
281.894	81.44
282.125	88.44
282.356	84.44
282.588	71.44
282.819	77.44
283.051	78.44
283.282	96.44
283.513	83.44
283.745	85.44
283.976	76.44
284.207	82.44
284.439	88.44
284.67	97.44
284.901	79.44
285.132	85.44
285.364	81.44
285.595	81.44
285.826	81.44
286.057	77.44
286.288	80.44
286.52	92.44
286.751	81.44
286.982	77.44
287.213	84.44
287.444	81.44
287.675	85.44
287.906	81.44
288.138	82.44
288.369	66.44
288.6	81.44
288.831	94.44
289.062	91.44
289.293	83.44
289.524	81.44
289.755	74.44
289.986	81.44
290.217	87.44
290.448	98.44
290.679	89.44
290.91	86.44
291.141	82.44
291.371	95.44
291.602	95.44
291.833	76.44
292.064	74.44
292.295	64.44
292.526	86.44
292.757	71.44
292.987	73.44
293.218	85.44
293.449	93.44
293.68	77.44
293.91	89.44
294.141	85.44
294.372	80.44
294.603	86.44
294.833	86.44
295.064	76.44
295.295	81.44
295.525	96.44
295.756	97.44
295.987	85.44
296.217	81.44
296.448	72.44
296.679	88.44
296.909	94.44
297.14	90.44
297.37	84.44
297.601	81.44
297.831	76.44
298.062	98.44
298.292	99.44
298.523	72.44
298.753	82.44
298.984	102.44
299.214	85.44
299.445	91.44
299.675	88.44
299.905	98.44
300.136	86.44
300.366	86.44
300.597	80.44
300.827	91.44
301.057	78.44
301.288	79.44
301.518	94.44
301.748	81.44
301.979	111.44
302.209	89.44
302.439	83.44
302.669	83.44
302.9	82.44
303.13	67.44
303.36	77.44
303.59	75.44
303.82	95.44
304.051	97.44
304.281	89.44
304.511	93.44
304.741	91.44
304.971	91.44
305.201	93.44
305.431	88.44
305.661	67.44
305.891	78.44
306.121	83.44
306.352	87.44
306.582	80.44
306.812	78.44
307.042	86.44
307.272	81.44
307.502	77.44
307.731	80.44
307.961	86.44
308.191	89.44
308.421	96.44
308.651	82.44
308.881	93.44
309.111	76.44
309.341	73.44
309.571	90.44
309.8	83.44
310.03	84.44
310.26	79.44
310.49	87.44
310.72	98.44
310.949	78.44
311.179	78.44
311.409	69.44
311.639	82.44
311.868	85.44
312.098	90.44
312.328	85.44
312.557	94.44
312.787	77.44
313.017	92.44
313.246	85.44
313.476	74.44
313.706	81.44
313.935	76.44
314.165	81.44
314.394	82.44
314.624	81.44
314.853	86.44
315.083	112.44
315.312	91.44
315.542	84.44
315.771	92.44
316.001	89.44
316.23	94.44
316.46	90.44
316.689	97.44
316.919	85.44
317.148	84.44
317.377	107.44
317.607	88.44
317.836	84.44
318.065	88.44
318.295	90.44
318.524	78.44
318.753	77.44
318.983	83.44
319.212	88.44
319.441	86.44
319.67	65.44
319.9	93.44
320.129	80.44
320.358	74.44
320.587	71.44
320.816	79.44
321.046	74.44
321.275	90.44
321.504	88.44
321.733	81.44
321.962	89.44
322.191	80.44
322.42	79.44
322.649	78.44
322.878	88.44
323.108	98.44
323.337	81.44
323.566	67.44
323.795	65.44
324.024	81.44
324.253	95.44
324.482	82.44
324.71	85.44
324.939	91.44
325.168	81.44
325.397	96.44
325.626	89.44
325.855	79.44
326.084	87.44
326.313	80.44
326.542	69.44
326.77	91.44
326.999	93.44
327.228	92.44
327.457	79.44
327.686	73.44
327.914	109.44
328.143	83.44
328.372	87.44
328.6	79.44
328.829	75.44
329.058	89.44
329.287	79.44
329.515	84.44
329.744	78.44
329.972	83.44
330.201	72.44
330.43	79.44
330.658	82.44
330.887	88.44
331.115	89.44
331.344	79.44
331.572	81.44
331.801	81.44
332.03	66.44
332.258	93.44
332.486	85.44
332.715	85.44
332.943	81.44
333.172	81.44
333.4	94.44
333.629	86.44
333.857	90.44
334.085	104.44
334.314	84.44
334.542	87.44
334.771	97.44
334.999	100.44
335.227	73.44
335.455	91.44
335.684	77.44
335.912	74.44
336.14	89.44
336.369	82.44
336.597	92.44
336.825	93.44
337.053	80.44
337.281	80.44
337.51	86.44
337.738	83.44
337.966	83.44
338.194	83.44
338.422	82.44
338.65	81.44
338.878	79.44
339.106	97.44
339.334	90.44
339.562	96.44
339.79	105.44
340.018	75.44
340.246	78.44
340.474	91.44
340.702	91.44
340.93	85.44
341.158	87.44
341.386	92.44
341.614	87.44
341.842	95.44
342.07	89.44
342.298	95.44
342.526	94.44
342.754	90.44
342.981	68.44
343.209	66.44
343.437	103.44
343.665	92.44
343.893	91.44
344.12	95.44
344.348	94.44
344.576	77.44
344.804	95.44
345.031	88.44
345.259	88.44
345.487	74.44
345.714	67.44
345.942	90.44
346.17	92.44
346.397	69.44
346.625	84.44
346.853	87.44
347.08	77.44
347.308	83.44
347.535	86.44
347.763	78.44
347.99	67.44
348.218	88.44
348.445	77.44
348.673	85.44
348.9	91.44
349.128	93.44
349.355	73.44
349.583	74.44
349.81	80.44
350.037	83.44
350.265	83.44
350.492	87.44
350.72	89.44
350.947	79.44
351.174	77.44
351.402	77.44
351.629	94.44
351.856	86.44
352.083	90.44
352.311	73.44
352.538	74.44
352.765	97.44
352.992	94.44
353.22	82.44
353.447	85.44
353.674	87.44
353.901	88.44
354.128	77.44
354.355	87.44
354.583	87.44
354.81	79.44
355.037	77.44
355.264	78.44
355.491	82.44
355.718	93.44
355.945	81.44
356.172	74.44
356.399	70.44
356.626	89.44
356.853	82.44
357.08	83.44
357.307	83.44
357.534	87.44
357.761	75.44
357.988	96.44
358.215	109.44
358.441	88.44
358.668	84.44
358.895	82.44
359.122	81.44
359.349	77.44
359.576	76.44
359.802	84.44
360.029	74.44
360.256	82.44
360.483	71.44
360.709	83.44
360.936	97.44
361.163	91.44
361.39	73.44
361.616	82.44
361.843	83.44
362.07	77.44
362.296	83.44
362.523	83.44
362.749	90.44
362.976	89.44
363.203	90.44
363.429	82.44
363.656	79.44
363.882	73.44
364.109	95.44
364.335	83.44
364.562	80.44
364.788	88.44
365.015	94.44
365.241	76.44
365.468	86.44
365.694	77.44
365.92	84.44
366.147	96.44
366.373	72.44
366.599	87.44
366.826	85.44
367.052	89.44
367.278	92.44
367.505	72.44
367.731	77.44
367.957	79.44
368.184	97.44
368.41	86.44
368.636	82.44
368.862	82.44
369.089	81.44
369.315	82.44
369.541	78.44
369.767	73.44
369.993	82.44
370.219	79.44
370.445	88.44
370.672	89.44
370.898	101.44
371.124	86.44
371.35	90.44
371.576	88.44
371.802	87.44
372.028	82.44
372.254	83.44
372.48	81.44
372.706	83.44
372.932	81.44
373.158	83.44
373.384	83.44
373.61	76.44
373.835	73.44
374.061	74.44
374.287	85.44
374.513	95.44
374.739	88.44
374.965	87.44
375.191	77.44
375.416	93.44
375.642	85.44
375.868	93.44
376.094	96.44
376.319	79.44
376.545	84.44
376.771	87.44
376.997	100.44
377.222	91.44
377.448	82.44
377.674	90.44
377.899	83.44
378.125	75.44
378.35	81.44
378.576	79.44
378.802	79.44
379.027	77.44
379.253	88.44
379.478	93.44
379.704	88.44
379.929	88.44
380.155	82.44
380.38	91.44
380.606	93.44
380.831	69.44
381.057	93.44
381.282	89.44
381.507	69.44
381.733	85.44
381.958	82.44
382.184	86.44
382.409	78.44
382.634	86.44
382.86	98.44
383.085	96.44
383.31	82.44
383.535	84.44
383.761	89.44
383.986	76.44
384.211	95.44
384.436	80.44
384.662	86.44
384.887	83.44
385.112	81.44
385.337	75.44
385.562	85.44
385.787	87.44
386.013	78.44
386.238	83.44
386.463	83.44
386.688	94.44
386.913	87.44
387.138	81.44
387.363	83.44
387.588	92.44
387.813	83.44
388.038	92.44
388.263	82.44
388.488	94.44
388.713	73.44
388.938	77.44
389.163	71.44
389.387	71.44
389.612	68.44
389.837	58.44
390.062	79.44
390.287	83.44
390.512	73.44
390.736	79.44
390.961	86.44
391.186	98.44
391.411	70.44
391.636	78.44
391.86	70.44
392.085	81.44
392.31	81.44
392.534	97.44
392.759	79.44
392.984	94.44
393.208	105.44
393.433	142.44
393.658	119.44
393.882	89.44
394.107	97.44
394.331	83.44
394.556	94.44
394.78	79.44
395.005	79.44
395.229	83.44
395.454	88.44
395.678	93.44
395.903	98.44
396.127	87.44
396.352	98.44
396.576	94.44
396.801	118.44
397.025	125.44
397.249	104.44
397.474	87.44
397.698	83.44
397.922	69.44
398.147	78.44
398.371	89.44
398.595	81.44
398.82	70.44
399.044	65.44
399.268	64.44
399.492	81.44
399.717	99.44
399.941	97.44
400.165	82.44
400.389	89.44
400.613	76.44
400.837	89.44
401.062	98.44
401.286	97.44
401.51	90.44
401.734	77.44
401.958	77.44
402.182	76.44
402.406	75.44
402.63	85.44
402.854	91.44
403.078	74.44
403.302	78.44
403.526	87.44
403.75	93.44
403.974	75.44
404.198	81.44
404.422	80.44
404.645	83.44
404.869	83.44
405.093	91.44
405.317	85.44
405.541	88.44
405.765	86.44
405.988	84.44
406.212	75.44
406.436	85.44
406.66	80.44
406.883	89.44
407.107	86.44
407.331	72.44
407.555	94.44
407.778	85.44
408.002	95.44
408.226	81.44
408.449	92.44
408.673	90.44
408.896	90.44
409.12	92.44
409.344	88.44
409.567	85.44
409.791	87.44
410.014	86.44
410.238	84.44
410.461	82.44
410.685	74.44
410.908	86.44
411.132	84.44
411.355	93.44
411.578	94.44
411.802	76.44
412.025	75.44
412.249	66.44
412.472	93.44
412.695	86.44
412.919	75.44
413.142	77.44
413.365	83.44
413.589	73.44
413.812	81.44
414.035	91.44
414.258	96.44
414.482	75.44
414.705	86.44
414.928	90.44
415.151	81.44
415.374	75.44
415.597	82.44
415.821	76.44
416.044	81.44
416.267	86.44
416.49	81.44
416.713	91.44
416.936	85.44
417.159	73.44
417.382	81.44
417.605	99.44
417.828	87.44
418.051	88.44
418.274	83.44
418.497	69.44
418.72	88.44
418.943	86.44
419.166	83.44
419.389	75.44
419.611	91.44
419.834	91.44
420.057	79.44
420.28	81.44
420.503	81.44
420.726	66.44
420.948	76.44
421.171	81.44
421.394	89.44
421.617	94.44
421.839	99.44
422.062	97.44
422.285	109.44
422.507	115.44
422.73	153.44
422.953	140.44
423.175	115.44
423.398	87.44
423.621	77.44
423.843	96.44
424.066	87.44
424.288	73.44
424.511	77.44
424.733	66.44
424.956	74.44
425.178	77.44
425.401	87.44
425.623	85.44
425.846	80.44
426.068	72.44
426.291	74.44
426.513	91.44
426.735	71.44
426.958	79.44
427.18	86.44
427.402	83.44
427.625	95.44
427.847	98.44
428.069	86.44
428.292	86.44
428.514	84.44
428.736	93.44
428.958	82.44
429.181	98.44
429.403	101.44
429.625	89.44
429.847	89.44
430.069	93.44
430.292	114.44
430.514	118.44
430.736	80.44
430.958	90.44
431.18	81.44
431.402	86.44
431.624	95.44
431.846	83.44
432.068	73.44
432.29	93.44
432.512	93.44
432.734	81.44
432.956	75.44
433.178	97.44
433.4	83.44
433.622	74.44
433.844	90.44
434.066	81.44
434.287	59.44
434.509	79.44
434.731	71.44
434.953	77.44
435.175	87.44
435.397	70.44
435.618	95.44
435.84	75.44
436.062	86.44
436.284	76.44
436.505	88.44
436.727	66.44
436.949	90.44
437.17	79.44
437.392	73.44
437.614	86.44
437.835	86.44
438.057	84.44
438.278	79.44
438.5	87.44
438.721	80.44
438.943	62.44
439.165	81.44
439.386	77.44
439.608	77.44
439.829	83.44
440.05	88.44
440.272	83.44
440.493	83.44
440.715	78.44
440.936	75.44
441.158	81.44
441.379	64.44
441.6	89.44
441.822	91.44
442.043	86.44
442.264	94.44
442.486	89.44
442.707	89.44
442.928	93.44
443.149	87.44
443.371	97.44
443.592	112.44
443.813	96.44
444.034	89.44
444.255	87.44
444.476	87.44
444.698	77.44
444.919	77.44
445.14	140.44
445.361	120.44
445.582	115.44
445.803	110.44
446.024	86.44
446.245	88.44
446.466	76.44
446.687	94.44
446.908	89.44
447.129	76.44
447.35	61.44
447.571	70.44
447.792	77.44
448.013	74.44
448.234	78.44
448.455	83.44
448.675	75.44
448.896	74.44
449.117	88.44
449.338	66.44
449.559	81.44
449.779	90.44
450	78.44
450.221	85.44
450.442	79.44
450.662	79.44
450.883	86.44
451.104	86.44
451.324	84.44
451.545	82.44
451.766	81.44
451.986	95.44
452.207	79.44
452.428	86.44
452.648	90.44
452.869	76.44
453.089	68.44
453.31	93.44
453.53	80.44
453.751	78.44
453.971	83.44
454.192	90.44
454.412	84.44
454.633	72.44
454.853	86.44
455.073	70.44
455.294	94.44
455.514	81.44
455.734	66.44
455.955	81.44
456.175	90.44
456.395	85.44
456.616	83.44
456.836	83.44
457.056	65.44
457.276	87.44
457.497	87.44
457.717	90.44
457.937	66.44
458.157	82.44
458.377	75.44
458.598	97.44
458.818	99.44
459.038	82.44
459.258	87.44
459.478	81.44
459.698	93.44
459.918	72.44
460.138	66.44
460.358	70.44
460.578	80.44
460.798	94.44
461.018	87.44
461.238	85.44
461.458	75.44
461.678	80.44
461.898	87.44
462.118	84.44
462.338	81.44
462.558	86.44
462.777	79.44
462.997	85.44
463.217	83.44
463.437	72.44
463.657	88.44
463.876	88.44
464.096	68.44
464.316	63.44
464.536	83.44
464.755	79.44
464.975	73.44
465.195	65.44
465.414	73.44
465.634	82.44
465.854	81.44
466.073	91.44
466.293	81.44
466.512	75.44
466.732	67.44
466.951	82.44
467.171	73.44
467.391	82.44
467.61	75.44
467.829	71.44
468.049	82.44
468.268	79.44
468.488	94.44
468.707	65.44
468.927	65.44
469.146	70.44
469.365	86.44
469.585	78.44
469.804	83.44
470.023	86.44
470.243	83.44
470.462	88.44
470.681	89.44
470.901	79.44
471.12	81.44
471.339	80.44
471.558	81.44
471.777	89.44
471.997	77.44
472.216	73.44
472.435	75.44
472.654	96.44
472.873	89.44
473.092	86.44
473.311	87.44
473.53	78.44
473.749	80.44
473.968	80.44
474.187	80.44
474.406	85.44
474.625	79.44
474.844	76.44
475.063	81.44
475.282	85.44
475.501	87.44
475.72	82.44
475.939	79.44
476.158	85.44
476.377	81.44
476.596	83.44
476.814	78.44
477.033	76.44
477.252	76.44
477.471	71.44
477.69	88.44
477.908	85.44
478.127	76.44
478.346	67.44
478.564	90.44
478.783	73.44
479.002	65.44
479.22	97.44
479.439	95.44
479.658	77.44
479.876	79.44
480.095	74.44
480.313	79.44
480.532	69.44
480.751	88.44
480.969	81.44
481.188	66.44
481.406	72.44
481.624	88.44
481.843	78.44
482.061	89.44
482.28	81.44
482.498	83.44
482.717	76.44
482.935	80.44
483.153	82.44
483.372	86.44
483.59	85.44
483.808	90.44
484.027	84.44
484.245	93.44
484.463	87.44
484.681	78.44
484.9	85.44
485.118	82.44
485.336	79.44
485.554	73.44
485.772	79.44
485.99	79.44
486.209	83.44
486.427	68.44
486.645	65.44
486.863	84.44
487.081	85.44
487.299	87.44
487.517	92.44
487.735	89.44
487.953	108.44
488.171	111.44
488.389	82.44
488.607	86.44
488.825	80.44
489.043	88.44
489.261	83.44
489.479	80.44
489.696	88.44
489.914	84.44
490.132	75.44
490.35	79.44
490.568	87.44
490.786	83.44
491.003	85.44
491.221	91.44
491.439	85.44
491.657	97.44
491.874	94.44
492.092	88.44
492.31	90.44
492.527	83.44
492.745	91.44
492.963	76.44
493.18	89.44
493.398	84.44
493.615	99.44
493.833	75.44
494.05	88.44
494.268	75.44
494.485	83.44
494.703	79.44
494.92	79.44
495.138	86.44
495.355	73.44
495.573	79.44
495.79	85.44
496.008	86.44
496.225	91.44
496.442	87.44
496.66	90.44
496.877	79.44
497.094	91.44
497.312	79.44
497.529	78.44
497.746	93.44
497.963	79.44
498.181	69.44
498.398	93.44
498.615	69.44
498.832	91.44
499.049	91.44
499.267	91.44
499.484	101.44
499.701	91.44
499.918	96.44
500.135	74.44
500.352	88.44
500.569	81.44
500.786	82.44
501.003	81.44
501.22	81.44
501.437	86.44
501.654	80.44
501.871	79.44
502.088	85.44
502.305	86.44
502.522	97.44
502.739	99.44
502.956	88.44
503.172	77.44
503.389	95.44
503.606	87.44
503.823	83.44
504.04	92.44
504.256	100.44
504.473	94.44
504.69	86.44
504.907	86.44
505.123	89.44
505.34	77.44
505.557	75.44
505.773	85.44
505.99	85.44
506.207	78.44
506.423	74.44
506.64	78.44
506.856	103.44
507.073	77.44
507.289	91.44
507.506	86.44
507.722	74.44
507.939	82.44
508.155	75.44
508.372	88.44
508.588	86.44
508.805	90.44
509.021	73.44
509.238	85.44
509.454	82.44
509.67	93.44
509.887	83.44
510.103	89.44
510.319	84.44
510.536	93.44
510.752	91.44
510.968	80.44
511.184	77.44
511.401	79.44
511.617	86.44
511.833	79.44
512.049	99.44
512.265	75.44
512.481	87.44
512.698	95.44
512.914	82.44
513.13	73.44
513.346	89.44
513.562	93.44
513.778	96.44
513.994	92.44
514.21	83.44
514.426	93.44
514.642	79.44
514.858	87.44
515.074	87.44
515.29	83.44
515.506	79.44
515.721	88.44
515.937	75.44
516.153	72.44
516.369	87.44
516.585	88.44
516.801	81.44
517.016	88.44
517.232	90.44
517.448	87.44
517.664	100.44
517.879	68.44
518.095	86.44
518.311	86.44
518.527	82.44
518.742	83.44
518.958	100.44
519.173	94.44
519.389	90.44
519.605	94.44
519.82	88.44
