Data from 17600_2_HRD10591_00044.txt Node
Date: Mon Jan 19 14:08:44 EST 2026
User: Yrep
Spectrometer: HR+D1059
Trigger mode: 1
Integration Time (sec): 1.000000E-1
Scans to average: 1
Electric dark correction enabled: true
Nonlinearity correction enabled: false
Boxcar width: 0
XAxis mode: Wavelengths
Number of Pixels in Spectrum: 2048
>>>>>Begin Spectral Data<<<<<
223.165	-13
223.4	-13
223.635	-13
223.869	-26
224.104	-23
224.338	-20
224.573	-16
224.808	-4
225.042	6
225.277	-12
225.511	3
225.746	-1
225.98	-3
226.215	23
226.449	21
226.683	23
226.918	19
227.152	23
227.387	39
227.621	43
227.856	52
228.09	49
228.324	61
228.559	54
228.793	66
229.027	73
229.262	72
229.496	57
229.73	76
229.964	79
230.199	67
230.433	73
230.667	91
230.901	75
231.136	99
231.37	90
231.604	93
231.838	83
232.072	82
232.306	79
232.541	86
232.775	93
233.009	100
233.243	74
233.477	78
233.711	81
233.945	77
234.179	66
234.413	83
234.647	75
234.881	76
235.115	83
235.349	75
235.583	78
235.817	81
236.051	82
236.285	83
236.519	79
236.753	76
236.987	83
237.221	83
237.455	76
237.689	81
237.922	81
238.156	84
238.39	83
238.624	73
238.858	85
239.091	65
239.325	75
239.559	77
239.793	94
240.027	78
240.26	75
240.494	72
240.728	80
240.961	88
241.195	87
241.429	73
241.662	83
241.896	81
242.13	76
242.363	85
242.597	75
242.83	77
243.064	81
243.298	67
243.531	66
243.765	75
243.998	76
244.232	78
244.465	87
244.699	77
244.932	90
245.166	71
245.399	83
245.633	80
245.866	63
246.099	94
246.333	91
246.566	89
246.8	72
247.033	71
247.266	82
247.5	76
247.733	79
247.966	81
248.2	71
248.433	78
248.666	81
248.899	74
249.133	82
249.366	81
249.599	74
249.832	79
250.066	77
250.299	76
250.532	85
250.765	73
250.998	66
251.231	81
251.465	91
251.698	89
251.931	87
252.164	73
252.397	76
252.63	72
252.863	87
253.096	71
253.329	83
253.562	89
253.795	78
254.028	75
254.261	72
254.494	86
254.727	78
254.96	90
255.193	70
255.426	96
255.659	81
255.892	79
256.124	80
256.357	67
256.59	85
256.823	92
257.056	74
257.289	86
257.521	82
257.754	86
257.987	75
258.22	89
258.452	83
258.685	89
258.918	99
259.151	73
259.383	81
259.616	89
259.849	74
260.081	89
260.314	87
260.547	89
260.779	72
261.012	90
261.244	90
261.477	84
261.71	88
261.942	80
262.175	90
262.407	90
262.64	67
262.872	84
263.105	80
263.337	72
263.57	86
263.802	100
264.035	80
264.267	80
264.499	80
264.732	70
264.964	88
265.197	85
265.429	92
265.661	93
265.894	87
266.126	81
266.358	78
266.591	67
266.823	84
267.055	89
267.287	102
267.52	83
267.752	80
267.984	83
268.216	86
268.448	88
268.681	98
268.913	83
269.145	91
269.377	84
269.609	85
269.841	87
270.073	79
270.306	97
270.538	88
270.77	77
271.002	75
271.234	74
271.466	91
271.698	91
271.93	92
272.162	83
272.394	98
272.626	84
272.858	75
273.09	83
273.322	84
273.553	80
273.785	85
274.017	85
274.249	88
274.481	79
274.713	81
274.945	84
275.176	79
275.408	89
275.64	99
275.872	93
276.104	79
276.335	87
276.567	77
276.799	83
277.031	86
277.262	84
277.494	92
277.726	88
277.957	75
278.189	91
278.421	96
278.652	84
278.884	92
279.115	83
279.347	86
279.579	98
279.81	83
280.042	89
280.273	95
280.505	87
280.736	83
280.968	92
281.199	80
281.431	89
281.662	73
281.894	95
282.125	81
282.356	92
282.588	74
282.819	98
283.051	90
283.282	87
283.513	83
283.745	87
283.976	97
284.207	96
284.439	95
284.67	86
284.901	95
285.132	89
285.364	93
285.595	86
285.826	75
286.057	84
286.288	83
286.52	89
286.751	103
286.982	83
287.213	78
287.444	80
287.675	85
287.906	83
288.138	88
288.369	101
288.6	96
288.831	92
289.062	83
289.293	109
289.524	88
289.755	84
289.986	95
290.217	89
290.448	86
290.679	88
290.91	74
291.141	77
291.371	80
291.602	83
291.833	92
292.064	77
292.295	85
292.526	82
292.757	83
292.987	81
293.218	88
293.449	85
293.68	78
293.91	87
294.141	82
294.372	87
294.603	85
294.833	82
295.064	95
295.295	91
295.525	88
295.756	84
295.987	83
296.217	83
296.448	95
296.679	94
296.909	89
297.14	97
297.37	94
297.601	85
297.831	89
298.062	81
298.292	83
298.523	82
298.753	80
298.984	94
299.214	88
299.445	92
299.675	86
299.905	86
300.136	94
300.366	93
300.597	91
300.827	95
301.057	98
301.288	96
301.518	91
301.748	108
301.979	98
302.209	103
302.439	91
302.669	76
302.9	75
303.13	84
303.36	84
303.59	88
303.82	105
304.051	92
304.281	87
304.511	103
304.741	88
304.971	89
305.201	82
305.431	74
305.661	85
305.891	91
306.121	80
306.352	79
306.582	92
306.812	78
307.042	99
307.272	99
307.502	75
307.731	97
307.961	92
308.191	79
308.421	99
308.651	81
308.881	107
309.111	87
309.341	93
309.571	102
309.8	90
310.03	93
310.26	79
310.49	93
310.72	97
310.949	89
311.179	97
311.409	90
311.639	83
311.868	90
312.098	87
312.328	66
312.557	84
312.787	98
313.017	92
313.246	83
313.476	86
313.706	76
313.935	98
314.165	89
314.394	103
314.624	96
314.853	89
315.083	95
315.312	100
315.542	98
315.771	96
316.001	98
316.23	97
316.46	91
316.689	84
316.919	84
317.148	86
317.377	101
317.607	98
317.836	122
318.065	109
318.295	115
318.524	99
318.753	96
318.983	93
319.212	90
319.441	81
319.67	88
319.9	91
320.129	91
320.358	85
320.587	81
320.816	96
321.046	85
321.275	80
321.504	99
321.733	91
321.962	90
322.191	79
322.42	79
322.649	97
322.878	87
323.108	100
323.337	85
323.566	87
323.795	89
324.024	82
324.253	87
324.482	88
324.71	91
324.939	89
325.168	103
325.397	77
325.626	87
325.855	75
326.084	70
326.313	81
326.542	91
326.77	84
326.999	91
327.228	83
327.457	86
327.686	83
327.914	93
328.143	84
328.372	93
328.6	80
328.829	85
329.058	85
329.287	88
329.515	108
329.744	92
329.972	91
330.201	80
330.43	97
330.658	100
330.887	76
331.115	115
331.344	80
331.572	76
331.801	98
332.03	88
332.258	99
332.486	76
332.715	91
332.943	80
333.172	84
333.4	97
333.629	82
333.857	85
334.085	103
334.314	89
334.542	87
334.771	97
334.999	88
335.227	99
335.455	90
335.684	83
335.912	98
336.14	93
336.369	105
336.597	89
336.825	92
337.053	80
337.281	78
337.51	85
337.738	91
337.966	99
338.194	82
338.422	107
338.65	82
338.878	83
339.106	95
339.334	85
339.562	73
339.79	89
340.018	91
340.246	84
340.474	95
340.702	85
340.93	84
341.158	93
341.386	92
341.614	96
341.842	91
342.07	81
342.298	93
342.526	89
342.754	92
342.981	87
343.209	96
343.437	98
343.665	89
343.893	83
344.12	91
344.348	113
344.576	91
344.804	86
345.031	88
345.259	106
345.487	87
345.714	88
345.942	80
346.17	94
346.397	89
346.625	84
346.853	87
347.08	87
347.308	92
347.535	85
347.763	77
347.99	89
348.218	86
348.445	77
348.673	85
348.9	97
349.128	99
349.355	89
349.583	98
349.81	77
350.037	95
350.265	89
350.492	81
350.72	91
350.947	84
351.174	91
351.402	83
351.629	85
351.856	91
352.083	97
352.311	91
352.538	91
352.765	106
352.992	86
353.22	89
353.447	100
353.674	73
353.901	86
354.128	74
354.355	87
354.583	81
354.81	90
355.037	89
355.264	98
355.491	102
355.718	92
355.945	91
356.172	83
356.399	83
356.626	98
356.853	83
357.08	83
357.307	102
357.534	82
357.761	85
357.988	90
358.215	108
358.441	96
358.668	88
358.895	84
359.122	92
359.349	97
359.576	83
359.802	80
360.029	88
360.256	101
360.483	74
360.709	90
360.936	101
361.163	95
361.39	81
361.616	91
361.843	101
362.07	108
362.296	100
362.523	115
362.749	107
362.976	121
363.203	139
363.429	102
363.656	110
363.882	111
364.109	116
364.335	141
364.562	137
364.788	123
365.015	101
365.241	81
365.468	99
365.694	103
365.92	88
366.147	85
366.373	75
366.599	83
366.826	81
367.052	78
367.278	96
367.505	101
367.731	105
367.957	91
368.184	96
368.41	97
368.636	105
368.862	91
369.089	88
369.315	89
369.541	111
369.767	94
369.993	98
370.219	76
370.445	85
370.672	109
370.898	98
371.124	99
371.35	72
371.576	81
371.802	89
372.028	94
372.254	101
372.48	106
372.706	91
372.932	98
373.158	88
373.384	93
373.61	107
373.835	124
374.061	107
374.287	74
374.513	99
374.739	107
374.965	108
375.191	106
375.416	86
375.642	105
375.868	98
376.094	98
376.319	104
376.545	99
376.771	107
376.997	87
377.222	97
377.448	100
377.674	93
377.899	91
378.125	96
378.35	83
378.576	98
378.802	99
379.027	89
379.253	83
379.478	77
379.704	94
379.929	95
380.155	96
380.38	91
380.606	84
380.831	98
381.057	98
381.282	92
381.507	98
381.733	102
381.958	107
382.184	104
382.409	98
382.634	114
382.86	106
383.085	103
383.31	112
383.535	117
383.761	98
383.986	96
384.211	95
384.436	102
384.662	81
384.887	106
385.112	113
385.337	113
385.562	92
385.787	105
386.013	118
386.238	104
386.463	107
386.688	106
386.913	99
387.138	113
387.363	111
387.588	105
387.813	119
388.038	105
388.263	100
388.488	102
388.713	101
388.938	97
389.163	108
389.387	98
389.612	88
389.837	76
390.062	117
390.287	99
390.512	97
390.736	84
390.961	96
391.186	105
391.411	93
391.636	86
391.86	95
392.085	105
392.31	112
392.534	114
392.759	136
392.984	222
393.208	387
393.433	603
393.658	451
393.882	195
394.107	128
394.331	135
394.556	144
394.78	114
395.005	104
395.229	89
395.454	111
395.678	118
395.903	151
396.127	168
396.352	203
396.576	257
396.801	385
397.025	478
397.249	261
397.474	147
397.698	105
397.922	105
398.147	108
398.371	105
398.595	96
398.82	95
399.044	91
399.268	83
399.492	88
399.717	88
399.941	85
400.165	83
400.389	71
400.613	76
400.837	81
401.062	89
401.286	85
401.51	77
401.734	91
401.958	89
402.182	96
402.406	78
402.63	80
402.854	93
403.078	89
403.302	100
403.526	88
403.75	75
403.974	99
404.198	76
404.422	97
404.645	94
404.869	99
405.093	84
405.317	104
405.541	82
405.765	88
405.988	92
406.212	96
406.436	86
406.66	90
406.883	75
407.107	97
407.331	98
407.555	127
407.778	151
408.002	160
408.226	103
408.449	96
408.673	100
408.896	93
409.12	103
409.344	105
409.567	100
409.791	108
410.014	104
410.238	90
410.461	87
410.685	88
410.908	80
411.132	96
411.355	91
411.578	111
411.802	101
412.025	83
412.249	87
412.472	95
412.695	97
412.919	87
413.142	83
413.365	93
413.589	89
413.812	89
414.035	96
414.258	77
414.482	107
414.705	92
414.928	88
415.151	89
415.374	91
415.597	99
415.821	91
416.044	89
416.267	83
416.49	86
416.713	84
416.936	86
417.159	97
417.382	84
417.605	81
417.828	101
418.051	98
418.274	85
418.497	112
418.72	72
418.943	89
419.166	81
419.389	94
419.611	67
419.834	96
420.057	99
420.28	89
420.503	83
420.726	99
420.948	93
421.171	119
421.394	115
421.617	155
421.839	148
422.062	141
422.285	191
422.507	343
422.73	518
422.953	442
423.175	236
423.398	140
423.621	107
423.843	93
424.066	100
424.288	96
424.511	85
424.733	87
424.956	87
425.178	103
425.401	96
425.623	94
425.846	104
426.068	94
426.291	81
426.513	91
426.735	106
426.958	83
427.18	97
427.402	93
427.625	92
427.847	99
428.069	91
428.292	131
428.514	154
428.736	135
428.958	154
429.181	150
429.403	102
429.625	106
429.847	138
430.069	196
430.292	205
430.514	213
430.736	140
430.958	154
431.18	107
431.402	114
431.624	103
431.846	148
432.068	147
432.29	104
432.512	100
432.734	85
432.956	91
433.178	96
433.4	83
433.622	74
433.844	88
434.066	93
434.287	84
434.509	93
434.731	75
434.953	77
435.175	80
435.397	100
435.618	102
435.84	98
436.062	95
436.284	86
436.505	104
436.727	79
436.949	86
437.17	93
437.392	88
437.614	92
437.835	92
438.057	89
438.278	89
438.5	106
438.721	98
438.943	91
439.165	65
439.386	92
439.608	91
439.829	93
440.05	98
440.272	79
440.493	99
440.715	95
440.936	88
441.158	75
441.379	71
441.6	100
441.822	100
442.043	104
442.264	106
442.486	147
442.707	204
442.928	152
443.149	116
443.371	168
443.592	292
443.813	259
444.034	111
444.255	103
444.476	99
444.698	86
444.919	97
445.14	195
445.361	236
445.582	347
445.803	287
446.024	155
446.245	107
446.466	105
446.687	71
446.908	96
447.129	91
447.35	103
447.571	93
447.792	75
448.013	92
448.234	105
448.455	81
448.675	97
448.896	77
449.117	80
449.338	84
449.559	85
449.779	93
450	76
450.221	98
450.442	79
450.662	84
450.883	78
451.104	84
451.324	74
451.545	92
451.766	99
451.986	85
452.207	90
452.428	92
452.648	89
452.869	116
453.089	107
453.31	83
453.53	95
453.751	95
453.971	91
454.192	85
454.412	95
454.633	93
454.853	89
455.073	103
455.294	99
455.514	97
455.734	95
455.955	78
456.175	80
456.395	82
456.616	89
456.836	88
457.056	89
457.276	83
457.497	84
457.717	97
457.937	118
458.157	145
458.377	138
458.598	143
458.818	136
459.038	95
459.258	95
459.478	82
459.698	92
459.918	88
460.138	107
460.358	93
460.578	89
460.798	142
461.018	151
461.238	86
461.458	88
461.678	91
461.898	92
462.118	91
462.338	92
462.558	95
462.777	85
462.997	82
463.217	87
463.437	97
463.657	92
463.876	83
464.096	78
464.316	84
464.536	91
464.755	85
464.975	87
465.195	91
465.414	85
465.634	82
465.854	90
466.073	74
466.293	78
466.512	96
466.732	89
466.951	94
467.171	97
467.391	101
467.61	92
467.829	80
468.049	82
468.268	91
468.488	86
468.707	90
468.927	74
469.146	90
469.365	88
469.585	82
469.804	91
470.023	83
470.243	78
470.462	86
470.681	96
470.901	79
471.12	95
471.339	76
471.558	106
471.777	84
471.997	91
472.216	90
472.435	80
472.654	88
472.873	77
473.092	80
473.311	90
473.53	76
473.749	95
473.968	102
474.187	92
474.406	87
474.625	87
474.844	85
475.063	74
475.282	88
475.501	97
475.72	121
475.939	103
476.158	84
476.377	87
476.596	95
476.814	74
477.033	86
477.252	88
477.471	91
477.69	85
477.908	102
478.127	87
478.346	91
478.564	89
478.783	74
479.002	85
479.22	71
479.439	102
479.658	100
479.876	96
480.095	80
480.313	93
480.532	90
480.751	90
480.969	92
481.188	104
481.406	84
481.624	92
481.843	80
482.061	87
482.28	87
482.498	88
482.717	84
482.935	98
483.153	90
483.372	99
483.59	73
483.808	87
484.027	91
484.245	97
484.463	87
484.681	100
484.9	81
485.118	104
485.336	88
485.554	92
485.772	93
485.99	81
486.209	88
486.427	99
486.645	89
486.863	93
487.081	90
487.299	103
487.517	112
487.735	145
487.953	231
488.171	158
488.389	99
488.607	85
488.825	97
489.043	79
489.261	92
489.479	92
489.696	89
489.914	105
490.132	86
490.35	99
490.568	95
490.786	84
491.003	77
491.221	91
491.439	86
491.657	93
491.874	86
492.092	97
492.31	96
492.527	91
492.745	97
492.963	91
493.18	90
493.398	96
493.615	85
493.833	87
494.05	86
494.268	91
494.485	102
494.703	100
494.92	93
495.138	87
495.355	81
495.573	86
495.79	106
496.008	105
496.225	82
496.442	99
496.66	95
496.877	82
497.094	98
497.312	84
497.529	82
497.746	92
497.963	95
498.181	109
498.398	106
498.615	104
498.832	89
499.049	95
499.267	93
499.484	95
499.701	92
499.918	103
500.135	100
500.352	100
500.569	98
500.786	111
501.003	104
501.22	87
501.437	91
501.654	103
501.871	103
502.088	85
502.305	101
502.522	95
502.739	85
502.956	82
503.172	95
503.389	95
503.606	71
503.823	107
504.04	113
504.256	156
504.473	164
504.69	103
504.907	102
505.123	93
505.34	96
505.557	89
505.773	91
505.99	104
506.207	89
506.423	97
506.64	96
506.856	105
507.073	87
507.289	90
507.506	92
507.722	96
507.939	87
508.155	97
508.372	71
508.588	79
508.805	89
509.021	92
509.238	93
509.454	87
509.67	88
509.887	91
510.103	87
510.319	81
510.536	90
510.752	83
510.968	86
511.184	84
511.401	80
511.617	92
511.833	85
512.049	91
512.265	83
512.481	84
512.698	84
512.914	91
513.13	79
513.346	86
513.562	93
513.778	93
513.994	98
514.21	85
514.426	92
514.642	87
514.858	80
515.074	87
515.29	93
515.506	87
515.721	87
515.937	97
516.153	86
516.369	102
516.585	87
516.801	98
517.016	98
517.232	100
517.448	96
517.664	93
517.879	92
518.095	100
518.311	109
518.527	117
518.742	127
518.958	186
519.173	199
519.389	115
519.605	98
519.82	92
520.036	85
520.251	94
520.467	92
520.682	84
520.898	98
521.113	93
521.329	111
521.544	97
521.76	99
521.975	90
522.19	98
522.406	83
522.621	91
522.836	98
523.052	83
523.267	95
523.482	83
523.698	90
523.913	92
524.128	102
524.343	91
524.559	82
524.774	90
524.989	82
525.204	92
525.419	90
525.634	96
525.849	111
526.064	140
526.28	280
526.495	374
526.71	428
526.925	285
527.14	364
527.355	300
527.57	126
527.785	107
527.999	86
528.214	95
528.429	85
528.644	102
528.859	94
529.074	107
529.289	106
529.503	103
529.718	97
529.933	99
530.148	89
530.363	104
530.577	106
530.792	91
531.007	95
531.221	97
531.436	105
531.651	91
531.865	99
532.08	97
532.295	95
532.509	101
532.724	85
532.938	99
533.153	104
533.367	92
533.582	92
533.796	94
534.011	103
534.225	97
534.44	116
534.654	111
534.868	115
535.083	220
535.297	162
535.511	113
535.726	113
535.94	99
536.154	105
536.369	114
536.583	73
536.797	87
537.011	95
537.225	92
537.44	87
537.654	106
537.868	100
538.082	101
538.296	105
538.51	101
538.724	108
538.938	108
539.153	113
539.367	109
539.581	103
539.795	99
540.009	106
540.222	101
540.436	115
540.65	108
540.864	114
541.078	109
541.292	115
541.506	118
541.72	109
541.934	119
542.147	106
542.361	109
542.575	107
542.789	102
543.002	115
543.216	106
543.43	105
543.644	115
543.857	101
544.071	104
544.285	115
544.498	107
544.712	104
544.925	92
545.139	101
545.352	119
545.566	131
545.779	99
545.993	113
546.206	115
546.42	113
546.633	116
546.847	143
547.06	145
547.274	147
547.487	167
547.7	207
547.914	198
548.127	201
548.34	202
548.554	213
548.767	203
548.98	227
549.193	199
549.407	211
549.62	241
549.833	236
550.046	264
550.259	246
550.473	249
550.686	295
550.899	306
551.112	315
551.325	361
551.538	370
551.751	311
551.964	308
552.177	296
552.39	291
552.603	298
552.816	304
553.029	290
553.242	284
553.455	286
553.667	319
553.88	327
554.093	317
554.306	310
554.519	316
554.732	312
554.944	323
555.157	287
555.37	284
555.583	276
555.795	252
556.008	258
556.221	224
556.433	228
556.646	207
556.859	211
557.071	197
557.284	208
557.496	191
557.709	177
557.921	174
558.134	176
558.346	262
558.559	226
558.771	204
558.984	376
559.196	480
559.409	284
559.621	375
559.833	295
560.046	347
560.258	291
560.47	289
560.683	162
560.895	127
561.107	138
561.32	127
561.532	99
561.744	113
561.956	103
562.168	118
562.381	111
562.593	109
562.805	93
563.017	115
563.229	104
563.441	115
563.653	101
563.865	91
564.077	95
564.289	117
564.501	111
564.713	111
564.925	109
565.137	97
565.349	97
565.561	100
565.773	99
565.985	118
566.197	103
566.408	89
566.62	111
566.832	122
567.044	99
567.255	118
567.467	103
567.679	97
567.891	107
568.102	103
568.314	115
568.526	117
568.737	116
568.949	112
569.161	111
569.372	103
569.584	100
569.795	108
570.007	111
570.218	103
570.43	97
570.641	105
570.853	107
571.064	105
571.276	107
571.487	103
571.698	111
571.91	111
572.121	100
572.333	108
572.544	99
572.755	96
572.966	122
573.178	99
573.389	100
573.6	111
573.811	101
574.023	98
574.234	101
574.445	119
574.656	95
574.867	105
575.078	100
575.289	96
575.501	114
575.712	96
575.923	107
576.134	95
576.345	96
576.556	84
576.767	101
576.978	111
577.188	91
577.399	99
577.61	93
577.821	103
578.032	92
578.243	87
578.454	105
578.665	92
578.875	90
579.086	93
579.297	86
579.508	101
579.718	97
579.929	115
580.14	101
580.35	105
580.561	100
580.772	95
580.982	94
581.193	93
581.403	94
581.614	97
581.825	106
582.035	95
582.246	97
582.456	104
582.667	101
582.877	90
