Data from 17600_2_HRD10591_00049.txt Node
Date: Mon Jan 19 14:08:47 EST 2026
User: Yrep
Spectrometer: HR+D1059
Trigger mode: 1
Integration Time (sec): 1.000000E-1
Scans to average: 1
Electric dark correction enabled: true
Nonlinearity correction enabled: false
Boxcar width: 0
XAxis mode: Wavelengths
Number of Pixels in Spectrum: 2048
>>>>>Begin Spectral Data<<<<<
223.165	-9.12
223.4	-9.12
223.635	-9.12
223.869	-15.12
224.104	-23.12
224.338	-22.12
224.573	-8.12
224.808	-18.12
225.042	-21.12
225.277	-11.12
225.511	-11.12
225.746	7.88
225.98	4.88
226.215	10.88
226.449	27.88
226.683	37.88
226.918	25.88
227.152	23.88
227.387	47.88
227.621	48.88
227.856	55.88
228.09	46.88
228.324	65.88
228.559	41.88
228.793	40.88
229.027	53.88
229.262	74.88
229.496	56.88
229.73	64.88
229.964	67.88
230.199	56.88
230.433	66.88
230.667	64.88
230.901	70.88
231.136	73.88
231.37	84.88
231.604	71.88
231.838	76.88
232.072	70.88
232.306	75.88
232.541	74.88
232.775	76.88
233.009	84.88
233.243	69.88
233.477	80.88
233.711	94.88
233.945	84.88
234.179	75.88
234.413	74.88
234.647	79.88
234.881	87.88
235.115	82.88
235.349	72.88
235.583	83.88
235.817	76.88
236.051	88.88
236.285	87.88
236.519	84.88
236.753	77.88
236.987	82.88
237.221	78.88
237.455	85.88
237.689	81.88
237.922	77.88
238.156	73.88
238.39	60.88
238.624	68.88
238.858	64.88
239.091	74.88
239.325	76.88
239.559	65.88
239.793	74.88
240.027	81.88
240.26	86.88
240.494	77.88
240.728	75.88
240.961	71.88
241.195	82.88
241.429	75.88
241.662	75.88
241.896	75.88
242.13	81.88
242.363	80.88
242.597	85.88
242.83	72.88
243.064	67.88
243.298	65.88
243.531	68.88
243.765	85.88
243.998	86.88
244.232	75.88
244.465	78.88
244.699	67.88
244.932	84.88
245.166	78.88
245.399	72.88
245.633	78.88
245.866	70.88
246.099	99.88
246.333	68.88
246.566	69.88
246.8	72.88
247.033	58.88
247.266	74.88
247.5	75.88
247.733	87.88
247.966	75.88
248.2	79.88
248.433	64.88
248.666	78.88
248.899	78.88
249.133	83.88
249.366	74.88
249.599	78.88
249.832	75.88
250.066	74.88
250.299	77.88
250.532	85.88
250.765	88.88
250.998	84.88
251.231	75.88
251.465	90.88
251.698	77.88
251.931	72.88
252.164	84.88
252.397	70.88
252.63	75.88
252.863	66.88
253.096	86.88
253.329	97.88
253.562	79.88
253.795	85.88
254.028	75.88
254.261	86.88
254.494	80.88
254.727	82.88
254.96	84.88
255.193	87.88
255.426	73.88
255.659	74.88
255.892	71.88
256.124	79.88
256.357	70.88
256.59	78.88
256.823	88.88
257.056	88.88
257.289	81.88
257.521	85.88
257.754	74.88
257.987	68.88
258.22	90.88
258.452	70.88
258.685	84.88
258.918	95.88
259.151	85.88
259.383	77.88
259.616	88.88
259.849	86.88
260.081	78.88
260.314	89.88
260.547	90.88
260.779	77.88
261.012	71.88
261.244	80.88
261.477	90.88
261.71	72.88
261.942	65.88
262.175	90.88
262.407	68.88
262.64	86.88
262.872	72.88
263.105	66.88
263.337	85.88
263.57	91.88
263.802	90.88
264.035	87.88
264.267	78.88
264.499	85.88
264.732	90.88
264.964	70.88
265.197	82.88
265.429	78.88
265.661	88.88
265.894	72.88
266.126	92.88
266.358	75.88
266.591	71.88
266.823	91.88
267.055	78.88
267.287	90.88
267.52	82.88
267.752	78.88
267.984	77.88
268.216	91.88
268.448	90.88
268.681	71.88
268.913	66.88
269.145	90.88
269.377	82.88
269.609	85.88
269.841	80.88
270.073	74.88
270.306	84.88
270.538	75.88
270.77	76.88
271.002	80.88
271.234	89.88
271.466	92.88
271.698	71.88
271.93	78.88
272.162	70.88
272.394	86.88
272.626	81.88
272.858	74.88
273.09	85.88
273.322	76.88
273.553	82.88
273.785	82.88
274.017	79.88
274.249	92.88
274.481	83.88
274.713	76.88
274.945	62.88
275.176	92.88
275.408	75.88
275.64	91.88
275.872	84.88
276.104	98.88
276.335	78.88
276.567	79.88
276.799	78.88
277.031	93.88
277.262	81.88
277.494	91.88
277.726	66.88
277.957	70.88
278.189	76.88
278.421	70.88
278.652	95.88
278.884	83.88
279.115	80.88
279.347	86.88
279.579	81.88
279.81	89.88
280.042	74.88
280.273	91.88
280.505	82.88
280.736	80.88
280.968	94.88
281.199	75.88
281.431	104.88
281.662	86.88
281.894	86.88
282.125	96.88
282.356	88.88
282.588	76.88
282.819	83.88
283.051	80.88
283.282	77.88
283.513	94.88
283.745	75.88
283.976	70.88
284.207	90.88
284.439	79.88
284.67	87.88
284.901	99.88
285.132	85.88
285.364	75.88
285.595	86.88
285.826	76.88
286.057	74.88
286.288	81.88
286.52	88.88
286.751	65.88
286.982	84.88
287.213	97.88
287.444	96.88
287.675	82.88
287.906	83.88
288.138	76.88
288.369	84.88
288.6	83.88
288.831	77.88
289.062	85.88
289.293	82.88
289.524	89.88
289.755	78.88
289.986	86.88
290.217	77.88
290.448	72.88
290.679	82.88
290.91	86.88
291.141	93.88
291.371	83.88
291.602	84.88
291.833	82.88
292.064	74.88
292.295	90.88
292.526	90.88
292.757	83.88
292.987	83.88
293.218	81.88
293.449	77.88
293.68	90.88
293.91	81.88
294.141	80.88
294.372	90.88
294.603	87.88
294.833	81.88
295.064	80.88
295.295	97.88
295.525	82.88
295.756	91.88
295.987	82.88
296.217	78.88
296.448	79.88
296.679	88.88
296.909	85.88
297.14	88.88
297.37	94.88
297.601	88.88
297.831	85.88
298.062	88.88
298.292	87.88
298.523	89.88
298.753	86.88
298.984	91.88
299.214	71.88
299.445	83.88
299.675	86.88
299.905	94.88
300.136	92.88
300.366	71.88
300.597	67.88
300.827	96.88
301.057	111.88
301.288	66.88
301.518	89.88
301.748	96.88
301.979	101.88
302.209	89.88
302.439	82.88
302.669	81.88
302.9	70.88
303.13	86.88
303.36	90.88
303.59	90.88
303.82	93.88
304.051	90.88
304.281	83.88
304.511	72.88
304.741	87.88
304.971	84.88
305.201	78.88
305.431	92.88
305.661	84.88
305.891	82.88
306.121	76.88
306.352	96.88
306.582	82.88
306.812	94.88
307.042	90.88
307.272	89.88
307.502	76.88
307.731	96.88
307.961	86.88
308.191	77.88
308.421	83.88
308.651	94.88
308.881	89.88
309.111	82.88
309.341	81.88
309.571	79.88
309.8	102.88
310.03	82.88
310.26	78.88
310.49	82.88
310.72	68.88
310.949	71.88
311.179	86.88
311.409	78.88
311.639	87.88
311.868	95.88
312.098	96.88
312.328	80.88
312.557	81.88
312.787	101.88
313.017	90.88
313.246	77.88
313.476	87.88
313.706	96.88
313.935	87.88
314.165	77.88
314.394	82.88
314.624	83.88
314.853	90.88
315.083	78.88
315.312	89.88
315.542	66.88
315.771	83.88
316.001	100.88
316.23	78.88
316.46	86.88
316.689	85.88
316.919	79.88
317.148	82.88
317.377	89.88
317.607	83.88
317.836	81.88
318.065	90.88
318.295	90.88
318.524	86.88
318.753	79.88
318.983	84.88
319.212	83.88
319.441	96.88
319.67	89.88
319.9	82.88
320.129	76.88
320.358	85.88
320.587	82.88
320.816	83.88
321.046	95.88
321.275	75.88
321.504	91.88
321.733	80.88
321.962	86.88
322.191	96.88
322.42	87.88
322.649	79.88
322.878	58.88
323.108	84.88
323.337	82.88
323.566	88.88
323.795	82.88
324.024	95.88
324.253	70.88
324.482	67.88
324.71	81.88
324.939	86.88
325.168	89.88
325.397	86.88
325.626	90.88
325.855	82.88
326.084	75.88
326.313	98.88
326.542	88.88
326.77	89.88
326.999	76.88
327.228	83.88
327.457	83.88
327.686	84.88
327.914	78.88
328.143	97.88
328.372	84.88
328.6	81.88
328.829	80.88
329.058	92.88
329.287	90.88
329.515	78.88
329.744	85.88
329.972	84.88
330.201	78.88
330.43	83.88
330.658	92.88
330.887	73.88
331.115	95.88
331.344	94.88
331.572	98.88
331.801	90.88
332.03	76.88
332.258	84.88
332.486	96.88
332.715	76.88
332.943	104.88
333.172	84.88
333.4	88.88
333.629	84.88
333.857	83.88
334.085	83.88
334.314	95.88
334.542	78.88
334.771	82.88
334.999	69.88
335.227	86.88
335.455	93.88
335.684	83.88
335.912	88.88
336.14	83.88
336.369	76.88
336.597	91.88
336.825	82.88
337.053	84.88
337.281	73.88
337.51	83.88
337.738	88.88
337.966	86.88
338.194	84.88
338.422	80.88
338.65	86.88
338.878	96.88
339.106	87.88
339.334	94.88
339.562	78.88
339.79	77.88
340.018	80.88
340.246	88.88
340.474	97.88
340.702	94.88
340.93	98.88
341.158	86.88
341.386	81.88
341.614	84.88
341.842	86.88
342.07	80.88
342.298	76.88
342.526	80.88
342.754	77.88
342.981	90.88
343.209	94.88
343.437	104.88
343.665	92.88
343.893	88.88
344.12	99.88
344.348	101.88
344.576	91.88
344.804	86.88
345.031	84.88
345.259	78.88
345.487	100.88
345.714	98.88
345.942	78.88
346.17	87.88
346.397	89.88
346.625	83.88
346.853	87.88
347.08	97.88
347.308	85.88
347.535	83.88
347.763	79.88
347.99	87.88
348.218	94.88
348.445	102.88
348.673	74.88
348.9	91.88
349.128	89.88
349.355	91.88
349.583	90.88
349.81	94.88
350.037	85.88
350.265	81.88
350.492	79.88
350.72	81.88
350.947	91.88
351.174	87.88
351.402	88.88
351.629	81.88
351.856	74.88
352.083	86.88
352.311	86.88
352.538	90.88
352.765	97.88
352.992	92.88
353.22	87.88
353.447	98.88
353.674	86.88
353.901	91.88
354.128	104.88
354.355	80.88
354.583	85.88
354.81	83.88
355.037	71.88
355.264	83.88
355.491	96.88
355.718	89.88
355.945	97.88
356.172	86.88
356.399	87.88
356.626	86.88
356.853	75.88
357.08	85.88
357.307	87.88
357.534	89.88
357.761	69.88
357.988	87.88
358.215	96.88
358.441	81.88
358.668	89.88
358.895	86.88
359.122	91.88
359.349	76.88
359.576	84.88
359.802	88.88
360.029	77.88
360.256	96.88
360.483	90.88
360.709	88.88
360.936	86.88
361.163	92.88
361.39	97.88
361.616	77.88
361.843	86.88
362.07	79.88
362.296	86.88
362.523	79.88
362.749	84.88
362.976	92.88
363.203	87.88
363.429	86.88
363.656	88.88
363.882	78.88
364.109	85.88
364.335	87.88
364.562	88.88
364.788	82.88
365.015	83.88
365.241	82.88
365.468	86.88
365.694	94.88
365.92	73.88
366.147	88.88
366.373	80.88
366.599	82.88
366.826	87.88
367.052	76.88
367.278	83.88
367.505	87.88
367.731	88.88
367.957	92.88
368.184	88.88
368.41	83.88
368.636	94.88
368.862	78.88
369.089	86.88
369.315	79.88
369.541	98.88
369.767	91.88
369.993	88.88
370.219	80.88
370.445	85.88
370.672	86.88
370.898	67.88
371.124	82.88
371.35	90.88
371.576	96.88
371.802	80.88
372.028	95.88
372.254	99.88
372.48	87.88
372.706	83.88
372.932	82.88
373.158	80.88
373.384	78.88
373.61	76.88
373.835	96.88
374.061	104.88
374.287	91.88
374.513	88.88
374.739	97.88
374.965	90.88
375.191	89.88
375.416	81.88
375.642	87.88
375.868	70.88
376.094	96.88
376.319	83.88
376.545	79.88
376.771	85.88
376.997	91.88
377.222	73.88
377.448	74.88
377.674	75.88
377.899	97.88
378.125	86.88
378.35	87.88
378.576	86.88
378.802	77.88
379.027	94.88
379.253	81.88
379.478	80.88
379.704	80.88
379.929	94.88
380.155	98.88
380.38	88.88
380.606	88.88
380.831	91.88
381.057	98.88
381.282	80.88
381.507	85.88
381.733	83.88
381.958	79.88
382.184	69.88
382.409	80.88
382.634	78.88
382.86	93.88
383.085	93.88
383.31	80.88
383.535	86.88
383.761	93.88
383.986	82.88
384.211	75.88
384.436	74.88
384.662	77.88
384.887	90.88
385.112	77.88
385.337	98.88
385.562	85.88
385.787	85.88
386.013	78.88
386.238	87.88
386.463	82.88
386.688	94.88
386.913	99.88
387.138	90.88
387.363	80.88
387.588	85.88
387.813	79.88
388.038	82.88
388.263	94.88
388.488	90.88
388.713	86.88
388.938	86.88
389.163	80.88
389.387	91.88
389.612	71.88
389.837	80.88
390.062	85.88
390.287	94.88
390.512	94.88
390.736	64.88
390.961	80.88
391.186	93.88
391.411	82.88
391.636	80.88
391.86	75.88
392.085	78.88
392.31	73.88
392.534	80.88
392.759	86.88
392.984	102.88
393.208	96.88
393.433	126.88
393.658	103.88
393.882	89.88
394.107	103.88
394.331	81.88
394.556	86.88
394.78	84.88
395.005	80.88
395.229	95.88
395.454	90.88
395.678	83.88
395.903	79.88
396.127	91.88
396.352	80.88
396.576	97.88
396.801	106.88
397.025	100.88
397.249	91.88
397.474	88.88
397.698	81.88
397.922	78.88
398.147	92.88
398.371	77.88
398.595	87.88
398.82	95.88
399.044	85.88
399.268	76.88
399.492	84.88
399.717	78.88
399.941	68.88
400.165	86.88
400.389	68.88
400.613	90.88
400.837	88.88
401.062	82.88
401.286	81.88
401.51	85.88
401.734	89.88
401.958	78.88
402.182	84.88
402.406	90.88
402.63	102.88
402.854	75.88
403.078	76.88
403.302	89.88
403.526	87.88
403.75	102.88
403.974	89.88
404.198	77.88
404.422	85.88
404.645	73.88
404.869	68.88
405.093	103.88
405.317	88.88
405.541	85.88
405.765	70.88
405.988	84.88
406.212	91.88
406.436	85.88
406.66	72.88
406.883	89.88
407.107	84.88
407.331	90.88
407.555	80.88
407.778	92.88
408.002	99.88
408.226	68.88
408.449	93.88
408.673	92.88
408.896	87.88
409.12	75.88
409.344	80.88
409.567	87.88
409.791	70.88
410.014	80.88
410.238	95.88
410.461	87.88
410.685	77.88
410.908	89.88
411.132	84.88
411.355	78.88
411.578	92.88
411.802	92.88
412.025	83.88
412.249	76.88
412.472	80.88
412.695	83.88
412.919	84.88
413.142	78.88
413.365	83.88
413.589	85.88
413.812	73.88
414.035	84.88
414.258	88.88
414.482	99.88
414.705	71.88
414.928	86.88
415.151	82.88
415.374	85.88
415.597	88.88
415.821	83.88
416.044	84.88
416.267	78.88
416.49	89.88
416.713	81.88
416.936	90.88
417.159	87.88
417.382	75.88
417.605	86.88
417.828	86.88
418.051	71.88
418.274	75.88
418.497	90.88
418.72	76.88
418.943	80.88
419.166	76.88
419.389	96.88
419.611	82.88
419.834	74.88
420.057	86.88
420.28	91.88
420.503	88.88
420.726	78.88
420.948	92.88
421.171	92.88
421.394	81.88
421.617	88.88
421.839	84.88
422.062	82.88
422.285	86.88
422.507	91.88
422.73	104.88
422.953	113.88
423.175	95.88
423.398	88.88
423.621	87.88
423.843	66.88
424.066	81.88
424.288	75.88
424.511	80.88
424.733	90.88
424.956	94.88
425.178	85.88
425.401	74.88
425.623	77.88
425.846	78.88
426.068	83.88
426.291	78.88
426.513	83.88
426.735	70.88
426.958	80.88
427.18	82.88
427.402	74.88
427.625	80.88
427.847	75.88
428.069	87.88
428.292	87.88
428.514	91.88
428.736	79.88
428.958	98.88
429.181	94.88
429.403	83.88
429.625	85.88
429.847	81.88
430.069	84.88
430.292	91.88
430.514	82.88
430.736	91.88
430.958	86.88
431.18	82.88
431.402	82.88
431.624	72.88
431.846	70.88
432.068	92.88
432.29	91.88
432.512	83.88
432.734	82.88
432.956	66.88
433.178	91.88
433.4	67.88
433.622	73.88
433.844	83.88
434.066	75.88
434.287	75.88
434.509	78.88
434.731	90.88
434.953	86.88
435.175	79.88
435.397	88.88
435.618	96.88
435.84	76.88
436.062	80.88
436.284	87.88
436.505	83.88
436.727	84.88
436.949	95.88
437.17	76.88
437.392	90.88
437.614	84.88
437.835	87.88
438.057	74.88
438.278	68.88
438.5	87.88
438.721	71.88
438.943	75.88
439.165	88.88
439.386	76.88
439.608	106.88
439.829	93.88
440.05	75.88
440.272	78.88
440.493	82.88
440.715	91.88
440.936	92.88
441.158	96.88
441.379	92.88
441.6	108.88
441.822	89.88
442.043	88.88
442.264	82.88
442.486	77.88
442.707	87.88
442.928	88.88
443.149	78.88
443.371	98.88
443.592	106.88
443.813	100.88
444.034	75.88
444.255	73.88
444.476	78.88
444.698	81.88
444.919	94.88
445.14	137.88
445.361	116.88
445.582	94.88
445.803	101.88
446.024	97.88
446.245	102.88
446.466	84.88
446.687	75.88
446.908	68.88
447.129	89.88
447.35	78.88
447.571	79.88
447.792	79.88
448.013	84.88
448.234	78.88
448.455	88.88
448.675	72.88
448.896	92.88
449.117	97.88
449.338	84.88
449.559	95.88
449.779	90.88
450	88.88
450.221	80.88
450.442	88.88
450.662	85.88
450.883	90.88
451.104	88.88
451.324	91.88
451.545	76.88
451.766	78.88
451.986	78.88
452.207	78.88
452.428	86.88
452.648	89.88
452.869	85.88
453.089	91.88
453.31	87.88
453.53	70.88
453.751	80.88
453.971	88.88
454.192	81.88
454.412	87.88
454.633	99.88
454.853	73.88
455.073	91.88
455.294	91.88
455.514	97.88
455.734	84.88
455.955	94.88
456.175	73.88
456.395	81.88
456.616	86.88
456.836	89.88
457.056	69.88
457.276	83.88
457.497	78.88
457.717	86.88
457.937	87.88
458.157	84.88
458.377	87.88
458.598	71.88
458.818	89.88
459.038	75.88
459.258	93.88
459.478	76.88
459.698	71.88
459.918	92.88
460.138	76.88
460.358	83.88
460.578	87.88
460.798	85.88
461.018	83.88
461.238	91.88
461.458	85.88
461.678	86.88
461.898	76.88
462.118	87.88
462.338	78.88
462.558	77.88
462.777	70.88
462.997	75.88
463.217	100.88
463.437	79.88
463.657	81.88
463.876	83.88
464.096	79.88
464.316	88.88
464.536	81.88
464.755	71.88
464.975	61.88
465.195	80.88
465.414	87.88
465.634	82.88
465.854	78.88
466.073	73.88
466.293	76.88
466.512	82.88
466.732	80.88
466.951	66.88
467.171	64.88
467.391	77.88
467.61	71.88
467.829	70.88
468.049	85.88
468.268	91.88
468.488	98.88
468.707	72.88
468.927	82.88
469.146	81.88
469.365	82.88
469.585	85.88
469.804	83.88
470.023	87.88
470.243	68.88
470.462	77.88
470.681	92.88
470.901	81.88
471.12	82.88
471.339	87.88
471.558	92.88
471.777	70.88
471.997	75.88
472.216	80.88
472.435	88.88
472.654	87.88
472.873	81.88
473.092	91.88
473.311	79.88
473.53	90.88
473.749	88.88
473.968	81.88
474.187	68.88
474.406	68.88
474.625	83.88
474.844	100.88
475.063	87.88
475.282	72.88
475.501	79.88
475.72	99.88
475.939	84.88
476.158	85.88
476.377	78.88
476.596	75.88
476.814	90.88
477.033	100.88
477.252	94.88
477.471	84.88
477.69	79.88
477.908	90.88
478.127	93.88
478.346	80.88
478.564	75.88
478.783	74.88
479.002	75.88
479.22	86.88
479.439	96.88
479.658	81.88
479.876	92.88
480.095	77.88
480.313	74.88
480.532	72.88
480.751	79.88
480.969	79.88
481.188	87.88
481.406	72.88
481.624	80.88
481.843	79.88
482.061	80.88
482.28	83.88
482.498	88.88
482.717	87.88
482.935	75.88
483.153	89.88
483.372	85.88
483.59	88.88
483.808	82.88
484.027	78.88
484.245	82.88
484.463	75.88
484.681	78.88
484.9	82.88
485.118	76.88
485.336	93.88
485.554	78.88
485.772	92.88
485.99	82.88
486.209	97.88
486.427	78.88
486.645	71.88
486.863	58.88
487.081	79.88
487.299	86.88
487.517	84.88
487.735	82.88
487.953	94.88
488.171	88.88
488.389	95.88
488.607	94.88
488.825	77.88
489.043	89.88
489.261	82.88
489.479	81.88
489.696	81.88
489.914	93.88
490.132	74.88
490.35	94.88
490.568	99.88
490.786	82.88
491.003	71.88
491.221	71.88
491.439	89.88
491.657	87.88
491.874	77.88
492.092	82.88
492.31	96.88
492.527	87.88
492.745	79.88
492.963	82.88
493.18	81.88
493.398	84.88
493.615	85.88
493.833	95.88
494.05	89.88
494.268	80.88
494.485	72.88
494.703	89.88
494.92	90.88
495.138	75.88
495.355	87.88
495.573	82.88
495.79	85.88
496.008	83.88
496.225	96.88
496.442	87.88
496.66	95.88
496.877	74.88
497.094	86.88
497.312	75.88
497.529	94.88
497.746	69.88
497.963	78.88
498.181	88.88
498.398	74.88
498.615	81.88
498.832	82.88
499.049	65.88
499.267	79.88
499.484	93.88
499.701	90.88
499.918	94.88
500.135	82.88
500.352	89.88
500.569	85.88
500.786	75.88
501.003	86.88
501.22	82.88
501.437	95.88
501.654	87.88
501.871	93.88
502.088	82.88
502.305	81.88
502.522	88.88
502.739	94.88
502.956	78.88
503.172	94.88
503.389	87.88
503.606	79.88
503.823	91.88
504.04	88.88
504.256	92.88
504.473	85.88
504.69	82.88
504.907	86.88
505.123	89.88
505.34	90.88
505.557	95.88
505.773	87.88
505.99	98.88
506.207	86.88
506.423	83.88
506.64	77.88
506.856	76.88
507.073	89.88
507.289	92.88
507.506	80.88
507.722	85.88
507.939	94.88
508.155	88.88
508.372	88.88
508.588	72.88
508.805	75.88
509.021	96.88
509.238	92.88
509.454	83.88
509.67	81.88
509.887	84.88
510.103	84.88
510.319	82.88
510.536	79.88
510.752	72.88
510.968	99.88
511.184	80.88
511.401	78.88
511.617	88.88
511.833	82.88
512.049	84.88
512.265	78.88
512.481	81.88
512.698	84.88
512.914	85.88
513.13	88.88
513.346	91.88
513.562	90.88
513.778	94.88
513.994	90.88
514.21	70.88
514.426	89.88
514.642	79.88
514.858	82.88
515.074	79.88
515.29	89.88
515.506	86.88
515.721	86.88
515.937	76.88
516.153	73.88
516.369	96.88
516.585	92.88
516.801	79.88
517.016	95.88
517.232	93.88
517.448	84.88
517.664	78.88
517.879	82.88
518.095	79.88
518.311	80.88
518.527	87.88
518.742	80.88
518.958	74.88
519.173	86.88
519.389	86.88
519.605	90.88
519.82	83.88
