Data from 17600_2_HRD10591_00032.txt Node
Date: Mon Jan 19 14:08:38 EST 2026
User: Yrep
Spectrometer: HR+D1059
Trigger mode: 1
Integration Time (sec): 1.000000E-1
Scans to average: 1
Electric dark correction enabled: true
Nonlinearity correction enabled: false
Boxcar width: 0
XAxis mode: Wavelengths
Number of Pixels in Spectrum: 2048
>>>>>Begin Spectral Data<<<<<
223.165	-22.69
223.4	-22.69
223.635	-22.69
223.869	-14.69
224.104	-8.69
224.338	-17.69
224.573	-10.69
224.808	-14.69
225.042	0.31
225.277	-5.69
225.511	7.31
225.746	5.31
225.98	5.31
226.215	26.31
226.449	18.31
226.683	10.31
226.918	3.31
227.152	18.31
227.387	31.31
227.621	31.31
227.856	50.31
228.09	41.31
228.324	55.31
228.559	53.31
228.793	56.31
229.027	53.31
229.262	69.31
229.496	73.31
229.73	62.31
229.964	73.31
230.199	83.31
230.433	61.31
230.667	83.31
230.901	86.31
231.136	85.31
231.37	100.31
231.604	91.31
231.838	75.31
232.072	81.31
232.306	85.31
232.541	78.31
232.775	83.31
233.009	85.31
233.243	75.31
233.477	82.31
233.711	85.31
233.945	93.31
234.179	78.31
234.413	84.31
234.647	82.31
234.881	73.31
235.115	87.31
235.349	72.31
235.583	81.31
235.817	76.31
236.051	69.31
236.285	77.31
236.519	89.31
236.753	75.31
236.987	82.31
237.221	69.31
237.455	88.31
237.689	82.31
237.922	85.31
238.156	73.31
238.39	67.31
238.624	70.31
238.858	67.31
239.091	69.31
239.325	83.31
239.559	73.31
239.793	81.31
240.027	71.31
240.26	79.31
240.494	70.31
240.728	84.31
240.961	68.31
241.195	82.31
241.429	74.31
241.662	80.31
241.896	85.31
242.13	68.31
242.363	72.31
242.597	69.31
242.83	75.31
243.064	75.31
243.298	81.31
243.531	81.31
243.765	67.31
243.998	74.31
244.232	73.31
244.465	67.31
244.699	79.31
244.932	79.31
245.166	68.31
245.399	82.31
245.633	87.31
245.866	71.31
246.099	75.31
246.333	66.31
246.566	79.31
246.8	77.31
247.033	84.31
247.266	65.31
247.5	82.31
247.733	79.31
247.966	77.31
248.2	87.31
248.433	90.31
248.666	83.31
248.899	79.31
249.133	81.31
249.366	73.31
249.599	70.31
249.832	95.31
250.066	83.31
250.299	76.31
250.532	79.31
250.765	69.31
250.998	96.31
251.231	81.31
251.465	65.31
251.698	81.31
251.931	81.31
252.164	86.31
252.397	75.31
252.63	69.31
252.863	77.31
253.096	98.31
253.329	87.31
253.562	85.31
253.795	79.31
254.028	85.31
254.261	76.31
254.494	87.31
254.727	79.31
254.96	73.31
255.193	81.31
255.426	64.31
255.659	71.31
255.892	88.31
256.124	78.31
256.357	85.31
256.59	89.31
256.823	67.31
257.056	81.31
257.289	79.31
257.521	73.31
257.754	82.31
257.987	72.31
258.22	71.31
258.452	68.31
258.685	83.31
258.918	76.31
259.151	83.31
259.383	86.31
259.616	72.31
259.849	80.31
260.081	82.31
260.314	78.31
260.547	85.31
260.779	81.31
261.012	81.31
261.244	81.31
261.477	95.31
261.71	79.31
261.942	76.31
262.175	75.31
262.407	81.31
262.64	91.31
262.872	86.31
263.105	79.31
263.337	86.31
263.57	87.31
263.802	81.31
264.035	74.31
264.267	66.31
264.499	89.31
264.732	83.31
264.964	104.31
265.197	91.31
265.429	77.31
265.661	81.31
265.894	88.31
266.126	93.31
266.358	84.31
266.591	72.31
266.823	89.31
267.055	85.31
267.287	85.31
267.52	86.31
267.752	79.31
267.984	73.31
268.216	81.31
268.448	84.31
268.681	97.31
268.913	79.31
269.145	75.31
269.377	79.31
269.609	79.31
269.841	72.31
270.073	83.31
270.306	83.31
270.538	85.31
270.77	81.31
271.002	87.31
271.234	93.31
271.466	93.31
271.698	75.31
271.93	85.31
272.162	81.31
272.394	97.31
272.626	80.31
272.858	98.31
273.09	80.31
273.322	92.31
273.553	84.31
273.785	103.31
274.017	83.31
274.249	77.31
274.481	85.31
274.713	74.31
274.945	85.31
275.176	88.31
275.408	75.31
275.64	76.31
275.872	72.31
276.104	76.31
276.335	69.31
276.567	87.31
276.799	70.31
277.031	85.31
277.262	79.31
277.494	90.31
277.726	86.31
277.957	89.31
278.189	78.31
278.421	74.31
278.652	74.31
278.884	90.31
279.115	93.31
279.347	79.31
279.579	103.31
279.81	98.31
280.042	85.31
280.273	85.31
280.505	95.31
280.736	79.31
280.968	71.31
281.199	78.31
281.431	75.31
281.662	90.31
281.894	78.31
282.125	84.31
282.356	88.31
282.588	76.31
282.819	83.31
283.051	75.31
283.282	90.31
283.513	79.31
283.745	80.31
283.976	78.31
284.207	99.31
284.439	87.31
284.67	98.31
284.901	71.31
285.132	91.31
285.364	93.31
285.595	84.31
285.826	83.31
286.057	82.31
286.288	78.31
286.52	69.31
286.751	71.31
286.982	90.31
287.213	86.31
287.444	78.31
287.675	94.31
287.906	74.31
288.138	100.31
288.369	93.31
288.6	88.31
288.831	89.31
289.062	87.31
289.293	81.31
289.524	73.31
289.755	91.31
289.986	99.31
290.217	89.31
290.448	80.31
290.679	78.31
290.91	82.31
291.141	86.31
291.371	73.31
291.602	93.31
291.833	75.31
292.064	80.31
292.295	98.31
292.526	88.31
292.757	91.31
292.987	86.31
293.218	90.31
293.449	76.31
293.68	93.31
293.91	87.31
294.141	87.31
294.372	73.31
294.603	87.31
294.833	78.31
295.064	94.31
295.295	86.31
295.525	64.31
295.756	86.31
295.987	82.31
296.217	80.31
296.448	75.31
296.679	99.31
296.909	96.31
297.14	89.31
297.37	90.31
297.601	72.31
297.831	84.31
298.062	80.31
298.292	81.31
298.523	103.31
298.753	90.31
298.984	90.31
299.214	87.31
299.445	91.31
299.675	101.31
299.905	81.31
300.136	81.31
300.366	89.31
300.597	75.31
300.827	92.31
301.057	81.31
301.288	100.31
301.518	82.31
301.748	83.31
301.979	92.31
302.209	89.31
302.439	88.31
302.669	85.31
302.9	86.31
303.13	84.31
303.36	82.31
303.59	82.31
303.82	86.31
304.051	82.31
304.281	87.31
304.511	77.31
304.741	81.31
304.971	92.31
305.201	88.31
305.431	87.31
305.661	86.31
305.891	87.31
306.121	78.31
306.352	76.31
306.582	78.31
306.812	82.31
307.042	98.31
307.272	84.31
307.502	87.31
307.731	79.31
307.961	84.31
308.191	96.31
308.421	100.31
308.651	97.31
308.881	86.31
309.111	102.31
309.341	84.31
309.571	97.31
309.8	93.31
310.03	81.31
310.26	88.31
310.49	76.31
310.72	86.31
310.949	76.31
311.179	98.31
311.409	89.31
311.639	87.31
311.868	88.31
312.098	89.31
312.328	97.31
312.557	92.31
312.787	89.31
313.017	82.31
313.246	80.31
313.476	78.31
313.706	86.31
313.935	85.31
314.165	73.31
314.394	96.31
314.624	101.31
314.853	98.31
315.083	83.31
315.312	89.31
315.542	86.31
315.771	105.31
316.001	100.31
316.23	94.31
316.46	84.31
316.689	91.31
316.919	98.31
317.148	96.31
317.377	90.31
317.607	102.31
317.836	105.31
318.065	107.31
318.295	101.31
318.524	100.31
318.753	84.31
318.983	87.31
319.212	94.31
319.441	89.31
319.67	93.31
319.9	91.31
320.129	78.31
320.358	86.31
320.587	93.31
320.816	81.31
321.046	82.31
321.275	86.31
321.504	99.31
321.733	89.31
321.962	89.31
322.191	82.31
322.42	85.31
322.649	96.31
322.878	94.31
323.108	83.31
323.337	85.31
323.566	98.31
323.795	91.31
324.024	89.31
324.253	98.31
324.482	93.31
324.71	77.31
324.939	89.31
325.168	85.31
325.397	78.31
325.626	84.31
325.855	82.31
326.084	81.31
326.313	82.31
326.542	74.31
326.77	85.31
326.999	86.31
327.228	99.31
327.457	84.31
327.686	87.31
327.914	80.31
328.143	83.31
328.372	105.31
328.6	86.31
328.829	87.31
329.058	80.31
329.287	82.31
329.515	91.31
329.744	89.31
329.972	100.31
330.201	93.31
330.43	93.31
330.658	83.31
330.887	61.31
331.115	77.31
331.344	74.31
331.572	87.31
331.801	83.31
332.03	95.31
332.258	94.31
332.486	75.31
332.715	79.31
332.943	81.31
333.172	80.31
333.4	87.31
333.629	89.31
333.857	78.31
334.085	83.31
334.314	77.31
334.542	88.31
334.771	93.31
334.999	95.31
335.227	92.31
335.455	102.31
335.684	68.31
335.912	73.31
336.14	100.31
336.369	103.31
336.597	93.31
336.825	85.31
337.053	96.31
337.281	87.31
337.51	92.31
337.738	90.31
337.966	88.31
338.194	76.31
338.422	97.31
338.65	84.31
338.878	94.31
339.106	83.31
339.334	73.31
339.562	75.31
339.79	76.31
340.018	81.31
340.246	100.31
340.474	84.31
340.702	88.31
340.93	88.31
341.158	90.31
341.386	71.31
341.614	94.31
341.842	100.31
342.07	76.31
342.298	83.31
342.526	85.31
342.754	88.31
342.981	86.31
343.209	80.31
343.437	90.31
343.665	82.31
343.893	101.31
344.12	85.31
344.348	102.31
344.576	82.31
344.804	88.31
345.031	85.31
345.259	89.31
345.487	84.31
345.714	78.31
345.942	90.31
346.17	87.31
346.397	102.31
346.625	87.31
346.853	85.31
347.08	88.31
347.308	92.31
347.535	91.31
347.763	89.31
347.99	80.31
348.218	94.31
348.445	86.31
348.673	96.31
348.9	97.31
349.128	87.31
349.355	85.31
349.583	80.31
349.81	86.31
350.037	92.31
350.265	75.31
350.492	71.31
350.72	95.31
350.947	72.31
351.174	84.31
351.402	95.31
351.629	77.31
351.856	83.31
352.083	85.31
352.311	95.31
352.538	77.31
352.765	78.31
352.992	100.31
353.22	85.31
353.447	78.31
353.674	81.31
353.901	85.31
354.128	84.31
354.355	89.31
354.583	82.31
354.81	85.31
355.037	100.31
355.264	80.31
355.491	85.31
355.718	85.31
355.945	90.31
356.172	96.31
356.399	89.31
356.626	101.31
356.853	104.31
357.08	90.31
357.307	100.31
357.534	79.31
357.761	90.31
357.988	109.31
358.215	91.31
358.441	100.31
358.668	94.31
358.895	102.31
359.122	87.31
359.349	91.31
359.576	81.31
359.802	87.31
360.029	84.31
360.256	82.31
360.483	94.31
360.709	85.31
360.936	83.31
361.163	89.31
361.39	96.31
361.616	95.31
361.843	85.31
362.07	109.31
362.296	85.31
362.523	107.31
362.749	110.31
362.976	137.31
363.203	126.31
363.429	109.31
363.656	97.31
363.882	101.31
364.109	110.31
364.335	144.31
364.562	134.31
364.788	109.31
365.015	82.31
365.241	75.31
365.468	81.31
365.694	98.31
365.92	90.31
366.147	88.31
366.373	79.31
366.599	86.31
366.826	95.31
367.052	99.31
367.278	91.31
367.505	81.31
367.731	93.31
367.957	86.31
368.184	94.31
368.41	88.31
368.636	76.31
368.862	90.31
369.089	77.31
369.315	96.31
369.541	92.31
369.767	70.31
369.993	86.31
370.219	106.31
370.445	83.31
370.672	101.31
370.898	108.31
371.124	85.31
371.35	76.31
371.576	88.31
371.802	96.31
372.028	92.31
372.254	105.31
372.48	75.31
372.706	86.31
372.932	93.31
373.158	102.31
373.384	109.31
373.61	150.31
373.835	135.31
374.061	91.31
374.287	81.31
374.513	103.31
374.739	114.31
374.965	87.31
375.191	110.31
375.416	84.31
375.642	98.31
375.868	97.31
376.094	92.31
376.319	99.31
376.545	84.31
376.771	97.31
376.997	88.31
377.222	98.31
377.448	90.31
377.674	89.31
377.899	94.31
378.125	88.31
378.35	80.31
378.576	96.31
378.802	74.31
379.027	86.31
379.253	85.31
379.478	87.31
379.704	81.31
379.929	89.31
380.155	90.31
380.38	83.31
380.606	77.31
380.831	85.31
381.057	90.31
381.282	81.31
381.507	91.31
381.733	101.31
381.958	104.31
382.184	99.31
382.409	98.31
382.634	113.31
382.86	102.31
383.085	109.31
383.31	105.31
383.535	92.31
383.761	110.31
383.986	125.31
384.211	109.31
384.436	101.31
384.662	105.31
384.887	98.31
385.112	96.31
385.337	92.31
385.562	94.31
385.787	123.31
386.013	112.31
386.238	113.31
386.463	87.31
386.688	105.31
386.913	105.31
387.138	110.31
387.363	106.31
387.588	105.31
387.813	98.31
388.038	102.31
388.263	99.31
388.488	107.31
388.713	110.31
388.938	85.31
389.163	89.31
389.387	76.31
389.612	94.31
389.837	98.31
390.062	102.31
390.287	85.31
390.512	94.31
390.736	75.31
390.961	81.31
391.186	91.31
391.411	89.31
391.636	86.31
391.86	89.31
392.085	106.31
392.31	109.31
392.534	119.31
392.759	139.31
392.984	234.31
393.208	461.31
393.433	691.31
393.658	523.31
393.882	183.31
394.107	120.31
394.331	140.31
394.556	160.31
394.78	118.31
395.005	90.31
395.229	99.31
395.454	103.31
395.678	111.31
395.903	123.31
396.127	177.31
396.352	201.31
396.576	256.31
396.801	458.31
397.025	548.31
397.249	264.31
397.474	147.31
397.698	109.31
397.922	96.31
398.147	97.31
398.371	92.31
398.595	88.31
398.82	84.31
399.044	86.31
399.268	88.31
399.492	101.31
399.717	83.31
399.941	88.31
400.165	99.31
400.389	80.31
400.613	93.31
400.837	92.31
401.062	81.31
401.286	79.31
401.51	81.31
401.734	82.31
401.958	79.31
402.182	99.31
402.406	87.31
402.63	77.31
402.854	76.31
403.078	93.31
403.302	98.31
403.526	99.31
403.75	83.31
403.974	76.31
404.198	98.31
404.422	100.31
404.645	93.31
404.869	89.31
405.093	96.31
405.317	90.31
405.541	74.31
405.765	89.31
405.988	99.31
406.212	87.31
406.436	85.31
406.66	88.31
406.883	105.31
407.107	94.31
407.331	83.31
407.555	122.31
407.778	148.31
408.002	163.31
408.226	97.31
408.449	89.31
408.673	84.31
408.896	101.31
409.12	102.31
409.344	109.31
409.567	97.31
409.791	93.31
410.014	82.31
410.238	91.31
410.461	89.31
410.685	96.31
410.908	97.31
411.132	92.31
411.355	89.31
411.578	70.31
411.802	86.31
412.025	85.31
412.249	76.31
412.472	94.31
412.695	84.31
412.919	79.31
413.142	82.31
413.365	93.31
413.589	83.31
413.812	84.31
414.035	89.31
414.258	83.31
414.482	86.31
414.705	98.31
414.928	89.31
415.151	66.31
415.374	79.31
415.597	99.31
415.821	74.31
416.044	78.31
416.267	75.31
416.49	92.31
416.713	73.31
416.936	88.31
417.159	74.31
417.382	74.31
417.605	80.31
417.828	97.31
418.051	86.31
418.274	89.31
418.497	69.31
418.72	81.31
418.943	83.31
419.166	88.31
419.389	75.31
419.611	75.31
419.834	87.31
420.057	97.31
420.28	78.31
420.503	88.31
420.726	95.31
420.948	89.31
421.171	102.31
421.394	128.31
421.617	163.31
421.839	149.31
422.062	133.31
422.285	191.31
422.507	348.31
422.73	579.31
422.953	494.31
423.175	239.31
423.398	133.31
423.621	106.31
423.843	77.31
424.066	95.31
424.288	105.31
424.511	91.31
424.733	94.31
424.956	82.31
425.178	103.31
425.401	97.31
425.623	88.31
425.846	75.31
426.068	88.31
426.291	89.31
426.513	90.31
426.735	91.31
426.958	75.31
427.18	87.31
427.402	95.31
427.625	83.31
427.847	74.31
428.069	114.31
428.292	136.31
428.514	153.31
428.736	113.31
428.958	157.31
429.181	158.31
429.403	104.31
429.625	113.31
429.847	118.31
430.069	188.31
430.292	215.31
430.514	193.31
430.736	157.31
430.958	158.31
431.18	100.31
431.402	97.31
431.624	95.31
431.846	140.31
432.068	164.31
432.29	99.31
432.512	88.31
432.734	89.31
432.956	84.31
433.178	77.31
433.4	95.31
433.622	91.31
433.844	83.31
434.066	85.31
434.287	67.31
434.509	83.31
434.731	79.31
434.953	68.31
435.175	75.31
435.397	81.31
435.618	85.31
435.84	79.31
436.062	89.31
436.284	85.31
436.505	93.31
436.727	77.31
436.949	90.31
437.17	100.31
437.392	85.31
437.614	69.31
437.835	82.31
438.057	88.31
438.278	90.31
438.5	90.31
438.721	89.31
438.943	88.31
439.165	97.31
439.386	90.31
439.608	89.31
439.829	82.31
440.05	95.31
440.272	75.31
440.493	94.31
440.715	102.31
440.936	81.31
441.158	97.31
441.379	94.31
441.6	94.31
441.822	96.31
442.043	104.31
442.264	98.31
442.486	136.31
442.707	191.31
442.928	146.31
443.149	101.31
443.371	167.31
443.592	295.31
443.813	261.31
444.034	111.31
444.255	101.31
444.476	87.31
444.698	94.31
444.919	117.31
445.14	195.31
445.361	219.31
445.582	361.31
445.803	278.31
446.024	140.31
446.245	100.31
446.466	102.31
446.687	80.31
446.908	73.31
447.129	92.31
447.35	90.31
447.571	94.31
447.792	86.31
448.013	89.31
448.234	93.31
448.455	90.31
448.675	94.31
448.896	87.31
449.117	78.31
449.338	83.31
449.559	93.31
449.779	97.31
450	71.31
450.221	75.31
450.442	85.31
450.662	82.31
450.883	87.31
451.104	100.31
451.324	71.31
451.545	81.31
451.766	80.31
451.986	82.31
452.207	80.31
452.428	91.31
452.648	100.31
452.869	89.31
453.089	98.31
453.31	83.31
453.53	67.31
453.751	86.31
453.971	81.31
454.192	101.31
454.412	69.31
454.633	69.31
454.853	96.31
455.073	85.31
455.294	79.31
455.514	100.31
455.734	98.31
455.955	84.31
456.175	79.31
456.395	68.31
456.616	79.31
456.836	73.31
457.056	69.31
457.276	85.31
457.497	85.31
457.717	94.31
457.937	100.31
458.157	129.31
458.377	132.31
458.598	132.31
458.818	137.31
459.038	100.31
459.258	89.31
459.478	84.31
459.698	73.31
459.918	97.31
460.138	84.31
460.358	99.31
460.578	105.31
460.798	145.31
461.018	136.31
461.238	91.31
461.458	94.31
461.678	91.31
461.898	91.31
462.118	87.31
462.338	86.31
462.558	83.31
462.777	87.31
462.997	86.31
463.217	90.31
463.437	79.31
463.657	80.31
463.876	99.31
464.096	86.31
464.316	74.31
464.536	84.31
464.755	89.31
464.975	87.31
465.195	75.31
465.414	100.31
465.634	83.31
465.854	97.31
466.073	67.31
466.293	93.31
466.512	94.31
466.732	91.31
466.951	96.31
467.171	97.31
467.391	83.31
467.61	87.31
467.829	80.31
468.049	81.31
468.268	90.31
468.488	79.31
468.707	94.31
468.927	89.31
469.146	99.31
469.365	84.31
469.585	75.31
469.804	86.31
470.023	85.31
470.243	82.31
470.462	72.31
470.681	89.31
470.901	77.31
471.12	94.31
471.339	76.31
471.558	88.31
471.777	86.31
471.997	78.31
472.216	88.31
472.435	95.31
472.654	83.31
472.873	99.31
473.092	92.31
473.311	91.31
473.53	89.31
473.749	89.31
473.968	84.31
474.187	81.31
474.406	70.31
474.625	97.31
474.844	84.31
475.063	74.31
475.282	77.31
475.501	97.31
475.72	98.31
475.939	88.31
476.158	70.31
476.377	76.31
476.596	81.31
476.814	80.31
477.033	76.31
477.252	87.31
477.471	86.31
477.69	78.31
477.908	72.31
478.127	83.31
478.346	90.31
478.564	93.31
478.783	101.31
479.002	96.31
479.22	83.31
479.439	97.31
479.658	81.31
479.876	85.31
480.095	85.31
480.313	96.31
480.532	100.31
480.751	78.31
480.969	85.31
481.188	95.31
481.406	100.31
481.624	93.31
481.843	81.31
482.061	82.31
482.28	85.31
482.498	84.31
482.717	88.31
482.935	79.31
483.153	84.31
483.372	93.31
483.59	107.31
483.808	95.31
484.027	92.31
484.245	102.31
484.463	89.31
484.681	102.31
484.9	88.31
485.118	89.31
485.336	84.31
485.554	83.31
485.772	99.31
485.99	86.31
486.209	95.31
486.427	96.31
486.645	105.31
486.863	80.31
487.081	91.31
487.299	107.31
487.517	105.31
487.735	117.31
487.953	198.31
488.171	145.31
488.389	94.31
488.607	89.31
488.825	87.31
489.043	77.31
489.261	101.31
489.479	75.31
489.696	73.31
489.914	82.31
490.132	96.31
490.35	85.31
490.568	85.31
490.786	89.31
491.003	83.31
491.221	85.31
491.439	85.31
491.657	84.31
491.874	93.31
492.092	91.31
492.31	96.31
492.527	83.31
492.745	98.31
492.963	87.31
493.18	99.31
493.398	89.31
493.615	92.31
493.833	87.31
494.05	79.31
494.268	101.31
494.485	89.31
494.703	94.31
494.92	115.31
495.138	96.31
495.355	82.31
495.573	89.31
495.79	74.31
496.008	97.31
496.225	97.31
496.442	82.31
496.66	93.31
496.877	82.31
497.094	97.31
497.312	97.31
497.529	100.31
497.746	83.31
497.963	71.31
498.181	100.31
498.398	99.31
498.615	92.31
498.832	91.31
499.049	90.31
499.267	99.31
499.484	101.31
499.701	91.31
499.918	82.31
500.135	106.31
500.352	90.31
500.569	89.31
500.786	93.31
501.003	93.31
501.22	95.31
501.437	101.31
501.654	95.31
501.871	70.31
502.088	82.31
502.305	105.31
502.522	87.31
502.739	93.31
502.956	92.31
503.172	89.31
503.389	96.31
503.606	90.31
503.823	99.31
504.04	106.31
504.256	149.31
504.473	142.31
504.69	94.31
504.907	99.31
505.123	82.31
505.34	89.31
505.557	84.31
505.773	79.31
505.99	96.31
506.207	76.31
506.423	77.31
506.64	89.31
506.856	92.31
507.073	96.31
507.289	81.31
507.506	77.31
507.722	72.31
507.939	102.31
508.155	82.31
508.372	78.31
508.588	94.31
508.805	90.31
509.021	79.31
509.238	89.31
509.454	89.31
509.67	87.31
509.887	91.31
510.103	78.31
510.319	83.31
510.536	76.31
510.752	86.31
510.968	91.31
511.184	95.31
511.401	78.31
511.617	74.31
511.833	91.31
512.049	87.31
512.265	90.31
512.481	98.31
512.698	103.31
512.914	94.31
513.13	80.31
513.346	73.31
513.562	91.31
513.778	90.31
513.994	104.31
514.21	93.31
514.426	88.31
514.642	89.31
514.858	78.31
515.074	93.31
515.29	91.31
515.506	82.31
515.721	91.31
515.937	85.31
516.153	97.31
516.369	97.31
516.585	89.31
516.801	91.31
517.016	103.31
517.232	90.31
517.448	101.31
