Data from 17600_2_HRD10591_00047.txt Node
Date: Mon Jan 19 14:08:46 EST 2026
User: Yrep
Spectrometer: HR+D1059
Trigger mode: 1
Integration Time (sec): 1.000000E-1
Scans to average: 1
Electric dark correction enabled: true
Nonlinearity correction enabled: false
Boxcar width: 0
XAxis mode: Wavelengths
Number of Pixels in Spectrum: 2048
>>>>>Begin Spectral Data<<<<<
223.165	-22.56
223.4	-22.56
223.635	-22.56
223.869	-23.56
224.104	-15.56
224.338	-2.56
224.573	-23.56
224.808	-26.56
225.042	4.44
225.277	-4.56
225.511	-10.56
225.746	10.44
225.98	16.44
226.215	2.44
226.449	18.44
226.683	26.44
226.918	24.44
227.152	26.44
227.387	46.44
227.621	36.44
227.856	38.44
228.09	46.44
228.324	38.44
228.559	62.44
228.793	50.44
229.027	60.44
229.262	63.44
229.496	61.44
229.73	64.44
229.964	67.44
230.199	76.44
230.433	64.44
230.667	79.44
230.901	75.44
231.136	68.44
231.37	71.44
231.604	95.44
231.838	95.44
232.072	83.44
232.306	77.44
232.541	86.44
232.775	85.44
233.009	84.44
233.243	87.44
233.477	80.44
233.711	79.44
233.945	83.44
234.179	68.44
234.413	79.44
234.647	76.44
234.881	81.44
235.115	81.44
235.349	75.44
235.583	67.44
235.817	80.44
236.051	74.44
236.285	84.44
236.519	76.44
236.753	67.44
236.987	75.44
237.221	74.44
237.455	78.44
237.689	87.44
237.922	75.44
238.156	77.44
238.39	63.44
238.624	70.44
238.858	74.44
239.091	75.44
239.325	69.44
239.559	70.44
239.793	78.44
240.027	73.44
240.26	69.44
240.494	75.44
240.728	86.44
240.961	70.44
241.195	66.44
241.429	80.44
241.662	83.44
241.896	73.44
242.13	90.44
242.363	85.44
242.597	97.44
242.83	68.44
243.064	79.44
243.298	74.44
243.531	72.44
243.765	78.44
243.998	83.44
244.232	77.44
244.465	80.44
244.699	80.44
244.932	67.44
245.166	69.44
245.399	84.44
245.633	74.44
245.866	77.44
246.099	81.44
246.333	71.44
246.566	75.44
246.8	71.44
247.033	73.44
247.266	94.44
247.5	87.44
247.733	76.44
247.966	63.44
248.2	59.44
248.433	65.44
248.666	71.44
248.899	75.44
249.133	67.44
249.366	75.44
249.599	68.44
249.832	74.44
250.066	78.44
250.299	89.44
250.532	67.44
250.765	74.44
250.998	79.44
251.231	70.44
251.465	71.44
251.698	81.44
251.931	85.44
252.164	90.44
252.397	84.44
252.63	80.44
252.863	77.44
253.096	82.44
253.329	88.44
253.562	74.44
253.795	70.44
254.028	84.44
254.261	87.44
254.494	79.44
254.727	67.44
254.96	77.44
255.193	86.44
255.426	69.44
255.659	84.44
255.892	87.44
256.124	83.44
256.357	72.44
256.59	69.44
256.823	78.44
257.056	69.44
257.289	79.44
257.521	89.44
257.754	87.44
257.987	73.44
258.22	77.44
258.452	83.44
258.685	82.44
258.918	79.44
259.151	92.44
259.383	84.44
259.616	71.44
259.849	87.44
260.081	89.44
260.314	79.44
260.547	73.44
260.779	81.44
261.012	79.44
261.244	72.44
261.477	75.44
261.71	74.44
261.942	86.44
262.175	87.44
262.407	68.44
262.64	78.44
262.872	86.44
263.105	68.44
263.337	71.44
263.57	87.44
263.802	81.44
264.035	80.44
264.267	72.44
264.499	63.44
264.732	97.44
264.964	71.44
265.197	83.44
265.429	80.44
265.661	84.44
265.894	75.44
266.126	84.44
266.358	87.44
266.591	77.44
266.823	81.44
267.055	79.44
267.287	75.44
267.52	66.44
267.752	99.44
267.984	86.44
268.216	81.44
268.448	71.44
268.681	75.44
268.913	86.44
269.145	85.44
269.377	93.44
269.609	88.44
269.841	74.44
270.073	79.44
270.306	73.44
270.538	76.44
270.77	77.44
271.002	62.44
271.234	71.44
271.466	88.44
271.698	80.44
271.93	90.44
272.162	91.44
272.394	85.44
272.626	85.44
272.858	81.44
273.09	73.44
273.322	75.44
273.553	86.44
273.785	89.44
274.017	75.44
274.249	83.44
274.481	65.44
274.713	69.44
274.945	85.44
275.176	83.44
275.408	89.44
275.64	95.44
275.872	81.44
276.104	90.44
276.335	84.44
276.567	81.44
276.799	74.44
277.031	80.44
277.262	77.44
277.494	76.44
277.726	81.44
277.957	79.44
278.189	81.44
278.421	78.44
278.652	72.44
278.884	80.44
279.115	78.44
279.347	82.44
279.579	87.44
279.81	84.44
280.042	93.44
280.273	91.44
280.505	81.44
280.736	90.44
280.968	76.44
281.199	75.44
281.431	82.44
281.662	82.44
281.894	87.44
282.125	77.44
282.356	71.44
282.588	82.44
282.819	95.44
283.051	93.44
283.282	74.44
283.513	93.44
283.745	73.44
283.976	75.44
284.207	79.44
284.439	100.44
284.67	88.44
284.901	93.44
285.132	77.44
285.364	97.44
285.595	94.44
285.826	78.44
286.057	83.44
286.288	81.44
286.52	88.44
286.751	78.44
286.982	84.44
287.213	90.44
287.444	83.44
287.675	75.44
287.906	79.44
288.138	96.44
288.369	79.44
288.6	81.44
288.831	91.44
289.062	73.44
289.293	72.44
289.524	79.44
289.755	83.44
289.986	83.44
290.217	78.44
290.448	81.44
290.679	76.44
290.91	88.44
291.141	94.44
291.371	84.44
291.602	80.44
291.833	89.44
292.064	85.44
292.295	103.44
292.526	85.44
292.757	89.44
292.987	91.44
293.218	75.44
293.449	89.44
293.68	65.44
293.91	78.44
294.141	74.44
294.372	80.44
294.603	78.44
294.833	97.44
295.064	69.44
295.295	73.44
295.525	77.44
295.756	76.44
295.987	82.44
296.217	82.44
296.448	68.44
296.679	70.44
296.909	76.44
297.14	95.44
297.37	87.44
297.601	82.44
297.831	91.44
298.062	87.44
298.292	99.44
298.523	85.44
298.753	79.44
298.984	83.44
299.214	76.44
299.445	76.44
299.675	79.44
299.905	87.44
300.136	86.44
300.366	86.44
300.597	75.44
300.827	102.44
301.057	93.44
301.288	96.44
301.518	83.44
301.748	89.44
301.979	87.44
302.209	78.44
302.439	85.44
302.669	86.44
302.9	89.44
303.13	91.44
303.36	98.44
303.59	83.44
303.82	86.44
304.051	92.44
304.281	102.44
304.511	87.44
304.741	83.44
304.971	85.44
305.201	89.44
305.431	111.44
305.661	92.44
305.891	79.44
306.121	85.44
306.352	81.44
306.582	88.44
306.812	76.44
307.042	73.44
307.272	73.44
307.502	73.44
307.731	78.44
307.961	87.44
308.191	90.44
308.421	78.44
308.651	94.44
308.881	82.44
309.111	96.44
309.341	85.44
309.571	87.44
309.8	95.44
310.03	85.44
310.26	87.44
310.49	88.44
310.72	71.44
310.949	83.44
311.179	71.44
311.409	73.44
311.639	89.44
311.868	77.44
312.098	86.44
312.328	82.44
312.557	93.44
312.787	95.44
313.017	92.44
313.246	95.44
313.476	84.44
313.706	80.44
313.935	82.44
314.165	79.44
314.394	87.44
314.624	70.44
314.853	79.44
315.083	79.44
315.312	94.44
315.542	81.44
315.771	75.44
316.001	85.44
316.23	90.44
316.46	76.44
316.689	70.44
316.919	75.44
317.148	82.44
317.377	93.44
317.607	84.44
317.836	90.44
318.065	106.44
318.295	99.44
318.524	82.44
318.753	91.44
318.983	93.44
319.212	90.44
319.441	85.44
319.67	103.44
319.9	86.44
320.129	80.44
320.358	100.44
320.587	91.44
320.816	83.44
321.046	99.44
321.275	82.44
321.504	86.44
321.733	93.44
321.962	98.44
322.191	83.44
322.42	101.44
322.649	85.44
322.878	90.44
323.108	87.44
323.337	73.44
323.566	83.44
323.795	90.44
324.024	89.44
324.253	94.44
324.482	82.44
324.71	89.44
324.939	87.44
325.168	95.44
325.397	75.44
325.626	87.44
325.855	77.44
326.084	89.44
326.313	91.44
326.542	89.44
326.77	72.44
326.999	82.44
327.228	73.44
327.457	83.44
327.686	100.44
327.914	88.44
328.143	102.44
328.372	81.44
328.6	79.44
328.829	78.44
329.058	83.44
329.287	88.44
329.515	81.44
329.744	76.44
329.972	88.44
330.201	68.44
330.43	91.44
330.658	93.44
330.887	77.44
331.115	85.44
331.344	83.44
331.572	75.44
331.801	74.44
332.03	84.44
332.258	81.44
332.486	86.44
332.715	92.44
332.943	91.44
333.172	86.44
333.4	84.44
333.629	83.44
333.857	101.44
334.085	87.44
334.314	86.44
334.542	88.44
334.771	81.44
334.999	93.44
335.227	107.44
335.455	89.44
335.684	85.44
335.912	89.44
336.14	100.44
336.369	99.44
336.597	82.44
336.825	82.44
337.053	82.44
337.281	89.44
337.51	85.44
337.738	83.44
337.966	88.44
338.194	87.44
338.422	76.44
338.65	81.44
338.878	75.44
339.106	95.44
339.334	90.44
339.562	89.44
339.79	85.44
340.018	68.44
340.246	67.44
340.474	83.44
340.702	84.44
340.93	87.44
341.158	89.44
341.386	88.44
341.614	85.44
341.842	82.44
342.07	77.44
342.298	75.44
342.526	90.44
342.754	69.44
342.981	88.44
343.209	87.44
343.437	99.44
343.665	79.44
343.893	87.44
344.12	86.44
344.348	106.44
344.576	86.44
344.804	81.44
345.031	77.44
345.259	81.44
345.487	67.44
345.714	73.44
345.942	75.44
346.17	85.44
346.397	93.44
346.625	90.44
346.853	73.44
347.08	80.44
347.308	85.44
347.535	74.44
347.763	79.44
347.99	84.44
348.218	84.44
348.445	76.44
348.673	81.44
348.9	85.44
349.128	91.44
349.355	76.44
349.583	81.44
349.81	87.44
350.037	91.44
350.265	87.44
350.492	94.44
350.72	74.44
350.947	75.44
351.174	85.44
351.402	82.44
351.629	81.44
351.856	87.44
352.083	74.44
352.311	82.44
352.538	76.44
352.765	90.44
352.992	97.44
353.22	81.44
353.447	72.44
353.674	83.44
353.901	79.44
354.128	87.44
354.355	84.44
354.583	79.44
354.81	84.44
355.037	77.44
355.264	100.44
355.491	88.44
355.718	89.44
355.945	85.44
356.172	89.44
356.399	86.44
356.626	84.44
356.853	76.44
357.08	97.44
357.307	86.44
357.534	93.44
357.761	86.44
357.988	89.44
358.215	81.44
358.441	87.44
358.668	89.44
358.895	89.44
359.122	84.44
359.349	76.44
359.576	91.44
359.802	79.44
360.029	72.44
360.256	82.44
360.483	88.44
360.709	72.44
360.936	102.44
361.163	88.44
361.39	80.44
361.616	94.44
361.843	92.44
362.07	82.44
362.296	86.44
362.523	99.44
362.749	101.44
362.976	111.44
363.203	107.44
363.429	90.44
363.656	95.44
363.882	84.44
364.109	96.44
364.335	106.44
364.562	112.44
364.788	84.44
365.015	91.44
365.241	76.44
365.468	88.44
365.694	96.44
365.92	87.44
366.147	83.44
366.373	80.44
366.599	87.44
366.826	79.44
367.052	78.44
367.278	69.44
367.505	72.44
367.731	87.44
367.957	83.44
368.184	89.44
368.41	92.44
368.636	81.44
368.862	69.44
369.089	82.44
369.315	89.44
369.541	89.44
369.767	97.44
369.993	98.44
370.219	86.44
370.445	87.44
370.672	96.44
370.898	100.44
371.124	69.44
371.35	93.44
371.576	65.44
371.802	88.44
372.028	101.44
372.254	92.44
372.48	85.44
372.706	88.44
372.932	102.44
373.158	90.44
373.384	98.44
373.61	95.44
373.835	115.44
374.061	121.44
374.287	84.44
374.513	108.44
374.739	97.44
374.965	86.44
375.191	87.44
375.416	81.44
375.642	87.44
375.868	99.44
376.094	96.44
376.319	83.44
376.545	90.44
376.771	97.44
376.997	83.44
377.222	84.44
377.448	75.44
377.674	85.44
377.899	87.44
378.125	83.44
378.35	94.44
378.576	81.44
378.802	89.44
379.027	88.44
379.253	87.44
379.478	79.44
379.704	90.44
379.929	100.44
380.155	87.44
380.38	87.44
380.606	79.44
380.831	97.44
381.057	84.44
381.282	86.44
381.507	86.44
381.733	92.44
381.958	97.44
382.184	100.44
382.409	100.44
382.634	89.44
382.86	98.44
383.085	90.44
383.31	106.44
383.535	97.44
383.761	81.44
383.986	104.44
384.211	95.44
384.436	104.44
384.662	79.44
384.887	100.44
385.112	77.44
385.337	81.44
385.562	84.44
385.787	82.44
386.013	100.44
386.238	102.44
386.463	85.44
386.688	106.44
386.913	93.44
387.138	71.44
387.363	89.44
387.588	99.44
387.813	94.44
388.038	90.44
388.263	89.44
388.488	102.44
388.713	101.44
388.938	87.44
389.163	86.44
389.387	78.44
389.612	81.44
389.837	77.44
390.062	79.44
390.287	69.44
390.512	96.44
390.736	90.44
390.961	91.44
391.186	67.44
391.411	76.44
391.636	73.44
391.86	90.44
392.085	98.44
392.31	95.44
392.534	82.44
392.759	107.44
392.984	142.44
393.208	261.44
393.433	372.44
393.658	311.44
393.882	136.44
394.107	104.44
394.331	116.44
394.556	122.44
394.78	117.44
395.005	96.44
395.229	102.44
395.454	91.44
395.678	92.44
395.903	117.44
396.127	106.44
396.352	148.44
396.576	154.44
396.801	266.44
397.025	321.44
397.249	182.44
397.474	117.44
397.698	101.44
397.922	94.44
398.147	78.44
398.371	85.44
398.595	88.44
398.82	73.44
399.044	95.44
399.268	83.44
399.492	73.44
399.717	82.44
399.941	73.44
400.165	90.44
400.389	75.44
400.613	67.44
400.837	80.44
401.062	95.44
401.286	77.44
401.51	91.44
401.734	73.44
401.958	78.44
402.182	75.44
402.406	87.44
402.63	75.44
402.854	88.44
403.078	80.44
403.302	78.44
403.526	80.44
403.75	87.44
403.974	83.44
404.198	77.44
404.422	89.44
404.645	86.44
404.869	100.44
405.093	94.44
405.317	93.44
405.541	92.44
405.765	86.44
405.988	79.44
406.212	74.44
406.436	73.44
406.66	90.44
406.883	76.44
407.107	75.44
407.331	95.44
407.555	103.44
407.778	115.44
408.002	123.44
408.226	89.44
408.449	77.44
408.673	89.44
408.896	79.44
409.12	83.44
409.344	91.44
409.567	96.44
409.791	80.44
410.014	89.44
410.238	90.44
410.461	82.44
410.685	92.44
410.908	75.44
411.132	83.44
411.355	78.44
411.578	90.44
411.802	81.44
412.025	70.44
412.249	77.44
412.472	90.44
412.695	83.44
412.919	86.44
413.142	85.44
413.365	82.44
413.589	101.44
413.812	65.44
414.035	83.44
414.258	90.44
414.482	78.44
414.705	82.44
414.928	93.44
415.151	93.44
415.374	78.44
415.597	82.44
415.821	73.44
416.044	75.44
416.267	90.44
416.49	96.44
416.713	69.44
416.936	93.44
417.159	85.44
417.382	89.44
417.605	82.44
417.828	81.44
418.051	72.44
418.274	85.44
418.497	75.44
418.72	71.44
418.943	97.44
419.166	86.44
419.389	61.44
419.611	83.44
419.834	67.44
420.057	83.44
420.28	78.44
420.503	100.44
420.726	103.44
420.948	87.44
421.171	91.44
421.394	95.44
421.617	117.44
421.839	108.44
422.062	105.44
422.285	120.44
422.507	217.44
422.73	337.44
422.953	295.44
423.175	155.44
423.398	112.44
423.621	97.44
423.843	85.44
424.066	94.44
424.288	91.44
424.511	97.44
424.733	91.44
424.956	87.44
425.178	87.44
425.401	105.44
425.623	88.44
425.846	80.44
426.068	92.44
426.291	97.44
426.513	86.44
426.735	79.44
426.958	83.44
427.18	90.44
427.402	93.44
427.625	77.44
427.847	83.44
428.069	90.44
428.292	110.44
428.514	127.44
428.736	99.44
428.958	123.44
429.181	114.44
429.403	84.44
429.625	81.44
429.847	113.44
430.069	128.44
430.292	144.44
430.514	149.44
430.736	120.44
430.958	117.44
431.18	93.44
431.402	91.44
431.624	79.44
431.846	103.44
432.068	120.44
432.29	101.44
432.512	84.44
432.734	75.44
432.956	77.44
433.178	90.44
433.4	98.44
433.622	89.44
433.844	68.44
434.066	77.44
434.287	74.44
434.509	99.44
434.731	80.44
434.953	80.44
435.175	79.44
435.397	93.44
435.618	99.44
435.84	90.44
436.062	68.44
436.284	85.44
436.505	83.44
436.727	78.44
436.949	78.44
437.17	77.44
437.392	74.44
437.614	79.44
437.835	62.44
438.057	78.44
438.278	70.44
438.5	90.44
438.721	83.44
438.943	85.44
439.165	88.44
439.386	93.44
439.608	79.44
439.829	90.44
440.05	81.44
440.272	78.44
440.493	91.44
440.715	98.44
440.936	82.44
441.158	89.44
441.379	82.44
441.6	82.44
441.822	89.44
442.043	74.44
442.264	86.44
442.486	117.44
442.707	125.44
442.928	104.44
443.149	106.44
443.371	161.44
443.592	186.44
443.813	173.44
444.034	87.44
444.255	65.44
444.476	84.44
444.698	93.44
444.919	91.44
445.14	165.44
445.361	169.44
445.582	223.44
445.803	184.44
446.024	126.44
446.245	98.44
446.466	80.44
446.687	85.44
446.908	75.44
447.129	67.44
447.35	80.44
447.571	78.44
447.792	85.44
448.013	89.44
448.234	63.44
448.455	86.44
448.675	76.44
448.896	93.44
449.117	86.44
449.338	71.44
449.559	96.44
449.779	85.44
450	86.44
450.221	83.44
450.442	79.44
450.662	85.44
450.883	85.44
451.104	88.44
451.324	78.44
451.545	74.44
451.766	97.44
451.986	80.44
452.207	93.44
452.428	81.44
452.648	84.44
452.869	92.44
453.089	81.44
453.31	85.44
453.53	95.44
453.751	84.44
453.971	66.44
454.192	85.44
454.412	83.44
454.633	83.44
454.853	80.44
455.073	88.44
455.294	96.44
455.514	80.44
455.734	85.44
455.955	81.44
456.175	74.44
456.395	89.44
456.616	76.44
456.836	75.44
457.056	80.44
457.276	78.44
457.497	79.44
457.717	88.44
457.937	93.44
458.157	105.44
458.377	118.44
458.598	99.44
458.818	99.44
459.038	101.44
459.258	99.44
459.478	73.44
459.698	71.44
459.918	86.44
460.138	78.44
460.358	66.44
460.578	83.44
460.798	113.44
461.018	119.44
461.238	73.44
461.458	86.44
461.678	80.44
461.898	79.44
462.118	89.44
462.338	79.44
462.558	92.44
462.777	81.44
462.997	80.44
463.217	83.44
463.437	82.44
463.657	79.44
463.876	96.44
464.096	95.44
464.316	81.44
464.536	66.44
464.755	84.44
464.975	74.44
465.195	81.44
465.414	93.44
465.634	80.44
465.854	77.44
466.073	79.44
466.293	87.44
466.512	83.44
466.732	78.44
466.951	91.44
467.171	99.44
467.391	96.44
467.61	82.44
467.829	90.44
468.049	69.44
468.268	105.44
468.488	83.44
468.707	81.44
468.927	82.44
469.146	75.44
469.365	89.44
469.585	70.44
469.804	76.44
470.023	67.44
470.243	89.44
470.462	78.44
470.681	95.44
470.901	92.44
471.12	69.44
471.339	81.44
471.558	80.44
471.777	84.44
471.997	94.44
472.216	70.44
472.435	91.44
472.654	85.44
472.873	70.44
473.092	60.44
473.311	85.44
473.53	90.44
473.749	74.44
473.968	82.44
474.187	89.44
474.406	81.44
474.625	87.44
474.844	71.44
475.063	77.44
475.282	93.44
475.501	70.44
475.72	90.44
475.939	90.44
476.158	96.44
476.377	69.44
476.596	79.44
476.814	76.44
477.033	77.44
477.252	86.44
477.471	76.44
477.69	77.44
477.908	73.44
478.127	82.44
478.346	77.44
478.564	95.44
478.783	94.44
479.002	74.44
479.22	82.44
479.439	88.44
479.658	94.44
479.876	65.44
480.095	79.44
480.313	90.44
480.532	90.44
480.751	86.44
480.969	80.44
481.188	93.44
481.406	88.44
481.624	94.44
481.843	59.44
482.061	70.44
482.28	83.44
482.498	83.44
482.717	95.44
482.935	108.44
483.153	99.44
483.372	91.44
483.59	81.44
483.808	86.44
484.027	88.44
484.245	80.44
484.463	79.44
484.681	90.44
484.9	81.44
485.118	85.44
485.336	89.44
485.554	80.44
485.772	99.44
485.99	83.44
486.209	81.44
486.427	76.44
486.645	84.44
486.863	76.44
487.081	64.44
487.299	85.44
487.517	93.44
487.735	101.44
487.953	151.44
488.171	116.44
488.389	86.44
488.607	92.44
488.825	80.44
489.043	93.44
489.261	90.44
489.479	87.44
489.696	83.44
489.914	75.44
490.132	70.44
490.35	80.44
490.568	95.44
490.786	83.44
491.003	85.44
491.221	84.44
491.439	82.44
491.657	95.44
491.874	82.44
492.092	91.44
492.31	74.44
492.527	83.44
492.745	88.44
492.963	88.44
493.18	93.44
493.398	82.44
493.615	86.44
493.833	84.44
494.05	84.44
494.268	87.44
494.485	69.44
494.703	89.44
494.92	95.44
495.138	90.44
495.355	84.44
495.573	80.44
495.79	91.44
496.008	89.44
496.225	90.44
496.442	82.44
496.66	86.44
496.877	68.44
497.094	101.44
497.312	90.44
497.529	81.44
497.746	83.44
497.963	80.44
498.181	93.44
498.398	87.44
498.615	95.44
498.832	79.44
499.049	86.44
499.267	91.44
499.484	82.44
499.701	83.44
499.918	88.44
500.135	101.44
500.352	75.44
500.569	76.44
500.786	86.44
501.003	81.44
501.22	74.44
501.437	85.44
501.654	84.44
501.871	91.44
502.088	88.44
502.305	85.44
502.522	88.44
502.739	81.44
502.956	77.44
503.172	88.44
503.389	69.44
503.606	93.44
503.823	93.44
504.04	90.44
504.256	114.44
504.473	125.44
504.69	81.44
504.907	85.44
505.123	86.44
505.34	91.44
505.557	81.44
505.773	82.44
505.99	83.44
506.207	76.44
506.423	74.44
506.64	81.44
506.856	64.44
507.073	97.44
507.289	83.44
507.506	93.44
507.722	84.44
507.939	97.44
508.155	77.44
508.372	84.44
508.588	85.44
508.805	81.44
509.021	93.44
509.238	97.44
509.454	91.44
509.67	78.44
509.887	71.44
510.103	60.44
510.319	72.44
510.536	77.44
510.752	94.44
510.968	74.44
511.184	79.44
511.401	90.44
511.617	86.44
511.833	82.44
512.049	87.44
512.265	94.44
512.481	89.44
512.698	83.44
512.914	76.44
513.13	90.44
513.346	76.44
513.562	86.44
513.778	87.44
513.994	76.44
514.21	78.44
514.426	77.44
514.642	76.44
514.858	77.44
515.074	84.44
515.29	91.44
515.506	87.44
515.721	72.44
515.937	95.44
516.153	94.44
516.369	82.44
516.585	87.44
516.801	79.44
517.016	83.44
517.232	88.44
517.448	93.44
517.664	105.44
517.879	78.44
518.095	94.44
518.311	91.44
518.527	103.44
