Data from 17600_2_HRD10591_00015.txt Node
Date: Mon Jan 19 14:08:30 EST 2026
User: Yrep
Spectrometer: HR+D1059
Trigger mode: 1
Integration Time (sec): 1.000000E-1
Scans to average: 1
Electric dark correction enabled: true
Nonlinearity correction enabled: false
Boxcar width: 0
XAxis mode: Wavelengths
Number of Pixels in Spectrum: 2048
>>>>>Begin Spectral Data<<<<<
223.165	-14
223.4	-14
223.635	-14
223.869	-35
224.104	-28
224.338	-14
224.573	-14
224.808	-2
225.042	2
225.277	-5
225.511	10
225.746	1
225.98	10
226.215	8
226.449	21
226.683	6
226.918	27
227.152	27
227.387	29
227.621	48
227.856	40
228.09	49
228.324	44
228.559	50
228.793	60
229.027	65
229.262	70
229.496	74
229.73	66
229.964	84
230.199	65
230.433	70
230.667	73
230.901	71
231.136	80
231.37	85
231.604	74
231.838	88
232.072	89
232.306	73
232.541	73
232.775	69
233.009	67
233.243	89
233.477	86
233.711	75
233.945	96
234.179	82
234.413	70
234.647	76
234.881	84
235.115	71
235.349	76
235.583	89
235.817	66
236.051	76
236.285	68
236.519	73
236.753	73
236.987	80
237.221	70
237.455	86
237.689	77
237.922	80
238.156	83
238.39	76
238.624	91
238.858	90
239.091	72
239.325	73
239.559	58
239.793	83
240.027	68
240.26	79
240.494	67
240.728	76
240.961	80
241.195	88
241.429	74
241.662	75
241.896	82
242.13	80
242.363	63
242.597	83
242.83	85
243.064	62
243.298	80
243.531	78
243.765	82
243.998	75
244.232	90
244.465	72
244.699	90
244.932	78
245.166	76
245.399	80
245.633	93
245.866	73
246.099	89
246.333	78
246.566	69
246.8	86
247.033	79
247.266	79
247.5	74
247.733	89
247.966	68
248.2	78
248.433	74
248.666	70
248.899	73
249.133	75
249.366	96
249.599	78
249.832	77
250.066	94
250.299	84
250.532	73
250.765	75
250.998	86
251.231	84
251.465	68
251.698	78
251.931	55
252.164	73
252.397	73
252.63	73
252.863	77
253.096	79
253.329	77
253.562	70
253.795	80
254.028	72
254.261	77
254.494	93
254.727	84
254.96	81
255.193	84
255.426	92
255.659	69
255.892	87
256.124	73
256.357	78
256.59	76
256.823	94
257.056	90
257.289	77
257.521	74
257.754	85
257.987	84
258.22	84
258.452	79
258.685	79
258.918	83
259.151	75
259.383	72
259.616	78
259.849	87
260.081	86
260.314	73
260.547	80
260.779	76
261.012	78
261.244	88
261.477	84
261.71	94
261.942	89
262.175	89
262.407	74
262.64	92
262.872	74
263.105	84
263.337	81
263.57	80
263.802	60
264.035	76
264.267	78
264.499	68
264.732	89
264.964	82
265.197	103
265.429	78
265.661	73
265.894	88
266.126	86
266.358	65
266.591	80
266.823	78
267.055	80
267.287	77
267.52	89
267.752	78
267.984	96
268.216	92
268.448	81
268.681	60
268.913	82
269.145	86
269.377	83
269.609	85
269.841	77
270.073	80
270.306	72
270.538	84
270.77	77
271.002	80
271.234	85
271.466	92
271.698	83
271.93	102
272.162	87
272.394	92
272.626	93
272.858	76
273.09	79
273.322	88
273.553	95
273.785	86
274.017	79
274.249	83
274.481	79
274.713	88
274.945	75
275.176	94
275.408	92
275.64	73
275.872	88
276.104	85
276.335	74
276.567	86
276.799	89
277.031	60
277.262	80
277.494	79
277.726	90
277.957	80
278.189	84
278.421	70
278.652	71
278.884	73
279.115	79
279.347	84
279.579	93
279.81	83
280.042	92
280.273	92
280.505	86
280.736	84
280.968	83
281.199	79
281.431	83
281.662	84
281.894	71
282.125	76
282.356	87
282.588	84
282.819	86
283.051	82
283.282	92
283.513	94
283.745	82
283.976	87
284.207	80
284.439	81
284.67	85
284.901	93
285.132	88
285.364	80
285.595	96
285.826	90
286.057	91
286.288	87
286.52	77
286.751	68
286.982	89
287.213	87
287.444	83
287.675	76
287.906	76
288.138	78
288.369	76
288.6	77
288.831	90
289.062	75
289.293	82
289.524	88
289.755	66
289.986	70
290.217	91
290.448	73
290.679	81
290.91	89
291.141	96
291.371	72
291.602	70
291.833	83
292.064	87
292.295	78
292.526	81
292.757	84
292.987	67
293.218	81
293.449	85
293.68	87
293.91	87
294.141	83
294.372	85
294.603	91
294.833	78
295.064	84
295.295	77
295.525	82
295.756	89
295.987	90
296.217	79
296.448	77
296.679	74
296.909	89
297.14	92
297.37	86
297.601	86
297.831	87
298.062	86
298.292	75
298.523	92
298.753	84
298.984	85
299.214	80
299.445	95
299.675	114
299.905	82
300.136	97
300.366	102
300.597	84
300.827	90
301.057	83
301.288	86
301.518	91
301.748	75
301.979	94
302.209	104
302.439	72
302.669	81
302.9	92
303.13	81
303.36	79
303.59	80
303.82	90
304.051	82
304.281	79
304.511	97
304.741	91
304.971	101
305.201	113
305.431	82
305.661	92
305.891	84
306.121	83
306.352	82
306.582	87
306.812	71
307.042	93
307.272	93
307.502	78
307.731	86
307.961	83
308.191	111
308.421	101
308.651	93
308.881	87
309.111	100
309.341	101
309.571	97
309.8	99
310.03	80
310.26	82
310.49	88
310.72	80
310.949	83
311.179	94
311.409	96
311.639	87
311.868	74
312.098	92
312.328	86
312.557	84
312.787	78
313.017	96
313.246	72
313.476	88
313.706	85
313.935	90
314.165	85
314.394	82
314.624	90
314.853	82
315.083	81
315.312	94
315.542	87
315.771	90
316.001	96
316.23	94
316.46	93
316.689	97
316.919	85
317.148	90
317.377	91
317.607	106
317.836	114
318.065	106
318.295	93
318.524	88
318.753	105
318.983	85
319.212	86
319.441	86
319.67	87
319.9	89
320.129	84
320.358	94
320.587	69
320.816	94
321.046	80
321.275	75
321.504	82
321.733	78
321.962	81
322.191	86
322.42	88
322.649	100
322.878	96
323.108	97
323.337	99
323.566	96
323.795	88
324.024	92
324.253	84
324.482	93
324.71	96
324.939	95
325.168	81
325.397	87
325.626	94
325.855	74
326.084	87
326.313	103
326.542	92
326.77	82
326.999	89
327.228	96
327.457	101
327.686	92
327.914	92
328.143	91
328.372	83
328.6	96
328.829	88
329.058	88
329.287	78
329.515	76
329.744	89
329.972	94
330.201	78
330.43	98
330.658	80
330.887	77
331.115	90
331.344	77
331.572	99
331.801	86
332.03	85
332.258	74
332.486	89
332.715	85
332.943	90
333.172	100
333.4	90
333.629	92
333.857	94
334.085	85
334.314	106
334.542	106
334.771	101
334.999	104
335.227	104
335.455	102
335.684	99
335.912	101
336.14	114
336.369	106
336.597	112
336.825	99
337.053	88
337.281	83
337.51	95
337.738	85
337.966	88
338.194	74
338.422	88
338.65	93
338.878	90
339.106	86
339.334	88
339.562	92
339.79	100
340.018	79
340.246	85
340.474	94
340.702	77
340.93	88
341.158	88
341.386	83
341.614	86
341.842	80
342.07	83
342.298	92
342.526	96
342.754	87
342.981	77
343.209	91
343.437	99
343.665	108
343.893	90
344.12	94
344.348	83
344.576	83
344.804	89
345.031	93
345.259	81
345.487	86
345.714	90
345.942	91
346.17	88
346.397	89
346.625	95
346.853	104
347.08	105
347.308	99
347.535	96
347.763	86
347.99	89
348.218	103
348.445	94
348.673	96
348.9	94
349.128	90
349.355	99
349.583	94
349.81	90
350.037	86
350.265	92
350.492	90
350.72	75
350.947	86
351.174	90
351.402	97
351.629	96
351.856	85
352.083	86
352.311	84
352.538	84
352.765	99
352.992	89
353.22	96
353.447	92
353.674	100
353.901	83
354.128	98
354.355	86
354.583	93
354.81	93
355.037	83
355.264	91
355.491	86
355.718	90
355.945	88
356.172	79
356.399	86
356.626	108
356.853	90
357.08	112
357.307	102
357.534	87
357.761	95
357.988	86
358.215	97
358.441	89
358.668	98
358.895	97
359.122	74
359.349	80
359.576	92
359.802	85
360.029	103
360.256	85
360.483	92
360.709	91
360.936	104
361.163	87
361.39	84
361.616	93
361.843	108
362.07	118
362.296	133
362.523	120
362.749	124
362.976	142
363.203	148
363.429	134
363.656	87
363.882	110
364.109	127
364.335	164
364.562	167
364.788	151
365.015	102
365.241	91
365.468	104
365.694	88
365.92	79
366.147	103
366.373	88
366.599	92
366.826	87
367.052	83
367.278	96
367.505	89
367.731	84
367.957	87
368.184	105
368.41	86
368.636	98
368.862	91
369.089	71
369.315	88
369.541	98
369.767	103
369.993	89
370.219	92
370.445	100
370.672	103
370.898	110
371.124	94
371.35	93
371.576	87
371.802	99
372.028	115
372.254	117
372.48	94
372.706	97
372.932	83
373.158	88
373.384	122
373.61	126
373.835	108
374.061	115
374.287	108
374.513	92
374.739	105
374.965	116
375.191	96
375.416	100
375.642	101
375.868	100
376.094	109
376.319	84
376.545	95
376.771	92
376.997	96
377.222	92
377.448	88
377.674	101
377.899	95
378.125	99
378.35	94
378.576	88
378.802	86
379.027	85
379.253	81
379.478	89
379.704	84
379.929	98
380.155	96
380.38	104
380.606	90
380.831	83
381.057	77
381.282	109
381.507	80
381.733	96
381.958	95
382.184	104
382.409	108
382.634	101
382.86	127
383.085	113
383.31	97
383.535	113
383.761	111
383.986	115
384.211	112
384.436	103
384.662	94
384.887	105
385.112	98
385.337	110
385.562	92
385.787	105
386.013	104
386.238	112
386.463	104
386.688	112
386.913	105
387.138	106
387.363	100
387.588	103
387.813	112
388.038	112
388.263	119
388.488	108
388.713	98
388.938	95
389.163	104
389.387	96
389.612	88
389.837	85
390.062	92
390.287	91
390.512	101
390.736	111
390.961	94
391.186	94
391.411	79
391.636	93
391.86	74
392.085	100
392.31	125
392.534	115
392.759	151
392.984	225
393.208	401
393.433	611
393.658	458
393.882	190
394.107	139
394.331	150
394.556	160
394.78	133
395.005	112
395.229	99
395.454	106
395.678	127
395.903	152
396.127	193
396.352	222
396.576	257
396.801	409
397.025	487
397.249	238
397.474	144
397.698	110
397.922	108
398.147	105
398.371	94
398.595	102
398.82	95
399.044	89
399.268	95
399.492	93
399.717	96
399.941	107
400.165	110
400.389	98
400.613	99
400.837	100
401.062	100
401.286	92
401.51	96
401.734	93
401.958	99
402.182	87
402.406	98
402.63	95
402.854	97
403.078	88
403.302	91
403.526	97
403.75	94
403.974	86
404.198	100
404.422	114
404.645	115
404.869	99
405.093	94
405.317	96
405.541	100
405.765	96
405.988	80
406.212	99
406.436	99
406.66	84
406.883	88
407.107	85
407.331	94
407.555	111
407.778	164
408.002	145
408.226	102
408.449	82
408.673	89
408.896	96
409.12	110
409.344	110
409.567	116
409.791	122
410.014	115
410.238	110
410.461	91
410.685	103
410.908	101
411.132	92
411.355	81
411.578	91
411.802	78
412.025	88
412.249	79
412.472	90
412.695	86
412.919	97
413.142	90
413.365	86
413.589	78
413.812	96
414.035	86
414.258	90
414.482	85
414.705	88
414.928	97
415.151	85
415.374	89
415.597	93
415.821	83
416.044	88
416.267	86
416.49	82
416.713	88
416.936	111
417.159	101
417.382	102
417.605	89
417.828	102
418.051	94
418.274	97
418.497	83
418.72	86
418.943	94
419.166	85
419.389	83
419.611	98
419.834	94
420.057	92
420.28	100
420.503	112
420.726	108
420.948	87
421.171	104
421.394	125
421.617	163
421.839	164
422.062	181
422.285	256
422.507	435
422.73	700
422.953	638
423.175	336
423.398	188
423.621	137
423.843	120
424.066	116
424.288	111
424.511	109
424.733	96
424.956	104
425.178	101
425.401	100
425.623	98
425.846	100
426.068	86
426.291	104
426.513	89
426.735	82
426.958	94
427.18	99
427.402	104
427.625	89
427.847	96
428.069	110
428.292	162
428.514	179
428.736	138
428.958	168
429.181	168
429.403	112
429.625	116
429.847	152
430.069	228
430.292	243
430.514	245
430.736	177
430.958	183
431.18	119
431.402	76
431.624	110
431.846	139
432.068	190
432.29	96
432.512	100
432.734	90
432.956	87
433.178	98
433.4	97
433.622	81
433.844	80
434.066	89
434.287	95
434.509	89
434.731	88
434.953	99
435.175	88
435.397	80
435.618	102
435.84	114
436.062	96
436.284	108
436.505	76
436.727	73
436.949	88
437.17	92
437.392	86
437.614	87
437.835	90
438.057	95
438.278	86
438.5	98
438.721	94
438.943	81
439.165	86
439.386	86
439.608	103
439.829	87
440.05	93
440.272	96
440.493	97
440.715	92
440.936	72
441.158	90
441.379	84
441.6	94
441.822	95
442.043	92
442.264	105
442.486	166
442.707	225
442.928	175
443.149	132
443.371	206
443.592	372
443.813	318
444.034	138
444.255	124
444.476	93
444.698	92
444.919	104
445.14	195
445.361	263
445.582	453
445.803	371
446.024	164
446.245	112
446.466	92
446.687	83
446.908	81
447.129	97
447.35	81
447.571	98
447.792	84
448.013	88
448.234	92
448.455	72
448.675	92
448.896	100
449.117	92
449.338	80
449.559	84
449.779	95
450	100
450.221	81
450.442	97
450.662	85
450.883	95
451.104	96
451.324	100
451.545	97
451.766	86
451.986	92
452.207	92
452.428	86
452.648	98
452.869	114
453.089	91
453.31	97
453.53	101
453.751	103
453.971	89
454.192	96
454.412	96
454.633	98
454.853	94
455.073	89
455.294	75
455.514	97
455.734	97
455.955	93
456.175	92
456.395	85
456.616	93
456.836	92
457.056	88
457.276	102
457.497	101
457.717	95
457.937	142
458.157	159
458.377	164
458.598	153
458.818	181
459.038	106
459.258	82
459.478	88
459.698	86
459.918	94
460.138	92
460.358	101
460.578	120
460.798	169
461.018	165
461.238	105
461.458	90
461.678	88
461.898	97
462.118	84
462.338	84
462.558	72
462.777	74
462.997	86
463.217	80
463.437	96
463.657	87
463.876	82
464.096	84
464.316	83
464.536	84
464.755	92
464.975	94
465.195	79
465.414	86
465.634	75
465.854	98
466.073	98
466.293	75
466.512	85
466.732	89
466.951	100
467.171	102
467.391	85
467.61	97
467.829	90
468.049	93
468.268	87
468.488	98
468.707	94
468.927	93
469.146	81
469.365	77
469.585	90
469.804	80
470.023	89
470.243	94
470.462	80
470.681	82
470.901	94
471.12	89
471.339	98
471.558	88
471.777	84
471.997	82
472.216	89
472.435	95
472.654	80
472.873	97
473.092	92
473.311	92
473.53	84
473.749	100
473.968	84
474.187	89
474.406	108
474.625	78
474.844	90
475.063	81
475.282	88
475.501	98
475.72	88
475.939	90
476.158	98
476.377	83
476.596	83
476.814	89
477.033	82
477.252	87
477.471	83
477.69	97
477.908	92
478.127	93
478.346	97
478.564	98
478.783	93
479.002	88
479.22	80
479.439	82
479.658	86
479.876	88
480.095	89
480.313	89
480.532	93
480.751	100
480.969	90
481.188	101
481.406	122
481.624	96
481.843	96
482.061	89
482.28	94
482.498	88
482.717	98
482.935	85
483.153	104
483.372	102
483.59	79
483.808	82
484.027	105
484.245	88
484.463	86
484.681	113
484.9	110
485.118	86
485.336	100
485.554	96
485.772	107
485.99	96
486.209	96
486.427	95
486.645	92
486.863	96
487.081	89
487.299	108
487.517	112
487.735	137
487.953	263
488.171	208
488.389	97
488.607	95
488.825	91
489.043	88
489.261	86
489.479	99
489.696	95
489.914	94
490.132	108
490.35	88
490.568	95
490.786	90
491.003	93
491.221	89
491.439	95
491.657	84
491.874	95
492.092	92
492.31	104
492.527	99
492.745	90
492.963	98
493.18	93
493.398	92
493.615	117
493.833	119
494.05	80
494.268	80
494.485	87
494.703	88
494.92	96
495.138	97
495.355	82
495.573	92
495.79	102
496.008	102
496.225	96
496.442	106
496.66	97
496.877	96
497.094	103
497.312	84
497.529	104
497.746	99
497.963	94
498.181	103
498.398	110
498.615	114
498.832	99
499.049	91
499.267	115
499.484	95
499.701	92
499.918	114
500.135	116
500.352	100
500.569	85
500.786	90
501.003	86
501.22	88
501.437	110
501.654	115
501.871	89
502.088	99
502.305	96
502.522	87
502.739	105
502.956	76
503.172	94
503.389	96
503.606	112
503.823	121
504.04	137
504.256	185
504.473	179
504.69	105
504.907	84
505.123	105
505.34	101
505.557	98
505.773	80
505.99	87
506.207	93
506.423	96
506.64	84
506.856	86
507.073	78
507.289	96
507.506	94
507.722	83
507.939	81
508.155	94
508.372	82
508.588	69
508.805	104
509.021	88
509.238	95
509.454	100
509.67	92
509.887	96
510.103	93
510.319	96
510.536	97
510.752	93
510.968	98
511.184	100
511.401	99
511.617	86
511.833	77
512.049	90
512.265	89
512.481	88
512.698	99
512.914	79
513.13	100
513.346	94
513.562	79
513.778	104
513.994	87
514.21	96
514.426	100
514.642	88
514.858	84
515.074	93
515.29	112
515.506	103
515.721	103
515.937	91
516.153	91
516.369	98
516.585	86
516.801	89
517.016	108
517.232	113
517.448	117
517.664	113
517.879	95
518.095	94
518.311	99
518.527	129
518.742	145
518.958	215
519.173	269
519.389	134
519.605	102
519.82	96
520.036	94
520.251	109
520.467	95
520.682	100
520.898	105
521.113	92
521.329	93
521.544	97
521.76	111
521.975	88
522.19	103
522.406	92
522.621	100
522.836	103
523.052	92
523.267	90
523.482	97
523.698	93
523.913	89
524.128	88
524.343	102
524.559	97
524.774	99
524.989	110
525.204	99
525.419	110
525.634	116
525.849	117
526.064	164
526.28	353
526.495	498
526.71	530
526.925	335
527.14	439
527.355	397
527.57	141
527.785	101
527.999	113
528.214	102
528.429	110
528.644	102
528.859	92
529.074	101
529.289	108
529.503	96
529.718	97
529.933	110
530.148	111
530.363	121
530.577	108
530.792	112
531.007	105
531.221	108
531.436	101
531.651	114
531.865	108
532.08	98
532.295	120
532.509	125
532.724	108
532.938	134
533.153	125
533.367	121
533.582	118
533.796	107
534.011	106
534.225	108
534.44	130
534.654	118
534.868	139
535.083	259
535.297	225
535.511	128
535.726	125
535.94	115
536.154	121
536.369	118
536.583	116
536.797	118
537.011	124
537.225	114
537.44	130
537.654	120
537.868	123
538.082	113
538.296	119
538.51	122
538.724	125
538.938	115
539.153	130
539.367	116
539.581	128
539.795	112
540.009	119
540.222	130
540.436	119
540.65	102
540.864	110
541.078	124
541.292	125
541.506	131
541.72	113
541.934	114
542.147	124
542.361	126
542.575	123
542.789	128
543.002	137
543.216	114
543.43	119
543.644	129
543.857	129
544.071	118
544.285	122
544.498	113
544.712	138
544.925	125
545.139	122
545.352	127
545.566	110
545.779	124
545.993	141
546.206	137
546.42	132
546.633	151
546.847	146
547.06	178
547.274	206
547.487	238
547.7	272
547.914	267
548.127	284
548.34	320
548.554	314
548.767	320
548.98	325
549.193	315
549.407	315
549.62	335
549.833	380
550.046	423
550.259	451
550.473	437
550.686	466
550.899	526
551.112	529
551.325	610
551.538	618
551.751	586
551.964	569
552.177	569
552.39	585
552.603	579
552.816	572
553.029	565
553.242	572
553.455	592
553.667	617
553.88	659
554.093	673
554.306	686
554.519	684
554.732	682
554.944	656
555.157	634
555.37	608
555.583	596
555.795	542
556.008	523
556.221	486
556.433	459
556.646	437
556.859	401
557.071	389
557.284	365
557.496	326
557.709	294
557.921	292
558.134	275
558.346	368
558.559	338
558.771	349
558.984	568
559.196	698
559.409	366
559.621	520
559.833	405
560.046	475
560.258	408
560.47	414
560.683	236
560.895	177
561.107	169
561.32	164
561.532	169
561.744	179
561.956	158
562.168	142
562.381	132
562.593	132
562.805	142
563.017	133
563.229	124
563.441	150
563.653	138
563.865	142
564.077	140
564.289	135
564.501	140
564.713	138
564.925	127
565.137	135
565.349	144
565.561	109
565.773	129
565.985	131
566.197	114
566.408	108
566.62	122
566.832	134
567.044	135
567.255	128
567.467	119
567.679	123
567.891	124
568.102	133
568.314	138
568.526	141
568.737	127
568.949	117
569.161	143
569.372	135
569.584	140
569.795	125
570.007	127
570.218	130
570.43	117
570.641	144
570.853	120
571.064	109
571.276	134
571.487	136
571.698	129
571.91	135
572.121	127
572.333	130
572.544	132
572.755	126
572.966	135
573.178	122
573.389	115
573.6	128
573.811	138
574.023	114
574.234	122
574.445	121
574.656	115
574.867	114
575.078	127
575.289	128
575.501	118
575.712	110
575.923	100
576.134	110
576.345	98
576.556	124
576.767	118
576.978	98
577.188	103
577.399	110
577.61	110
577.821	118
578.032	110
578.243	105
578.454	109
578.665	93
578.875	101
579.086	110
579.297	103
579.508	100
579.718	120
579.929	116
580.14	109
580.35	109
580.561	118
580.772	104
580.982	113
