Data from 17600_2_HRD10591_00031.txt Node
Date: Mon Jan 19 14:08:38 EST 2026
User: Yrep
Spectrometer: HR+D1059
Trigger mode: 1
Integration Time (sec): 1.000000E-1
Scans to average: 1
Electric dark correction enabled: true
Nonlinearity correction enabled: false
Boxcar width: 0
XAxis mode: Wavelengths
Number of Pixels in Spectrum: 2048
>>>>>Begin Spectral Data<<<<<
223.165	-6.56
223.4	-6.56
223.635	-6.56
223.869	-0.56
224.104	-26.56
224.338	-7.56
224.573	-21.56
224.808	-6.56
225.042	-12.56
225.277	-22.56
225.511	4.44
225.746	-4.56
225.98	0.44
226.215	15.44
226.449	8.44
226.683	18.44
226.918	23.44
227.152	38.44
227.387	25.44
227.621	32.44
227.856	42.44
228.09	46.44
228.324	50.44
228.559	50.44
228.793	62.44
229.027	63.44
229.262	70.44
229.496	65.44
229.73	61.44
229.964	74.44
230.199	71.44
230.433	73.44
230.667	66.44
230.901	84.44
231.136	82.44
231.37	67.44
231.604	76.44
231.838	88.44
232.072	81.44
232.306	86.44
232.541	83.44
232.775	83.44
233.009	78.44
233.243	92.44
233.477	90.44
233.711	83.44
233.945	82.44
234.179	77.44
234.413	77.44
234.647	79.44
234.881	71.44
235.115	85.44
235.349	73.44
235.583	82.44
235.817	77.44
236.051	69.44
236.285	58.44
236.519	73.44
236.753	74.44
236.987	71.44
237.221	69.44
237.455	63.44
237.689	81.44
237.922	77.44
238.156	81.44
238.39	69.44
238.624	83.44
238.858	81.44
239.091	74.44
239.325	65.44
239.559	85.44
239.793	89.44
240.027	90.44
240.26	87.44
240.494	69.44
240.728	85.44
240.961	73.44
241.195	71.44
241.429	70.44
241.662	77.44
241.896	67.44
242.13	86.44
242.363	80.44
242.597	75.44
242.83	89.44
243.064	75.44
243.298	71.44
243.531	82.44
243.765	79.44
243.998	80.44
244.232	102.44
244.465	86.44
244.699	74.44
244.932	91.44
245.166	79.44
245.399	84.44
245.633	78.44
245.866	85.44
246.099	65.44
246.333	79.44
246.566	77.44
246.8	77.44
247.033	80.44
247.266	73.44
247.5	79.44
247.733	80.44
247.966	87.44
248.2	90.44
248.433	65.44
248.666	77.44
248.899	74.44
249.133	87.44
249.366	81.44
249.599	82.44
249.832	73.44
250.066	81.44
250.299	79.44
250.532	77.44
250.765	78.44
250.998	80.44
251.231	74.44
251.465	75.44
251.698	70.44
251.931	75.44
252.164	70.44
252.397	95.44
252.63	80.44
252.863	81.44
253.096	62.44
253.329	79.44
253.562	71.44
253.795	75.44
254.028	79.44
254.261	70.44
254.494	67.44
254.727	82.44
254.96	85.44
255.193	77.44
255.426	91.44
255.659	77.44
255.892	74.44
256.124	72.44
256.357	80.44
256.59	81.44
256.823	81.44
257.056	81.44
257.289	75.44
257.521	95.44
257.754	81.44
257.987	77.44
258.22	85.44
258.452	64.44
258.685	70.44
258.918	78.44
259.151	79.44
259.383	76.44
259.616	77.44
259.849	81.44
260.081	71.44
260.314	73.44
260.547	71.44
260.779	87.44
261.012	77.44
261.244	76.44
261.477	78.44
261.71	86.44
261.942	78.44
262.175	81.44
262.407	87.44
262.64	76.44
262.872	85.44
263.105	73.44
263.337	84.44
263.57	76.44
263.802	93.44
264.035	70.44
264.267	73.44
264.499	75.44
264.732	73.44
264.964	67.44
265.197	74.44
265.429	70.44
265.661	79.44
265.894	80.44
266.126	94.44
266.358	80.44
266.591	89.44
266.823	72.44
267.055	91.44
267.287	74.44
267.52	81.44
267.752	81.44
267.984	93.44
268.216	79.44
268.448	85.44
268.681	89.44
268.913	81.44
269.145	69.44
269.377	75.44
269.609	88.44
269.841	72.44
270.073	72.44
270.306	83.44
270.538	81.44
270.77	75.44
271.002	90.44
271.234	71.44
271.466	74.44
271.698	79.44
271.93	72.44
272.162	93.44
272.394	88.44
272.626	85.44
272.858	74.44
273.09	79.44
273.322	82.44
273.553	72.44
273.785	82.44
274.017	70.44
274.249	73.44
274.481	77.44
274.713	81.44
274.945	70.44
275.176	82.44
275.408	81.44
275.64	75.44
275.872	68.44
276.104	91.44
276.335	97.44
276.567	94.44
276.799	96.44
277.031	81.44
277.262	67.44
277.494	85.44
277.726	80.44
277.957	97.44
278.189	70.44
278.421	91.44
278.652	74.44
278.884	79.44
279.115	89.44
279.347	86.44
279.579	79.44
279.81	83.44
280.042	89.44
280.273	90.44
280.505	86.44
280.736	79.44
280.968	80.44
281.199	75.44
281.431	79.44
281.662	81.44
281.894	80.44
282.125	97.44
282.356	83.44
282.588	77.44
282.819	81.44
283.051	74.44
283.282	73.44
283.513	77.44
283.745	67.44
283.976	73.44
284.207	93.44
284.439	86.44
284.67	87.44
284.901	76.44
285.132	77.44
285.364	86.44
285.595	85.44
285.826	80.44
286.057	93.44
286.288	77.44
286.52	84.44
286.751	62.44
286.982	82.44
287.213	89.44
287.444	83.44
287.675	90.44
287.906	87.44
288.138	82.44
288.369	82.44
288.6	80.44
288.831	82.44
289.062	78.44
289.293	81.44
289.524	95.44
289.755	85.44
289.986	85.44
290.217	68.44
290.448	63.44
290.679	91.44
290.91	79.44
291.141	83.44
291.371	81.44
291.602	82.44
291.833	74.44
292.064	75.44
292.295	85.44
292.526	87.44
292.757	83.44
292.987	70.44
293.218	84.44
293.449	90.44
293.68	83.44
293.91	87.44
294.141	100.44
294.372	79.44
294.603	88.44
294.833	88.44
295.064	74.44
295.295	75.44
295.525	82.44
295.756	87.44
295.987	83.44
296.217	80.44
296.448	83.44
296.679	86.44
296.909	96.44
297.14	79.44
297.37	87.44
297.601	70.44
297.831	87.44
298.062	83.44
298.292	77.44
298.523	93.44
298.753	85.44
298.984	82.44
299.214	89.44
299.445	83.44
299.675	85.44
299.905	83.44
300.136	77.44
300.366	84.44
300.597	91.44
300.827	96.44
301.057	83.44
301.288	76.44
301.518	97.44
301.748	77.44
301.979	93.44
302.209	86.44
302.439	82.44
302.669	90.44
302.9	97.44
303.13	91.44
303.36	72.44
303.59	73.44
303.82	85.44
304.051	79.44
304.281	90.44
304.511	96.44
304.741	79.44
304.971	72.44
305.201	95.44
305.431	89.44
305.661	105.44
305.891	94.44
306.121	73.44
306.352	91.44
306.582	76.44
306.812	84.44
307.042	95.44
307.272	87.44
307.502	92.44
307.731	89.44
307.961	74.44
308.191	96.44
308.421	86.44
308.651	79.44
308.881	87.44
309.111	83.44
309.341	80.44
309.571	80.44
309.8	86.44
310.03	83.44
310.26	74.44
310.49	86.44
310.72	87.44
310.949	75.44
311.179	85.44
311.409	85.44
311.639	86.44
311.868	92.44
312.098	95.44
312.328	89.44
312.557	89.44
312.787	98.44
313.017	89.44
313.246	79.44
313.476	84.44
313.706	81.44
313.935	82.44
314.165	99.44
314.394	90.44
314.624	95.44
314.853	95.44
315.083	86.44
315.312	71.44
315.542	88.44
315.771	89.44
316.001	82.44
316.23	83.44
316.46	81.44
316.689	83.44
316.919	78.44
317.148	86.44
317.377	84.44
317.607	86.44
317.836	81.44
318.065	83.44
318.295	79.44
318.524	78.44
318.753	77.44
318.983	79.44
319.212	83.44
319.441	89.44
319.67	85.44
319.9	81.44
320.129	83.44
320.358	79.44
320.587	69.44
320.816	93.44
321.046	88.44
321.275	91.44
321.504	77.44
321.733	75.44
321.962	85.44
322.191	81.44
322.42	76.44
322.649	78.44
322.878	84.44
323.108	98.44
323.337	76.44
323.566	88.44
323.795	76.44
324.024	82.44
324.253	67.44
324.482	93.44
324.71	76.44
324.939	88.44
325.168	74.44
325.397	88.44
325.626	75.44
325.855	79.44
326.084	85.44
326.313	84.44
326.542	85.44
326.77	77.44
326.999	86.44
327.228	71.44
327.457	87.44
327.686	85.44
327.914	80.44
328.143	73.44
328.372	78.44
328.6	88.44
328.829	87.44
329.058	80.44
329.287	76.44
329.515	105.44
329.744	72.44
329.972	92.44
330.201	88.44
330.43	89.44
330.658	71.44
330.887	86.44
331.115	81.44
331.344	80.44
331.572	87.44
331.801	79.44
332.03	70.44
332.258	77.44
332.486	63.44
332.715	85.44
332.943	82.44
333.172	73.44
333.4	74.44
333.629	84.44
333.857	77.44
334.085	71.44
334.314	84.44
334.542	88.44
334.771	89.44
334.999	73.44
335.227	94.44
335.455	86.44
335.684	85.44
335.912	80.44
336.14	90.44
336.369	84.44
336.597	79.44
336.825	84.44
337.053	93.44
337.281	81.44
337.51	73.44
337.738	97.44
337.966	95.44
338.194	80.44
338.422	85.44
338.65	95.44
338.878	99.44
339.106	84.44
339.334	75.44
339.562	86.44
339.79	81.44
340.018	88.44
340.246	81.44
340.474	89.44
340.702	73.44
340.93	65.44
341.158	88.44
341.386	69.44
341.614	73.44
341.842	94.44
342.07	98.44
342.298	81.44
342.526	65.44
342.754	95.44
342.981	84.44
343.209	88.44
343.437	102.44
343.665	84.44
343.893	91.44
344.12	94.44
344.348	81.44
344.576	79.44
344.804	78.44
345.031	76.44
345.259	79.44
345.487	86.44
345.714	78.44
345.942	81.44
346.17	83.44
346.397	90.44
346.625	91.44
346.853	86.44
347.08	93.44
347.308	95.44
347.535	82.44
347.763	73.44
347.99	75.44
348.218	83.44
348.445	72.44
348.673	96.44
348.9	97.44
349.128	81.44
349.355	78.44
349.583	82.44
349.81	82.44
350.037	98.44
350.265	80.44
350.492	73.44
350.72	78.44
350.947	75.44
351.174	63.44
351.402	100.44
351.629	87.44
351.856	76.44
352.083	81.44
352.311	78.44
352.538	104.44
352.765	81.44
352.992	81.44
353.22	96.44
353.447	95.44
353.674	83.44
353.901	83.44
354.128	75.44
354.355	73.44
354.583	107.44
354.81	93.44
355.037	85.44
355.264	86.44
355.491	77.44
355.718	89.44
355.945	79.44
356.172	79.44
356.399	93.44
356.626	89.44
356.853	86.44
357.08	83.44
357.307	83.44
357.534	72.44
357.761	85.44
357.988	76.44
358.215	81.44
358.441	83.44
358.668	96.44
358.895	98.44
359.122	98.44
359.349	73.44
359.576	80.44
359.802	85.44
360.029	89.44
360.256	90.44
360.483	79.44
360.709	78.44
360.936	97.44
361.163	74.44
361.39	96.44
361.616	83.44
361.843	85.44
362.07	76.44
362.296	90.44
362.523	95.44
362.749	95.44
362.976	93.44
363.203	98.44
363.429	96.44
363.656	79.44
363.882	76.44
364.109	98.44
364.335	89.44
364.562	83.44
364.788	78.44
365.015	67.44
365.241	81.44
365.468	73.44
365.694	82.44
365.92	81.44
366.147	77.44
366.373	97.44
366.599	91.44
366.826	83.44
367.052	83.44
367.278	91.44
367.505	80.44
367.731	88.44
367.957	81.44
368.184	101.44
368.41	84.44
368.636	84.44
368.862	90.44
369.089	81.44
369.315	87.44
369.541	77.44
369.767	83.44
369.993	86.44
370.219	84.44
370.445	97.44
370.672	90.44
370.898	89.44
371.124	81.44
371.35	53.44
371.576	83.44
371.802	86.44
372.028	75.44
372.254	89.44
372.48	82.44
372.706	95.44
372.932	86.44
373.158	77.44
373.384	88.44
373.61	95.44
373.835	103.44
374.061	77.44
374.287	91.44
374.513	85.44
374.739	93.44
374.965	101.44
375.191	91.44
375.416	69.44
375.642	78.44
375.868	83.44
376.094	86.44
376.319	86.44
376.545	92.44
376.771	90.44
376.997	101.44
377.222	79.44
377.448	77.44
377.674	79.44
377.899	78.44
378.125	75.44
378.35	75.44
378.576	89.44
378.802	81.44
379.027	79.44
379.253	78.44
379.478	70.44
379.704	74.44
379.929	70.44
380.155	83.44
380.38	85.44
380.606	83.44
380.831	89.44
381.057	85.44
381.282	87.44
381.507	85.44
381.733	81.44
381.958	91.44
382.184	82.44
382.409	82.44
382.634	98.44
382.86	81.44
383.085	87.44
383.31	69.44
383.535	79.44
383.761	81.44
383.986	85.44
384.211	96.44
384.436	76.44
384.662	85.44
384.887	91.44
385.112	97.44
385.337	87.44
385.562	81.44
385.787	79.44
386.013	87.44
386.238	79.44
386.463	89.44
386.688	85.44
386.913	76.44
387.138	83.44
387.363	85.44
387.588	79.44
387.813	81.44
388.038	88.44
388.263	85.44
388.488	69.44
388.713	71.44
388.938	77.44
389.163	87.44
389.387	92.44
389.612	91.44
389.837	87.44
390.062	91.44
390.287	72.44
390.512	85.44
390.736	75.44
390.961	75.44
391.186	80.44
391.411	76.44
391.636	74.44
391.86	85.44
392.085	86.44
392.31	105.44
392.534	90.44
392.759	87.44
392.984	113.44
393.208	158.44
393.433	221.44
393.658	182.44
393.882	116.44
394.107	95.44
394.331	95.44
394.556	92.44
394.78	88.44
395.005	73.44
395.229	89.44
395.454	84.44
395.678	83.44
395.903	89.44
396.127	97.44
396.352	118.44
396.576	112.44
396.801	163.44
397.025	195.44
397.249	131.44
397.474	83.44
397.698	82.44
397.922	103.44
398.147	81.44
398.371	81.44
398.595	92.44
398.82	90.44
399.044	82.44
399.268	99.44
399.492	98.44
399.717	73.44
399.941	79.44
400.165	84.44
400.389	84.44
400.613	86.44
400.837	89.44
401.062	81.44
401.286	78.44
401.51	81.44
401.734	94.44
401.958	92.44
402.182	81.44
402.406	69.44
402.63	77.44
402.854	79.44
403.078	81.44
403.302	80.44
403.526	81.44
403.75	78.44
403.974	81.44
404.198	69.44
404.422	87.44
404.645	93.44
404.869	86.44
405.093	83.44
405.317	91.44
405.541	86.44
405.765	80.44
405.988	89.44
406.212	75.44
406.436	95.44
406.66	89.44
406.883	76.44
407.107	97.44
407.331	75.44
407.555	90.44
407.778	98.44
408.002	95.44
408.226	90.44
408.449	71.44
408.673	85.44
408.896	94.44
409.12	85.44
409.344	91.44
409.567	83.44
409.791	96.44
410.014	76.44
410.238	66.44
410.461	75.44
410.685	106.44
410.908	83.44
411.132	79.44
411.355	81.44
411.578	83.44
411.802	97.44
412.025	82.44
412.249	89.44
412.472	85.44
412.695	85.44
412.919	87.44
413.142	72.44
413.365	87.44
413.589	76.44
413.812	88.44
414.035	69.44
414.258	76.44
414.482	84.44
414.705	92.44
414.928	95.44
415.151	88.44
415.374	83.44
415.597	90.44
415.821	92.44
416.044	86.44
416.267	81.44
416.49	89.44
416.713	80.44
416.936	83.44
417.159	79.44
417.382	89.44
417.605	98.44
417.828	80.44
418.051	82.44
418.274	74.44
418.497	73.44
418.72	70.44
418.943	95.44
419.166	75.44
419.389	82.44
419.611	72.44
419.834	87.44
420.057	86.44
420.28	82.44
420.503	75.44
420.726	77.44
420.948	80.44
421.171	93.44
421.394	104.44
421.617	112.44
421.839	104.44
422.062	99.44
422.285	101.44
422.507	129.44
422.73	204.44
422.953	185.44
423.175	129.44
423.398	93.44
423.621	87.44
423.843	86.44
424.066	88.44
424.288	94.44
424.511	111.44
424.733	89.44
424.956	82.44
425.178	68.44
425.401	86.44
425.623	87.44
425.846	90.44
426.068	79.44
426.291	77.44
426.513	81.44
426.735	74.44
426.958	92.44
427.18	84.44
427.402	77.44
427.625	89.44
427.847	87.44
428.069	91.44
428.292	96.44
428.514	105.44
428.736	88.44
428.958	89.44
429.181	93.44
429.403	81.44
429.625	94.44
429.847	90.44
430.069	111.44
430.292	119.44
430.514	102.44
430.736	91.44
430.958	114.44
431.18	82.44
431.402	74.44
431.624	80.44
431.846	97.44
432.068	106.44
432.29	84.44
432.512	78.44
432.734	79.44
432.956	76.44
433.178	92.44
433.4	85.44
433.622	82.44
433.844	82.44
434.066	82.44
434.287	87.44
434.509	95.44
434.731	75.44
434.953	85.44
435.175	66.44
435.397	75.44
435.618	81.44
435.84	87.44
436.062	80.44
436.284	74.44
436.505	74.44
436.727	81.44
436.949	83.44
437.17	92.44
437.392	93.44
437.614	87.44
437.835	88.44
438.057	81.44
438.278	88.44
438.5	90.44
438.721	87.44
438.943	100.44
439.165	87.44
439.386	74.44
439.608	82.44
439.829	94.44
440.05	67.44
440.272	87.44
440.493	85.44
440.715	76.44
440.936	84.44
441.158	93.44
441.379	95.44
441.6	74.44
441.822	81.44
442.043	87.44
442.264	79.44
442.486	89.44
442.707	98.44
442.928	96.44
443.149	98.44
443.371	92.44
443.592	119.44
443.813	125.44
444.034	92.44
444.255	87.44
444.476	79.44
444.698	83.44
444.919	85.44
445.14	142.44
445.361	118.44
445.582	134.44
445.803	128.44
446.024	81.44
446.245	103.44
446.466	71.44
446.687	89.44
446.908	83.44
447.129	88.44
447.35	86.44
447.571	98.44
447.792	88.44
448.013	78.44
448.234	102.44
448.455	81.44
448.675	75.44
448.896	78.44
449.117	83.44
449.338	78.44
449.559	81.44
449.779	83.44
450	91.44
450.221	85.44
450.442	74.44
450.662	87.44
450.883	82.44
451.104	94.44
451.324	83.44
451.545	85.44
451.766	73.44
451.986	78.44
452.207	91.44
452.428	87.44
452.648	80.44
452.869	85.44
453.089	89.44
453.31	69.44
453.53	90.44
453.751	81.44
453.971	81.44
454.192	72.44
454.412	73.44
454.633	91.44
454.853	91.44
455.073	72.44
455.294	67.44
455.514	85.44
455.734	85.44
455.955	85.44
456.175	67.44
456.395	84.44
456.616	71.44
456.836	86.44
457.056	105.44
457.276	79.44
457.497	78.44
457.717	84.44
457.937	93.44
458.157	86.44
458.377	98.44
458.598	85.44
458.818	87.44
459.038	86.44
459.258	99.44
459.478	69.44
459.698	70.44
459.918	76.44
460.138	81.44
460.358	88.44
460.578	71.44
460.798	86.44
461.018	93.44
461.238	86.44
461.458	85.44
461.678	79.44
461.898	82.44
462.118	82.44
462.338	73.44
462.558	75.44
462.777	83.44
462.997	75.44
463.217	66.44
463.437	81.44
463.657	88.44
463.876	79.44
464.096	87.44
464.316	76.44
464.536	68.44
464.755	90.44
464.975	71.44
465.195	93.44
465.414	81.44
465.634	86.44
465.854	88.44
466.073	86.44
466.293	89.44
466.512	84.44
466.732	77.44
466.951	82.44
467.171	77.44
467.391	83.44
467.61	83.44
467.829	82.44
468.049	91.44
468.268	88.44
468.488	77.44
468.707	85.44
468.927	80.44
469.146	71.44
469.365	81.44
469.585	93.44
469.804	85.44
470.023	93.44
470.243	85.44
470.462	85.44
470.681	95.44
470.901	82.44
471.12	81.44
471.339	82.44
471.558	83.44
471.777	80.44
471.997	90.44
472.216	71.44
472.435	89.44
472.654	85.44
472.873	83.44
473.092	70.44
473.311	75.44
473.53	80.44
473.749	71.44
473.968	78.44
474.187	92.44
474.406	67.44
474.625	96.44
474.844	81.44
475.063	89.44
475.282	84.44
475.501	84.44
475.72	91.44
475.939	98.44
476.158	89.44
476.377	85.44
476.596	82.44
476.814	71.44
477.033	87.44
477.252	93.44
477.471	87.44
477.69	90.44
477.908	98.44
478.127	81.44
478.346	80.44
478.564	81.44
478.783	65.44
479.002	89.44
479.22	89.44
479.439	85.44
479.658	88.44
479.876	95.44
480.095	92.44
480.313	88.44
480.532	105.44
480.751	89.44
480.969	84.44
481.188	86.44
481.406	70.44
481.624	78.44
481.843	75.44
482.061	81.44
482.28	74.44
482.498	83.44
482.717	75.44
482.935	84.44
483.153	73.44
483.372	92.44
483.59	92.44
483.808	90.44
484.027	93.44
484.245	81.44
484.463	74.44
484.681	77.44
484.9	82.44
485.118	99.44
485.336	80.44
485.554	91.44
485.772	102.44
485.99	91.44
486.209	93.44
486.427	90.44
486.645	95.44
486.863	81.44
487.081	65.44
487.299	83.44
487.517	76.44
487.735	89.44
487.953	90.44
488.171	96.44
488.389	99.44
488.607	90.44
488.825	74.44
489.043	87.44
489.261	87.44
489.479	86.44
489.696	88.44
489.914	91.44
490.132	86.44
490.35	89.44
490.568	79.44
490.786	76.44
491.003	86.44
491.221	83.44
491.439	93.44
491.657	78.44
491.874	74.44
492.092	82.44
492.31	77.44
492.527	86.44
492.745	75.44
492.963	85.44
493.18	81.44
493.398	90.44
493.615	92.44
493.833	80.44
494.05	86.44
494.268	83.44
494.485	81.44
494.703	84.44
494.92	67.44
495.138	80.44
495.355	81.44
495.573	70.44
495.79	93.44
496.008	81.44
496.225	86.44
496.442	84.44
496.66	89.44
496.877	75.44
497.094	71.44
497.312	97.44
497.529	93.44
497.746	101.44
497.963	82.44
498.181	81.44
498.398	86.44
498.615	84.44
498.832	87.44
499.049	95.44
499.267	91.44
499.484	89.44
499.701	72.44
499.918	99.44
500.135	81.44
500.352	82.44
500.569	89.44
500.786	76.44
501.003	86.44
501.22	100.44
501.437	94.44
501.654	102.44
501.871	95.44
502.088	89.44
502.305	89.44
502.522	83.44
502.739	82.44
502.956	90.44
503.172	96.44
503.389	79.44
503.606	89.44
503.823	93.44
504.04	95.44
504.256	97.44
504.473	103.44
504.69	77.44
504.907	90.44
505.123	78.44
505.34	92.44
505.557	81.44
505.773	90.44
505.99	71.44
506.207	67.44
506.423	80.44
506.64	81.44
506.856	81.44
507.073	73.44
507.289	86.44
507.506	90.44
507.722	88.44
507.939	87.44
508.155	82.44
508.372	71.44
508.588	79.44
508.805	96.44
509.021	79.44
509.238	75.44
509.454	96.44
509.67	86.44
509.887	62.44
510.103	69.44
510.319	90.44
510.536	97.44
510.752	84.44
510.968	83.44
511.184	81.44
511.401	80.44
511.617	78.44
511.833	77.44
512.049	80.44
512.265	83.44
512.481	87.44
512.698	90.44
512.914	82.44
513.13	76.44
513.346	81.44
513.562	98.44
513.778	103.44
513.994	89.44
514.21	66.44
514.426	85.44
514.642	106.44
514.858	85.44
515.074	96.44
515.29	87.44
515.506	89.44
515.721	83.44
515.937	89.44
516.153	88.44
516.369	73.44
516.585	96.44
516.801	81.44
517.016	92.44
517.232	88.44
517.448	97.44
517.664	75.44
517.879	87.44
518.095	58.44
518.311	87.44
518.527	107.44
518.742	81.44
518.958	102.44
519.173	106.44
519.389	77.44
