Data from 17600_2_HRD10591_00036.txt Node
Date: Mon Jan 19 14:08:40 EST 2026
User: Yrep
Spectrometer: HR+D1059
Trigger mode: 1
Integration Time (sec): 1.000000E-1
Scans to average: 1
Electric dark correction enabled: true
Nonlinearity correction enabled: false
Boxcar width: 0
XAxis mode: Wavelengths
Number of Pixels in Spectrum: 2048
>>>>>Begin Spectral Data<<<<<
223.165	-14.12
223.4	-14.12
223.635	-14.12
223.869	-16.12
224.104	-24.12
224.338	-21.12
224.573	-8.12
224.808	-14.12
225.042	-6.12
225.277	-5.12
225.511	-5.12
225.746	8.88
225.98	1.88
226.215	-7.12
226.449	30.88
226.683	26.88
226.918	17.88
227.152	34.88
227.387	41.88
227.621	40.88
227.856	48.88
228.09	30.88
228.324	48.88
228.559	60.88
228.793	61.88
229.027	66.88
229.262	63.88
229.496	66.88
229.73	70.88
229.964	64.88
230.199	60.88
230.433	75.88
230.667	72.88
230.901	83.88
231.136	82.88
231.37	78.88
231.604	81.88
231.838	70.88
232.072	74.88
232.306	75.88
232.541	74.88
232.775	72.88
233.009	71.88
233.243	74.88
233.477	71.88
233.711	89.88
233.945	71.88
234.179	82.88
234.413	82.88
234.647	70.88
234.881	75.88
235.115	66.88
235.349	82.88
235.583	75.88
235.817	80.88
236.051	68.88
236.285	88.88
236.519	61.88
236.753	80.88
236.987	92.88
237.221	83.88
237.455	82.88
237.689	73.88
237.922	72.88
238.156	90.88
238.39	65.88
238.624	72.88
238.858	72.88
239.091	68.88
239.325	74.88
239.559	66.88
239.793	73.88
240.027	86.88
240.26	84.88
240.494	82.88
240.728	59.88
240.961	65.88
241.195	82.88
241.429	73.88
241.662	55.88
241.896	68.88
242.13	84.88
242.363	64.88
242.597	84.88
242.83	87.88
243.064	92.88
243.298	76.88
243.531	74.88
243.765	78.88
243.998	85.88
244.232	70.88
244.465	75.88
244.699	84.88
244.932	66.88
245.166	80.88
245.399	83.88
245.633	76.88
245.866	81.88
246.099	78.88
246.333	81.88
246.566	76.88
246.8	74.88
247.033	66.88
247.266	70.88
247.5	75.88
247.733	82.88
247.966	87.88
248.2	86.88
248.433	79.88
248.666	73.88
248.899	74.88
249.133	86.88
249.366	86.88
249.599	81.88
249.832	65.88
250.066	94.88
250.299	93.88
250.532	71.88
250.765	74.88
250.998	73.88
251.231	80.88
251.465	72.88
251.698	82.88
251.931	70.88
252.164	77.88
252.397	79.88
252.63	68.88
252.863	65.88
253.096	69.88
253.329	84.88
253.562	77.88
253.795	79.88
254.028	67.88
254.261	82.88
254.494	74.88
254.727	96.88
254.96	85.88
255.193	68.88
255.426	75.88
255.659	75.88
255.892	83.88
256.124	72.88
256.357	84.88
256.59	93.88
256.823	80.88
257.056	81.88
257.289	82.88
257.521	82.88
257.754	78.88
257.987	68.88
258.22	66.88
258.452	78.88
258.685	74.88
258.918	74.88
259.151	88.88
259.383	89.88
259.616	81.88
259.849	88.88
260.081	85.88
260.314	79.88
260.547	75.88
260.779	79.88
261.012	84.88
261.244	84.88
261.477	74.88
261.71	83.88
261.942	71.88
262.175	90.88
262.407	68.88
262.64	84.88
262.872	80.88
263.105	77.88
263.337	77.88
263.57	69.88
263.802	71.88
264.035	76.88
264.267	65.88
264.499	86.88
264.732	91.88
264.964	74.88
265.197	90.88
265.429	83.88
265.661	84.88
265.894	72.88
266.126	84.88
266.358	87.88
266.591	63.88
266.823	79.88
267.055	86.88
267.287	72.88
267.52	66.88
267.752	81.88
267.984	84.88
268.216	91.88
268.448	86.88
268.681	70.88
268.913	81.88
269.145	89.88
269.377	64.88
269.609	82.88
269.841	79.88
270.073	78.88
270.306	73.88
270.538	87.88
270.77	77.88
271.002	78.88
271.234	64.88
271.466	86.88
271.698	80.88
271.93	79.88
272.162	71.88
272.394	94.88
272.626	81.88
272.858	93.88
273.09	76.88
273.322	80.88
273.553	81.88
273.785	81.88
274.017	75.88
274.249	86.88
274.481	91.88
274.713	94.88
274.945	91.88
275.176	88.88
275.408	79.88
275.64	85.88
275.872	81.88
276.104	84.88
276.335	95.88
276.567	84.88
276.799	75.88
277.031	80.88
277.262	85.88
277.494	71.88
277.726	78.88
277.957	71.88
278.189	71.88
278.421	84.88
278.652	74.88
278.884	73.88
279.115	80.88
279.347	80.88
279.579	81.88
279.81	78.88
280.042	83.88
280.273	94.88
280.505	87.88
280.736	101.88
280.968	82.88
281.199	81.88
281.431	84.88
281.662	58.88
281.894	84.88
282.125	95.88
282.356	86.88
282.588	100.88
282.819	86.88
283.051	69.88
283.282	74.88
283.513	85.88
283.745	100.88
283.976	75.88
284.207	83.88
284.439	93.88
284.67	86.88
284.901	76.88
285.132	82.88
285.364	75.88
285.595	70.88
285.826	73.88
286.057	82.88
286.288	75.88
286.52	84.88
286.751	73.88
286.982	73.88
287.213	80.88
287.444	84.88
287.675	71.88
287.906	73.88
288.138	77.88
288.369	82.88
288.6	88.88
288.831	84.88
289.062	70.88
289.293	83.88
289.524	82.88
289.755	77.88
289.986	82.88
290.217	96.88
290.448	81.88
290.679	77.88
290.91	88.88
291.141	80.88
291.371	88.88
291.602	87.88
291.833	86.88
292.064	68.88
292.295	85.88
292.526	78.88
292.757	69.88
292.987	83.88
293.218	81.88
293.449	75.88
293.68	77.88
293.91	101.88
294.141	83.88
294.372	89.88
294.603	79.88
294.833	81.88
295.064	91.88
295.295	91.88
295.525	91.88
295.756	91.88
295.987	82.88
296.217	91.88
296.448	78.88
296.679	99.88
296.909	97.88
297.14	88.88
297.37	82.88
297.601	91.88
297.831	74.88
298.062	74.88
298.292	79.88
298.523	80.88
298.753	77.88
298.984	86.88
299.214	82.88
299.445	93.88
299.675	81.88
299.905	86.88
300.136	89.88
300.366	70.88
300.597	79.88
300.827	76.88
301.057	78.88
301.288	81.88
301.518	96.88
301.748	93.88
301.979	101.88
302.209	95.88
302.439	64.88
302.669	86.88
302.9	82.88
303.13	77.88
303.36	83.88
303.59	81.88
303.82	84.88
304.051	80.88
304.281	90.88
304.511	79.88
304.741	73.88
304.971	82.88
305.201	81.88
305.431	77.88
305.661	83.88
305.891	88.88
306.121	96.88
306.352	85.88
306.582	86.88
306.812	97.88
307.042	82.88
307.272	76.88
307.502	87.88
307.731	72.88
307.961	83.88
308.191	90.88
308.421	80.88
308.651	92.88
308.881	81.88
309.111	87.88
309.341	81.88
309.571	76.88
309.8	92.88
310.03	82.88
310.26	73.88
310.49	82.88
310.72	68.88
310.949	84.88
311.179	89.88
311.409	82.88
311.639	73.88
311.868	87.88
312.098	90.88
312.328	88.88
312.557	79.88
312.787	74.88
313.017	92.88
313.246	95.88
313.476	80.88
313.706	75.88
313.935	86.88
314.165	98.88
314.394	79.88
314.624	84.88
314.853	80.88
315.083	81.88
315.312	81.88
315.542	89.88
315.771	85.88
316.001	68.88
316.23	85.88
316.46	82.88
316.689	77.88
316.919	80.88
317.148	85.88
317.377	77.88
317.607	78.88
317.836	78.88
318.065	79.88
318.295	74.88
318.524	85.88
318.753	74.88
318.983	78.88
319.212	76.88
319.441	94.88
319.67	87.88
319.9	85.88
320.129	88.88
320.358	67.88
320.587	93.88
320.816	77.88
321.046	89.88
321.275	82.88
321.504	83.88
321.733	92.88
321.962	71.88
322.191	92.88
322.42	97.88
322.649	80.88
322.878	72.88
323.108	75.88
323.337	78.88
323.566	79.88
323.795	88.88
324.024	82.88
324.253	86.88
324.482	76.88
324.71	85.88
324.939	86.88
325.168	86.88
325.397	77.88
325.626	82.88
325.855	84.88
326.084	89.88
326.313	76.88
326.542	80.88
326.77	76.88
326.999	80.88
327.228	82.88
327.457	71.88
327.686	88.88
327.914	73.88
328.143	84.88
328.372	82.88
328.6	82.88
328.829	85.88
329.058	90.88
329.287	98.88
329.515	80.88
329.744	76.88
329.972	72.88
330.201	78.88
330.43	96.88
330.658	87.88
330.887	84.88
331.115	93.88
331.344	73.88
331.572	84.88
331.801	81.88
332.03	80.88
332.258	75.88
332.486	84.88
332.715	88.88
332.943	86.88
333.172	93.88
333.4	82.88
333.629	82.88
333.857	71.88
334.085	96.88
334.314	83.88
334.542	69.88
334.771	83.88
334.999	76.88
335.227	73.88
335.455	82.88
335.684	84.88
335.912	82.88
336.14	80.88
336.369	85.88
336.597	75.88
336.825	101.88
337.053	92.88
337.281	81.88
337.51	88.88
337.738	88.88
337.966	71.88
338.194	70.88
338.422	79.88
338.65	78.88
338.878	88.88
339.106	75.88
339.334	81.88
339.562	90.88
339.79	82.88
340.018	79.88
340.246	96.88
340.474	84.88
340.702	96.88
340.93	75.88
341.158	84.88
341.386	76.88
341.614	102.88
341.842	74.88
342.07	79.88
342.298	84.88
342.526	88.88
342.754	95.88
342.981	80.88
343.209	83.88
343.437	83.88
343.665	89.88
343.893	89.88
344.12	81.88
344.348	84.88
344.576	74.88
344.804	91.88
345.031	88.88
345.259	78.88
345.487	78.88
345.714	80.88
345.942	80.88
346.17	70.88
346.397	72.88
346.625	89.88
346.853	86.88
347.08	77.88
347.308	72.88
347.535	86.88
347.763	98.88
347.99	90.88
348.218	84.88
348.445	68.88
348.673	72.88
348.9	89.88
349.128	77.88
349.355	79.88
349.583	76.88
349.81	84.88
350.037	93.88
350.265	79.88
350.492	78.88
350.72	86.88
350.947	84.88
351.174	86.88
351.402	88.88
351.629	65.88
351.856	82.88
352.083	73.88
352.311	85.88
352.538	88.88
352.765	80.88
352.992	87.88
353.22	79.88
353.447	86.88
353.674	89.88
353.901	83.88
354.128	87.88
354.355	89.88
354.583	75.88
354.81	60.88
355.037	79.88
355.264	80.88
355.491	85.88
355.718	69.88
355.945	81.88
356.172	80.88
356.399	83.88
356.626	75.88
356.853	74.88
357.08	93.88
357.307	80.88
357.534	84.88
357.761	81.88
357.988	82.88
358.215	77.88
358.441	77.88
358.668	72.88
358.895	80.88
359.122	80.88
359.349	87.88
359.576	74.88
359.802	78.88
360.029	87.88
360.256	89.88
360.483	83.88
360.709	86.88
360.936	79.88
361.163	90.88
361.39	82.88
361.616	87.88
361.843	81.88
362.07	92.88
362.296	78.88
362.523	80.88
362.749	82.88
362.976	83.88
363.203	98.88
363.429	79.88
363.656	84.88
363.882	87.88
364.109	82.88
364.335	96.88
364.562	83.88
364.788	76.88
365.015	52.88
365.241	81.88
365.468	100.88
365.694	82.88
365.92	84.88
366.147	74.88
366.373	84.88
366.599	86.88
366.826	87.88
367.052	85.88
367.278	86.88
367.505	71.88
367.731	90.88
367.957	85.88
368.184	84.88
368.41	78.88
368.636	84.88
368.862	89.88
369.089	66.88
369.315	78.88
369.541	81.88
369.767	78.88
369.993	86.88
370.219	86.88
370.445	74.88
370.672	81.88
370.898	83.88
371.124	78.88
371.35	81.88
371.576	84.88
371.802	71.88
372.028	85.88
372.254	95.88
372.48	92.88
372.706	69.88
372.932	74.88
373.158	68.88
373.384	75.88
373.61	80.88
373.835	83.88
374.061	80.88
374.287	71.88
374.513	88.88
374.739	72.88
374.965	72.88
375.191	86.88
375.416	85.88
375.642	71.88
375.868	87.88
376.094	72.88
376.319	80.88
376.545	88.88
376.771	69.88
376.997	78.88
377.222	90.88
377.448	75.88
377.674	82.88
377.899	79.88
378.125	84.88
378.35	78.88
378.576	75.88
378.802	79.88
379.027	73.88
379.253	88.88
379.478	70.88
379.704	81.88
379.929	87.88
380.155	81.88
380.38	90.88
380.606	86.88
380.831	75.88
381.057	88.88
381.282	80.88
381.507	92.88
381.733	80.88
381.958	101.88
382.184	92.88
382.409	74.88
382.634	82.88
382.86	80.88
383.085	83.88
383.31	66.88
383.535	87.88
383.761	76.88
383.986	87.88
384.211	72.88
384.436	84.88
384.662	80.88
384.887	68.88
385.112	83.88
385.337	76.88
385.562	89.88
385.787	79.88
386.013	80.88
386.238	79.88
386.463	89.88
386.688	101.88
386.913	89.88
387.138	91.88
387.363	76.88
387.588	75.88
387.813	58.88
388.038	95.88
388.263	79.88
388.488	84.88
388.713	85.88
388.938	90.88
389.163	84.88
389.387	79.88
389.612	82.88
389.837	80.88
390.062	79.88
390.287	85.88
390.512	73.88
390.736	69.88
390.961	83.88
391.186	83.88
391.411	85.88
391.636	80.88
391.86	68.88
392.085	74.88
392.31	83.88
392.534	90.88
392.759	87.88
392.984	104.88
393.208	127.88
393.433	159.88
393.658	132.88
393.882	97.88
394.107	89.88
394.331	89.88
394.556	79.88
394.78	84.88
395.005	80.88
395.229	81.88
395.454	89.88
395.678	60.88
395.903	59.88
396.127	82.88
396.352	89.88
396.576	97.88
396.801	126.88
397.025	135.88
397.249	98.88
397.474	81.88
397.698	86.88
397.922	84.88
398.147	83.88
398.371	73.88
398.595	77.88
398.82	92.88
399.044	84.88
399.268	89.88
399.492	85.88
399.717	80.88
399.941	103.88
400.165	74.88
400.389	73.88
400.613	82.88
400.837	78.88
401.062	77.88
401.286	70.88
401.51	75.88
401.734	73.88
401.958	78.88
402.182	92.88
402.406	73.88
402.63	81.88
402.854	71.88
403.078	64.88
403.302	88.88
403.526	88.88
403.75	81.88
403.974	69.88
404.198	90.88
404.422	79.88
404.645	75.88
404.869	80.88
405.093	81.88
405.317	75.88
405.541	78.88
405.765	87.88
405.988	81.88
406.212	83.88
406.436	79.88
406.66	79.88
406.883	97.88
407.107	73.88
407.331	83.88
407.555	72.88
407.778	89.88
408.002	88.88
408.226	87.88
408.449	81.88
408.673	84.88
408.896	88.88
409.12	86.88
409.344	80.88
409.567	85.88
409.791	70.88
410.014	65.88
410.238	66.88
410.461	80.88
410.685	90.88
410.908	88.88
411.132	74.88
411.355	88.88
411.578	82.88
411.802	87.88
412.025	82.88
412.249	77.88
412.472	83.88
412.695	71.88
412.919	75.88
413.142	64.88
413.365	86.88
413.589	98.88
413.812	95.88
414.035	84.88
414.258	84.88
414.482	72.88
414.705	98.88
414.928	71.88
415.151	84.88
415.374	88.88
415.597	78.88
415.821	76.88
416.044	73.88
416.267	82.88
416.49	87.88
416.713	75.88
416.936	79.88
417.159	86.88
417.382	79.88
417.605	66.88
417.828	70.88
418.051	82.88
418.274	83.88
418.497	80.88
418.72	81.88
418.943	80.88
419.166	76.88
419.389	72.88
419.611	76.88
419.834	84.88
420.057	83.88
420.28	85.88
420.503	76.88
420.726	82.88
420.948	87.88
421.171	71.88
421.394	88.88
421.617	78.88
421.839	78.88
422.062	82.88
422.285	82.88
422.507	106.88
422.73	144.88
422.953	124.88
423.175	94.88
423.398	79.88
423.621	100.88
423.843	81.88
424.066	80.88
424.288	72.88
424.511	84.88
424.733	71.88
424.956	82.88
425.178	66.88
425.401	87.88
425.623	79.88
425.846	62.88
426.068	71.88
426.291	81.88
426.513	61.88
426.735	91.88
426.958	84.88
427.18	77.88
427.402	83.88
427.625	71.88
427.847	81.88
428.069	95.88
428.292	90.88
428.514	90.88
428.736	87.88
428.958	100.88
429.181	83.88
429.403	82.88
429.625	82.88
429.847	73.88
430.069	87.88
430.292	93.88
430.514	88.88
430.736	87.88
430.958	86.88
431.18	73.88
431.402	79.88
431.624	87.88
431.846	71.88
432.068	86.88
432.29	79.88
432.512	78.88
432.734	79.88
432.956	75.88
433.178	72.88
433.4	86.88
433.622	90.88
433.844	87.88
434.066	78.88
434.287	79.88
434.509	87.88
434.731	79.88
434.953	72.88
435.175	82.88
435.397	90.88
435.618	79.88
435.84	77.88
436.062	77.88
436.284	81.88
436.505	89.88
436.727	79.88
436.949	73.88
437.17	72.88
437.392	61.88
437.614	77.88
437.835	95.88
438.057	76.88
438.278	70.88
438.5	73.88
438.721	81.88
438.943	96.88
439.165	73.88
439.386	87.88
439.608	92.88
439.829	82.88
440.05	81.88
440.272	80.88
440.493	79.88
440.715	81.88
440.936	77.88
441.158	80.88
441.379	82.88
441.6	85.88
441.822	71.88
442.043	73.88
442.264	62.88
442.486	78.88
442.707	86.88
442.928	100.88
443.149	88.88
443.371	89.88
443.592	101.88
443.813	89.88
444.034	74.88
444.255	80.88
444.476	86.88
444.698	68.88
444.919	70.88
445.14	158.88
445.361	111.88
445.582	116.88
445.803	94.88
446.024	78.88
446.245	90.88
446.466	90.88
446.687	75.88
446.908	78.88
447.129	65.88
447.35	78.88
447.571	58.88
447.792	86.88
448.013	86.88
448.234	78.88
448.455	72.88
448.675	85.88
448.896	76.88
449.117	86.88
449.338	80.88
449.559	89.88
449.779	72.88
450	87.88
450.221	64.88
450.442	79.88
450.662	70.88
450.883	82.88
451.104	84.88
451.324	77.88
451.545	75.88
451.766	81.88
451.986	87.88
452.207	86.88
452.428	74.88
452.648	86.88
452.869	68.88
453.089	72.88
453.31	84.88
453.53	85.88
453.751	80.88
453.971	85.88
454.192	83.88
454.412	80.88
454.633	87.88
454.853	78.88
455.073	92.88
455.294	75.88
455.514	85.88
455.734	68.88
455.955	86.88
456.175	82.88
456.395	71.88
456.616	84.88
456.836	73.88
457.056	69.88
457.276	79.88
457.497	79.88
457.717	90.88
457.937	90.88
458.157	69.88
458.377	92.88
458.598	63.88
458.818	83.88
459.038	94.88
459.258	88.88
459.478	77.88
459.698	83.88
459.918	84.88
460.138	81.88
460.358	84.88
460.578	91.88
460.798	83.88
461.018	93.88
461.238	87.88
461.458	106.88
461.678	62.88
461.898	77.88
462.118	81.88
462.338	75.88
462.558	77.88
462.777	80.88
462.997	74.88
463.217	80.88
463.437	83.88
463.657	71.88
463.876	77.88
464.096	78.88
464.316	67.88
464.536	78.88
464.755	74.88
464.975	80.88
465.195	85.88
465.414	77.88
465.634	77.88
465.854	96.88
466.073	71.88
466.293	78.88
466.512	85.88
466.732	84.88
466.951	73.88
467.171	74.88
467.391	78.88
467.61	87.88
467.829	95.88
468.049	87.88
468.268	87.88
468.488	61.88
468.707	78.88
468.927	77.88
469.146	80.88
469.365	83.88
469.585	84.88
469.804	82.88
470.023	73.88
470.243	95.88
470.462	58.88
470.681	69.88
470.901	83.88
471.12	74.88
471.339	84.88
471.558	78.88
471.777	97.88
471.997	74.88
472.216	90.88
472.435	71.88
472.654	68.88
472.873	77.88
473.092	79.88
473.311	84.88
473.53	83.88
473.749	94.88
473.968	85.88
474.187	74.88
474.406	75.88
474.625	86.88
474.844	86.88
475.063	91.88
475.282	75.88
475.501	82.88
475.72	80.88
475.939	85.88
476.158	78.88
476.377	68.88
476.596	77.88
476.814	76.88
477.033	62.88
477.252	83.88
477.471	88.88
477.69	76.88
477.908	72.88
478.127	64.88
478.346	82.88
478.564	87.88
478.783	75.88
479.002	94.88
479.22	70.88
479.439	83.88
479.658	84.88
479.876	81.88
480.095	84.88
480.313	76.88
480.532	86.88
480.751	82.88
480.969	93.88
481.188	79.88
481.406	79.88
481.624	74.88
481.843	72.88
482.061	87.88
482.28	91.88
482.498	73.88
482.717	106.88
482.935	92.88
483.153	80.88
483.372	84.88
483.59	75.88
483.808	90.88
484.027	90.88
484.245	79.88
484.463	101.88
484.681	71.88
484.9	67.88
485.118	67.88
485.336	75.88
485.554	66.88
485.772	73.88
485.99	79.88
486.209	82.88
486.427	75.88
486.645	84.88
486.863	72.88
487.081	78.88
487.299	71.88
487.517	88.88
487.735	82.88
487.953	93.88
488.171	95.88
488.389	80.88
488.607	80.88
488.825	79.88
489.043	75.88
489.261	92.88
489.479	75.88
489.696	69.88
489.914	78.88
490.132	100.88
490.35	87.88
490.568	91.88
490.786	82.88
491.003	95.88
491.221	74.88
491.439	98.88
491.657	84.88
491.874	94.88
492.092	95.88
492.31	82.88
492.527	85.88
492.745	75.88
492.963	74.88
493.18	84.88
493.398	74.88
493.615	87.88
493.833	88.88
494.05	83.88
494.268	89.88
494.485	79.88
494.703	74.88
494.92	69.88
495.138	72.88
495.355	96.88
495.573	88.88
495.79	75.88
496.008	77.88
496.225	90.88
496.442	67.88
496.66	80.88
496.877	88.88
497.094	68.88
497.312	84.88
497.529	94.88
497.746	86.88
497.963	95.88
498.181	81.88
498.398	85.88
498.615	74.88
498.832	71.88
499.049	71.88
499.267	84.88
499.484	82.88
499.701	87.88
499.918	92.88
500.135	85.88
500.352	75.88
500.569	86.88
500.786	82.88
501.003	81.88
501.22	87.88
501.437	86.88
501.654	80.88
501.871	73.88
502.088	84.88
502.305	86.88
502.522	74.88
502.739	94.88
502.956	82.88
503.172	70.88
503.389	82.88
503.606	72.88
503.823	89.88
504.04	92.88
504.256	84.88
504.473	84.88
504.69	90.88
504.907	96.88
505.123	92.88
505.34	98.88
505.557	83.88
505.773	72.88
505.99	60.88
506.207	80.88
506.423	83.88
506.64	104.88
506.856	74.88
507.073	91.88
507.289	79.88
507.506	92.88
507.722	80.88
507.939	70.88
508.155	99.88
508.372	82.88
508.588	79.88
508.805	81.88
509.021	85.88
509.238	74.88
509.454	81.88
509.67	87.88
509.887	93.88
510.103	79.88
510.319	81.88
510.536	83.88
510.752	82.88
510.968	88.88
511.184	95.88
511.401	91.88
511.617	85.88
511.833	73.88
512.049	92.88
512.265	94.88
512.481	76.88
512.698	75.88
512.914	94.88
513.13	69.88
513.346	93.88
513.562	89.88
513.778	83.88
513.994	87.88
514.21	70.88
514.426	103.88
514.642	79.88
514.858	81.88
515.074	79.88
515.29	80.88
515.506	81.88
515.721	74.88
515.937	80.88
516.153	91.88
516.369	82.88
516.585	78.88
516.801	84.88
517.016	80.88
517.232	86.88
517.448	79.88
517.664	94.88
517.879	77.88
518.095	93.88
518.311	80.88
518.527	83.88
518.742	83.88
518.958	77.88
519.173	86.88
519.389	71.88
519.605	80.88
519.82	95.88
