Data from 17600_2_HRD10591_00046.txt Node
Date: Mon Jan 19 14:08:45 EST 2026
User: Yrep
Spectrometer: HR+D1059
Trigger mode: 1
Integration Time (sec): 1.000000E-1
Scans to average: 1
Electric dark correction enabled: true
Nonlinearity correction enabled: false
Boxcar width: 0
XAxis mode: Wavelengths
Number of Pixels in Spectrum: 2048
>>>>>Begin Spectral Data<<<<<
223.165	-16.94
223.4	-16.94
223.635	-16.94
223.869	-13.94
224.104	-10.94
224.338	-14.94
224.573	-11.94
224.808	-28.94
225.042	-7.94
225.277	-1.94
225.511	-1.94
225.746	16.06
225.98	9.06
226.215	15.06
226.449	14.06
226.683	27.06
226.918	19.06
227.152	9.06
227.387	22.06
227.621	43.06
227.856	44.06
228.09	47.06
228.324	57.06
228.559	70.06
228.793	52.06
229.027	71.06
229.262	60.06
229.496	70.06
229.73	67.06
229.964	55.06
230.199	82.06
230.433	78.06
230.667	72.06
230.901	72.06
231.136	72.06
231.37	72.06
231.604	77.06
231.838	83.06
232.072	86.06
232.306	78.06
232.541	79.06
232.775	74.06
233.009	79.06
233.243	88.06
233.477	79.06
233.711	77.06
233.945	73.06
234.179	81.06
234.413	76.06
234.647	89.06
234.881	96.06
235.115	77.06
235.349	75.06
235.583	80.06
235.817	69.06
236.051	65.06
236.285	84.06
236.519	75.06
236.753	80.06
236.987	69.06
237.221	71.06
237.455	80.06
237.689	54.06
237.922	76.06
238.156	67.06
238.39	66.06
238.624	66.06
238.858	74.06
239.091	68.06
239.325	78.06
239.559	73.06
239.793	70.06
240.027	85.06
240.26	80.06
240.494	70.06
240.728	64.06
240.961	85.06
241.195	76.06
241.429	72.06
241.662	66.06
241.896	58.06
242.13	86.06
242.363	69.06
242.597	75.06
242.83	75.06
243.064	78.06
243.298	72.06
243.531	86.06
243.765	68.06
243.998	72.06
244.232	86.06
244.465	60.06
244.699	87.06
244.932	73.06
245.166	79.06
245.399	69.06
245.633	91.06
245.866	70.06
246.099	84.06
246.333	73.06
246.566	73.06
246.8	68.06
247.033	72.06
247.266	63.06
247.5	69.06
247.733	84.06
247.966	72.06
248.2	78.06
248.433	79.06
248.666	86.06
248.899	87.06
249.133	79.06
249.366	86.06
249.599	81.06
249.832	80.06
250.066	79.06
250.299	84.06
250.532	74.06
250.765	59.06
250.998	76.06
251.231	80.06
251.465	65.06
251.698	80.06
251.931	82.06
252.164	70.06
252.397	91.06
252.63	67.06
252.863	78.06
253.096	77.06
253.329	72.06
253.562	89.06
253.795	71.06
254.028	96.06
254.261	67.06
254.494	68.06
254.727	80.06
254.96	76.06
255.193	84.06
255.426	80.06
255.659	92.06
255.892	83.06
256.124	69.06
256.357	67.06
256.59	83.06
256.823	82.06
257.056	74.06
257.289	92.06
257.521	86.06
257.754	74.06
257.987	71.06
258.22	74.06
258.452	67.06
258.685	64.06
258.918	75.06
259.151	78.06
259.383	63.06
259.616	82.06
259.849	80.06
260.081	72.06
260.314	86.06
260.547	81.06
260.779	82.06
261.012	60.06
261.244	86.06
261.477	80.06
261.71	88.06
261.942	75.06
262.175	82.06
262.407	85.06
262.64	86.06
262.872	63.06
263.105	96.06
263.337	94.06
263.57	82.06
263.802	74.06
264.035	69.06
264.267	82.06
264.499	81.06
264.732	82.06
264.964	81.06
265.197	77.06
265.429	70.06
265.661	64.06
265.894	84.06
266.126	73.06
266.358	72.06
266.591	87.06
266.823	78.06
267.055	72.06
267.287	88.06
267.52	74.06
267.752	77.06
267.984	86.06
268.216	77.06
268.448	71.06
268.681	73.06
268.913	80.06
269.145	82.06
269.377	73.06
269.609	72.06
269.841	74.06
270.073	81.06
270.306	74.06
270.538	87.06
270.77	81.06
271.002	75.06
271.234	91.06
271.466	90.06
271.698	88.06
271.93	85.06
272.162	78.06
272.394	76.06
272.626	84.06
272.858	81.06
273.09	73.06
273.322	84.06
273.553	76.06
273.785	76.06
274.017	86.06
274.249	86.06
274.481	72.06
274.713	76.06
274.945	97.06
275.176	74.06
275.408	81.06
275.64	78.06
275.872	72.06
276.104	97.06
276.335	82.06
276.567	80.06
276.799	84.06
277.031	71.06
277.262	76.06
277.494	73.06
277.726	80.06
277.957	70.06
278.189	84.06
278.421	78.06
278.652	78.06
278.884	76.06
279.115	77.06
279.347	83.06
279.579	84.06
279.81	88.06
280.042	86.06
280.273	98.06
280.505	82.06
280.736	88.06
280.968	80.06
281.199	78.06
281.431	76.06
281.662	96.06
281.894	90.06
282.125	91.06
282.356	78.06
282.588	71.06
282.819	82.06
283.051	80.06
283.282	80.06
283.513	69.06
283.745	96.06
283.976	78.06
284.207	84.06
284.439	72.06
284.67	92.06
284.901	74.06
285.132	79.06
285.364	80.06
285.595	87.06
285.826	89.06
286.057	94.06
286.288	76.06
286.52	78.06
286.751	81.06
286.982	91.06
287.213	70.06
287.444	94.06
287.675	87.06
287.906	77.06
288.138	79.06
288.369	81.06
288.6	84.06
288.831	77.06
289.062	81.06
289.293	79.06
289.524	72.06
289.755	64.06
289.986	85.06
290.217	82.06
290.448	81.06
290.679	83.06
290.91	80.06
291.141	82.06
291.371	89.06
291.602	84.06
291.833	74.06
292.064	81.06
292.295	90.06
292.526	85.06
292.757	64.06
292.987	64.06
293.218	74.06
293.449	83.06
293.68	85.06
293.91	84.06
294.141	82.06
294.372	82.06
294.603	84.06
294.833	73.06
295.064	68.06
295.295	80.06
295.525	80.06
295.756	80.06
295.987	87.06
296.217	74.06
296.448	88.06
296.679	73.06
296.909	88.06
297.14	74.06
297.37	78.06
297.601	94.06
297.831	93.06
298.062	95.06
298.292	97.06
298.523	75.06
298.753	75.06
298.984	80.06
299.214	72.06
299.445	73.06
299.675	77.06
299.905	69.06
300.136	80.06
300.366	91.06
300.597	68.06
300.827	84.06
301.057	85.06
301.288	69.06
301.518	102.06
301.748	86.06
301.979	81.06
302.209	89.06
302.439	70.06
302.669	91.06
302.9	74.06
303.13	83.06
303.36	77.06
303.59	71.06
303.82	95.06
304.051	88.06
304.281	89.06
304.511	84.06
304.741	87.06
304.971	75.06
305.201	80.06
305.431	59.06
305.661	80.06
305.891	78.06
306.121	89.06
306.352	99.06
306.582	79.06
306.812	86.06
307.042	94.06
307.272	87.06
307.502	73.06
307.731	88.06
307.961	80.06
308.191	81.06
308.421	82.06
308.651	86.06
308.881	81.06
309.111	81.06
309.341	68.06
309.571	84.06
309.8	79.06
310.03	80.06
310.26	90.06
310.49	79.06
310.72	73.06
310.949	73.06
311.179	85.06
311.409	83.06
311.639	82.06
311.868	79.06
312.098	88.06
312.328	86.06
312.557	83.06
312.787	80.06
313.017	86.06
313.246	92.06
313.476	81.06
313.706	76.06
313.935	89.06
314.165	86.06
314.394	76.06
314.624	90.06
314.853	82.06
315.083	88.06
315.312	86.06
315.542	80.06
315.771	72.06
316.001	88.06
316.23	90.06
316.46	80.06
316.689	69.06
316.919	84.06
317.148	76.06
317.377	105.06
317.607	86.06
317.836	78.06
318.065	88.06
318.295	90.06
318.524	85.06
318.753	80.06
318.983	98.06
319.212	67.06
319.441	76.06
319.67	76.06
319.9	80.06
320.129	88.06
320.358	83.06
320.587	85.06
320.816	76.06
321.046	83.06
321.275	82.06
321.504	78.06
321.733	82.06
321.962	80.06
322.191	70.06
322.42	66.06
322.649	82.06
322.878	87.06
323.108	75.06
323.337	81.06
323.566	89.06
323.795	75.06
324.024	84.06
324.253	82.06
324.482	87.06
324.71	92.06
324.939	86.06
325.168	78.06
325.397	70.06
325.626	87.06
325.855	72.06
326.084	88.06
326.313	80.06
326.542	79.06
326.77	78.06
326.999	78.06
327.228	79.06
327.457	75.06
327.686	74.06
327.914	96.06
328.143	81.06
328.372	73.06
328.6	81.06
328.829	85.06
329.058	96.06
329.287	88.06
329.515	91.06
329.744	73.06
329.972	88.06
330.201	70.06
330.43	89.06
330.658	78.06
330.887	92.06
331.115	83.06
331.344	84.06
331.572	68.06
331.801	79.06
332.03	84.06
332.258	74.06
332.486	86.06
332.715	71.06
332.943	89.06
333.172	93.06
333.4	97.06
333.629	95.06
333.857	84.06
334.085	88.06
334.314	93.06
334.542	74.06
334.771	71.06
334.999	80.06
335.227	76.06
335.455	82.06
335.684	81.06
335.912	81.06
336.14	83.06
336.369	86.06
336.597	87.06
336.825	83.06
337.053	72.06
337.281	73.06
337.51	75.06
337.738	84.06
337.966	77.06
338.194	72.06
338.422	74.06
338.65	85.06
338.878	80.06
339.106	92.06
339.334	94.06
339.562	78.06
339.79	93.06
340.018	91.06
340.246	90.06
340.474	89.06
340.702	73.06
340.93	77.06
341.158	86.06
341.386	84.06
341.614	78.06
341.842	92.06
342.07	84.06
342.298	90.06
342.526	85.06
342.754	86.06
342.981	80.06
343.209	78.06
343.437	106.06
343.665	73.06
343.893	104.06
344.12	95.06
344.348	95.06
344.576	94.06
344.804	96.06
345.031	100.06
345.259	87.06
345.487	87.06
345.714	88.06
345.942	82.06
346.17	86.06
346.397	72.06
346.625	78.06
346.853	84.06
347.08	82.06
347.308	81.06
347.535	91.06
347.763	85.06
347.99	92.06
348.218	84.06
348.445	93.06
348.673	86.06
348.9	90.06
349.128	86.06
349.355	81.06
349.583	86.06
349.81	79.06
350.037	93.06
350.265	84.06
350.492	84.06
350.72	85.06
350.947	75.06
351.174	81.06
351.402	90.06
351.629	83.06
351.856	74.06
352.083	74.06
352.311	80.06
352.538	81.06
352.765	99.06
352.992	105.06
353.22	79.06
353.447	84.06
353.674	79.06
353.901	90.06
354.128	84.06
354.355	84.06
354.583	80.06
354.81	86.06
355.037	82.06
355.264	75.06
355.491	97.06
355.718	84.06
355.945	80.06
356.172	86.06
356.399	84.06
356.626	88.06
356.853	89.06
357.08	88.06
357.307	88.06
357.534	80.06
357.761	80.06
357.988	70.06
358.215	87.06
358.441	84.06
358.668	84.06
358.895	79.06
359.122	87.06
359.349	72.06
359.576	79.06
359.802	80.06
360.029	82.06
360.256	77.06
360.483	81.06
360.709	85.06
360.936	90.06
361.163	71.06
361.39	72.06
361.616	82.06
361.843	86.06
362.07	87.06
362.296	81.06
362.523	94.06
362.749	97.06
362.976	86.06
363.203	96.06
363.429	80.06
363.656	79.06
363.882	74.06
364.109	92.06
364.335	88.06
364.562	93.06
364.788	84.06
365.015	78.06
365.241	70.06
365.468	104.06
365.694	89.06
365.92	79.06
366.147	81.06
366.373	85.06
366.599	73.06
366.826	86.06
367.052	85.06
367.278	80.06
367.505	95.06
367.731	88.06
367.957	69.06
368.184	84.06
368.41	73.06
368.636	85.06
368.862	80.06
369.089	85.06
369.315	73.06
369.541	72.06
369.767	89.06
369.993	75.06
370.219	81.06
370.445	81.06
370.672	68.06
370.898	89.06
371.124	72.06
371.35	72.06
371.576	79.06
371.802	76.06
372.028	79.06
372.254	85.06
372.48	91.06
372.706	87.06
372.932	80.06
373.158	87.06
373.384	80.06
373.61	94.06
373.835	100.06
374.061	74.06
374.287	85.06
374.513	90.06
374.739	85.06
374.965	91.06
375.191	79.06
375.416	74.06
375.642	74.06
375.868	96.06
376.094	65.06
376.319	76.06
376.545	80.06
376.771	79.06
376.997	83.06
377.222	98.06
377.448	83.06
377.674	92.06
377.899	81.06
378.125	62.06
378.35	76.06
378.576	77.06
378.802	77.06
379.027	74.06
379.253	89.06
379.478	75.06
379.704	90.06
379.929	71.06
380.155	75.06
380.38	90.06
380.606	79.06
380.831	82.06
381.057	86.06
381.282	78.06
381.507	85.06
381.733	76.06
381.958	84.06
382.184	70.06
382.409	74.06
382.634	77.06
382.86	78.06
383.085	77.06
383.31	75.06
383.535	68.06
383.761	83.06
383.986	86.06
384.211	66.06
384.436	87.06
384.662	76.06
384.887	84.06
385.112	81.06
385.337	80.06
385.562	69.06
385.787	103.06
386.013	89.06
386.238	80.06
386.463	74.06
386.688	93.06
386.913	88.06
387.138	82.06
387.363	88.06
387.588	86.06
387.813	102.06
388.038	94.06
388.263	84.06
388.488	75.06
388.713	80.06
388.938	84.06
389.163	67.06
389.387	90.06
389.612	76.06
389.837	78.06
390.062	100.06
390.287	79.06
390.512	85.06
390.736	74.06
390.961	84.06
391.186	84.06
391.411	84.06
391.636	84.06
391.86	82.06
392.085	77.06
392.31	92.06
392.534	82.06
392.759	88.06
392.984	110.06
393.208	140.06
393.433	172.06
393.658	157.06
393.882	102.06
394.107	93.06
394.331	74.06
394.556	84.06
394.78	82.06
395.005	94.06
395.229	86.06
395.454	85.06
395.678	81.06
395.903	89.06
396.127	81.06
396.352	90.06
396.576	90.06
396.801	136.06
397.025	162.06
397.249	89.06
397.474	89.06
397.698	64.06
397.922	74.06
398.147	81.06
398.371	94.06
398.595	79.06
398.82	94.06
399.044	66.06
399.268	75.06
399.492	71.06
399.717	70.06
399.941	89.06
400.165	88.06
400.389	78.06
400.613	69.06
400.837	92.06
401.062	80.06
401.286	96.06
401.51	60.06
401.734	89.06
401.958	85.06
402.182	74.06
402.406	71.06
402.63	78.06
402.854	78.06
403.078	82.06
403.302	70.06
403.526	69.06
403.75	86.06
403.974	83.06
404.198	77.06
404.422	78.06
404.645	93.06
404.869	73.06
405.093	76.06
405.317	90.06
405.541	77.06
405.765	84.06
405.988	72.06
406.212	92.06
406.436	79.06
406.66	69.06
406.883	66.06
407.107	88.06
407.331	70.06
407.555	98.06
407.778	91.06
408.002	76.06
408.226	80.06
408.449	89.06
408.673	86.06
408.896	83.06
409.12	88.06
409.344	66.06
409.567	65.06
409.791	69.06
410.014	90.06
410.238	80.06
410.461	86.06
410.685	83.06
410.908	73.06
411.132	91.06
411.355	78.06
411.578	76.06
411.802	95.06
412.025	86.06
412.249	80.06
412.472	74.06
412.695	81.06
412.919	73.06
413.142	93.06
413.365	84.06
413.589	80.06
413.812	64.06
414.035	86.06
414.258	73.06
414.482	62.06
414.705	81.06
414.928	90.06
415.151	79.06
415.374	66.06
415.597	79.06
415.821	78.06
416.044	79.06
416.267	74.06
416.49	87.06
416.713	85.06
416.936	77.06
417.159	80.06
417.382	82.06
417.605	65.06
417.828	70.06
418.051	68.06
418.274	70.06
418.497	73.06
418.72	64.06
418.943	83.06
419.166	73.06
419.389	73.06
419.611	83.06
419.834	75.06
420.057	78.06
420.28	81.06
420.503	86.06
420.726	81.06
420.948	74.06
421.171	72.06
421.394	74.06
421.617	82.06
421.839	82.06
422.062	81.06
422.285	74.06
422.507	96.06
422.73	125.06
422.953	110.06
423.175	90.06
423.398	74.06
423.621	85.06
423.843	75.06
424.066	75.06
424.288	90.06
424.511	74.06
424.733	91.06
424.956	83.06
425.178	104.06
425.401	75.06
425.623	84.06
425.846	86.06
426.068	89.06
426.291	68.06
426.513	92.06
426.735	71.06
426.958	86.06
427.18	79.06
427.402	75.06
427.625	84.06
427.847	72.06
428.069	73.06
428.292	85.06
428.514	82.06
428.736	87.06
428.958	76.06
429.181	85.06
429.403	88.06
429.625	80.06
429.847	67.06
430.069	87.06
430.292	66.06
430.514	92.06
430.736	78.06
430.958	84.06
431.18	83.06
431.402	85.06
431.624	79.06
431.846	74.06
432.068	83.06
432.29	91.06
432.512	74.06
432.734	82.06
432.956	96.06
433.178	95.06
433.4	83.06
433.622	59.06
433.844	60.06
434.066	77.06
434.287	78.06
434.509	75.06
434.731	86.06
434.953	94.06
435.175	70.06
435.397	81.06
435.618	64.06
435.84	74.06
436.062	71.06
436.284	86.06
436.505	73.06
436.727	80.06
436.949	78.06
437.17	76.06
437.392	74.06
437.614	78.06
437.835	88.06
438.057	74.06
438.278	76.06
438.5	89.06
438.721	75.06
438.943	93.06
439.165	78.06
439.386	85.06
439.608	80.06
439.829	87.06
440.05	87.06
440.272	72.06
440.493	66.06
440.715	77.06
440.936	84.06
441.158	75.06
441.379	61.06
441.6	88.06
441.822	71.06
442.043	60.06
442.264	99.06
442.486	80.06
442.707	81.06
442.928	68.06
443.149	70.06
443.371	85.06
443.592	85.06
443.813	84.06
444.034	88.06
444.255	80.06
444.476	79.06
444.698	65.06
444.919	80.06
445.14	156.06
445.361	109.06
445.582	100.06
445.803	90.06
446.024	80.06
446.245	91.06
446.466	87.06
446.687	76.06
446.908	74.06
447.129	84.06
447.35	84.06
447.571	72.06
447.792	63.06
448.013	74.06
448.234	72.06
448.455	88.06
448.675	72.06
448.896	88.06
449.117	64.06
449.338	70.06
449.559	78.06
449.779	81.06
450	73.06
450.221	88.06
450.442	72.06
450.662	74.06
450.883	85.06
451.104	75.06
451.324	85.06
451.545	77.06
451.766	60.06
451.986	71.06
452.207	72.06
452.428	75.06
452.648	86.06
452.869	83.06
453.089	77.06
453.31	78.06
453.53	65.06
453.751	76.06
453.971	85.06
454.192	82.06
454.412	87.06
454.633	74.06
454.853	80.06
455.073	89.06
455.294	86.06
455.514	77.06
455.734	63.06
455.955	89.06
456.175	68.06
456.395	85.06
456.616	65.06
456.836	77.06
457.056	73.06
457.276	75.06
457.497	82.06
457.717	87.06
457.937	76.06
458.157	70.06
458.377	84.06
458.598	94.06
458.818	84.06
459.038	91.06
459.258	88.06
459.478	89.06
459.698	74.06
459.918	71.06
460.138	82.06
460.358	70.06
460.578	74.06
460.798	85.06
461.018	88.06
461.238	96.06
461.458	69.06
461.678	76.06
461.898	80.06
462.118	86.06
462.338	81.06
462.558	84.06
462.777	78.06
462.997	82.06
463.217	70.06
463.437	80.06
463.657	77.06
463.876	63.06
464.096	83.06
464.316	80.06
464.536	93.06
464.755	78.06
464.975	73.06
465.195	82.06
465.414	82.06
465.634	63.06
465.854	66.06
466.073	76.06
466.293	88.06
466.512	87.06
466.732	71.06
466.951	81.06
467.171	86.06
467.391	76.06
467.61	83.06
467.829	91.06
468.049	86.06
468.268	76.06
468.488	82.06
468.707	73.06
468.927	82.06
469.146	84.06
469.365	79.06
469.585	65.06
469.804	72.06
470.023	76.06
470.243	74.06
470.462	65.06
470.681	74.06
470.901	83.06
471.12	80.06
471.339	79.06
471.558	81.06
471.777	84.06
471.997	74.06
472.216	78.06
472.435	75.06
472.654	77.06
472.873	84.06
473.092	96.06
473.311	102.06
473.53	76.06
473.749	71.06
473.968	95.06
474.187	81.06
474.406	89.06
474.625	71.06
474.844	72.06
475.063	76.06
475.282	66.06
475.501	76.06
475.72	89.06
475.939	70.06
476.158	80.06
476.377	71.06
476.596	78.06
476.814	78.06
477.033	90.06
477.252	78.06
477.471	75.06
477.69	87.06
477.908	81.06
478.127	98.06
478.346	87.06
478.564	69.06
478.783	74.06
479.002	70.06
479.22	80.06
479.439	97.06
479.658	85.06
479.876	77.06
480.095	78.06
480.313	81.06
480.532	81.06
480.751	89.06
480.969	88.06
481.188	88.06
481.406	87.06
481.624	78.06
481.843	68.06
482.061	82.06
482.28	78.06
482.498	76.06
482.717	74.06
482.935	73.06
483.153	73.06
483.372	90.06
483.59	80.06
483.808	85.06
484.027	85.06
484.245	73.06
484.463	85.06
484.681	80.06
484.9	75.06
485.118	80.06
485.336	79.06
485.554	84.06
485.772	64.06
485.99	70.06
486.209	78.06
486.427	68.06
486.645	80.06
486.863	72.06
487.081	81.06
487.299	84.06
487.517	89.06
487.735	80.06
487.953	90.06
488.171	85.06
488.389	84.06
488.607	82.06
488.825	80.06
489.043	69.06
489.261	69.06
489.479	78.06
489.696	83.06
489.914	65.06
490.132	88.06
490.35	86.06
490.568	78.06
490.786	87.06
491.003	88.06
491.221	81.06
491.439	82.06
491.657	71.06
491.874	79.06
492.092	83.06
492.31	80.06
492.527	80.06
492.745	81.06
492.963	95.06
493.18	86.06
493.398	77.06
493.615	77.06
493.833	81.06
494.05	85.06
494.268	74.06
494.485	87.06
494.703	80.06
494.92	73.06
495.138	82.06
495.355	81.06
495.573	80.06
495.79	68.06
496.008	73.06
496.225	78.06
496.442	84.06
496.66	84.06
496.877	94.06
497.094	80.06
497.312	78.06
497.529	75.06
497.746	81.06
497.963	92.06
498.181	83.06
498.398	75.06
498.615	82.06
498.832	82.06
499.049	81.06
499.267	86.06
499.484	100.06
499.701	93.06
499.918	80.06
500.135	88.06
500.352	80.06
500.569	73.06
500.786	84.06
501.003	99.06
501.22	78.06
501.437	69.06
501.654	59.06
501.871	84.06
502.088	68.06
502.305	71.06
502.522	74.06
502.739	82.06
502.956	79.06
503.172	74.06
503.389	78.06
503.606	92.06
503.823	85.06
504.04	81.06
504.256	90.06
504.473	83.06
504.69	68.06
504.907	77.06
505.123	68.06
505.34	86.06
505.557	80.06
505.773	84.06
505.99	73.06
506.207	71.06
506.423	81.06
506.64	81.06
506.856	88.06
507.073	80.06
507.289	63.06
507.506	81.06
507.722	80.06
507.939	91.06
508.155	84.06
508.372	89.06
508.588	83.06
508.805	82.06
509.021	88.06
509.238	73.06
509.454	88.06
509.67	74.06
509.887	82.06
510.103	72.06
510.319	76.06
510.536	92.06
510.752	74.06
510.968	92.06
511.184	88.06
511.401	85.06
511.617	71.06
511.833	84.06
512.049	95.06
512.265	79.06
512.481	74.06
512.698	93.06
512.914	94.06
513.13	87.06
513.346	82.06
513.562	71.06
513.778	78.06
513.994	74.06
514.21	75.06
514.426	76.06
514.642	83.06
514.858	87.06
515.074	71.06
515.29	87.06
515.506	77.06
515.721	69.06
515.937	88.06
516.153	89.06
516.369	72.06
516.585	87.06
516.801	72.06
517.016	72.06
517.232	86.06
517.448	85.06
517.664	82.06
517.879	85.06
518.095	83.06
518.311	82.06
518.527	78.06
518.742	88.06
518.958	86.06
519.173	89.06
519.389	81.06
519.605	88.06
519.82	90.06
520.036	95.06
