Data from 17600_2_HRD10591_00024.txt Node
Date: Mon Jan 19 14:08:34 EST 2026
User: Yrep
Spectrometer: HR+D1059
Trigger mode: 1
Integration Time (sec): 1.000000E-1
Scans to average: 1
Electric dark correction enabled: true
Nonlinearity correction enabled: false
Boxcar width: 0
XAxis mode: Wavelengths
Number of Pixels in Spectrum: 2048
>>>>>Begin Spectral Data<<<<<
223.165	-27.94
223.4	-27.94
223.635	-27.94
223.869	-14.94
224.104	-17.94
224.338	-20.94
224.573	-17.94
224.808	-14.94
225.042	-4.94
225.277	-1.94
225.511	1.06
225.746	5.06
225.98	21.06
226.215	17.06
226.449	5.06
226.683	18.06
226.918	22.06
227.152	32.06
227.387	33.06
227.621	49.06
227.856	45.06
228.09	40.06
228.324	51.06
228.559	59.06
228.793	63.06
229.027	72.06
229.262	59.06
229.496	72.06
229.73	65.06
229.964	81.06
230.199	57.06
230.433	72.06
230.667	86.06
230.901	70.06
231.136	69.06
231.37	83.06
231.604	84.06
231.838	77.06
232.072	90.06
232.306	81.06
232.541	84.06
232.775	79.06
233.009	62.06
233.243	85.06
233.477	79.06
233.711	80.06
233.945	85.06
234.179	73.06
234.413	83.06
234.647	60.06
234.881	80.06
235.115	73.06
235.349	100.06
235.583	76.06
235.817	76.06
236.051	77.06
236.285	73.06
236.519	75.06
236.753	89.06
236.987	77.06
237.221	65.06
237.455	81.06
237.689	78.06
237.922	80.06
238.156	74.06
238.39	67.06
238.624	76.06
238.858	72.06
239.091	83.06
239.325	68.06
239.559	59.06
239.793	87.06
240.027	81.06
240.26	81.06
240.494	78.06
240.728	74.06
240.961	82.06
241.195	80.06
241.429	77.06
241.662	69.06
241.896	79.06
242.13	88.06
242.363	83.06
242.597	75.06
242.83	77.06
243.064	73.06
243.298	76.06
243.531	93.06
243.765	75.06
243.998	86.06
244.232	84.06
244.465	94.06
244.699	81.06
244.932	72.06
245.166	73.06
245.399	84.06
245.633	84.06
245.866	71.06
246.099	86.06
246.333	81.06
246.566	87.06
246.8	73.06
247.033	69.06
247.266	76.06
247.5	72.06
247.733	81.06
247.966	100.06
248.2	100.06
248.433	82.06
248.666	85.06
248.899	89.06
249.133	77.06
249.366	79.06
249.599	85.06
249.832	75.06
250.066	93.06
250.299	81.06
250.532	81.06
250.765	70.06
250.998	67.06
251.231	59.06
251.465	84.06
251.698	73.06
251.931	80.06
252.164	92.06
252.397	85.06
252.63	83.06
252.863	85.06
253.096	65.06
253.329	73.06
253.562	74.06
253.795	66.06
254.028	66.06
254.261	82.06
254.494	96.06
254.727	87.06
254.96	72.06
255.193	73.06
255.426	74.06
255.659	81.06
255.892	72.06
256.124	81.06
256.357	76.06
256.59	80.06
256.823	83.06
257.056	85.06
257.289	91.06
257.521	76.06
257.754	86.06
257.987	76.06
258.22	77.06
258.452	75.06
258.685	94.06
258.918	95.06
259.151	87.06
259.383	89.06
259.616	73.06
259.849	74.06
260.081	86.06
260.314	95.06
260.547	65.06
260.779	76.06
261.012	80.06
261.244	71.06
261.477	80.06
261.71	83.06
261.942	74.06
262.175	78.06
262.407	65.06
262.64	82.06
262.872	67.06
263.105	84.06
263.337	87.06
263.57	74.06
263.802	80.06
264.035	77.06
264.267	81.06
264.499	79.06
264.732	86.06
264.964	83.06
265.197	82.06
265.429	82.06
265.661	72.06
265.894	78.06
266.126	83.06
266.358	76.06
266.591	82.06
266.823	79.06
267.055	71.06
267.287	89.06
267.52	85.06
267.752	89.06
267.984	85.06
268.216	75.06
268.448	75.06
268.681	73.06
268.913	74.06
269.145	86.06
269.377	73.06
269.609	84.06
269.841	78.06
270.073	71.06
270.306	81.06
270.538	77.06
270.77	75.06
271.002	69.06
271.234	84.06
271.466	80.06
271.698	89.06
271.93	87.06
272.162	77.06
272.394	89.06
272.626	96.06
272.858	99.06
273.09	71.06
273.322	70.06
273.553	61.06
273.785	83.06
274.017	81.06
274.249	81.06
274.481	93.06
274.713	94.06
274.945	92.06
275.176	78.06
275.408	88.06
275.64	82.06
275.872	73.06
276.104	83.06
276.335	83.06
276.567	67.06
276.799	88.06
277.031	91.06
277.262	76.06
277.494	89.06
277.726	79.06
277.957	86.06
278.189	86.06
278.421	98.06
278.652	81.06
278.884	82.06
279.115	82.06
279.347	93.06
279.579	85.06
279.81	82.06
280.042	101.06
280.273	86.06
280.505	90.06
280.736	79.06
280.968	77.06
281.199	97.06
281.431	89.06
281.662	69.06
281.894	84.06
282.125	81.06
282.356	86.06
282.588	76.06
282.819	80.06
283.051	86.06
283.282	89.06
283.513	79.06
283.745	73.06
283.976	77.06
284.207	91.06
284.439	90.06
284.67	96.06
284.901	87.06
285.132	87.06
285.364	96.06
285.595	91.06
285.826	74.06
286.057	94.06
286.288	75.06
286.52	89.06
286.751	84.06
286.982	80.06
287.213	82.06
287.444	81.06
287.675	95.06
287.906	87.06
288.138	90.06
288.369	92.06
288.6	91.06
288.831	80.06
289.062	84.06
289.293	85.06
289.524	82.06
289.755	88.06
289.986	82.06
290.217	94.06
290.448	84.06
290.679	85.06
290.91	73.06
291.141	81.06
291.371	77.06
291.602	79.06
291.833	97.06
292.064	102.06
292.295	89.06
292.526	85.06
292.757	86.06
292.987	86.06
293.218	90.06
293.449	82.06
293.68	71.06
293.91	79.06
294.141	66.06
294.372	93.06
294.603	85.06
294.833	100.06
295.064	75.06
295.295	80.06
295.525	74.06
295.756	104.06
295.987	91.06
296.217	77.06
296.448	79.06
296.679	88.06
296.909	92.06
297.14	89.06
297.37	94.06
297.601	89.06
297.831	89.06
298.062	82.06
298.292	101.06
298.523	91.06
298.753	75.06
298.984	94.06
299.214	72.06
299.445	99.06
299.675	76.06
299.905	100.06
300.136	88.06
300.366	95.06
300.597	105.06
300.827	95.06
301.057	94.06
301.288	75.06
301.518	88.06
301.748	85.06
301.979	106.06
302.209	75.06
302.439	91.06
302.669	93.06
302.9	83.06
303.13	74.06
303.36	97.06
303.59	87.06
303.82	88.06
304.051	88.06
304.281	87.06
304.511	89.06
304.741	92.06
304.971	82.06
305.201	94.06
305.431	88.06
305.661	80.06
305.891	82.06
306.121	99.06
306.352	87.06
306.582	71.06
306.812	86.06
307.042	83.06
307.272	85.06
307.502	87.06
307.731	90.06
307.961	85.06
308.191	106.06
308.421	96.06
308.651	98.06
308.881	84.06
309.111	80.06
309.341	87.06
309.571	104.06
309.8	89.06
310.03	86.06
310.26	85.06
310.49	80.06
310.72	82.06
310.949	95.06
311.179	105.06
311.409	77.06
311.639	85.06
311.868	78.06
312.098	79.06
312.328	94.06
312.557	91.06
312.787	100.06
313.017	83.06
313.246	80.06
313.476	80.06
313.706	88.06
313.935	93.06
314.165	78.06
314.394	99.06
314.624	87.06
314.853	82.06
315.083	74.06
315.312	80.06
315.542	90.06
315.771	92.06
316.001	86.06
316.23	89.06
316.46	88.06
316.689	98.06
316.919	92.06
317.148	89.06
317.377	93.06
317.607	95.06
317.836	102.06
318.065	105.06
318.295	96.06
318.524	95.06
318.753	96.06
318.983	67.06
319.212	82.06
319.441	93.06
319.67	81.06
319.9	87.06
320.129	91.06
320.358	87.06
320.587	97.06
320.816	83.06
321.046	87.06
321.275	88.06
321.504	97.06
321.733	75.06
321.962	80.06
322.191	75.06
322.42	79.06
322.649	96.06
322.878	91.06
323.108	89.06
323.337	88.06
323.566	88.06
323.795	80.06
324.024	88.06
324.253	103.06
324.482	93.06
324.71	84.06
324.939	93.06
325.168	97.06
325.397	84.06
325.626	75.06
325.855	95.06
326.084	103.06
326.313	73.06
326.542	82.06
326.77	87.06
326.999	93.06
327.228	101.06
327.457	89.06
327.686	94.06
327.914	89.06
328.143	92.06
328.372	81.06
328.6	97.06
328.829	94.06
329.058	79.06
329.287	98.06
329.515	71.06
329.744	98.06
329.972	90.06
330.201	74.06
330.43	83.06
330.658	85.06
330.887	84.06
331.115	90.06
331.344	94.06
331.572	81.06
331.801	99.06
332.03	88.06
332.258	98.06
332.486	88.06
332.715	87.06
332.943	78.06
333.172	89.06
333.4	87.06
333.629	88.06
333.857	81.06
334.085	84.06
334.314	87.06
334.542	81.06
334.771	92.06
334.999	105.06
335.227	88.06
335.455	94.06
335.684	115.06
335.912	99.06
336.14	98.06
336.369	79.06
336.597	97.06
336.825	86.06
337.053	89.06
337.281	93.06
337.51	89.06
337.738	93.06
337.966	80.06
338.194	93.06
338.422	99.06
338.65	98.06
338.878	90.06
339.106	90.06
339.334	83.06
339.562	86.06
339.79	100.06
340.018	85.06
340.246	84.06
340.474	70.06
340.702	104.06
340.93	85.06
341.158	78.06
341.386	83.06
341.614	94.06
341.842	96.06
342.07	71.06
342.298	83.06
342.526	98.06
342.754	91.06
342.981	88.06
343.209	81.06
343.437	97.06
343.665	86.06
343.893	99.06
344.12	86.06
344.348	93.06
344.576	58.06
344.804	78.06
345.031	85.06
345.259	79.06
345.487	86.06
345.714	74.06
345.942	83.06
346.17	76.06
346.397	81.06
346.625	97.06
346.853	87.06
347.08	81.06
347.308	99.06
347.535	83.06
347.763	80.06
347.99	96.06
348.218	97.06
348.445	78.06
348.673	72.06
348.9	97.06
349.128	87.06
349.355	94.06
349.583	83.06
349.81	86.06
350.037	76.06
350.265	88.06
350.492	90.06
350.72	88.06
350.947	89.06
351.174	93.06
351.402	88.06
351.629	94.06
351.856	88.06
352.083	79.06
352.311	95.06
352.538	86.06
352.765	79.06
352.992	92.06
353.22	77.06
353.447	89.06
353.674	101.06
353.901	84.06
354.128	87.06
354.355	74.06
354.583	84.06
354.81	97.06
355.037	92.06
355.264	90.06
355.491	87.06
355.718	87.06
355.945	97.06
356.172	90.06
356.399	102.06
356.626	94.06
356.853	99.06
357.08	91.06
357.307	81.06
357.534	73.06
357.761	100.06
357.988	85.06
358.215	96.06
358.441	102.06
358.668	115.06
358.895	95.06
359.122	101.06
359.349	89.06
359.576	84.06
359.802	92.06
360.029	87.06
360.256	81.06
360.483	87.06
360.709	103.06
360.936	96.06
361.163	105.06
361.39	93.06
361.616	74.06
361.843	85.06
362.07	95.06
362.296	104.06
362.523	104.06
362.749	114.06
362.976	109.06
363.203	137.06
363.429	110.06
363.656	103.06
363.882	99.06
364.109	118.06
364.335	139.06
364.562	146.06
364.788	126.06
365.015	90.06
365.241	99.06
365.468	90.06
365.694	97.06
365.92	105.06
366.147	98.06
366.373	85.06
366.599	100.06
366.826	98.06
367.052	105.06
367.278	101.06
367.505	84.06
367.731	93.06
367.957	89.06
368.184	82.06
368.41	89.06
368.636	103.06
368.862	89.06
369.089	94.06
369.315	88.06
369.541	97.06
369.767	73.06
369.993	79.06
370.219	86.06
370.445	87.06
370.672	97.06
370.898	98.06
371.124	89.06
371.35	88.06
371.576	72.06
371.802	109.06
372.028	99.06
372.254	104.06
372.48	95.06
372.706	89.06
372.932	99.06
373.158	85.06
373.384	98.06
373.61	101.06
373.835	125.06
374.061	98.06
374.287	104.06
374.513	95.06
374.739	104.06
374.965	96.06
375.191	97.06
375.416	93.06
375.642	87.06
375.868	89.06
376.094	86.06
376.319	97.06
376.545	91.06
376.771	102.06
376.997	87.06
377.222	90.06
377.448	82.06
377.674	86.06
377.899	88.06
378.125	89.06
378.35	93.06
378.576	89.06
378.802	80.06
379.027	95.06
379.253	96.06
379.478	79.06
379.704	91.06
379.929	85.06
380.155	85.06
380.38	74.06
380.606	102.06
380.831	99.06
381.057	108.06
381.282	86.06
381.507	91.06
381.733	87.06
381.958	98.06
382.184	93.06
382.409	97.06
382.634	113.06
382.86	106.06
383.085	101.06
383.31	114.06
383.535	121.06
383.761	110.06
383.986	111.06
384.211	104.06
384.436	89.06
384.662	113.06
384.887	111.06
385.112	94.06
385.337	106.06
385.562	90.06
385.787	95.06
386.013	107.06
386.238	99.06
386.463	105.06
386.688	112.06
386.913	102.06
387.138	109.06
387.363	100.06
387.588	89.06
387.813	109.06
388.038	102.06
388.263	117.06
388.488	114.06
388.713	85.06
388.938	89.06
389.163	87.06
389.387	89.06
389.612	102.06
389.837	94.06
390.062	83.06
390.287	95.06
390.512	89.06
390.736	83.06
390.961	95.06
391.186	89.06
391.411	85.06
391.636	89.06
391.86	79.06
392.085	93.06
392.31	104.06
392.534	118.06
392.759	142.06
392.984	211.06
393.208	337.06
393.433	509.06
393.658	390.06
393.882	168.06
394.107	128.06
394.331	135.06
394.556	145.06
394.78	125.06
395.005	90.06
395.229	101.06
395.454	112.06
395.678	111.06
395.903	127.06
396.127	157.06
396.352	199.06
396.576	206.06
396.801	348.06
397.025	393.06
397.249	214.06
397.474	145.06
397.698	113.06
397.922	98.06
398.147	98.06
398.371	89.06
398.595	85.06
398.82	90.06
399.044	86.06
399.268	97.06
399.492	85.06
399.717	100.06
399.941	101.06
400.165	97.06
400.389	78.06
400.613	81.06
400.837	90.06
401.062	91.06
401.286	78.06
401.51	87.06
401.734	82.06
401.958	87.06
402.182	74.06
402.406	95.06
402.63	82.06
402.854	85.06
403.078	94.06
403.302	90.06
403.526	83.06
403.75	79.06
403.974	82.06
404.198	109.06
404.422	99.06
404.645	88.06
404.869	89.06
405.093	80.06
405.317	91.06
405.541	95.06
405.765	76.06
405.988	97.06
406.212	98.06
406.436	79.06
406.66	88.06
406.883	65.06
407.107	93.06
407.331	102.06
407.555	113.06
407.778	123.06
408.002	139.06
408.226	82.06
408.449	89.06
408.673	79.06
408.896	88.06
409.12	83.06
409.344	96.06
409.567	100.06
409.791	116.06
410.014	114.06
410.238	103.06
410.461	99.06
410.685	89.06
410.908	85.06
411.132	85.06
411.355	88.06
411.578	93.06
411.802	93.06
412.025	77.06
412.249	100.06
412.472	83.06
412.695	77.06
412.919	81.06
413.142	83.06
413.365	86.06
413.589	90.06
413.812	99.06
414.035	98.06
414.258	72.06
414.482	93.06
414.705	88.06
414.928	102.06
415.151	97.06
415.374	94.06
415.597	101.06
415.821	95.06
416.044	107.06
416.267	91.06
416.49	86.06
416.713	88.06
416.936	76.06
417.159	90.06
417.382	87.06
417.605	85.06
417.828	87.06
418.051	86.06
418.274	79.06
418.497	86.06
418.72	86.06
418.943	97.06
419.166	100.06
419.389	95.06
419.611	85.06
419.834	99.06
420.057	89.06
420.28	101.06
420.503	76.06
420.726	78.06
420.948	93.06
421.171	106.06
421.394	102.06
421.617	143.06
421.839	164.06
422.062	142.06
422.285	190.06
422.507	306.06
422.73	486.06
422.953	431.06
423.175	232.06
423.398	134.06
423.621	120.06
423.843	117.06
424.066	108.06
424.288	109.06
424.511	88.06
424.733	90.06
424.956	95.06
425.178	79.06
425.401	103.06
425.623	94.06
425.846	82.06
426.068	89.06
426.291	95.06
426.513	92.06
426.735	79.06
426.958	97.06
427.18	99.06
427.402	86.06
427.625	80.06
427.847	85.06
428.069	103.06
428.292	131.06
428.514	148.06
428.736	112.06
428.958	129.06
429.181	149.06
429.403	114.06
429.625	101.06
429.847	129.06
430.069	183.06
430.292	227.06
430.514	205.06
430.736	153.06
430.958	163.06
431.18	111.06
431.402	98.06
431.624	113.06
431.846	146.06
432.068	144.06
432.29	103.06
432.512	94.06
432.734	98.06
432.956	72.06
433.178	86.06
433.4	81.06
433.622	87.06
433.844	94.06
434.066	97.06
434.287	91.06
434.509	93.06
434.731	88.06
434.953	87.06
435.175	93.06
435.397	98.06
435.618	97.06
435.84	89.06
436.062	87.06
436.284	84.06
436.505	85.06
436.727	83.06
436.949	77.06
437.17	78.06
437.392	91.06
437.614	81.06
437.835	75.06
438.057	90.06
438.278	85.06
438.5	104.06
438.721	89.06
438.943	87.06
439.165	95.06
439.386	81.06
439.608	74.06
439.829	86.06
440.05	96.06
440.272	93.06
440.493	88.06
440.715	95.06
440.936	91.06
441.158	89.06
441.379	72.06
441.6	98.06
441.822	94.06
442.043	102.06
442.264	82.06
442.486	147.06
442.707	201.06
442.928	134.06
443.149	129.06
443.371	175.06
443.592	290.06
443.813	256.06
444.034	131.06
444.255	79.06
444.476	93.06
444.698	89.06
444.919	99.06
445.14	184.06
445.361	208.06
445.582	350.06
445.803	307.06
446.024	145.06
446.245	103.06
446.466	91.06
446.687	85.06
446.908	76.06
447.129	82.06
447.35	93.06
447.571	86.06
447.792	83.06
448.013	80.06
448.234	81.06
448.455	88.06
448.675	95.06
448.896	80.06
449.117	89.06
449.338	89.06
449.559	94.06
449.779	77.06
450	82.06
450.221	92.06
450.442	79.06
450.662	94.06
450.883	87.06
451.104	92.06
451.324	85.06
451.545	86.06
451.766	89.06
451.986	82.06
452.207	93.06
452.428	89.06
452.648	88.06
452.869	109.06
453.089	104.06
453.31	93.06
453.53	92.06
453.751	78.06
453.971	89.06
454.192	81.06
454.412	81.06
454.633	74.06
454.853	79.06
455.073	82.06
455.294	98.06
455.514	95.06
455.734	80.06
455.955	75.06
456.175	75.06
456.395	81.06
456.616	75.06
456.836	83.06
457.056	102.06
457.276	85.06
457.497	89.06
457.717	89.06
457.937	119.06
458.157	132.06
458.377	153.06
458.598	132.06
458.818	151.06
459.038	101.06
459.258	110.06
459.478	85.06
459.698	85.06
459.918	85.06
460.138	82.06
460.358	102.06
460.578	90.06
460.798	140.06
461.018	130.06
461.238	89.06
461.458	89.06
461.678	75.06
461.898	83.06
462.118	87.06
462.338	82.06
462.558	95.06
462.777	82.06
462.997	78.06
463.217	71.06
463.437	88.06
463.657	85.06
463.876	76.06
464.096	103.06
464.316	86.06
464.536	96.06
464.755	98.06
464.975	86.06
465.195	91.06
465.414	91.06
465.634	92.06
465.854	94.06
466.073	93.06
466.293	79.06
466.512	94.06
466.732	74.06
466.951	94.06
467.171	75.06
467.391	104.06
467.61	82.06
467.829	87.06
468.049	86.06
468.268	96.06
468.488	105.06
468.707	95.06
468.927	85.06
469.146	79.06
469.365	88.06
469.585	81.06
469.804	76.06
470.023	83.06
470.243	105.06
470.462	86.06
470.681	84.06
470.901	94.06
471.12	88.06
471.339	93.06
471.558	81.06
471.777	89.06
471.997	77.06
472.216	87.06
472.435	80.06
472.654	82.06
472.873	98.06
473.092	82.06
473.311	73.06
473.53	86.06
473.749	77.06
473.968	85.06
474.187	76.06
474.406	74.06
474.625	85.06
474.844	86.06
475.063	97.06
475.282	76.06
475.501	81.06
475.72	101.06
475.939	87.06
476.158	91.06
476.377	89.06
476.596	97.06
476.814	85.06
477.033	89.06
477.252	87.06
477.471	82.06
477.69	81.06
477.908	105.06
478.127	83.06
478.346	82.06
478.564	93.06
478.783	84.06
479.002	86.06
479.22	94.06
479.439	93.06
479.658	84.06
479.876	87.06
480.095	89.06
480.313	89.06
480.532	75.06
480.751	89.06
480.969	88.06
481.188	93.06
481.406	88.06
481.624	89.06
481.843	81.06
482.061	84.06
482.28	88.06
482.498	89.06
482.717	74.06
482.935	98.06
483.153	105.06
483.372	83.06
483.59	101.06
483.808	101.06
484.027	96.06
484.245	75.06
484.463	88.06
484.681	99.06
484.9	90.06
485.118	87.06
485.336	95.06
485.554	88.06
485.772	97.06
485.99	93.06
486.209	84.06
486.427	85.06
486.645	96.06
486.863	95.06
487.081	79.06
487.299	77.06
487.517	105.06
487.735	141.06
487.953	201.06
488.171	152.06
488.389	97.06
488.607	84.06
488.825	95.06
489.043	79.06
489.261	99.06
489.479	85.06
489.696	83.06
489.914	101.06
490.132	87.06
490.35	95.06
490.568	90.06
490.786	95.06
491.003	79.06
491.221	83.06
491.439	84.06
491.657	89.06
491.874	101.06
492.092	95.06
492.31	76.06
492.527	97.06
492.745	81.06
492.963	94.06
493.18	85.06
493.398	73.06
493.615	92.06
493.833	83.06
494.05	85.06
494.268	86.06
494.485	94.06
494.703	68.06
494.92	88.06
495.138	87.06
495.355	76.06
495.573	98.06
495.79	82.06
496.008	85.06
496.225	85.06
496.442	101.06
496.66	96.06
496.877	92.06
497.094	82.06
497.312	93.06
497.529	79.06
497.746	89.06
497.963	98.06
498.181	94.06
498.398	107.06
498.615	85.06
498.832	82.06
499.049	82.06
499.267	111.06
499.484	87.06
499.701	92.06
499.918	97.06
500.135	102.06
500.352	98.06
500.569	99.06
500.786	91.06
501.003	83.06
501.22	84.06
501.437	86.06
501.654	91.06
501.871	108.06
502.088	99.06
502.305	102.06
502.522	99.06
502.739	98.06
502.956	85.06
503.172	84.06
503.389	104.06
503.606	90.06
503.823	105.06
504.04	101.06
504.256	144.06
504.473	158.06
504.69	106.06
504.907	93.06
505.123	94.06
505.34	91.06
505.557	80.06
505.773	98.06
505.99	95.06
506.207	94.06
506.423	75.06
506.64	99.06
506.856	75.06
507.073	87.06
507.289	98.06
507.506	89.06
507.722	101.06
507.939	82.06
508.155	93.06
508.372	90.06
508.588	89.06
508.805	91.06
509.021	92.06
509.238	83.06
509.454	88.06
509.67	94.06
509.887	87.06
510.103	86.06
510.319	86.06
510.536	97.06
510.752	95.06
510.968	81.06
511.184	75.06
511.401	89.06
511.617	91.06
511.833	101.06
512.049	96.06
512.265	92.06
512.481	84.06
512.698	95.06
512.914	77.06
513.13	87.06
513.346	83.06
513.562	106.06
513.778	108.06
513.994	92.06
514.21	96.06
514.426	101.06
514.642	83.06
514.858	98.06
515.074	86.06
515.29	86.06
515.506	103.06
515.721	73.06
515.937	91.06
516.153	88.06
516.369	73.06
516.585	85.06
516.801	91.06
517.016	91.06
517.232	85.06
