Data from 17600_2_HRD10591_00045.txt Node
Date: Mon Jan 19 14:08:45 EST 2026
User: Yrep
Spectrometer: HR+D1059
Trigger mode: 1
Integration Time (sec): 1.000000E-1
Scans to average: 1
Electric dark correction enabled: true
Nonlinearity correction enabled: false
Boxcar width: 0
XAxis mode: Wavelengths
Number of Pixels in Spectrum: 2048
>>>>>Begin Spectral Data<<<<<
223.165	-7.62
223.4	-7.62
223.635	-7.62
223.869	-24.62
224.104	-27.62
224.338	-23.62
224.573	-19.62
224.808	-7.62
225.042	6.38
225.277	-8.62
225.511	-5.62
225.746	1.38
225.98	-6.62
226.215	13.38
226.449	17.38
226.683	27.38
226.918	33.38
227.152	32.38
227.387	36.38
227.621	38.38
227.856	52.38
228.09	66.38
228.324	55.38
228.559	59.38
228.793	57.38
229.027	76.38
229.262	54.38
229.496	73.38
229.73	70.38
229.964	68.38
230.199	77.38
230.433	73.38
230.667	75.38
230.901	79.38
231.136	72.38
231.37	88.38
231.604	77.38
231.838	64.38
232.072	90.38
232.306	79.38
232.541	86.38
232.775	72.38
233.009	89.38
233.243	85.38
233.477	75.38
233.711	75.38
233.945	86.38
234.179	80.38
234.413	76.38
234.647	87.38
234.881	70.38
235.115	91.38
235.349	77.38
235.583	81.38
235.817	68.38
236.051	99.38
236.285	86.38
236.519	69.38
236.753	88.38
236.987	86.38
237.221	86.38
237.455	78.38
237.689	86.38
237.922	64.38
238.156	72.38
238.39	70.38
238.624	79.38
238.858	64.38
239.091	86.38
239.325	63.38
239.559	69.38
239.793	72.38
240.027	82.38
240.26	80.38
240.494	78.38
240.728	66.38
240.961	69.38
241.195	75.38
241.429	74.38
241.662	76.38
241.896	78.38
242.13	62.38
242.363	72.38
242.597	82.38
242.83	72.38
243.064	82.38
243.298	73.38
243.531	76.38
243.765	83.38
243.998	77.38
244.232	92.38
244.465	85.38
244.699	94.38
244.932	79.38
245.166	82.38
245.399	82.38
245.633	73.38
245.866	69.38
246.099	84.38
246.333	76.38
246.566	90.38
246.8	73.38
247.033	74.38
247.266	88.38
247.5	77.38
247.733	88.38
247.966	70.38
248.2	73.38
248.433	76.38
248.666	81.38
248.899	90.38
249.133	69.38
249.366	88.38
249.599	78.38
249.832	84.38
250.066	80.38
250.299	82.38
250.532	92.38
250.765	72.38
250.998	83.38
251.231	69.38
251.465	82.38
251.698	87.38
251.931	86.38
252.164	97.38
252.397	85.38
252.63	78.38
252.863	86.38
253.096	80.38
253.329	94.38
253.562	75.38
253.795	82.38
254.028	90.38
254.261	69.38
254.494	79.38
254.727	88.38
254.96	86.38
255.193	73.38
255.426	83.38
255.659	91.38
255.892	77.38
256.124	82.38
256.357	73.38
256.59	97.38
256.823	85.38
257.056	88.38
257.289	96.38
257.521	72.38
257.754	87.38
257.987	86.38
258.22	85.38
258.452	81.38
258.685	79.38
258.918	93.38
259.151	80.38
259.383	61.38
259.616	77.38
259.849	76.38
260.081	85.38
260.314	77.38
260.547	81.38
260.779	70.38
261.012	79.38
261.244	86.38
261.477	100.38
261.71	98.38
261.942	76.38
262.175	79.38
262.407	87.38
262.64	78.38
262.872	73.38
263.105	94.38
263.337	95.38
263.57	76.38
263.802	84.38
264.035	79.38
264.267	68.38
264.499	87.38
264.732	84.38
264.964	106.38
265.197	74.38
265.429	93.38
265.661	93.38
265.894	72.38
266.126	85.38
266.358	90.38
266.591	70.38
266.823	96.38
267.055	81.38
267.287	76.38
267.52	82.38
267.752	82.38
267.984	76.38
268.216	84.38
268.448	78.38
268.681	87.38
268.913	84.38
269.145	88.38
269.377	90.38
269.609	71.38
269.841	86.38
270.073	98.38
270.306	80.38
270.538	83.38
270.77	85.38
271.002	102.38
271.234	77.38
271.466	79.38
271.698	68.38
271.93	93.38
272.162	91.38
272.394	85.38
272.626	91.38
272.858	87.38
273.09	92.38
273.322	83.38
273.553	73.38
273.785	101.38
274.017	84.38
274.249	88.38
274.481	81.38
274.713	82.38
274.945	79.38
275.176	77.38
275.408	78.38
275.64	88.38
275.872	88.38
276.104	82.38
276.335	84.38
276.567	81.38
276.799	95.38
277.031	84.38
277.262	102.38
277.494	88.38
277.726	76.38
277.957	85.38
278.189	74.38
278.421	92.38
278.652	83.38
278.884	90.38
279.115	83.38
279.347	92.38
279.579	92.38
279.81	94.38
280.042	92.38
280.273	79.38
280.505	89.38
280.736	93.38
280.968	81.38
281.199	74.38
281.431	91.38
281.662	108.38
281.894	74.38
282.125	87.38
282.356	78.38
282.588	88.38
282.819	87.38
283.051	82.38
283.282	84.38
283.513	94.38
283.745	89.38
283.976	86.38
284.207	72.38
284.439	81.38
284.67	101.38
284.901	84.38
285.132	82.38
285.364	84.38
285.595	88.38
285.826	90.38
286.057	89.38
286.288	101.38
286.52	93.38
286.751	91.38
286.982	86.38
287.213	95.38
287.444	96.38
287.675	89.38
287.906	84.38
288.138	76.38
288.369	84.38
288.6	77.38
288.831	93.38
289.062	94.38
289.293	90.38
289.524	87.38
289.755	81.38
289.986	99.38
290.217	86.38
290.448	77.38
290.679	77.38
290.91	91.38
291.141	80.38
291.371	98.38
291.602	97.38
291.833	90.38
292.064	81.38
292.295	84.38
292.526	77.38
292.757	88.38
292.987	96.38
293.218	76.38
293.449	79.38
293.68	78.38
293.91	96.38
294.141	88.38
294.372	84.38
294.603	88.38
294.833	87.38
295.064	96.38
295.295	83.38
295.525	85.38
295.756	92.38
295.987	89.38
296.217	84.38
296.448	94.38
296.679	97.38
296.909	86.38
297.14	86.38
297.37	91.38
297.601	78.38
297.831	83.38
298.062	82.38
298.292	86.38
298.523	96.38
298.753	75.38
298.984	81.38
299.214	85.38
299.445	82.38
299.675	91.38
299.905	100.38
300.136	94.38
300.366	87.38
300.597	84.38
300.827	92.38
301.057	90.38
301.288	69.38
301.518	65.38
301.748	78.38
301.979	95.38
302.209	93.38
302.439	81.38
302.669	76.38
302.9	90.38
303.13	86.38
303.36	85.38
303.59	72.38
303.82	91.38
304.051	81.38
304.281	86.38
304.511	88.38
304.741	89.38
304.971	76.38
305.201	78.38
305.431	93.38
305.661	84.38
305.891	82.38
306.121	96.38
306.352	96.38
306.582	85.38
306.812	86.38
307.042	87.38
307.272	85.38
307.502	88.38
307.731	85.38
307.961	92.38
308.191	86.38
308.421	99.38
308.651	86.38
308.881	85.38
309.111	100.38
309.341	82.38
309.571	76.38
309.8	83.38
310.03	82.38
310.26	81.38
310.49	98.38
310.72	95.38
310.949	96.38
311.179	85.38
311.409	90.38
311.639	86.38
311.868	72.38
312.098	82.38
312.328	88.38
312.557	89.38
312.787	92.38
313.017	97.38
313.246	90.38
313.476	87.38
313.706	75.38
313.935	76.38
314.165	85.38
314.394	73.38
314.624	91.38
314.853	78.38
315.083	86.38
315.312	89.38
315.542	79.38
315.771	84.38
316.001	88.38
316.23	75.38
316.46	95.38
316.689	82.38
316.919	86.38
317.148	82.38
317.377	94.38
317.607	84.38
317.836	86.38
318.065	83.38
318.295	90.38
318.524	86.38
318.753	85.38
318.983	82.38
319.212	90.38
319.441	75.38
319.67	97.38
319.9	80.38
320.129	94.38
320.358	88.38
320.587	96.38
320.816	79.38
321.046	86.38
321.275	93.38
321.504	89.38
321.733	86.38
321.962	87.38
322.191	96.38
322.42	87.38
322.649	84.38
322.878	85.38
323.108	82.38
323.337	97.38
323.566	84.38
323.795	94.38
324.024	88.38
324.253	95.38
324.482	84.38
324.71	84.38
324.939	92.38
325.168	86.38
325.397	79.38
325.626	82.38
325.855	91.38
326.084	84.38
326.313	83.38
326.542	77.38
326.77	97.38
326.999	84.38
327.228	84.38
327.457	72.38
327.686	80.38
327.914	78.38
328.143	78.38
328.372	80.38
328.6	76.38
328.829	74.38
329.058	78.38
329.287	82.38
329.515	93.38
329.744	89.38
329.972	82.38
330.201	92.38
330.43	81.38
330.658	99.38
330.887	76.38
331.115	83.38
331.344	100.38
331.572	79.38
331.801	92.38
332.03	89.38
332.258	84.38
332.486	96.38
332.715	86.38
332.943	85.38
333.172	94.38
333.4	97.38
333.629	86.38
333.857	70.38
334.085	74.38
334.314	102.38
334.542	94.38
334.771	81.38
334.999	87.38
335.227	96.38
335.455	88.38
335.684	93.38
335.912	79.38
336.14	90.38
336.369	78.38
336.597	90.38
336.825	98.38
337.053	83.38
337.281	94.38
337.51	89.38
337.738	93.38
337.966	82.38
338.194	96.38
338.422	96.38
338.65	88.38
338.878	93.38
339.106	82.38
339.334	94.38
339.562	80.38
339.79	72.38
340.018	90.38
340.246	82.38
340.474	93.38
340.702	81.38
340.93	89.38
341.158	88.38
341.386	82.38
341.614	80.38
341.842	98.38
342.07	100.38
342.298	94.38
342.526	81.38
342.754	88.38
342.981	82.38
343.209	84.38
343.437	100.38
343.665	82.38
343.893	82.38
344.12	97.38
344.348	99.38
344.576	76.38
344.804	93.38
345.031	76.38
345.259	77.38
345.487	81.38
345.714	91.38
345.942	101.38
346.17	98.38
346.397	79.38
346.625	78.38
346.853	84.38
347.08	72.38
347.308	92.38
347.535	88.38
347.763	85.38
347.99	98.38
348.218	94.38
348.445	96.38
348.673	97.38
348.9	90.38
349.128	100.38
349.355	73.38
349.583	92.38
349.81	77.38
350.037	85.38
350.265	91.38
350.492	85.38
350.72	80.38
350.947	94.38
351.174	78.38
351.402	97.38
351.629	77.38
351.856	77.38
352.083	73.38
352.311	81.38
352.538	96.38
352.765	79.38
352.992	76.38
353.22	80.38
353.447	93.38
353.674	97.38
353.901	94.38
354.128	92.38
354.355	88.38
354.583	92.38
354.81	88.38
355.037	94.38
355.264	84.38
355.491	79.38
355.718	84.38
355.945	86.38
356.172	93.38
356.399	100.38
356.626	88.38
356.853	86.38
357.08	99.38
357.307	85.38
357.534	76.38
357.761	73.38
357.988	90.38
358.215	81.38
358.441	88.38
358.668	90.38
358.895	87.38
359.122	88.38
359.349	77.38
359.576	87.38
359.802	82.38
360.029	88.38
360.256	69.38
360.483	86.38
360.709	98.38
360.936	96.38
361.163	79.38
361.39	94.38
361.616	84.38
361.843	93.38
362.07	80.38
362.296	88.38
362.523	89.38
362.749	88.38
362.976	77.38
363.203	98.38
363.429	86.38
363.656	85.38
363.882	83.38
364.109	94.38
364.335	94.38
364.562	99.38
364.788	96.38
365.015	93.38
365.241	102.38
365.468	100.38
365.694	81.38
365.92	78.38
366.147	84.38
366.373	78.38
366.599	92.38
366.826	89.38
367.052	92.38
367.278	90.38
367.505	81.38
367.731	89.38
367.957	81.38
368.184	87.38
368.41	77.38
368.636	86.38
368.862	75.38
369.089	98.38
369.315	88.38
369.541	88.38
369.767	98.38
369.993	83.38
370.219	86.38
370.445	89.38
370.672	105.38
370.898	96.38
371.124	88.38
371.35	82.38
371.576	89.38
371.802	94.38
372.028	82.38
372.254	98.38
372.48	87.38
372.706	80.38
372.932	97.38
373.158	92.38
373.384	83.38
373.61	98.38
373.835	92.38
374.061	82.38
374.287	76.38
374.513	87.38
374.739	93.38
374.965	98.38
375.191	95.38
375.416	85.38
375.642	94.38
375.868	84.38
376.094	90.38
376.319	79.38
376.545	76.38
376.771	73.38
376.997	86.38
377.222	96.38
377.448	95.38
377.674	79.38
377.899	91.38
378.125	89.38
378.35	78.38
378.576	90.38
378.802	79.38
379.027	85.38
379.253	91.38
379.478	72.38
379.704	89.38
379.929	105.38
380.155	105.38
380.38	80.38
380.606	92.38
380.831	92.38
381.057	84.38
381.282	91.38
381.507	85.38
381.733	94.38
381.958	82.38
382.184	85.38
382.409	99.38
382.634	69.38
382.86	85.38
383.085	92.38
383.31	97.38
383.535	84.38
383.761	101.38
383.986	91.38
384.211	87.38
384.436	89.38
384.662	100.38
384.887	70.38
385.112	88.38
385.337	96.38
385.562	73.38
385.787	85.38
386.013	94.38
386.238	97.38
386.463	83.38
386.688	87.38
386.913	86.38
387.138	96.38
387.363	92.38
387.588	96.38
387.813	97.38
388.038	96.38
388.263	82.38
388.488	77.38
388.713	78.38
388.938	84.38
389.163	83.38
389.387	98.38
389.612	80.38
389.837	76.38
390.062	93.38
390.287	89.38
390.512	84.38
390.736	96.38
390.961	91.38
391.186	77.38
391.411	66.38
391.636	72.38
391.86	88.38
392.085	88.38
392.31	87.38
392.534	86.38
392.759	101.38
392.984	102.38
393.208	157.38
393.433	178.38
393.658	157.38
393.882	90.38
394.107	80.38
394.331	98.38
394.556	100.38
394.78	92.38
395.005	90.38
395.229	106.38
395.454	75.38
395.678	87.38
395.903	102.38
396.127	100.38
396.352	128.38
396.576	112.38
396.801	138.38
397.025	163.38
397.249	107.38
397.474	99.38
397.698	93.38
397.922	80.38
398.147	76.38
398.371	96.38
398.595	96.38
398.82	98.38
399.044	93.38
399.268	98.38
399.492	92.38
399.717	85.38
399.941	82.38
400.165	85.38
400.389	74.38
400.613	89.38
400.837	91.38
401.062	77.38
401.286	73.38
401.51	81.38
401.734	97.38
401.958	81.38
402.182	79.38
402.406	83.38
402.63	80.38
402.854	84.38
403.078	90.38
403.302	73.38
403.526	88.38
403.75	82.38
403.974	102.38
404.198	99.38
404.422	84.38
404.645	88.38
404.869	92.38
405.093	80.38
405.317	94.38
405.541	92.38
405.765	76.38
405.988	82.38
406.212	86.38
406.436	81.38
406.66	90.38
406.883	90.38
407.107	99.38
407.331	98.38
407.555	96.38
407.778	88.38
408.002	100.38
408.226	91.38
408.449	80.38
408.673	86.38
408.896	85.38
409.12	82.38
409.344	77.38
409.567	91.38
409.791	90.38
410.014	84.38
410.238	79.38
410.461	96.38
410.685	91.38
410.908	84.38
411.132	63.38
411.355	74.38
411.578	75.38
411.802	88.38
412.025	78.38
412.249	77.38
412.472	84.38
412.695	85.38
412.919	84.38
413.142	87.38
413.365	78.38
413.589	70.38
413.812	96.38
414.035	87.38
414.258	79.38
414.482	86.38
414.705	77.38
414.928	86.38
415.151	96.38
415.374	78.38
415.597	74.38
415.821	90.38
416.044	78.38
416.267	93.38
416.49	72.38
416.713	82.38
416.936	76.38
417.159	94.38
417.382	82.38
417.605	83.38
417.828	78.38
418.051	81.38
418.274	86.38
418.497	85.38
418.72	77.38
418.943	75.38
419.166	68.38
419.389	92.38
419.611	88.38
419.834	86.38
420.057	73.38
420.28	94.38
420.503	66.38
420.726	89.38
420.948	76.38
421.171	84.38
421.394	96.38
421.617	99.38
421.839	94.38
422.062	112.38
422.285	110.38
422.507	151.38
422.73	175.38
422.953	161.38
423.175	98.38
423.398	85.38
423.621	86.38
423.843	86.38
424.066	91.38
424.288	91.38
424.511	75.38
424.733	90.38
424.956	91.38
425.178	93.38
425.401	85.38
425.623	69.38
425.846	73.38
426.068	92.38
426.291	89.38
426.513	77.38
426.735	87.38
426.958	87.38
427.18	74.38
427.402	96.38
427.625	83.38
427.847	80.38
428.069	109.38
428.292	114.38
428.514	93.38
428.736	110.38
428.958	97.38
429.181	92.38
429.403	87.38
429.625	80.38
429.847	93.38
430.069	100.38
430.292	122.38
430.514	107.38
430.736	103.38
430.958	96.38
431.18	92.38
431.402	77.38
431.624	91.38
431.846	76.38
432.068	96.38
432.29	81.38
432.512	92.38
432.734	90.38
432.956	95.38
433.178	76.38
433.4	85.38
433.622	82.38
433.844	93.38
434.066	82.38
434.287	55.38
434.509	72.38
434.731	92.38
434.953	79.38
435.175	85.38
435.397	84.38
435.618	78.38
435.84	82.38
436.062	79.38
436.284	87.38
436.505	79.38
436.727	88.38
436.949	97.38
437.17	86.38
437.392	90.38
437.614	80.38
437.835	75.38
438.057	84.38
438.278	70.38
438.5	91.38
438.721	87.38
438.943	84.38
439.165	87.38
439.386	91.38
439.608	78.38
439.829	99.38
440.05	84.38
440.272	82.38
440.493	82.38
440.715	87.38
440.936	99.38
441.158	92.38
441.379	83.38
441.6	79.38
441.822	95.38
442.043	88.38
442.264	85.38
442.486	93.38
442.707	106.38
442.928	90.38
443.149	93.38
443.371	99.38
443.592	119.38
443.813	118.38
444.034	91.38
444.255	89.38
444.476	77.38
444.698	89.38
444.919	92.38
445.14	146.38
445.361	140.38
445.582	130.38
445.803	124.38
446.024	97.38
446.245	87.38
446.466	74.38
446.687	76.38
446.908	86.38
447.129	82.38
447.35	78.38
447.571	83.38
447.792	90.38
448.013	78.38
448.234	82.38
448.455	82.38
448.675	83.38
448.896	86.38
449.117	84.38
449.338	76.38
449.559	94.38
449.779	87.38
450	97.38
450.221	98.38
450.442	84.38
450.662	82.38
450.883	89.38
451.104	93.38
451.324	65.38
451.545	86.38
451.766	92.38
451.986	88.38
452.207	91.38
452.428	74.38
452.648	93.38
452.869	94.38
453.089	90.38
453.31	83.38
453.53	68.38
453.751	85.38
453.971	86.38
454.192	96.38
454.412	72.38
454.633	84.38
454.853	72.38
455.073	82.38
455.294	86.38
455.514	68.38
455.734	89.38
455.955	68.38
456.175	72.38
456.395	74.38
456.616	86.38
456.836	84.38
457.056	93.38
457.276	67.38
457.497	78.38
457.717	76.38
457.937	81.38
458.157	102.38
458.377	101.38
458.598	94.38
458.818	104.38
459.038	69.38
459.258	81.38
459.478	79.38
459.698	84.38
459.918	87.38
460.138	86.38
460.358	84.38
460.578	95.38
460.798	100.38
461.018	85.38
461.238	75.38
461.458	90.38
461.678	103.38
461.898	91.38
462.118	99.38
462.338	77.38
462.558	98.38
462.777	83.38
462.997	86.38
463.217	73.38
463.437	94.38
463.657	80.38
463.876	86.38
464.096	74.38
464.316	82.38
464.536	91.38
464.755	92.38
464.975	73.38
465.195	85.38
465.414	74.38
465.634	92.38
465.854	84.38
466.073	91.38
466.293	85.38
466.512	80.38
466.732	87.38
466.951	78.38
467.171	86.38
467.391	98.38
467.61	88.38
467.829	85.38
468.049	78.38
468.268	82.38
468.488	89.38
468.707	90.38
468.927	86.38
469.146	75.38
469.365	86.38
469.585	81.38
469.804	78.38
470.023	89.38
470.243	75.38
470.462	86.38
470.681	79.38
470.901	88.38
471.12	68.38
471.339	76.38
471.558	75.38
471.777	71.38
471.997	88.38
472.216	74.38
472.435	101.38
472.654	86.38
472.873	89.38
473.092	82.38
473.311	100.38
473.53	76.38
473.749	71.38
473.968	78.38
474.187	77.38
474.406	69.38
474.625	88.38
474.844	85.38
475.063	70.38
475.282	82.38
475.501	74.38
475.72	83.38
475.939	90.38
476.158	98.38
476.377	92.38
476.596	62.38
476.814	90.38
477.033	75.38
477.252	84.38
477.471	94.38
477.69	96.38
477.908	91.38
478.127	89.38
478.346	78.38
478.564	73.38
478.783	80.38
479.002	93.38
479.22	92.38
479.439	81.38
479.658	82.38
479.876	92.38
480.095	87.38
480.313	86.38
480.532	93.38
480.751	85.38
480.969	74.38
481.188	88.38
481.406	76.38
481.624	82.38
481.843	74.38
482.061	90.38
482.28	84.38
482.498	84.38
482.717	85.38
482.935	96.38
483.153	83.38
483.372	85.38
483.59	69.38
483.808	85.38
484.027	101.38
484.245	81.38
484.463	91.38
484.681	98.38
484.9	91.38
485.118	86.38
485.336	82.38
485.554	78.38
485.772	81.38
485.99	90.38
486.209	96.38
486.427	89.38
486.645	86.38
486.863	83.38
487.081	89.38
487.299	98.38
487.517	112.38
487.735	105.38
487.953	119.38
488.171	88.38
488.389	82.38
488.607	80.38
488.825	76.38
489.043	88.38
489.261	88.38
489.479	86.38
489.696	86.38
489.914	84.38
490.132	89.38
490.35	91.38
490.568	95.38
490.786	84.38
491.003	90.38
491.221	57.38
491.439	76.38
491.657	93.38
491.874	90.38
492.092	82.38
492.31	89.38
492.527	87.38
492.745	84.38
492.963	84.38
493.18	83.38
493.398	96.38
493.615	65.38
493.833	98.38
494.05	74.38
494.268	75.38
494.485	97.38
494.703	88.38
494.92	92.38
495.138	95.38
495.355	102.38
495.573	89.38
495.79	68.38
496.008	86.38
496.225	84.38
496.442	89.38
496.66	78.38
496.877	91.38
497.094	93.38
497.312	86.38
497.529	101.38
497.746	93.38
497.963	82.38
498.181	79.38
498.398	86.38
498.615	93.38
498.832	82.38
499.049	88.38
499.267	77.38
499.484	84.38
499.701	70.38
499.918	91.38
500.135	81.38
500.352	95.38
500.569	86.38
500.786	85.38
501.003	70.38
501.22	87.38
501.437	78.38
501.654	71.38
501.871	76.38
502.088	74.38
502.305	91.38
502.522	82.38
502.739	81.38
502.956	75.38
503.172	87.38
503.389	86.38
503.606	78.38
503.823	88.38
504.04	84.38
504.256	93.38
504.473	96.38
504.69	84.38
504.907	83.38
505.123	89.38
505.34	90.38
505.557	73.38
505.773	82.38
505.99	91.38
506.207	99.38
506.423	98.38
506.64	80.38
506.856	80.38
507.073	83.38
507.289	82.38
507.506	88.38
507.722	78.38
507.939	84.38
508.155	82.38
508.372	71.38
508.588	110.38
508.805	78.38
509.021	89.38
509.238	88.38
509.454	73.38
509.67	70.38
509.887	80.38
510.103	94.38
510.319	86.38
510.536	93.38
510.752	66.38
510.968	84.38
511.184	80.38
511.401	76.38
511.617	66.38
511.833	91.38
512.049	76.38
512.265	80.38
512.481	102.38
512.698	109.38
512.914	89.38
513.13	92.38
513.346	74.38
513.562	80.38
513.778	65.38
513.994	81.38
514.21	78.38
514.426	72.38
514.642	77.38
514.858	90.38
515.074	81.38
515.29	89.38
515.506	75.38
515.721	70.38
515.937	94.38
516.153	86.38
516.369	83.38
516.585	82.38
516.801	97.38
517.016	74.38
517.232	78.38
517.448	86.38
517.664	79.38
517.879	76.38
518.095	93.38
518.311	90.38
518.527	91.38
518.742	93.38
518.958	100.38
519.173	96.38
