Data from 17600_2_HRD10591_00004.txt Node
Date: Mon Jan 19 14:08:24 EST 2026
User: Yrep
Spectrometer: HR+D1059
Trigger mode: 1
Integration Time (sec): 1.000000E-1
Scans to average: 1
Electric dark correction enabled: true
Nonlinearity correction enabled: false
Boxcar width: 0
XAxis mode: Wavelengths
Number of Pixels in Spectrum: 2048
>>>>>Begin Spectral Data<<<<<
223.165	-11.44
223.4	-11.44
223.635	-11.44
223.869	-30.44
224.104	-23.44
224.338	-9.44
224.573	-7.44
224.808	-29.44
225.042	-11.44
225.277	-1.44
225.511	10.56
225.746	3.56
225.98	-0.44
226.215	6.56
226.449	25.56
226.683	34.56
226.918	15.56
227.152	28.56
227.387	29.56
227.621	38.56
227.856	48.56
228.09	54.56
228.324	45.56
228.559	35.56
228.793	68.56
229.027	67.56
229.262	62.56
229.496	70.56
229.73	78.56
229.964	60.56
230.199	78.56
230.433	68.56
230.667	68.56
230.901	77.56
231.136	83.56
231.37	80.56
231.604	94.56
231.838	94.56
232.072	82.56
232.306	88.56
232.541	68.56
232.775	76.56
233.009	75.56
233.243	70.56
233.477	73.56
233.711	78.56
233.945	75.56
234.179	95.56
234.413	82.56
234.647	71.56
234.881	79.56
235.115	82.56
235.349	78.56
235.583	71.56
235.817	70.56
236.051	78.56
236.285	79.56
236.519	90.56
236.753	69.56
236.987	71.56
237.221	75.56
237.455	75.56
237.689	64.56
237.922	65.56
238.156	75.56
238.39	76.56
238.624	88.56
238.858	71.56
239.091	66.56
239.325	71.56
239.559	64.56
239.793	74.56
240.027	95.56
240.26	69.56
240.494	80.56
240.728	75.56
240.961	79.56
241.195	81.56
241.429	68.56
241.662	63.56
241.896	76.56
242.13	82.56
242.363	88.56
242.597	79.56
242.83	80.56
243.064	78.56
243.298	83.56
243.531	68.56
243.765	85.56
243.998	80.56
244.232	81.56
244.465	78.56
244.699	84.56
244.932	78.56
245.166	80.56
245.399	67.56
245.633	73.56
245.866	69.56
246.099	83.56
246.333	96.56
246.566	73.56
246.8	80.56
247.033	71.56
247.266	69.56
247.5	74.56
247.733	95.56
247.966	73.56
248.2	90.56
248.433	84.56
248.666	71.56
248.899	79.56
249.133	80.56
249.366	92.56
249.599	85.56
249.832	79.56
250.066	88.56
250.299	66.56
250.532	68.56
250.765	76.56
250.998	84.56
251.231	89.56
251.465	86.56
251.698	88.56
251.931	88.56
252.164	87.56
252.397	72.56
252.63	71.56
252.863	60.56
253.096	86.56
253.329	76.56
253.562	81.56
253.795	79.56
254.028	78.56
254.261	72.56
254.494	89.56
254.727	76.56
254.96	78.56
255.193	88.56
255.426	88.56
255.659	71.56
255.892	77.56
256.124	68.56
256.357	72.56
256.59	74.56
256.823	74.56
257.056	82.56
257.289	90.56
257.521	86.56
257.754	96.56
257.987	82.56
258.22	77.56
258.452	83.56
258.685	80.56
258.918	82.56
259.151	93.56
259.383	86.56
259.616	86.56
259.849	92.56
260.081	73.56
260.314	64.56
260.547	72.56
260.779	82.56
261.012	87.56
261.244	83.56
261.477	82.56
261.71	82.56
261.942	90.56
262.175	79.56
262.407	91.56
262.64	69.56
262.872	84.56
263.105	64.56
263.337	84.56
263.57	70.56
263.802	74.56
264.035	80.56
264.267	80.56
264.499	81.56
264.732	77.56
264.964	80.56
265.197	74.56
265.429	76.56
265.661	82.56
265.894	81.56
266.126	92.56
266.358	64.56
266.591	77.56
266.823	87.56
267.055	80.56
267.287	96.56
267.52	67.56
267.752	89.56
267.984	84.56
268.216	73.56
268.448	76.56
268.681	89.56
268.913	90.56
269.145	77.56
269.377	65.56
269.609	83.56
269.841	85.56
270.073	82.56
270.306	93.56
270.538	79.56
270.77	75.56
271.002	70.56
271.234	74.56
271.466	83.56
271.698	89.56
271.93	77.56
272.162	88.56
272.394	90.56
272.626	97.56
272.858	76.56
273.09	82.56
273.322	77.56
273.553	87.56
273.785	83.56
274.017	84.56
274.249	89.56
274.481	90.56
274.713	82.56
274.945	87.56
275.176	80.56
275.408	84.56
275.64	88.56
275.872	64.56
276.104	80.56
276.335	69.56
276.567	75.56
276.799	90.56
277.031	80.56
277.262	79.56
277.494	89.56
277.726	80.56
277.957	82.56
278.189	83.56
278.421	87.56
278.652	85.56
278.884	99.56
279.115	93.56
279.347	81.56
279.579	89.56
279.81	80.56
280.042	92.56
280.273	91.56
280.505	76.56
280.736	79.56
280.968	75.56
281.199	78.56
281.431	88.56
281.662	89.56
281.894	82.56
282.125	54.56
282.356	78.56
282.588	80.56
282.819	76.56
283.051	72.56
283.282	79.56
283.513	79.56
283.745	80.56
283.976	85.56
284.207	79.56
284.439	89.56
284.67	84.56
284.901	85.56
285.132	101.56
285.364	91.56
285.595	80.56
285.826	84.56
286.057	95.56
286.288	74.56
286.52	85.56
286.751	64.56
286.982	82.56
287.213	87.56
287.444	74.56
287.675	70.56
287.906	75.56
288.138	93.56
288.369	72.56
288.6	87.56
288.831	84.56
289.062	79.56
289.293	85.56
289.524	87.56
289.755	78.56
289.986	86.56
290.217	83.56
290.448	72.56
290.679	89.56
290.91	65.56
291.141	81.56
291.371	79.56
291.602	78.56
291.833	94.56
292.064	89.56
292.295	97.56
292.526	89.56
292.757	96.56
292.987	86.56
293.218	96.56
293.449	80.56
293.68	88.56
293.91	84.56
294.141	80.56
294.372	89.56
294.603	80.56
294.833	83.56
295.064	85.56
295.295	69.56
295.525	84.56
295.756	95.56
295.987	89.56
296.217	88.56
296.448	90.56
296.679	87.56
296.909	75.56
297.14	95.56
297.37	92.56
297.601	96.56
297.831	78.56
298.062	90.56
298.292	97.56
298.523	88.56
298.753	86.56
298.984	70.56
299.214	81.56
299.445	82.56
299.675	78.56
299.905	110.56
300.136	92.56
300.366	101.56
300.597	79.56
300.827	90.56
301.057	88.56
301.288	103.56
301.518	83.56
301.748	86.56
301.979	117.56
302.209	107.56
302.439	90.56
302.669	78.56
302.9	81.56
303.13	84.56
303.36	74.56
303.59	96.56
303.82	76.56
304.051	88.56
304.281	101.56
304.511	101.56
304.741	87.56
304.971	90.56
305.201	75.56
305.431	79.56
305.661	90.56
305.891	98.56
306.121	100.56
306.352	94.56
306.582	78.56
306.812	86.56
307.042	85.56
307.272	96.56
307.502	94.56
307.731	77.56
307.961	94.56
308.191	95.56
308.421	97.56
308.651	92.56
308.881	91.56
309.111	91.56
309.341	96.56
309.571	89.56
309.8	88.56
310.03	74.56
310.26	84.56
310.49	84.56
310.72	89.56
310.949	90.56
311.179	93.56
311.409	78.56
311.639	90.56
311.868	93.56
312.098	81.56
312.328	68.56
312.557	84.56
312.787	91.56
313.017	89.56
313.246	78.56
313.476	72.56
313.706	89.56
313.935	86.56
314.165	87.56
314.394	91.56
314.624	93.56
314.853	80.56
315.083	86.56
315.312	96.56
315.542	85.56
315.771	89.56
316.001	97.56
316.23	85.56
316.46	76.56
316.689	84.56
316.919	86.56
317.148	85.56
317.377	81.56
317.607	96.56
317.836	105.56
318.065	110.56
318.295	98.56
318.524	84.56
318.753	83.56
318.983	86.56
319.212	97.56
319.441	94.56
319.67	94.56
319.9	81.56
320.129	82.56
320.358	87.56
320.587	91.56
320.816	96.56
321.046	88.56
321.275	89.56
321.504	89.56
321.733	88.56
321.962	98.56
322.191	88.56
322.42	100.56
322.649	90.56
322.878	85.56
323.108	88.56
323.337	97.56
323.566	85.56
323.795	96.56
324.024	101.56
324.253	99.56
324.482	84.56
324.71	78.56
324.939	95.56
325.168	95.56
325.397	72.56
325.626	92.56
325.855	78.56
326.084	71.56
326.313	100.56
326.542	83.56
326.77	88.56
326.999	98.56
327.228	83.56
327.457	79.56
327.686	88.56
327.914	82.56
328.143	87.56
328.372	98.56
328.6	97.56
328.829	74.56
329.058	100.56
329.287	84.56
329.515	85.56
329.744	86.56
329.972	87.56
330.201	89.56
330.43	84.56
330.658	90.56
330.887	84.56
331.115	87.56
331.344	97.56
331.572	95.56
331.801	75.56
332.03	90.56
332.258	92.56
332.486	84.56
332.715	88.56
332.943	90.56
333.172	85.56
333.4	82.56
333.629	101.56
333.857	85.56
334.085	89.56
334.314	92.56
334.542	98.56
334.771	93.56
334.999	108.56
335.227	90.56
335.455	97.56
335.684	102.56
335.912	98.56
336.14	111.56
336.369	92.56
336.597	82.56
336.825	83.56
337.053	82.56
337.281	91.56
337.51	72.56
337.738	81.56
337.966	79.56
338.194	82.56
338.422	75.56
338.65	81.56
338.878	84.56
339.106	110.56
339.334	91.56
339.562	86.56
339.79	95.56
340.018	86.56
340.246	84.56
340.474	84.56
340.702	73.56
340.93	84.56
341.158	103.56
341.386	88.56
341.614	90.56
341.842	77.56
342.07	87.56
342.298	80.56
342.526	88.56
342.754	86.56
342.981	89.56
343.209	90.56
343.437	96.56
343.665	86.56
343.893	98.56
344.12	98.56
344.348	98.56
344.576	88.56
344.804	84.56
345.031	99.56
345.259	77.56
345.487	83.56
345.714	86.56
345.942	94.56
346.17	96.56
346.397	76.56
346.625	87.56
346.853	80.56
347.08	66.56
347.308	88.56
347.535	96.56
347.763	81.56
347.99	92.56
348.218	96.56
348.445	96.56
348.673	83.56
348.9	93.56
349.128	94.56
349.355	100.56
349.583	92.56
349.81	95.56
350.037	94.56
350.265	98.56
350.492	88.56
350.72	77.56
350.947	94.56
351.174	106.56
351.402	96.56
351.629	74.56
351.856	88.56
352.083	82.56
352.311	96.56
352.538	80.56
352.765	96.56
352.992	81.56
353.22	86.56
353.447	88.56
353.674	93.56
353.901	89.56
354.128	90.56
354.355	89.56
354.583	89.56
354.81	85.56
355.037	90.56
355.264	95.56
355.491	80.56
355.718	95.56
355.945	88.56
356.172	101.56
356.399	95.56
356.626	92.56
356.853	97.56
357.08	78.56
357.307	84.56
357.534	87.56
357.761	101.56
357.988	99.56
358.215	91.56
358.441	92.56
358.668	101.56
358.895	93.56
359.122	92.56
359.349	98.56
359.576	96.56
359.802	81.56
360.029	85.56
360.256	94.56
360.483	85.56
360.709	92.56
360.936	94.56
361.163	93.56
361.39	80.56
361.616	87.56
361.843	102.56
362.07	132.56
362.296	112.56
362.523	126.56
362.749	125.56
362.976	146.56
363.203	139.56
363.429	120.56
363.656	104.56
363.882	115.56
364.109	137.56
364.335	187.56
364.562	182.56
364.788	136.56
365.015	119.56
365.241	105.56
365.468	78.56
365.694	73.56
365.92	84.56
366.147	96.56
366.373	72.56
366.599	94.56
366.826	92.56
367.052	96.56
367.278	89.56
367.505	89.56
367.731	81.56
367.957	87.56
368.184	94.56
368.41	102.56
368.636	107.56
368.862	84.56
369.089	75.56
369.315	95.56
369.541	90.56
369.767	104.56
369.993	88.56
370.219	74.56
370.445	103.56
370.672	112.56
370.898	100.56
371.124	85.56
371.35	85.56
371.576	97.56
371.802	90.56
372.028	117.56
372.254	100.56
372.48	96.56
372.706	74.56
372.932	101.56
373.158	104.56
373.384	108.56
373.61	110.56
373.835	116.56
374.061	103.56
374.287	97.56
374.513	109.56
374.739	112.56
374.965	111.56
375.191	113.56
375.416	96.56
375.642	102.56
375.868	98.56
376.094	86.56
376.319	101.56
376.545	108.56
376.771	74.56
376.997	84.56
377.222	84.56
377.448	88.56
377.674	90.56
377.899	101.56
378.125	97.56
378.35	101.56
378.576	83.56
378.802	81.56
379.027	86.56
379.253	98.56
379.478	96.56
379.704	99.56
379.929	104.56
380.155	89.56
380.38	92.56
380.606	98.56
380.831	101.56
381.057	96.56
381.282	94.56
381.507	99.56
381.733	89.56
381.958	90.56
382.184	117.56
382.409	108.56
382.634	112.56
382.86	103.56
383.085	94.56
383.31	112.56
383.535	109.56
383.761	115.56
383.986	110.56
384.211	105.56
384.436	101.56
384.662	92.56
384.887	96.56
385.112	95.56
385.337	81.56
385.562	98.56
385.787	99.56
386.013	105.56
386.238	109.56
386.463	97.56
386.688	116.56
386.913	90.56
387.138	90.56
387.363	103.56
387.588	105.56
387.813	117.56
388.038	108.56
388.263	103.56
388.488	104.56
388.713	88.56
388.938	100.56
389.163	101.56
389.387	87.56
389.612	94.56
389.837	104.56
390.062	98.56
390.287	100.56
390.512	92.56
390.736	95.56
390.961	94.56
391.186	101.56
391.411	84.56
391.636	95.56
391.86	105.56
392.085	94.56
392.31	101.56
392.534	122.56
392.759	144.56
392.984	216.56
393.208	374.56
393.433	491.56
393.658	381.56
393.882	177.56
394.107	128.56
394.331	149.56
394.556	160.56
394.78	124.56
395.005	107.56
395.229	119.56
395.454	104.56
395.678	135.56
395.903	156.56
396.127	190.56
396.352	241.56
396.576	233.56
396.801	351.56
397.025	420.56
397.249	233.56
397.474	161.56
397.698	132.56
397.922	117.56
398.147	102.56
398.371	102.56
398.595	99.56
398.82	108.56
399.044	104.56
399.268	91.56
399.492	93.56
399.717	86.56
399.941	86.56
400.165	92.56
400.389	96.56
400.613	87.56
400.837	98.56
401.062	87.56
401.286	77.56
401.51	83.56
401.734	89.56
401.958	88.56
402.182	93.56
402.406	99.56
402.63	84.56
402.854	95.56
403.078	85.56
403.302	96.56
403.526	102.56
403.75	97.56
403.974	100.56
404.198	87.56
404.422	108.56
404.645	130.56
404.869	118.56
405.093	103.56
405.317	105.56
405.541	106.56
405.765	98.56
405.988	75.56
406.212	102.56
406.436	76.56
406.66	92.56
406.883	101.56
407.107	101.56
407.331	103.56
407.555	128.56
407.778	137.56
408.002	149.56
408.226	110.56
408.449	106.56
408.673	88.56
408.896	97.56
409.12	90.56
409.344	119.56
409.567	112.56
409.791	117.56
410.014	124.56
410.238	98.56
410.461	100.56
410.685	94.56
410.908	92.56
411.132	97.56
411.355	93.56
411.578	86.56
411.802	85.56
412.025	86.56
412.249	87.56
412.472	91.56
412.695	86.56
412.919	99.56
413.142	92.56
413.365	92.56
413.589	87.56
413.812	88.56
414.035	100.56
414.258	92.56
414.482	93.56
414.705	81.56
414.928	94.56
415.151	84.56
415.374	89.56
415.597	87.56
415.821	94.56
416.044	84.56
416.267	92.56
416.49	88.56
416.713	88.56
416.936	87.56
417.159	89.56
417.382	88.56
417.605	84.56
417.828	82.56
418.051	80.56
418.274	99.56
418.497	94.56
418.72	92.56
418.943	90.56
419.166	101.56
419.389	89.56
419.611	95.56
419.834	94.56
420.057	93.56
420.28	84.56
420.503	82.56
420.726	85.56
420.948	105.56
421.171	103.56
421.394	112.56
421.617	169.56
421.839	174.56
422.062	181.56
422.285	234.56
422.507	379.56
422.73	529.56
422.953	489.56
423.175	310.56
423.398	181.56
423.621	165.56
423.843	131.56
424.066	117.56
424.288	99.56
424.511	113.56
424.733	82.56
424.956	90.56
425.178	89.56
425.401	99.56
425.623	96.56
425.846	97.56
426.068	88.56
426.291	76.56
426.513	101.56
426.735	73.56
426.958	92.56
427.18	93.56
427.402	97.56
427.625	91.56
427.847	99.56
428.069	127.56
428.292	165.56
428.514	173.56
428.736	127.56
428.958	156.56
429.181	172.56
429.403	128.56
429.625	100.56
429.847	173.56
430.069	226.56
430.292	250.56
430.514	233.56
430.736	168.56
430.958	183.56
431.18	121.56
431.402	105.56
431.624	106.56
431.846	160.56
432.068	180.56
432.29	110.56
432.512	102.56
432.734	99.56
432.956	105.56
433.178	86.56
433.4	71.56
433.622	92.56
433.844	94.56
434.066	82.56
434.287	83.56
434.509	94.56
434.731	90.56
434.953	96.56
435.175	87.56
435.397	102.56
435.618	91.56
435.84	106.56
436.062	87.56
436.284	100.56
436.505	86.56
436.727	81.56
436.949	87.56
437.17	85.56
437.392	71.56
437.614	86.56
437.835	78.56
438.057	76.56
438.278	92.56
438.5	89.56
438.721	89.56
438.943	80.56
439.165	75.56
439.386	84.56
439.608	96.56
439.829	76.56
440.05	88.56
440.272	84.56
440.493	77.56
440.715	96.56
440.936	95.56
441.158	98.56
441.379	78.56
441.6	94.56
441.822	93.56
442.043	95.56
442.264	121.56
442.486	180.56
442.707	257.56
442.928	163.56
443.149	135.56
443.371	213.56
443.592	384.56
443.813	327.56
444.034	135.56
444.255	101.56
444.476	105.56
444.698	99.56
444.919	108.56
445.14	206.56
445.361	284.56
445.582	473.56
445.803	383.56
446.024	172.56
446.245	100.56
446.466	100.56
446.687	86.56
446.908	89.56
447.129	82.56
447.35	89.56
447.571	103.56
447.792	86.56
448.013	84.56
448.234	100.56
448.455	83.56
448.675	93.56
448.896	96.56
449.117	99.56
449.338	75.56
449.559	87.56
449.779	80.56
450	73.56
450.221	81.56
450.442	80.56
450.662	95.56
450.883	77.56
451.104	91.56
451.324	92.56
451.545	90.56
451.766	86.56
451.986	75.56
452.207	84.56
452.428	102.56
452.648	93.56
452.869	110.56
453.089	100.56
453.31	82.56
453.53	100.56
453.751	103.56
453.971	86.56
454.192	69.56
454.412	72.56
454.633	85.56
454.853	85.56
455.073	90.56
455.294	98.56
455.514	93.56
455.734	79.56
455.955	70.56
456.175	92.56
456.395	96.56
456.616	92.56
456.836	100.56
457.056	92.56
457.276	78.56
457.497	75.56
457.717	90.56
457.937	143.56
458.157	170.56
458.377	172.56
458.598	165.56
458.818	160.56
459.038	112.56
459.258	96.56
459.478	86.56
459.698	89.56
459.918	68.56
460.138	90.56
460.358	108.56
460.578	103.56
460.798	150.56
461.018	152.56
461.238	103.56
461.458	92.56
461.678	82.56
461.898	98.56
462.118	97.56
462.338	80.56
462.558	86.56
462.777	85.56
462.997	87.56
463.217	93.56
463.437	95.56
463.657	80.56
463.876	82.56
464.096	89.56
464.316	82.56
464.536	88.56
464.755	90.56
464.975	80.56
465.195	95.56
465.414	78.56
465.634	71.56
465.854	89.56
466.073	84.56
466.293	92.56
466.512	80.56
466.732	90.56
466.951	82.56
467.171	89.56
467.391	82.56
467.61	77.56
467.829	86.56
468.049	100.56
468.268	102.56
468.488	106.56
468.707	95.56
468.927	69.56
469.146	85.56
469.365	79.56
469.585	98.56
469.804	96.56
470.023	88.56
470.243	89.56
470.462	86.56
470.681	87.56
470.901	88.56
471.12	77.56
471.339	78.56
471.558	85.56
471.777	83.56
471.997	88.56
472.216	86.56
472.435	103.56
472.654	88.56
472.873	86.56
473.092	99.56
473.311	75.56
473.53	88.56
473.749	88.56
473.968	92.56
474.187	94.56
474.406	90.56
474.625	82.56
474.844	95.56
475.063	89.56
475.282	91.56
475.501	88.56
475.72	96.56
475.939	83.56
476.158	86.56
476.377	89.56
476.596	75.56
476.814	89.56
477.033	89.56
477.252	88.56
477.471	87.56
477.69	86.56
477.908	97.56
478.127	92.56
478.346	83.56
478.564	93.56
478.783	86.56
479.002	88.56
479.22	81.56
479.439	101.56
479.658	86.56
479.876	81.56
480.095	86.56
480.313	105.56
480.532	83.56
480.751	93.56
480.969	103.56
481.188	88.56
481.406	105.56
481.624	82.56
481.843	91.56
482.061	88.56
482.28	82.56
482.498	103.56
482.717	86.56
482.935	96.56
483.153	88.56
483.372	104.56
483.59	101.56
483.808	80.56
484.027	100.56
484.245	92.56
484.463	89.56
484.681	95.56
484.9	95.56
485.118	91.56
485.336	85.56
485.554	92.56
485.772	96.56
485.99	94.56
486.209	96.56
486.427	92.56
486.645	91.56
486.863	108.56
487.081	90.56
487.299	105.56
487.517	115.56
487.735	150.56
487.953	280.56
488.171	206.56
488.389	115.56
488.607	98.56
488.825	98.56
489.043	82.56
489.261	92.56
489.479	94.56
489.696	99.56
489.914	81.56
490.132	95.56
490.35	88.56
490.568	93.56
490.786	98.56
491.003	106.56
491.221	88.56
491.439	94.56
491.657	98.56
491.874	89.56
492.092	95.56
492.31	111.56
492.527	104.56
492.745	95.56
492.963	86.56
493.18	100.56
493.398	96.56
493.615	95.56
493.833	88.56
494.05	80.56
494.268	79.56
494.485	83.56
494.703	93.56
494.92	84.56
495.138	80.56
495.355	98.56
495.573	95.56
495.79	102.56
496.008	96.56
496.225	101.56
496.442	95.56
496.66	98.56
496.877	82.56
497.094	87.56
497.312	88.56
497.529	87.56
497.746	89.56
497.963	92.56
498.181	113.56
498.398	116.56
498.615	97.56
498.832	94.56
499.049	95.56
499.267	120.56
499.484	87.56
499.701	97.56
499.918	98.56
500.135	109.56
500.352	93.56
500.569	98.56
500.786	96.56
501.003	96.56
501.22	92.56
501.437	94.56
501.654	94.56
501.871	88.56
502.088	86.56
502.305	95.56
502.522	96.56
502.739	78.56
502.956	98.56
503.172	83.56
503.389	87.56
503.606	99.56
503.823	99.56
504.04	112.56
504.256	178.56
504.473	170.56
504.69	122.56
504.907	89.56
505.123	85.56
505.34	80.56
505.557	106.56
505.773	100.56
505.99	93.56
506.207	96.56
506.423	97.56
506.64	78.56
506.856	77.56
507.073	85.56
507.289	87.56
507.506	92.56
507.722	84.56
507.939	98.56
508.155	88.56
508.372	104.56
508.588	92.56
508.805	86.56
509.021	84.56
509.238	92.56
509.454	111.56
509.67	91.56
509.887	94.56
510.103	92.56
510.319	84.56
510.536	93.56
510.752	89.56
510.968	87.56
511.184	92.56
511.401	94.56
511.617	76.56
511.833	89.56
512.049	98.56
512.265	100.56
512.481	90.56
512.698	82.56
512.914	88.56
513.13	93.56
513.346	90.56
513.562	93.56
513.778	81.56
513.994	102.56
514.21	97.56
514.426	91.56
514.642	99.56
514.858	110.56
515.074	92.56
515.29	110.56
515.506	94.56
515.721	86.56
515.937	100.56
516.153	85.56
516.369	92.56
