Data from 17600_2_HRD10591_00043.txt Node
Date: Mon Jan 19 14:08:44 EST 2026
User: Yrep
Spectrometer: HR+D1059
Trigger mode: 1
Integration Time (sec): 1.000000E-1
Scans to average: 1
Electric dark correction enabled: true
Nonlinearity correction enabled: false
Boxcar width: 0
XAxis mode: Wavelengths
Number of Pixels in Spectrum: 2048
>>>>>Begin Spectral Data<<<<<
223.165	-16.25
223.4	-16.25
223.635	-16.25
223.869	-22.25
224.104	-27.25
224.338	-25.25
224.573	-10.25
224.808	-18.25
225.042	-4.25
225.277	2.75
225.511	-2.25
225.746	5.75
225.98	12.75
226.215	15.75
226.449	16.75
226.683	17.75
226.918	23.75
227.152	30.75
227.387	17.75
227.621	33.75
227.856	32.75
228.09	60.75
228.324	63.75
228.559	56.75
228.793	62.75
229.027	53.75
229.262	61.75
229.496	69.75
229.73	63.75
229.964	69.75
230.199	52.75
230.433	53.75
230.667	59.75
230.901	71.75
231.136	70.75
231.37	80.75
231.604	78.75
231.838	79.75
232.072	79.75
232.306	70.75
232.541	78.75
232.775	79.75
233.009	76.75
233.243	83.75
233.477	79.75
233.711	82.75
233.945	94.75
234.179	75.75
234.413	89.75
234.647	76.75
234.881	70.75
235.115	77.75
235.349	79.75
235.583	90.75
235.817	78.75
236.051	76.75
236.285	77.75
236.519	82.75
236.753	66.75
236.987	67.75
237.221	87.75
237.455	77.75
237.689	67.75
237.922	88.75
238.156	79.75
238.39	79.75
238.624	75.75
238.858	81.75
239.091	72.75
239.325	72.75
239.559	68.75
239.793	79.75
240.027	59.75
240.26	65.75
240.494	81.75
240.728	81.75
240.961	73.75
241.195	84.75
241.429	79.75
241.662	80.75
241.896	83.75
242.13	73.75
242.363	74.75
242.597	74.75
242.83	79.75
243.064	79.75
243.298	69.75
243.531	73.75
243.765	78.75
243.998	85.75
244.232	84.75
244.465	75.75
244.699	77.75
244.932	79.75
245.166	91.75
245.399	84.75
245.633	77.75
245.866	77.75
246.099	81.75
246.333	83.75
246.566	68.75
246.8	73.75
247.033	83.75
247.266	50.75
247.5	72.75
247.733	82.75
247.966	76.75
248.2	83.75
248.433	80.75
248.666	75.75
248.899	81.75
249.133	81.75
249.366	85.75
249.599	76.75
249.832	81.75
250.066	84.75
250.299	77.75
250.532	82.75
250.765	77.75
250.998	86.75
251.231	90.75
251.465	75.75
251.698	69.75
251.931	77.75
252.164	87.75
252.397	82.75
252.63	80.75
252.863	71.75
253.096	76.75
253.329	84.75
253.562	71.75
253.795	72.75
254.028	69.75
254.261	84.75
254.494	73.75
254.727	73.75
254.96	76.75
255.193	95.75
255.426	74.75
255.659	61.75
255.892	77.75
256.124	86.75
256.357	89.75
256.59	87.75
256.823	74.75
257.056	86.75
257.289	97.75
257.521	90.75
257.754	72.75
257.987	82.75
258.22	78.75
258.452	81.75
258.685	84.75
258.918	73.75
259.151	87.75
259.383	71.75
259.616	60.75
259.849	86.75
260.081	73.75
260.314	74.75
260.547	86.75
260.779	85.75
261.012	90.75
261.244	80.75
261.477	81.75
261.71	73.75
261.942	81.75
262.175	81.75
262.407	80.75
262.64	82.75
262.872	88.75
263.105	72.75
263.337	84.75
263.57	69.75
263.802	83.75
264.035	75.75
264.267	67.75
264.499	74.75
264.732	83.75
264.964	73.75
265.197	71.75
265.429	89.75
265.661	94.75
265.894	85.75
266.126	82.75
266.358	81.75
266.591	81.75
266.823	86.75
267.055	81.75
267.287	80.75
267.52	80.75
267.752	71.75
267.984	98.75
268.216	88.75
268.448	89.75
268.681	81.75
268.913	87.75
269.145	97.75
269.377	85.75
269.609	78.75
269.841	87.75
270.073	83.75
270.306	96.75
270.538	82.75
270.77	83.75
271.002	80.75
271.234	84.75
271.466	72.75
271.698	89.75
271.93	69.75
272.162	75.75
272.394	107.75
272.626	79.75
272.858	86.75
273.09	78.75
273.322	84.75
273.553	68.75
273.785	86.75
274.017	86.75
274.249	86.75
274.481	88.75
274.713	79.75
274.945	89.75
275.176	91.75
275.408	88.75
275.64	87.75
275.872	82.75
276.104	89.75
276.335	86.75
276.567	87.75
276.799	72.75
277.031	85.75
277.262	85.75
277.494	84.75
277.726	75.75
277.957	81.75
278.189	91.75
278.421	81.75
278.652	77.75
278.884	81.75
279.115	78.75
279.347	80.75
279.579	93.75
279.81	94.75
280.042	82.75
280.273	76.75
280.505	69.75
280.736	92.75
280.968	88.75
281.199	77.75
281.431	83.75
281.662	71.75
281.894	83.75
282.125	79.75
282.356	77.75
282.588	73.75
282.819	72.75
283.051	86.75
283.282	97.75
283.513	75.75
283.745	91.75
283.976	89.75
284.207	82.75
284.439	79.75
284.67	90.75
284.901	96.75
285.132	96.75
285.364	82.75
285.595	93.75
285.826	83.75
286.057	77.75
286.288	79.75
286.52	80.75
286.751	80.75
286.982	72.75
287.213	74.75
287.444	79.75
287.675	87.75
287.906	91.75
288.138	76.75
288.369	75.75
288.6	82.75
288.831	93.75
289.062	85.75
289.293	89.75
289.524	89.75
289.755	91.75
289.986	78.75
290.217	77.75
290.448	81.75
290.679	81.75
290.91	86.75
291.141	87.75
291.371	86.75
291.602	64.75
291.833	90.75
292.064	77.75
292.295	92.75
292.526	87.75
292.757	69.75
292.987	97.75
293.218	96.75
293.449	90.75
293.68	90.75
293.91	93.75
294.141	86.75
294.372	83.75
294.603	71.75
294.833	89.75
295.064	85.75
295.295	87.75
295.525	81.75
295.756	90.75
295.987	88.75
296.217	80.75
296.448	75.75
296.679	76.75
296.909	79.75
297.14	86.75
297.37	85.75
297.601	83.75
297.831	88.75
298.062	77.75
298.292	65.75
298.523	76.75
298.753	89.75
298.984	76.75
299.214	85.75
299.445	74.75
299.675	74.75
299.905	86.75
300.136	86.75
300.366	68.75
300.597	73.75
300.827	81.75
301.057	89.75
301.288	88.75
301.518	86.75
301.748	79.75
301.979	100.75
302.209	85.75
302.439	81.75
302.669	79.75
302.9	81.75
303.13	93.75
303.36	83.75
303.59	79.75
303.82	72.75
304.051	105.75
304.281	90.75
304.511	101.75
304.741	83.75
304.971	70.75
305.201	83.75
305.431	89.75
305.661	91.75
305.891	73.75
306.121	86.75
306.352	90.75
306.582	90.75
306.812	86.75
307.042	82.75
307.272	85.75
307.502	77.75
307.731	75.75
307.961	73.75
308.191	90.75
308.421	98.75
308.651	71.75
308.881	82.75
309.111	88.75
309.341	74.75
309.571	86.75
309.8	82.75
310.03	97.75
310.26	89.75
310.49	84.75
310.72	85.75
310.949	96.75
311.179	75.75
311.409	89.75
311.639	90.75
311.868	83.75
312.098	72.75
312.328	86.75
312.557	89.75
312.787	72.75
313.017	71.75
313.246	75.75
313.476	87.75
313.706	78.75
313.935	77.75
314.165	93.75
314.394	89.75
314.624	92.75
314.853	79.75
315.083	85.75
315.312	89.75
315.542	84.75
315.771	81.75
316.001	83.75
316.23	74.75
316.46	81.75
316.689	93.75
316.919	82.75
317.148	83.75
317.377	84.75
317.607	92.75
317.836	79.75
318.065	95.75
318.295	77.75
318.524	79.75
318.753	70.75
318.983	79.75
319.212	99.75
319.441	90.75
319.67	86.75
319.9	86.75
320.129	82.75
320.358	81.75
320.587	101.75
320.816	97.75
321.046	90.75
321.275	90.75
321.504	76.75
321.733	90.75
321.962	69.75
322.191	76.75
322.42	71.75
322.649	85.75
322.878	85.75
323.108	89.75
323.337	89.75
323.566	80.75
323.795	96.75
324.024	83.75
324.253	89.75
324.482	81.75
324.71	94.75
324.939	95.75
325.168	86.75
325.397	97.75
325.626	73.75
325.855	76.75
326.084	80.75
326.313	85.75
326.542	80.75
326.77	95.75
326.999	84.75
327.228	87.75
327.457	85.75
327.686	88.75
327.914	93.75
328.143	83.75
328.372	78.75
328.6	80.75
328.829	95.75
329.058	83.75
329.287	82.75
329.515	93.75
329.744	84.75
329.972	94.75
330.201	83.75
330.43	82.75
330.658	83.75
330.887	79.75
331.115	81.75
331.344	86.75
331.572	89.75
331.801	69.75
332.03	85.75
332.258	80.75
332.486	75.75
332.715	82.75
332.943	81.75
333.172	87.75
333.4	96.75
333.629	93.75
333.857	75.75
334.085	90.75
334.314	87.75
334.542	84.75
334.771	78.75
334.999	77.75
335.227	94.75
335.455	79.75
335.684	73.75
335.912	70.75
336.14	88.75
336.369	88.75
336.597	87.75
336.825	97.75
337.053	77.75
337.281	74.75
337.51	87.75
337.738	88.75
337.966	87.75
338.194	73.75
338.422	73.75
338.65	86.75
338.878	93.75
339.106	84.75
339.334	74.75
339.562	84.75
339.79	85.75
340.018	95.75
340.246	96.75
340.474	75.75
340.702	68.75
340.93	73.75
341.158	90.75
341.386	63.75
341.614	91.75
341.842	82.75
342.07	85.75
342.298	73.75
342.526	86.75
342.754	77.75
342.981	77.75
343.209	78.75
343.437	81.75
343.665	78.75
343.893	87.75
344.12	92.75
344.348	80.75
344.576	78.75
344.804	86.75
345.031	78.75
345.259	84.75
345.487	70.75
345.714	91.75
345.942	83.75
346.17	80.75
346.397	92.75
346.625	85.75
346.853	78.75
347.08	81.75
347.308	87.75
347.535	89.75
347.763	84.75
347.99	79.75
348.218	85.75
348.445	105.75
348.673	78.75
348.9	87.75
349.128	97.75
349.355	79.75
349.583	77.75
349.81	67.75
350.037	87.75
350.265	73.75
350.492	79.75
350.72	86.75
350.947	69.75
351.174	106.75
351.402	71.75
351.629	84.75
351.856	97.75
352.083	81.75
352.311	80.75
352.538	80.75
352.765	68.75
352.992	90.75
353.22	89.75
353.447	96.75
353.674	75.75
353.901	72.75
354.128	93.75
354.355	94.75
354.583	87.75
354.81	76.75
355.037	82.75
355.264	80.75
355.491	87.75
355.718	88.75
355.945	91.75
356.172	96.75
356.399	88.75
356.626	81.75
356.853	67.75
357.08	88.75
357.307	93.75
357.534	88.75
357.761	61.75
357.988	74.75
358.215	74.75
358.441	79.75
358.668	78.75
358.895	67.75
359.122	80.75
359.349	93.75
359.576	83.75
359.802	84.75
360.029	79.75
360.256	79.75
360.483	79.75
360.709	72.75
360.936	83.75
361.163	90.75
361.39	71.75
361.616	93.75
361.843	87.75
362.07	75.75
362.296	83.75
362.523	82.75
362.749	90.75
362.976	80.75
363.203	85.75
363.429	76.75
363.656	81.75
363.882	75.75
364.109	90.75
364.335	86.75
364.562	90.75
364.788	79.75
365.015	89.75
365.241	76.75
365.468	77.75
365.694	95.75
365.92	78.75
366.147	84.75
366.373	88.75
366.599	86.75
366.826	70.75
367.052	79.75
367.278	84.75
367.505	71.75
367.731	81.75
367.957	83.75
368.184	85.75
368.41	89.75
368.636	101.75
368.862	89.75
369.089	93.75
369.315	69.75
369.541	82.75
369.767	96.75
369.993	80.75
370.219	84.75
370.445	82.75
370.672	86.75
370.898	80.75
371.124	81.75
371.35	81.75
371.576	80.75
371.802	72.75
372.028	89.75
372.254	83.75
372.48	83.75
372.706	85.75
372.932	81.75
373.158	89.75
373.384	93.75
373.61	86.75
373.835	93.75
374.061	93.75
374.287	92.75
374.513	76.75
374.739	83.75
374.965	74.75
375.191	85.75
375.416	96.75
375.642	70.75
375.868	93.75
376.094	79.75
376.319	99.75
376.545	82.75
376.771	83.75
376.997	91.75
377.222	89.75
377.448	85.75
377.674	82.75
377.899	77.75
378.125	71.75
378.35	73.75
378.576	71.75
378.802	89.75
379.027	75.75
379.253	89.75
379.478	63.75
379.704	89.75
379.929	75.75
380.155	86.75
380.38	75.75
380.606	81.75
380.831	93.75
381.057	92.75
381.282	79.75
381.507	87.75
381.733	96.75
381.958	93.75
382.184	80.75
382.409	85.75
382.634	81.75
382.86	76.75
383.085	90.75
383.31	79.75
383.535	88.75
383.761	72.75
383.986	82.75
384.211	83.75
384.436	85.75
384.662	89.75
384.887	78.75
385.112	77.75
385.337	73.75
385.562	90.75
385.787	89.75
386.013	105.75
386.238	74.75
386.463	91.75
386.688	99.75
386.913	86.75
387.138	85.75
387.363	88.75
387.588	96.75
387.813	80.75
388.038	79.75
388.263	73.75
388.488	96.75
388.713	90.75
388.938	85.75
389.163	79.75
389.387	70.75
389.612	73.75
389.837	80.75
390.062	90.75
390.287	81.75
390.512	74.75
390.736	95.75
390.961	72.75
391.186	94.75
391.411	74.75
391.636	80.75
391.86	81.75
392.085	73.75
392.31	86.75
392.534	85.75
392.759	85.75
392.984	94.75
393.208	116.75
393.433	145.75
393.658	137.75
393.882	87.75
394.107	106.75
394.331	99.75
394.556	83.75
394.78	86.75
395.005	89.75
395.229	75.75
395.454	90.75
395.678	86.75
395.903	93.75
396.127	99.75
396.352	82.75
396.576	99.75
396.801	134.75
397.025	127.75
397.249	98.75
397.474	97.75
397.698	85.75
397.922	83.75
398.147	73.75
398.371	73.75
398.595	73.75
398.82	74.75
399.044	82.75
399.268	92.75
399.492	87.75
399.717	82.75
399.941	71.75
400.165	83.75
400.389	95.75
400.613	80.75
400.837	75.75
401.062	80.75
401.286	75.75
401.51	78.75
401.734	79.75
401.958	90.75
402.182	93.75
402.406	66.75
402.63	81.75
402.854	70.75
403.078	81.75
403.302	96.75
403.526	91.75
403.75	90.75
403.974	98.75
404.198	89.75
404.422	73.75
404.645	83.75
404.869	82.75
405.093	72.75
405.317	66.75
405.541	66.75
405.765	74.75
405.988	82.75
406.212	94.75
406.436	73.75
406.66	63.75
406.883	90.75
407.107	88.75
407.331	85.75
407.555	83.75
407.778	87.75
408.002	94.75
408.226	92.75
408.449	77.75
408.673	67.75
408.896	80.75
409.12	94.75
409.344	85.75
409.567	81.75
409.791	89.75
410.014	78.75
410.238	67.75
410.461	76.75
410.685	78.75
410.908	68.75
411.132	95.75
411.355	82.75
411.578	72.75
411.802	72.75
412.025	75.75
412.249	96.75
412.472	81.75
412.695	87.75
412.919	83.75
413.142	78.75
413.365	82.75
413.589	93.75
413.812	88.75
414.035	86.75
414.258	75.75
414.482	80.75
414.705	72.75
414.928	90.75
415.151	85.75
415.374	90.75
415.597	86.75
415.821	86.75
416.044	73.75
416.267	71.75
416.49	68.75
416.713	86.75
416.936	93.75
417.159	81.75
417.382	90.75
417.605	93.75
417.828	90.75
418.051	83.75
418.274	82.75
418.497	75.75
418.72	67.75
418.943	90.75
419.166	91.75
419.389	95.75
419.611	86.75
419.834	82.75
420.057	89.75
420.28	93.75
420.503	76.75
420.726	86.75
420.948	83.75
421.171	71.75
421.394	89.75
421.617	103.75
421.839	90.75
422.062	92.75
422.285	89.75
422.507	100.75
422.73	134.75
422.953	126.75
423.175	96.75
423.398	83.75
423.621	74.75
423.843	81.75
424.066	87.75
424.288	86.75
424.511	74.75
424.733	95.75
424.956	85.75
425.178	67.75
425.401	80.75
425.623	85.75
425.846	83.75
426.068	89.75
426.291	86.75
426.513	64.75
426.735	85.75
426.958	64.75
427.18	81.75
427.402	85.75
427.625	73.75
427.847	78.75
428.069	94.75
428.292	97.75
428.514	100.75
428.736	97.75
428.958	103.75
429.181	97.75
429.403	76.75
429.625	79.75
429.847	94.75
430.069	87.75
430.292	94.75
430.514	91.75
430.736	80.75
430.958	95.75
431.18	92.75
431.402	85.75
431.624	90.75
431.846	99.75
432.068	95.75
432.29	73.75
432.512	86.75
432.734	82.75
432.956	77.75
433.178	93.75
433.4	86.75
433.622	81.75
433.844	86.75
434.066	91.75
434.287	94.75
434.509	84.75
434.731	87.75
434.953	82.75
435.175	91.75
435.397	94.75
435.618	89.75
435.84	93.75
436.062	90.75
436.284	91.75
436.505	71.75
436.727	95.75
436.949	73.75
437.17	88.75
437.392	66.75
437.614	84.75
437.835	82.75
438.057	89.75
438.278	79.75
438.5	91.75
438.721	92.75
438.943	83.75
439.165	72.75
439.386	102.75
439.608	92.75
439.829	83.75
440.05	86.75
440.272	68.75
440.493	92.75
440.715	85.75
440.936	81.75
441.158	89.75
441.379	81.75
441.6	74.75
441.822	81.75
442.043	101.75
442.264	88.75
442.486	87.75
442.707	90.75
442.928	95.75
443.149	78.75
443.371	98.75
443.592	95.75
443.813	105.75
444.034	93.75
444.255	93.75
444.476	81.75
444.698	85.75
444.919	76.75
445.14	148.75
445.361	123.75
445.582	120.75
445.803	118.75
446.024	93.75
446.245	84.75
446.466	89.75
446.687	93.75
446.908	63.75
447.129	70.75
447.35	79.75
447.571	82.75
447.792	87.75
448.013	79.75
448.234	85.75
448.455	95.75
448.675	75.75
448.896	82.75
449.117	91.75
449.338	82.75
449.559	83.75
449.779	78.75
450	93.75
450.221	80.75
450.442	79.75
450.662	75.75
450.883	81.75
451.104	89.75
451.324	78.75
451.545	82.75
451.766	97.75
451.986	75.75
452.207	84.75
452.428	85.75
452.648	75.75
452.869	82.75
453.089	85.75
453.31	79.75
453.53	80.75
453.751	76.75
453.971	82.75
454.192	88.75
454.412	77.75
454.633	78.75
454.853	88.75
455.073	84.75
455.294	74.75
455.514	76.75
455.734	85.75
455.955	69.75
456.175	85.75
456.395	89.75
456.616	74.75
456.836	82.75
457.056	85.75
457.276	79.75
457.497	86.75
457.717	77.75
457.937	84.75
458.157	81.75
458.377	91.75
458.598	81.75
458.818	80.75
459.038	77.75
459.258	79.75
459.478	91.75
459.698	77.75
459.918	73.75
460.138	85.75
460.358	72.75
460.578	83.75
460.798	87.75
461.018	104.75
461.238	70.75
461.458	89.75
461.678	98.75
461.898	92.75
462.118	73.75
462.338	82.75
462.558	84.75
462.777	79.75
462.997	93.75
463.217	80.75
463.437	77.75
463.657	67.75
463.876	90.75
464.096	96.75
464.316	93.75
464.536	89.75
464.755	75.75
464.975	88.75
465.195	81.75
465.414	74.75
465.634	75.75
465.854	85.75
466.073	83.75
466.293	75.75
466.512	80.75
466.732	64.75
466.951	73.75
467.171	69.75
467.391	67.75
467.61	85.75
467.829	86.75
468.049	82.75
468.268	81.75
468.488	89.75
468.707	86.75
468.927	81.75
469.146	76.75
469.365	81.75
469.585	65.75
469.804	82.75
470.023	82.75
470.243	87.75
470.462	90.75
470.681	89.75
470.901	79.75
471.12	80.75
471.339	81.75
471.558	82.75
471.777	83.75
471.997	80.75
472.216	85.75
472.435	74.75
472.654	67.75
472.873	87.75
473.092	82.75
473.311	76.75
473.53	83.75
473.749	83.75
473.968	88.75
474.187	81.75
474.406	87.75
474.625	89.75
474.844	90.75
475.063	73.75
475.282	70.75
475.501	82.75
475.72	71.75
475.939	79.75
476.158	86.75
476.377	67.75
476.596	78.75
476.814	95.75
477.033	84.75
477.252	96.75
477.471	81.75
477.69	79.75
477.908	81.75
478.127	77.75
478.346	86.75
478.564	80.75
478.783	71.75
479.002	79.75
479.22	78.75
479.439	90.75
479.658	85.75
479.876	88.75
480.095	81.75
480.313	89.75
480.532	82.75
480.751	85.75
480.969	79.75
481.188	83.75
481.406	86.75
481.624	79.75
481.843	74.75
482.061	85.75
482.28	86.75
482.498	83.75
482.717	85.75
482.935	64.75
483.153	79.75
483.372	68.75
483.59	93.75
483.808	89.75
484.027	76.75
484.245	85.75
484.463	79.75
484.681	81.75
484.9	79.75
485.118	88.75
485.336	85.75
485.554	91.75
485.772	84.75
485.99	86.75
486.209	81.75
486.427	83.75
486.645	90.75
486.863	74.75
487.081	74.75
487.299	74.75
487.517	85.75
487.735	87.75
487.953	101.75
488.171	87.75
488.389	71.75
488.607	75.75
488.825	86.75
489.043	81.75
489.261	75.75
489.479	79.75
489.696	89.75
489.914	91.75
490.132	87.75
490.35	84.75
490.568	81.75
490.786	83.75
491.003	84.75
491.221	85.75
491.439	96.75
491.657	100.75
491.874	95.75
492.092	70.75
492.31	78.75
492.527	89.75
492.745	85.75
492.963	79.75
493.18	89.75
493.398	79.75
493.615	96.75
493.833	79.75
494.05	76.75
494.268	81.75
494.485	81.75
494.703	69.75
494.92	85.75
495.138	82.75
495.355	75.75
495.573	84.75
495.79	90.75
496.008	83.75
496.225	70.75
496.442	79.75
496.66	88.75
496.877	80.75
497.094	91.75
497.312	87.75
497.529	74.75
497.746	76.75
497.963	69.75
498.181	91.75
498.398	73.75
498.615	75.75
498.832	79.75
499.049	81.75
499.267	76.75
499.484	76.75
499.701	79.75
499.918	82.75
500.135	83.75
500.352	87.75
500.569	98.75
500.786	71.75
501.003	74.75
501.22	77.75
501.437	83.75
501.654	91.75
501.871	81.75
502.088	85.75
502.305	77.75
502.522	81.75
502.739	74.75
502.956	77.75
503.172	71.75
503.389	74.75
503.606	69.75
503.823	85.75
504.04	96.75
504.256	85.75
504.473	87.75
504.69	97.75
504.907	102.75
505.123	78.75
505.34	92.75
505.557	87.75
505.773	91.75
505.99	91.75
506.207	79.75
506.423	84.75
506.64	88.75
506.856	84.75
507.073	91.75
507.289	99.75
507.506	84.75
507.722	73.75
507.939	85.75
508.155	89.75
508.372	86.75
508.588	90.75
508.805	68.75
509.021	90.75
509.238	81.75
509.454	78.75
509.67	73.75
509.887	89.75
510.103	83.75
510.319	78.75
510.536	72.75
510.752	69.75
510.968	82.75
511.184	79.75
511.401	75.75
511.617	82.75
511.833	99.75
512.049	83.75
512.265	79.75
512.481	90.75
512.698	69.75
512.914	77.75
513.13	81.75
513.346	84.75
513.562	79.75
513.778	79.75
513.994	90.75
514.21	75.75
514.426	96.75
514.642	82.75
514.858	98.75
515.074	90.75
515.29	80.75
515.506	83.75
515.721	81.75
515.937	82.75
516.153	83.75
516.369	90.75
516.585	91.75
516.801	82.75
517.016	85.75
517.232	75.75
517.448	83.75
517.664	77.75
517.879	85.75
518.095	82.75
518.311	70.75
518.527	75.75
518.742	85.75
518.958	90.75
519.173	99.75
519.389	99.75
519.605	64.75
519.82	93.75
