Data from 17600_2_HRD10591_00022.txt Node
Date: Mon Jan 19 14:08:33 EST 2026
User: Yrep
Spectrometer: HR+D1059
Trigger mode: 1
Integration Time (sec): 1.000000E-1
Scans to average: 1
Electric dark correction enabled: true
Nonlinearity correction enabled: false
Boxcar width: 0
XAxis mode: Wavelengths
Number of Pixels in Spectrum: 2048
>>>>>Begin Spectral Data<<<<<
223.165	-16.19
223.4	-16.19
223.635	-16.19
223.869	-20.19
224.104	-23.19
224.338	-18.19
224.573	-10.19
224.808	-16.19
225.042	4.81
225.277	-8.19
225.511	1.81
225.746	4.81
225.98	10.81
226.215	17.81
226.449	19.81
226.683	28.81
226.918	14.81
227.152	8.81
227.387	18.81
227.621	35.81
227.856	27.81
228.09	36.81
228.324	44.81
228.559	57.81
228.793	56.81
229.027	64.81
229.262	58.81
229.496	57.81
229.73	75.81
229.964	69.81
230.199	65.81
230.433	80.81
230.667	67.81
230.901	67.81
231.136	76.81
231.37	76.81
231.604	80.81
231.838	70.81
232.072	83.81
232.306	71.81
232.541	89.81
232.775	73.81
233.009	89.81
233.243	73.81
233.477	80.81
233.711	80.81
233.945	76.81
234.179	68.81
234.413	74.81
234.647	74.81
234.881	71.81
235.115	88.81
235.349	79.81
235.583	83.81
235.817	83.81
236.051	78.81
236.285	77.81
236.519	80.81
236.753	77.81
236.987	72.81
237.221	68.81
237.455	73.81
237.689	81.81
237.922	83.81
238.156	83.81
238.39	79.81
238.624	62.81
238.858	76.81
239.091	57.81
239.325	90.81
239.559	76.81
239.793	66.81
240.027	78.81
240.26	68.81
240.494	72.81
240.728	74.81
240.961	83.81
241.195	84.81
241.429	65.81
241.662	79.81
241.896	77.81
242.13	84.81
242.363	71.81
242.597	85.81
242.83	71.81
243.064	67.81
243.298	78.81
243.531	74.81
243.765	88.81
243.998	71.81
244.232	70.81
244.465	77.81
244.699	78.81
244.932	71.81
245.166	79.81
245.399	77.81
245.633	77.81
245.866	92.81
246.099	82.81
246.333	74.81
246.566	82.81
246.8	73.81
247.033	71.81
247.266	76.81
247.5	65.81
247.733	82.81
247.966	75.81
248.2	87.81
248.433	74.81
248.666	71.81
248.899	63.81
249.133	73.81
249.366	87.81
249.599	65.81
249.832	63.81
250.066	85.81
250.299	83.81
250.532	76.81
250.765	68.81
250.998	80.81
251.231	71.81
251.465	77.81
251.698	84.81
251.931	72.81
252.164	67.81
252.397	79.81
252.63	71.81
252.863	83.81
253.096	72.81
253.329	83.81
253.562	73.81
253.795	81.81
254.028	77.81
254.261	94.81
254.494	90.81
254.727	82.81
254.96	77.81
255.193	81.81
255.426	72.81
255.659	85.81
255.892	96.81
256.124	76.81
256.357	77.81
256.59	76.81
256.823	80.81
257.056	85.81
257.289	70.81
257.521	71.81
257.754	75.81
257.987	81.81
258.22	85.81
258.452	74.81
258.685	73.81
258.918	75.81
259.151	79.81
259.383	77.81
259.616	86.81
259.849	77.81
260.081	91.81
260.314	74.81
260.547	81.81
260.779	97.81
261.012	92.81
261.244	81.81
261.477	86.81
261.71	73.81
261.942	73.81
262.175	83.81
262.407	76.81
262.64	85.81
262.872	80.81
263.105	85.81
263.337	77.81
263.57	84.81
263.802	78.81
264.035	90.81
264.267	79.81
264.499	73.81
264.732	67.81
264.964	78.81
265.197	71.81
265.429	77.81
265.661	77.81
265.894	75.81
266.126	80.81
266.358	84.81
266.591	78.81
266.823	88.81
267.055	80.81
267.287	72.81
267.52	57.81
267.752	85.81
267.984	93.81
268.216	83.81
268.448	71.81
268.681	79.81
268.913	81.81
269.145	88.81
269.377	65.81
269.609	70.81
269.841	69.81
270.073	73.81
270.306	78.81
270.538	83.81
270.77	77.81
271.002	80.81
271.234	83.81
271.466	87.81
271.698	81.81
271.93	88.81
272.162	73.81
272.394	68.81
272.626	65.81
272.858	88.81
273.09	69.81
273.322	87.81
273.553	66.81
273.785	89.81
274.017	83.81
274.249	80.81
274.481	84.81
274.713	91.81
274.945	86.81
275.176	87.81
275.408	91.81
275.64	88.81
275.872	83.81
276.104	85.81
276.335	79.81
276.567	84.81
276.799	75.81
277.031	85.81
277.262	87.81
277.494	95.81
277.726	78.81
277.957	78.81
278.189	77.81
278.421	80.81
278.652	82.81
278.884	79.81
279.115	81.81
279.347	98.81
279.579	93.81
279.81	81.81
280.042	79.81
280.273	82.81
280.505	79.81
280.736	86.81
280.968	90.81
281.199	96.81
281.431	73.81
281.662	85.81
281.894	89.81
282.125	82.81
282.356	96.81
282.588	79.81
282.819	78.81
283.051	91.81
283.282	81.81
283.513	84.81
283.745	78.81
283.976	90.81
284.207	80.81
284.439	87.81
284.67	70.81
284.901	86.81
285.132	80.81
285.364	84.81
285.595	85.81
285.826	86.81
286.057	79.81
286.288	71.81
286.52	88.81
286.751	71.81
286.982	83.81
287.213	81.81
287.444	83.81
287.675	82.81
287.906	77.81
288.138	94.81
288.369	75.81
288.6	91.81
288.831	79.81
289.062	91.81
289.293	70.81
289.524	76.81
289.755	78.81
289.986	92.81
290.217	69.81
290.448	83.81
290.679	84.81
290.91	85.81
291.141	76.81
291.371	69.81
291.602	93.81
291.833	94.81
292.064	67.81
292.295	88.81
292.526	79.81
292.757	78.81
292.987	62.81
293.218	78.81
293.449	91.81
293.68	83.81
293.91	87.81
294.141	76.81
294.372	83.81
294.603	92.81
294.833	95.81
295.064	85.81
295.295	88.81
295.525	80.81
295.756	84.81
295.987	72.81
296.217	74.81
296.448	89.81
296.679	95.81
296.909	79.81
297.14	71.81
297.37	77.81
297.601	83.81
297.831	77.81
298.062	85.81
298.292	85.81
298.523	84.81
298.753	80.81
298.984	86.81
299.214	79.81
299.445	80.81
299.675	80.81
299.905	80.81
300.136	85.81
300.366	82.81
300.597	92.81
300.827	77.81
301.057	77.81
301.288	86.81
301.518	94.81
301.748	75.81
301.979	88.81
302.209	87.81
302.439	79.81
302.669	77.81
302.9	93.81
303.13	83.81
303.36	81.81
303.59	96.81
303.82	73.81
304.051	81.81
304.281	87.81
304.511	103.81
304.741	72.81
304.971	95.81
305.201	73.81
305.431	80.81
305.661	77.81
305.891	68.81
306.121	99.81
306.352	96.81
306.582	82.81
306.812	83.81
307.042	69.81
307.272	77.81
307.502	85.81
307.731	89.81
307.961	83.81
308.191	76.81
308.421	79.81
308.651	74.81
308.881	71.81
309.111	83.81
309.341	93.81
309.571	88.81
309.8	93.81
310.03	95.81
310.26	77.81
310.49	78.81
310.72	88.81
310.949	96.81
311.179	84.81
311.409	84.81
311.639	81.81
311.868	86.81
312.098	83.81
312.328	81.81
312.557	74.81
312.787	91.81
313.017	87.81
313.246	87.81
313.476	77.81
313.706	76.81
313.935	80.81
314.165	94.81
314.394	86.81
314.624	77.81
314.853	74.81
315.083	79.81
315.312	95.81
315.542	95.81
315.771	83.81
316.001	94.81
316.23	85.81
316.46	98.81
316.689	72.81
316.919	67.81
317.148	66.81
317.377	80.81
317.607	81.81
317.836	85.81
318.065	81.81
318.295	94.81
318.524	86.81
318.753	81.81
318.983	96.81
319.212	87.81
319.441	78.81
319.67	79.81
319.9	87.81
320.129	91.81
320.358	80.81
320.587	81.81
320.816	93.81
321.046	110.81
321.275	87.81
321.504	91.81
321.733	76.81
321.962	75.81
322.191	91.81
322.42	84.81
322.649	80.81
322.878	77.81
323.108	72.81
323.337	83.81
323.566	77.81
323.795	92.81
324.024	79.81
324.253	90.81
324.482	71.81
324.71	99.81
324.939	82.81
325.168	73.81
325.397	83.81
325.626	79.81
325.855	80.81
326.084	70.81
326.313	91.81
326.542	75.81
326.77	78.81
326.999	80.81
327.228	74.81
327.457	72.81
327.686	88.81
327.914	96.81
328.143	91.81
328.372	88.81
328.6	86.81
328.829	92.81
329.058	93.81
329.287	82.81
329.515	83.81
329.744	77.81
329.972	80.81
330.201	73.81
330.43	79.81
330.658	79.81
330.887	78.81
331.115	90.81
331.344	90.81
331.572	104.81
331.801	89.81
332.03	100.81
332.258	74.81
332.486	82.81
332.715	75.81
332.943	93.81
333.172	81.81
333.4	90.81
333.629	77.81
333.857	82.81
334.085	97.81
334.314	82.81
334.542	89.81
334.771	93.81
334.999	80.81
335.227	81.81
335.455	92.81
335.684	89.81
335.912	86.81
336.14	89.81
336.369	92.81
336.597	83.81
336.825	70.81
337.053	88.81
337.281	90.81
337.51	86.81
337.738	73.81
337.966	68.81
338.194	87.81
338.422	81.81
338.65	86.81
338.878	81.81
339.106	78.81
339.334	80.81
339.562	89.81
339.79	82.81
340.018	84.81
340.246	81.81
340.474	82.81
340.702	71.81
340.93	74.81
341.158	89.81
341.386	74.81
341.614	76.81
341.842	73.81
342.07	75.81
342.298	77.81
342.526	81.81
342.754	84.81
342.981	79.81
343.209	83.81
343.437	92.81
343.665	77.81
343.893	93.81
344.12	96.81
344.348	86.81
344.576	83.81
344.804	82.81
345.031	87.81
345.259	76.81
345.487	84.81
345.714	84.81
345.942	78.81
346.17	94.81
346.397	99.81
346.625	71.81
346.853	75.81
347.08	80.81
347.308	87.81
347.535	96.81
347.763	83.81
347.99	84.81
348.218	75.81
348.445	85.81
348.673	81.81
348.9	86.81
349.128	75.81
349.355	87.81
349.583	80.81
349.81	91.81
350.037	91.81
350.265	75.81
350.492	74.81
350.72	99.81
350.947	78.81
351.174	89.81
351.402	86.81
351.629	77.81
351.856	80.81
352.083	86.81
352.311	76.81
352.538	82.81
352.765	86.81
352.992	89.81
353.22	80.81
353.447	94.81
353.674	69.81
353.901	83.81
354.128	79.81
354.355	82.81
354.583	88.81
354.81	90.81
355.037	92.81
355.264	88.81
355.491	80.81
355.718	80.81
355.945	84.81
356.172	74.81
356.399	87.81
356.626	86.81
356.853	95.81
357.08	86.81
357.307	103.81
357.534	70.81
357.761	72.81
357.988	99.81
358.215	87.81
358.441	87.81
358.668	88.81
358.895	84.81
359.122	82.81
359.349	87.81
359.576	83.81
359.802	87.81
360.029	108.81
360.256	99.81
360.483	79.81
360.709	81.81
360.936	100.81
361.163	95.81
361.39	83.81
361.616	85.81
361.843	78.81
362.07	87.81
362.296	99.81
362.523	70.81
362.749	98.81
362.976	84.81
363.203	113.81
363.429	99.81
363.656	93.81
363.882	80.81
364.109	96.81
364.335	97.81
364.562	114.81
364.788	104.81
365.015	78.81
365.241	96.81
365.468	84.81
365.694	79.81
365.92	94.81
366.147	82.81
366.373	84.81
366.599	86.81
366.826	81.81
367.052	79.81
367.278	87.81
367.505	85.81
367.731	85.81
367.957	74.81
368.184	91.81
368.41	85.81
368.636	81.81
368.862	91.81
369.089	83.81
369.315	79.81
369.541	83.81
369.767	83.81
369.993	82.81
370.219	85.81
370.445	91.81
370.672	77.81
370.898	89.81
371.124	72.81
371.35	68.81
371.576	85.81
371.802	98.81
372.028	88.81
372.254	92.81
372.48	79.81
372.706	89.81
372.932	88.81
373.158	81.81
373.384	104.81
373.61	108.81
373.835	95.81
374.061	92.81
374.287	67.81
374.513	86.81
374.739	80.81
374.965	85.81
375.191	80.81
375.416	86.81
375.642	69.81
375.868	87.81
376.094	82.81
376.319	93.81
376.545	99.81
376.771	80.81
376.997	87.81
377.222	88.81
377.448	84.81
377.674	78.81
377.899	74.81
378.125	87.81
378.35	72.81
378.576	85.81
378.802	70.81
379.027	82.81
379.253	86.81
379.478	86.81
379.704	81.81
379.929	85.81
380.155	80.81
380.38	96.81
380.606	85.81
380.831	93.81
381.057	80.81
381.282	78.81
381.507	82.81
381.733	99.81
381.958	84.81
382.184	82.81
382.409	81.81
382.634	91.81
382.86	89.81
383.085	96.81
383.31	78.81
383.535	90.81
383.761	96.81
383.986	73.81
384.211	86.81
384.436	81.81
384.662	85.81
384.887	93.81
385.112	84.81
385.337	80.81
385.562	100.81
385.787	94.81
386.013	85.81
386.238	89.81
386.463	93.81
386.688	85.81
386.913	84.81
387.138	102.81
387.363	85.81
387.588	86.81
387.813	92.81
388.038	89.81
388.263	83.81
388.488	91.81
388.713	89.81
388.938	82.81
389.163	74.81
389.387	83.81
389.612	72.81
389.837	71.81
390.062	86.81
390.287	77.81
390.512	87.81
390.736	78.81
390.961	74.81
391.186	89.81
391.411	87.81
391.636	86.81
391.86	84.81
392.085	84.81
392.31	87.81
392.534	104.81
392.759	103.81
392.984	160.81
393.208	217.81
393.433	319.81
393.658	247.81
393.882	141.81
394.107	98.81
394.331	99.81
394.556	92.81
394.78	89.81
395.005	95.81
395.229	78.81
395.454	91.81
395.678	107.81
395.903	105.81
396.127	126.81
396.352	131.81
396.576	136.81
396.801	219.81
397.025	259.81
397.249	165.81
397.474	108.81
397.698	108.81
397.922	93.81
398.147	86.81
398.371	89.81
398.595	85.81
398.82	77.81
399.044	75.81
399.268	73.81
399.492	79.81
399.717	93.81
399.941	88.81
400.165	96.81
400.389	80.81
400.613	82.81
400.837	83.81
401.062	84.81
401.286	70.81
401.51	75.81
401.734	81.81
401.958	78.81
402.182	71.81
402.406	73.81
402.63	74.81
402.854	85.81
403.078	79.81
403.302	82.81
403.526	75.81
403.75	72.81
403.974	86.81
404.198	81.81
404.422	82.81
404.645	75.81
404.869	80.81
405.093	88.81
405.317	66.81
405.541	91.81
405.765	73.81
405.988	73.81
406.212	83.81
406.436	79.81
406.66	87.81
406.883	84.81
407.107	72.81
407.331	78.81
407.555	75.81
407.778	93.81
408.002	113.81
408.226	80.81
408.449	88.81
408.673	92.81
408.896	86.81
409.12	82.81
409.344	75.81
409.567	80.81
409.791	73.81
410.014	96.81
410.238	87.81
410.461	91.81
410.685	74.81
410.908	79.81
411.132	91.81
411.355	75.81
411.578	87.81
411.802	83.81
412.025	82.81
412.249	79.81
412.472	99.81
412.695	92.81
412.919	77.81
413.142	83.81
413.365	69.81
413.589	100.81
413.812	81.81
414.035	87.81
414.258	97.81
414.482	76.81
414.705	86.81
414.928	91.81
415.151	80.81
415.374	76.81
415.597	77.81
415.821	74.81
416.044	88.81
416.267	75.81
416.49	80.81
416.713	89.81
416.936	79.81
417.159	77.81
417.382	68.81
417.605	79.81
417.828	85.81
418.051	71.81
418.274	63.81
418.497	75.81
418.72	93.81
418.943	83.81
419.166	79.81
419.389	72.81
419.611	81.81
419.834	78.81
420.057	96.81
420.28	95.81
420.503	98.81
420.726	90.81
420.948	91.81
421.171	79.81
421.394	100.81
421.617	109.81
421.839	107.81
422.062	109.81
422.285	139.81
422.507	222.81
422.73	335.81
422.953	274.81
423.175	152.81
423.398	104.81
423.621	108.81
423.843	81.81
424.066	83.81
424.288	82.81
424.511	93.81
424.733	81.81
424.956	76.81
425.178	92.81
425.401	71.81
425.623	93.81
425.846	85.81
426.068	78.81
426.291	85.81
426.513	82.81
426.735	79.81
426.958	99.81
427.18	81.81
427.402	76.81
427.625	90.81
427.847	87.81
428.069	107.81
428.292	95.81
428.514	113.81
428.736	96.81
428.958	107.81
429.181	112.81
429.403	76.81
429.625	96.81
429.847	118.81
430.069	129.81
430.292	143.81
430.514	148.81
430.736	115.81
430.958	119.81
431.18	89.81
431.402	87.81
431.624	88.81
431.846	102.81
432.068	122.81
432.29	82.81
432.512	83.81
432.734	79.81
432.956	77.81
433.178	92.81
433.4	80.81
433.622	89.81
433.844	82.81
434.066	81.81
434.287	86.81
434.509	79.81
434.731	87.81
434.953	79.81
435.175	82.81
435.397	80.81
435.618	97.81
435.84	67.81
436.062	71.81
436.284	72.81
436.505	80.81
436.727	68.81
436.949	83.81
437.17	65.81
437.392	73.81
437.614	73.81
437.835	72.81
438.057	73.81
438.278	71.81
438.5	89.81
438.721	81.81
438.943	92.81
439.165	80.81
439.386	76.81
439.608	81.81
439.829	77.81
440.05	72.81
440.272	79.81
440.493	84.81
440.715	77.81
440.936	97.81
441.158	86.81
441.379	91.81
441.6	84.81
441.822	83.81
442.043	80.81
442.264	81.81
442.486	120.81
442.707	135.81
442.928	111.81
443.149	111.81
443.371	113.81
443.592	187.81
443.813	159.81
444.034	95.81
444.255	84.81
444.476	90.81
444.698	67.81
444.919	100.81
445.14	175.81
445.361	175.81
445.582	216.81
445.803	180.81
446.024	105.81
446.245	83.81
446.466	73.81
446.687	83.81
446.908	91.81
447.129	92.81
447.35	75.81
447.571	69.81
447.792	79.81
448.013	79.81
448.234	79.81
448.455	83.81
448.675	68.81
448.896	64.81
449.117	83.81
449.338	73.81
449.559	78.81
449.779	65.81
450	74.81
450.221	81.81
450.442	74.81
450.662	86.81
450.883	80.81
451.104	86.81
451.324	82.81
451.545	86.81
451.766	75.81
451.986	82.81
452.207	80.81
452.428	88.81
452.648	87.81
452.869	103.81
453.089	81.81
453.31	92.81
453.53	92.81
453.751	62.81
453.971	78.81
454.192	77.81
454.412	84.81
454.633	95.81
454.853	87.81
455.073	78.81
455.294	75.81
455.514	83.81
455.734	77.81
455.955	77.81
456.175	80.81
456.395	75.81
456.616	77.81
456.836	71.81
457.056	77.81
457.276	91.81
457.497	80.81
457.717	86.81
457.937	94.81
458.157	84.81
458.377	107.81
458.598	97.81
458.818	113.81
459.038	85.81
459.258	80.81
459.478	97.81
459.698	79.81
459.918	80.81
460.138	92.81
460.358	77.81
460.578	85.81
460.798	111.81
461.018	110.81
461.238	85.81
461.458	75.81
461.678	87.81
461.898	94.81
462.118	82.81
462.338	75.81
462.558	90.81
462.777	82.81
462.997	70.81
463.217	67.81
463.437	78.81
463.657	72.81
463.876	74.81
464.096	83.81
464.316	72.81
464.536	81.81
464.755	79.81
464.975	82.81
465.195	79.81
465.414	78.81
465.634	89.81
465.854	60.81
466.073	77.81
466.293	81.81
466.512	75.81
466.732	74.81
466.951	68.81
467.171	81.81
467.391	83.81
467.61	61.81
467.829	76.81
468.049	80.81
468.268	84.81
468.488	87.81
468.707	89.81
468.927	83.81
469.146	89.81
469.365	83.81
469.585	72.81
469.804	100.81
470.023	82.81
470.243	89.81
470.462	90.81
470.681	88.81
470.901	81.81
471.12	91.81
471.339	82.81
471.558	80.81
471.777	67.81
471.997	91.81
472.216	86.81
472.435	83.81
472.654	77.81
472.873	86.81
473.092	79.81
473.311	80.81
473.53	86.81
473.749	74.81
473.968	100.81
474.187	95.81
474.406	84.81
474.625	85.81
474.844	83.81
475.063	60.81
475.282	82.81
475.501	93.81
475.72	90.81
475.939	79.81
476.158	67.81
476.377	63.81
476.596	77.81
476.814	77.81
477.033	81.81
477.252	80.81
477.471	81.81
477.69	80.81
477.908	82.81
478.127	84.81
478.346	79.81
478.564	67.81
478.783	76.81
479.002	83.81
479.22	80.81
479.439	82.81
479.658	87.81
479.876	78.81
480.095	62.81
480.313	72.81
480.532	78.81
480.751	84.81
480.969	72.81
481.188	80.81
481.406	88.81
481.624	78.81
481.843	76.81
482.061	96.81
482.28	93.81
482.498	85.81
482.717	86.81
482.935	90.81
483.153	69.81
483.372	75.81
483.59	88.81
483.808	74.81
484.027	73.81
484.245	87.81
484.463	81.81
484.681	82.81
484.9	85.81
485.118	81.81
485.336	83.81
485.554	75.81
485.772	81.81
485.99	77.81
486.209	69.81
486.427	84.81
486.645	82.81
486.863	82.81
487.081	82.81
487.299	86.81
487.517	87.81
487.735	79.81
487.953	132.81
488.171	123.81
488.389	85.81
488.607	106.81
488.825	81.81
489.043	79.81
489.261	77.81
489.479	90.81
489.696	77.81
489.914	86.81
490.132	74.81
490.35	81.81
490.568	81.81
490.786	83.81
491.003	89.81
491.221	82.81
491.439	71.81
491.657	79.81
491.874	83.81
492.092	69.81
492.31	73.81
492.527	100.81
492.745	70.81
492.963	80.81
493.18	86.81
493.398	88.81
493.615	69.81
493.833	77.81
494.05	65.81
494.268	83.81
494.485	92.81
494.703	98.81
494.92	79.81
495.138	80.81
495.355	87.81
495.573	68.81
495.79	81.81
496.008	89.81
496.225	88.81
496.442	87.81
496.66	83.81
496.877	78.81
497.094	96.81
497.312	87.81
497.529	88.81
497.746	80.81
497.963	81.81
498.181	81.81
498.398	92.81
498.615	84.81
498.832	78.81
499.049	83.81
499.267	91.81
499.484	63.81
499.701	87.81
499.918	77.81
500.135	87.81
500.352	76.81
500.569	71.81
500.786	87.81
501.003	85.81
501.22	81.81
501.437	92.81
501.654	96.81
501.871	71.81
502.088	80.81
502.305	89.81
502.522	79.81
502.739	93.81
502.956	99.81
503.172	91.81
503.389	90.81
503.606	88.81
503.823	78.81
504.04	82.81
504.256	110.81
504.473	118.81
504.69	76.81
504.907	93.81
505.123	80.81
505.34	86.81
505.557	78.81
505.773	80.81
505.99	77.81
506.207	98.81
506.423	77.81
506.64	75.81
506.856	75.81
507.073	72.81
507.289	77.81
507.506	81.81
507.722	79.81
507.939	88.81
508.155	67.81
508.372	77.81
508.588	84.81
508.805	74.81
509.021	92.81
509.238	79.81
509.454	80.81
509.67	72.81
509.887	101.81
510.103	80.81
510.319	88.81
510.536	100.81
510.752	79.81
510.968	83.81
511.184	91.81
511.401	85.81
511.617	89.81
511.833	90.81
512.049	84.81
512.265	93.81
512.481	80.81
512.698	87.81
512.914	80.81
513.13	83.81
513.346	80.81
513.562	82.81
513.778	72.81
513.994	88.81
514.21	86.81
514.426	87.81
514.642	78.81
514.858	85.81
515.074	93.81
515.29	97.81
515.506	71.81
515.721	71.81
515.937	90.81
516.153	72.81
516.369	84.81
516.585	88.81
516.801	90.81
517.016	94.81
517.232	81.81
517.448	76.81
517.664	73.81
517.879	80.81
518.095	105.81
518.311	87.81
518.527	116.81
518.742	93.81
518.958	121.81
