Data from 17600_2_HRD10591_00025.txt Node
Date: Mon Jan 19 14:08:35 EST 2026
User: Yrep
Spectrometer: HR+D1059
Trigger mode: 1
Integration Time (sec): 1.000000E-1
Scans to average: 1
Electric dark correction enabled: true
Nonlinearity correction enabled: false
Boxcar width: 0
XAxis mode: Wavelengths
Number of Pixels in Spectrum: 2048
>>>>>Begin Spectral Data<<<<<
223.165	-14.75
223.4	-14.75
223.635	-14.75
223.869	-19.75
224.104	-25.75
224.338	-18.75
224.573	-11.75
224.808	-11.75
225.042	-2.75
225.277	-16.75
225.511	-8.75
225.746	-1.75
225.98	6.25
226.215	27.25
226.449	25.25
226.683	22.25
226.918	26.25
227.152	25.25
227.387	24.25
227.621	35.25
227.856	44.25
228.09	46.25
228.324	52.25
228.559	55.25
228.793	63.25
229.027	55.25
229.262	52.25
229.496	65.25
229.73	56.25
229.964	75.25
230.199	71.25
230.433	62.25
230.667	63.25
230.901	72.25
231.136	84.25
231.37	72.25
231.604	83.25
231.838	76.25
232.072	85.25
232.306	75.25
232.541	78.25
232.775	87.25
233.009	94.25
233.243	68.25
233.477	81.25
233.711	66.25
233.945	70.25
234.179	78.25
234.413	73.25
234.647	73.25
234.881	80.25
235.115	75.25
235.349	78.25
235.583	78.25
235.817	72.25
236.051	66.25
236.285	80.25
236.519	73.25
236.753	73.25
236.987	71.25
237.221	59.25
237.455	79.25
237.689	85.25
237.922	82.25
238.156	76.25
238.39	64.25
238.624	68.25
238.858	92.25
239.091	60.25
239.325	71.25
239.559	64.25
239.793	96.25
240.027	73.25
240.26	74.25
240.494	77.25
240.728	68.25
240.961	71.25
241.195	78.25
241.429	73.25
241.662	70.25
241.896	81.25
242.13	74.25
242.363	84.25
242.597	74.25
242.83	68.25
243.064	67.25
243.298	77.25
243.531	72.25
243.765	85.25
243.998	79.25
244.232	80.25
244.465	75.25
244.699	74.25
244.932	76.25
245.166	66.25
245.399	72.25
245.633	78.25
245.866	75.25
246.099	54.25
246.333	72.25
246.566	73.25
246.8	74.25
247.033	67.25
247.266	69.25
247.5	77.25
247.733	80.25
247.966	83.25
248.2	80.25
248.433	76.25
248.666	67.25
248.899	82.25
249.133	80.25
249.366	78.25
249.599	83.25
249.832	84.25
250.066	69.25
250.299	85.25
250.532	81.25
250.765	81.25
250.998	70.25
251.231	64.25
251.465	90.25
251.698	105.25
251.931	79.25
252.164	84.25
252.397	87.25
252.63	83.25
252.863	72.25
253.096	72.25
253.329	65.25
253.562	70.25
253.795	80.25
254.028	82.25
254.261	73.25
254.494	78.25
254.727	96.25
254.96	76.25
255.193	70.25
255.426	58.25
255.659	67.25
255.892	83.25
256.124	83.25
256.357	80.25
256.59	75.25
256.823	70.25
257.056	70.25
257.289	88.25
257.521	83.25
257.754	81.25
257.987	80.25
258.22	85.25
258.452	71.25
258.685	88.25
258.918	81.25
259.151	66.25
259.383	85.25
259.616	79.25
259.849	83.25
260.081	86.25
260.314	86.25
260.547	69.25
260.779	70.25
261.012	66.25
261.244	74.25
261.477	82.25
261.71	74.25
261.942	72.25
262.175	79.25
262.407	68.25
262.64	83.25
262.872	86.25
263.105	82.25
263.337	72.25
263.57	86.25
263.802	78.25
264.035	93.25
264.267	75.25
264.499	67.25
264.732	72.25
264.964	81.25
265.197	82.25
265.429	80.25
265.661	77.25
265.894	71.25
266.126	74.25
266.358	72.25
266.591	79.25
266.823	72.25
267.055	93.25
267.287	85.25
267.52	82.25
267.752	92.25
267.984	82.25
268.216	68.25
268.448	82.25
268.681	78.25
268.913	93.25
269.145	74.25
269.377	77.25
269.609	82.25
269.841	80.25
270.073	70.25
270.306	60.25
270.538	79.25
270.77	68.25
271.002	81.25
271.234	89.25
271.466	86.25
271.698	73.25
271.93	86.25
272.162	61.25
272.394	88.25
272.626	85.25
272.858	90.25
273.09	72.25
273.322	83.25
273.553	95.25
273.785	85.25
274.017	78.25
274.249	86.25
274.481	84.25
274.713	86.25
274.945	85.25
275.176	84.25
275.408	80.25
275.64	86.25
275.872	94.25
276.104	81.25
276.335	81.25
276.567	67.25
276.799	78.25
277.031	72.25
277.262	95.25
277.494	80.25
277.726	70.25
277.957	81.25
278.189	81.25
278.421	88.25
278.652	99.25
278.884	94.25
279.115	82.25
279.347	78.25
279.579	95.25
279.81	100.25
280.042	92.25
280.273	81.25
280.505	97.25
280.736	88.25
280.968	72.25
281.199	93.25
281.431	91.25
281.662	85.25
281.894	72.25
282.125	87.25
282.356	72.25
282.588	83.25
282.819	84.25
283.051	68.25
283.282	79.25
283.513	98.25
283.745	86.25
283.976	79.25
284.207	68.25
284.439	83.25
284.67	85.25
284.901	95.25
285.132	93.25
285.364	98.25
285.595	85.25
285.826	80.25
286.057	52.25
286.288	88.25
286.52	93.25
286.751	78.25
286.982	69.25
287.213	83.25
287.444	92.25
287.675	92.25
287.906	81.25
288.138	80.25
288.369	89.25
288.6	87.25
288.831	82.25
289.062	86.25
289.293	84.25
289.524	81.25
289.755	78.25
289.986	75.25
290.217	75.25
290.448	72.25
290.679	80.25
290.91	82.25
291.141	82.25
291.371	88.25
291.602	87.25
291.833	81.25
292.064	96.25
292.295	91.25
292.526	75.25
292.757	82.25
292.987	94.25
293.218	82.25
293.449	72.25
293.68	78.25
293.91	92.25
294.141	97.25
294.372	74.25
294.603	83.25
294.833	82.25
295.064	89.25
295.295	99.25
295.525	86.25
295.756	101.25
295.987	75.25
296.217	88.25
296.448	97.25
296.679	88.25
296.909	90.25
297.14	94.25
297.37	85.25
297.601	88.25
297.831	81.25
298.062	72.25
298.292	92.25
298.523	76.25
298.753	102.25
298.984	84.25
299.214	82.25
299.445	96.25
299.675	98.25
299.905	99.25
300.136	82.25
300.366	101.25
300.597	99.25
300.827	110.25
301.057	88.25
301.288	84.25
301.518	85.25
301.748	85.25
301.979	95.25
302.209	103.25
302.439	86.25
302.669	86.25
302.9	89.25
303.13	97.25
303.36	92.25
303.59	96.25
303.82	95.25
304.051	81.25
304.281	87.25
304.511	87.25
304.741	96.25
304.971	78.25
305.201	77.25
305.431	72.25
305.661	90.25
305.891	88.25
306.121	77.25
306.352	83.25
306.582	81.25
306.812	79.25
307.042	102.25
307.272	84.25
307.502	82.25
307.731	92.25
307.961	69.25
308.191	101.25
308.421	94.25
308.651	91.25
308.881	94.25
309.111	111.25
309.341	119.25
309.571	117.25
309.8	98.25
310.03	97.25
310.26	90.25
310.49	86.25
310.72	87.25
310.949	81.25
311.179	79.25
311.409	89.25
311.639	94.25
311.868	90.25
312.098	83.25
312.328	84.25
312.557	90.25
312.787	83.25
313.017	86.25
313.246	89.25
313.476	90.25
313.706	86.25
313.935	90.25
314.165	78.25
314.394	92.25
314.624	76.25
314.853	88.25
315.083	90.25
315.312	92.25
315.542	108.25
315.771	114.25
316.001	110.25
316.23	88.25
316.46	92.25
316.689	84.25
316.919	88.25
317.148	81.25
317.377	119.25
317.607	103.25
317.836	120.25
318.065	152.25
318.295	124.25
318.524	98.25
318.753	86.25
318.983	88.25
319.212	81.25
319.441	94.25
319.67	83.25
319.9	95.25
320.129	100.25
320.358	86.25
320.587	94.25
320.816	89.25
321.046	87.25
321.275	89.25
321.504	100.25
321.733	99.25
321.962	90.25
322.191	95.25
322.42	80.25
322.649	92.25
322.878	86.25
323.108	90.25
323.337	100.25
323.566	94.25
323.795	81.25
324.024	95.25
324.253	92.25
324.482	64.25
324.71	85.25
324.939	75.25
325.168	99.25
325.397	79.25
325.626	81.25
325.855	84.25
326.084	95.25
326.313	90.25
326.542	86.25
326.77	90.25
326.999	83.25
327.228	89.25
327.457	82.25
327.686	95.25
327.914	87.25
328.143	89.25
328.372	83.25
328.6	87.25
328.829	84.25
329.058	87.25
329.287	79.25
329.515	67.25
329.744	93.25
329.972	85.25
330.201	92.25
330.43	92.25
330.658	85.25
330.887	80.25
331.115	76.25
331.344	96.25
331.572	96.25
331.801	87.25
332.03	72.25
332.258	83.25
332.486	78.25
332.715	90.25
332.943	94.25
333.172	83.25
333.4	88.25
333.629	83.25
333.857	89.25
334.085	98.25
334.314	104.25
334.542	111.25
334.771	102.25
334.999	99.25
335.227	103.25
335.455	104.25
335.684	109.25
335.912	114.25
336.14	121.25
336.369	135.25
336.597	100.25
336.825	94.25
337.053	93.25
337.281	83.25
337.51	103.25
337.738	94.25
337.966	73.25
338.194	76.25
338.422	78.25
338.65	98.25
338.878	85.25
339.106	88.25
339.334	74.25
339.562	88.25
339.79	91.25
340.018	94.25
340.246	89.25
340.474	88.25
340.702	96.25
340.93	96.25
341.158	92.25
341.386	90.25
341.614	91.25
341.842	79.25
342.07	84.25
342.298	95.25
342.526	92.25
342.754	91.25
342.981	83.25
343.209	72.25
343.437	102.25
343.665	90.25
343.893	95.25
344.12	101.25
344.348	97.25
344.576	92.25
344.804	92.25
345.031	101.25
345.259	89.25
345.487	92.25
345.714	80.25
345.942	83.25
346.17	90.25
346.397	92.25
346.625	92.25
346.853	103.25
347.08	90.25
347.308	83.25
347.535	78.25
347.763	81.25
347.99	102.25
348.218	81.25
348.445	91.25
348.673	92.25
348.9	82.25
349.128	92.25
349.355	84.25
349.583	91.25
349.81	77.25
350.037	74.25
350.265	92.25
350.492	92.25
350.72	83.25
350.947	89.25
351.174	98.25
351.402	94.25
351.629	90.25
351.856	89.25
352.083	85.25
352.311	87.25
352.538	82.25
352.765	96.25
352.992	92.25
353.22	81.25
353.447	87.25
353.674	87.25
353.901	111.25
354.128	96.25
354.355	81.25
354.583	88.25
354.81	93.25
355.037	80.25
355.264	99.25
355.491	85.25
355.718	97.25
355.945	87.25
356.172	96.25
356.399	104.25
356.626	100.25
356.853	108.25
357.08	100.25
357.307	113.25
357.534	96.25
357.761	86.25
357.988	102.25
358.215	112.25
358.441	112.25
358.668	95.25
358.895	103.25
359.122	85.25
359.349	100.25
359.576	102.25
359.802	91.25
360.029	82.25
360.256	91.25
360.483	77.25
360.709	101.25
360.936	95.25
361.163	104.25
361.39	78.25
361.616	103.25
361.843	104.25
362.07	120.25
362.296	114.25
362.523	117.25
362.749	132.25
362.976	155.25
363.203	193.25
363.429	130.25
363.656	111.25
363.882	95.25
364.109	139.25
364.335	176.25
364.562	201.25
364.788	157.25
365.015	110.25
365.241	94.25
365.468	96.25
365.694	87.25
365.92	94.25
366.147	86.25
366.373	102.25
366.599	98.25
366.826	89.25
367.052	96.25
367.278	90.25
367.505	90.25
367.731	87.25
367.957	84.25
368.184	86.25
368.41	112.25
368.636	98.25
368.862	94.25
369.089	89.25
369.315	101.25
369.541	91.25
369.767	93.25
369.993	98.25
370.219	91.25
370.445	116.25
370.672	125.25
370.898	119.25
371.124	111.25
371.35	96.25
371.576	105.25
371.802	95.25
372.028	112.25
372.254	112.25
372.48	86.25
372.706	110.25
372.932	99.25
373.158	103.25
373.384	140.25
373.61	166.25
373.835	152.25
374.061	121.25
374.287	106.25
374.513	116.25
374.739	129.25
374.965	124.25
375.191	119.25
375.416	100.25
375.642	92.25
375.868	113.25
376.094	104.25
376.319	106.25
376.545	110.25
376.771	102.25
376.997	101.25
377.222	77.25
377.448	100.25
377.674	101.25
377.899	86.25
378.125	95.25
378.35	90.25
378.576	88.25
378.802	80.25
379.027	89.25
379.253	86.25
379.478	95.25
379.704	103.25
379.929	87.25
380.155	92.25
380.38	105.25
380.606	97.25
380.831	101.25
381.057	111.25
381.282	99.25
381.507	124.25
381.733	124.25
381.958	117.25
382.184	121.25
382.409	128.25
382.634	114.25
382.86	122.25
383.085	121.25
383.31	144.25
383.535	136.25
383.761	129.25
383.986	117.25
384.211	114.25
384.436	108.25
384.662	97.25
384.887	108.25
385.112	116.25
385.337	93.25
385.562	115.25
385.787	120.25
386.013	119.25
386.238	131.25
386.463	120.25
386.688	108.25
386.913	101.25
387.138	102.25
387.363	117.25
387.588	114.25
387.813	122.25
388.038	114.25
388.263	108.25
388.488	108.25
388.713	106.25
388.938	110.25
389.163	97.25
389.387	91.25
389.612	86.25
389.837	93.25
390.062	94.25
390.287	104.25
390.512	92.25
390.736	93.25
390.961	108.25
391.186	80.25
391.411	100.25
391.636	119.25
391.86	104.25
392.085	114.25
392.31	133.25
392.534	149.25
392.759	200.25
392.984	322.25
393.208	610.25
393.433	911.25
393.658	680.25
393.882	270.25
394.107	169.25
394.331	173.25
394.556	164.25
394.78	135.25
395.005	131.25
395.229	114.25
395.454	127.25
395.678	137.25
395.903	183.25
396.127	207.25
396.352	293.25
396.576	353.25
396.801	580.25
397.025	687.25
397.249	338.25
397.474	201.25
397.698	130.25
397.922	110.25
398.147	95.25
398.371	103.25
398.595	97.25
398.82	71.25
399.044	105.25
399.268	84.25
399.492	94.25
399.717	95.25
399.941	97.25
400.165	90.25
400.389	87.25
400.613	84.25
400.837	88.25
401.062	87.25
401.286	80.25
401.51	95.25
401.734	83.25
401.958	98.25
402.182	100.25
402.406	97.25
402.63	90.25
402.854	81.25
403.078	98.25
403.302	88.25
403.526	99.25
403.75	100.25
403.974	80.25
404.198	98.25
404.422	102.25
404.645	121.25
404.869	108.25
405.093	87.25
405.317	82.25
405.541	76.25
405.765	77.25
405.988	103.25
406.212	112.25
406.436	104.25
406.66	103.25
406.883	95.25
407.107	100.25
407.331	103.25
407.555	144.25
407.778	194.25
408.002	176.25
408.226	110.25
408.449	104.25
408.673	96.25
408.896	80.25
409.12	105.25
409.344	94.25
409.567	130.25
409.791	133.25
410.014	120.25
410.238	116.25
410.461	103.25
410.685	113.25
410.908	107.25
411.132	109.25
411.355	100.25
411.578	102.25
411.802	96.25
412.025	99.25
412.249	96.25
412.472	94.25
412.695	87.25
412.919	100.25
413.142	76.25
413.365	86.25
413.589	88.25
413.812	88.25
414.035	91.25
414.258	101.25
414.482	84.25
414.705	99.25
414.928	90.25
415.151	76.25
415.374	90.25
415.597	86.25
415.821	79.25
416.044	92.25
416.267	96.25
416.49	91.25
416.713	86.25
416.936	81.25
417.159	82.25
417.382	84.25
417.605	86.25
417.828	90.25
418.051	98.25
418.274	86.25
418.497	78.25
418.72	81.25
418.943	96.25
419.166	97.25
419.389	103.25
419.611	99.25
419.834	110.25
420.057	98.25
420.28	98.25
420.503	105.25
420.726	93.25
420.948	93.25
421.171	119.25
421.394	158.25
421.617	181.25
421.839	190.25
422.062	188.25
422.285	281.25
422.507	508.25
422.73	777.25
422.953	662.25
423.175	364.25
423.398	188.25
423.621	156.25
423.843	118.25
424.066	90.25
424.288	119.25
424.511	99.25
424.733	106.25
424.956	112.25
425.178	94.25
425.401	105.25
425.623	95.25
425.846	102.25
426.068	69.25
426.291	85.25
426.513	97.25
426.735	88.25
426.958	101.25
427.18	111.25
427.402	103.25
427.625	102.25
427.847	112.25
428.069	126.25
428.292	188.25
428.514	210.25
428.736	141.25
428.958	176.25
429.181	191.25
429.403	109.25
429.625	134.25
429.847	166.25
430.069	239.25
430.292	315.25
430.514	277.25
430.736	219.25
430.958	228.25
431.18	116.25
431.402	92.25
431.624	117.25
431.846	159.25
432.068	194.25
432.29	140.25
432.512	95.25
432.734	94.25
432.956	84.25
433.178	92.25
433.4	90.25
433.622	92.25
433.844	86.25
434.066	84.25
434.287	88.25
434.509	73.25
434.731	80.25
434.953	100.25
435.175	77.25
435.397	95.25
435.618	110.25
435.84	94.25
436.062	95.25
436.284	83.25
436.505	93.25
436.727	97.25
436.949	95.25
437.17	99.25
437.392	85.25
437.614	86.25
437.835	104.25
438.057	97.25
438.278	92.25
438.5	111.25
438.721	80.25
438.943	93.25
439.165	93.25
439.386	77.25
439.608	102.25
439.829	100.25
440.05	101.25
440.272	97.25
440.493	109.25
440.715	105.25
440.936	86.25
441.158	87.25
441.379	89.25
441.6	91.25
441.822	88.25
442.043	99.25
442.264	136.25
442.486	199.25
442.707	291.25
442.928	187.25
443.149	170.25
443.371	256.25
443.592	459.25
443.813	385.25
444.034	150.25
444.255	118.25
444.476	98.25
444.698	98.25
444.919	122.25
445.14	210.25
445.361	313.25
445.582	540.25
445.803	452.25
446.024	166.25
446.245	111.25
446.466	100.25
446.687	92.25
446.908	85.25
447.129	88.25
447.35	84.25
447.571	94.25
447.792	87.25
448.013	96.25
448.234	94.25
448.455	94.25
448.675	81.25
448.896	78.25
449.117	80.25
449.338	82.25
449.559	77.25
449.779	85.25
450	103.25
450.221	89.25
450.442	88.25
450.662	101.25
450.883	83.25
451.104	85.25
451.324	91.25
451.545	100.25
451.766	98.25
451.986	96.25
452.207	81.25
452.428	87.25
452.648	104.25
452.869	139.25
453.089	120.25
453.31	85.25
453.53	102.25
453.751	92.25
453.971	81.25
454.192	92.25
454.412	76.25
454.633	86.25
454.853	95.25
455.073	94.25
455.294	97.25
455.514	106.25
455.734	88.25
455.955	94.25
456.175	82.25
456.395	85.25
456.616	91.25
456.836	88.25
457.056	85.25
457.276	102.25
457.497	74.25
457.717	114.25
457.937	150.25
458.157	185.25
458.377	192.25
458.598	181.25
458.818	206.25
459.038	128.25
459.258	101.25
459.478	87.25
459.698	80.25
459.918	83.25
460.138	89.25
460.358	101.25
460.578	113.25
460.798	164.25
461.018	164.25
461.238	91.25
461.458	99.25
461.678	87.25
461.898	85.25
462.118	86.25
462.338	81.25
462.558	98.25
462.777	96.25
462.997	94.25
463.217	83.25
463.437	88.25
463.657	82.25
463.876	81.25
464.096	80.25
464.316	85.25
464.536	83.25
464.755	84.25
464.975	85.25
465.195	76.25
465.414	100.25
465.634	85.25
465.854	88.25
466.073	86.25
466.293	77.25
466.512	85.25
466.732	92.25
466.951	104.25
467.171	79.25
467.391	78.25
467.61	96.25
467.829	83.25
468.049	87.25
468.268	83.25
468.488	93.25
468.707	99.25
468.927	74.25
469.146	91.25
469.365	91.25
469.585	70.25
469.804	101.25
470.023	88.25
470.243	87.25
470.462	81.25
470.681	66.25
470.901	84.25
471.12	97.25
471.339	80.25
471.558	90.25
471.777	86.25
471.997	98.25
472.216	87.25
472.435	96.25
472.654	89.25
472.873	84.25
473.092	100.25
473.311	89.25
473.53	89.25
473.749	90.25
473.968	82.25
474.187	80.25
474.406	97.25
474.625	98.25
474.844	88.25
475.063	90.25
475.282	83.25
475.501	94.25
475.72	80.25
475.939	68.25
476.158	85.25
476.377	116.25
476.596	84.25
476.814	104.25
477.033	97.25
477.252	100.25
477.471	69.25
477.69	86.25
477.908	87.25
478.127	91.25
478.346	92.25
478.564	96.25
478.783	83.25
479.002	86.25
479.22	93.25
479.439	90.25
479.658	96.25
479.876	99.25
480.095	89.25
480.313	83.25
480.532	83.25
480.751	85.25
480.969	100.25
481.188	101.25
481.406	108.25
481.624	111.25
481.843	83.25
482.061	91.25
482.28	86.25
482.498	102.25
482.717	94.25
482.935	111.25
483.153	92.25
483.372	108.25
483.59	100.25
483.808	82.25
484.027	81.25
484.245	92.25
484.463	89.25
484.681	96.25
484.9	102.25
485.118	88.25
485.336	103.25
485.554	92.25
485.772	93.25
485.99	103.25
486.209	111.25
486.427	91.25
486.645	106.25
486.863	88.25
487.081	105.25
487.299	126.25
487.517	128.25
487.735	150.25
487.953	316.25
488.171	230.25
488.389	105.25
488.607	101.25
488.825	104.25
489.043	102.25
489.261	106.25
489.479	98.25
489.696	90.25
489.914	87.25
490.132	97.25
490.35	103.25
490.568	95.25
490.786	89.25
491.003	96.25
491.221	104.25
491.439	85.25
491.657	87.25
491.874	99.25
492.092	89.25
492.31	88.25
492.527	85.25
492.745	89.25
492.963	93.25
493.18	82.25
493.398	85.25
493.615	109.25
493.833	101.25
494.05	100.25
494.268	88.25
494.485	80.25
494.703	98.25
494.92	93.25
495.138	88.25
495.355	95.25
495.573	82.25
495.79	100.25
496.008	102.25
496.225	103.25
496.442	98.25
496.66	92.25
496.877	98.25
497.094	92.25
497.312	91.25
497.529	90.25
497.746	89.25
497.963	96.25
498.181	96.25
498.398	113.25
498.615	94.25
498.832	77.25
499.049	93.25
499.267	106.25
499.484	93.25
499.701	95.25
499.918	101.25
500.135	93.25
500.352	88.25
500.569	97.25
500.786	103.25
501.003	89.25
501.22	82.25
501.437	102.25
501.654	113.25
501.871	99.25
502.088	92.25
502.305	98.25
502.522	89.25
502.739	102.25
502.956	92.25
503.172	106.25
503.389	113.25
503.606	99.25
503.823	108.25
504.04	122.25
504.256	212.25
504.473	212.25
504.69	122.25
504.907	97.25
505.123	102.25
505.34	88.25
505.557	104.25
505.773	92.25
505.99	82.25
506.207	97.25
506.423	87.25
506.64	92.25
506.856	89.25
507.073	95.25
507.289	88.25
507.506	94.25
507.722	82.25
507.939	74.25
508.155	94.25
508.372	93.25
508.588	83.25
508.805	80.25
509.021	91.25
509.238	113.25
509.454	90.25
509.67	105.25
509.887	92.25
510.103	82.25
510.319	92.25
510.536	98.25
510.752	92.25
510.968	104.25
511.184	91.25
511.401	82.25
511.617	94.25
511.833	100.25
512.049	102.25
512.265	86.25
512.481	88.25
512.698	86.25
512.914	87.25
513.13	88.25
513.346	100.25
513.562	88.25
513.778	88.25
513.994	86.25
514.21	87.25
514.426	100.25
514.642	88.25
514.858	89.25
515.074	98.25
515.29	99.25
