Data from 17600_2_HRD10591_00039.txt Node
Date: Mon Jan 19 14:08:42 EST 2026
User: Yrep
Spectrometer: HR+D1059
Trigger mode: 1
Integration Time (sec): 1.000000E-1
Scans to average: 1
Electric dark correction enabled: true
Nonlinearity correction enabled: false
Boxcar width: 0
XAxis mode: Wavelengths
Number of Pixels in Spectrum: 2048
>>>>>Begin Spectral Data<<<<<
223.165	-22.81
223.4	-22.81
223.635	-22.81
223.869	-11.81
224.104	-22.81
224.338	-18.81
224.573	-3.81
224.808	-19.81
225.042	-5.81
225.277	-5.81
225.511	2.19
225.746	7.19
225.98	3.19
226.215	11.19
226.449	15.19
226.683	25.19
226.918	19.19
227.152	28.19
227.387	38.19
227.621	25.19
227.856	48.19
228.09	55.19
228.324	54.19
228.559	53.19
228.793	58.19
229.027	57.19
229.262	61.19
229.496	61.19
229.73	54.19
229.964	74.19
230.199	80.19
230.433	67.19
230.667	70.19
230.901	74.19
231.136	80.19
231.37	82.19
231.604	78.19
231.838	72.19
232.072	90.19
232.306	69.19
232.541	84.19
232.775	81.19
233.009	75.19
233.243	72.19
233.477	74.19
233.711	90.19
233.945	73.19
234.179	75.19
234.413	78.19
234.647	64.19
234.881	84.19
235.115	71.19
235.349	80.19
235.583	78.19
235.817	72.19
236.051	78.19
236.285	78.19
236.519	82.19
236.753	77.19
236.987	79.19
237.221	69.19
237.455	56.19
237.689	79.19
237.922	62.19
238.156	78.19
238.39	79.19
238.624	72.19
238.858	79.19
239.091	79.19
239.325	62.19
239.559	60.19
239.793	69.19
240.027	74.19
240.26	68.19
240.494	77.19
240.728	73.19
240.961	91.19
241.195	65.19
241.429	73.19
241.662	75.19
241.896	67.19
242.13	64.19
242.363	72.19
242.597	71.19
242.83	69.19
243.064	81.19
243.298	66.19
243.531	72.19
243.765	71.19
243.998	80.19
244.232	70.19
244.465	75.19
244.699	86.19
244.932	74.19
245.166	80.19
245.399	72.19
245.633	71.19
245.866	79.19
246.099	73.19
246.333	81.19
246.566	81.19
246.8	82.19
247.033	81.19
247.266	78.19
247.5	68.19
247.733	71.19
247.966	73.19
248.2	65.19
248.433	76.19
248.666	81.19
248.899	79.19
249.133	80.19
249.366	81.19
249.599	71.19
249.832	82.19
250.066	74.19
250.299	72.19
250.532	95.19
250.765	64.19
250.998	77.19
251.231	81.19
251.465	86.19
251.698	59.19
251.931	86.19
252.164	73.19
252.397	76.19
252.63	76.19
252.863	61.19
253.096	74.19
253.329	82.19
253.562	87.19
253.795	74.19
254.028	88.19
254.261	62.19
254.494	80.19
254.727	85.19
254.96	72.19
255.193	75.19
255.426	69.19
255.659	58.19
255.892	79.19
256.124	82.19
256.357	79.19
256.59	78.19
256.823	73.19
257.056	75.19
257.289	85.19
257.521	78.19
257.754	90.19
257.987	91.19
258.22	94.19
258.452	76.19
258.685	80.19
258.918	83.19
259.151	60.19
259.383	66.19
259.616	74.19
259.849	69.19
260.081	83.19
260.314	82.19
260.547	78.19
260.779	67.19
261.012	86.19
261.244	84.19
261.477	81.19
261.71	72.19
261.942	81.19
262.175	60.19
262.407	68.19
262.64	81.19
262.872	86.19
263.105	78.19
263.337	89.19
263.57	88.19
263.802	75.19
264.035	73.19
264.267	68.19
264.499	99.19
264.732	74.19
264.964	92.19
265.197	76.19
265.429	77.19
265.661	81.19
265.894	75.19
266.126	86.19
266.358	90.19
266.591	93.19
266.823	69.19
267.055	78.19
267.287	82.19
267.52	78.19
267.752	79.19
267.984	75.19
268.216	81.19
268.448	90.19
268.681	88.19
268.913	80.19
269.145	89.19
269.377	87.19
269.609	84.19
269.841	67.19
270.073	69.19
270.306	82.19
270.538	82.19
270.77	65.19
271.002	76.19
271.234	72.19
271.466	80.19
271.698	66.19
271.93	77.19
272.162	82.19
272.394	87.19
272.626	85.19
272.858	74.19
273.09	89.19
273.322	75.19
273.553	73.19
273.785	78.19
274.017	91.19
274.249	81.19
274.481	97.19
274.713	89.19
274.945	94.19
275.176	68.19
275.408	93.19
275.64	83.19
275.872	74.19
276.104	80.19
276.335	86.19
276.567	68.19
276.799	80.19
277.031	85.19
277.262	79.19
277.494	77.19
277.726	81.19
277.957	68.19
278.189	62.19
278.421	81.19
278.652	79.19
278.884	94.19
279.115	84.19
279.347	82.19
279.579	87.19
279.81	84.19
280.042	86.19
280.273	74.19
280.505	93.19
280.736	82.19
280.968	72.19
281.199	74.19
281.431	84.19
281.662	77.19
281.894	78.19
282.125	76.19
282.356	73.19
282.588	86.19
282.819	77.19
283.051	80.19
283.282	72.19
283.513	82.19
283.745	88.19
283.976	83.19
284.207	74.19
284.439	88.19
284.67	83.19
284.901	74.19
285.132	78.19
285.364	80.19
285.595	93.19
285.826	80.19
286.057	77.19
286.288	71.19
286.52	72.19
286.751	82.19
286.982	74.19
287.213	53.19
287.444	83.19
287.675	71.19
287.906	78.19
288.138	84.19
288.369	78.19
288.6	73.19
288.831	76.19
289.062	85.19
289.293	81.19
289.524	95.19
289.755	89.19
289.986	83.19
290.217	85.19
290.448	67.19
290.679	74.19
290.91	83.19
291.141	75.19
291.371	96.19
291.602	80.19
291.833	70.19
292.064	85.19
292.295	80.19
292.526	85.19
292.757	75.19
292.987	71.19
293.218	87.19
293.449	73.19
293.68	95.19
293.91	82.19
294.141	77.19
294.372	94.19
294.603	74.19
294.833	88.19
295.064	78.19
295.295	86.19
295.525	71.19
295.756	90.19
295.987	72.19
296.217	81.19
296.448	78.19
296.679	83.19
296.909	66.19
297.14	83.19
297.37	89.19
297.601	70.19
297.831	83.19
298.062	83.19
298.292	85.19
298.523	73.19
298.753	73.19
298.984	83.19
299.214	83.19
299.445	83.19
299.675	90.19
299.905	101.19
300.136	80.19
300.366	84.19
300.597	66.19
300.827	81.19
301.057	82.19
301.288	82.19
301.518	75.19
301.748	83.19
301.979	96.19
302.209	77.19
302.439	72.19
302.669	80.19
302.9	73.19
303.13	94.19
303.36	78.19
303.59	81.19
303.82	80.19
304.051	86.19
304.281	67.19
304.511	95.19
304.741	84.19
304.971	90.19
305.201	92.19
305.431	69.19
305.661	74.19
305.891	84.19
306.121	80.19
306.352	89.19
306.582	75.19
306.812	80.19
307.042	80.19
307.272	78.19
307.502	81.19
307.731	67.19
307.961	68.19
308.191	84.19
308.421	94.19
308.651	92.19
308.881	81.19
309.111	92.19
309.341	85.19
309.571	74.19
309.8	86.19
310.03	75.19
310.26	98.19
310.49	83.19
310.72	97.19
310.949	80.19
311.179	93.19
311.409	82.19
311.639	88.19
311.868	88.19
312.098	79.19
312.328	88.19
312.557	81.19
312.787	81.19
313.017	98.19
313.246	77.19
313.476	91.19
313.706	81.19
313.935	75.19
314.165	84.19
314.394	96.19
314.624	79.19
314.853	88.19
315.083	95.19
315.312	77.19
315.542	68.19
315.771	88.19
316.001	97.19
316.23	88.19
316.46	83.19
316.689	87.19
316.919	81.19
317.148	84.19
317.377	89.19
317.607	89.19
317.836	94.19
318.065	104.19
318.295	93.19
318.524	88.19
318.753	83.19
318.983	84.19
319.212	88.19
319.441	93.19
319.67	78.19
319.9	97.19
320.129	80.19
320.358	78.19
320.587	75.19
320.816	100.19
321.046	97.19
321.275	94.19
321.504	87.19
321.733	85.19
321.962	83.19
322.191	96.19
322.42	69.19
322.649	92.19
322.878	80.19
323.108	88.19
323.337	69.19
323.566	84.19
323.795	86.19
324.024	87.19
324.253	83.19
324.482	67.19
324.71	96.19
324.939	100.19
325.168	94.19
325.397	77.19
325.626	86.19
325.855	82.19
326.084	90.19
326.313	65.19
326.542	66.19
326.77	78.19
326.999	85.19
327.228	92.19
327.457	79.19
327.686	83.19
327.914	75.19
328.143	86.19
328.372	86.19
328.6	81.19
328.829	94.19
329.058	68.19
329.287	70.19
329.515	77.19
329.744	82.19
329.972	86.19
330.201	83.19
330.43	77.19
330.658	72.19
330.887	84.19
331.115	81.19
331.344	73.19
331.572	97.19
331.801	93.19
332.03	84.19
332.258	89.19
332.486	86.19
332.715	70.19
332.943	74.19
333.172	92.19
333.4	68.19
333.629	89.19
333.857	68.19
334.085	84.19
334.314	77.19
334.542	78.19
334.771	89.19
334.999	102.19
335.227	75.19
335.455	83.19
335.684	68.19
335.912	94.19
336.14	68.19
336.369	78.19
336.597	80.19
336.825	71.19
337.053	83.19
337.281	82.19
337.51	88.19
337.738	80.19
337.966	75.19
338.194	84.19
338.422	88.19
338.65	93.19
338.878	98.19
339.106	79.19
339.334	84.19
339.562	79.19
339.79	81.19
340.018	75.19
340.246	87.19
340.474	79.19
340.702	74.19
340.93	80.19
341.158	69.19
341.386	75.19
341.614	84.19
341.842	70.19
342.07	85.19
342.298	86.19
342.526	86.19
342.754	81.19
342.981	73.19
343.209	90.19
343.437	97.19
343.665	89.19
343.893	93.19
344.12	87.19
344.348	99.19
344.576	93.19
344.804	76.19
345.031	75.19
345.259	71.19
345.487	85.19
345.714	74.19
345.942	84.19
346.17	93.19
346.397	74.19
346.625	82.19
346.853	74.19
347.08	78.19
347.308	80.19
347.535	84.19
347.763	77.19
347.99	89.19
348.218	87.19
348.445	74.19
348.673	84.19
348.9	86.19
349.128	91.19
349.355	72.19
349.583	74.19
349.81	73.19
350.037	81.19
350.265	77.19
350.492	89.19
350.72	85.19
350.947	91.19
351.174	81.19
351.402	80.19
351.629	84.19
351.856	74.19
352.083	96.19
352.311	77.19
352.538	70.19
352.765	84.19
352.992	89.19
353.22	71.19
353.447	79.19
353.674	81.19
353.901	92.19
354.128	90.19
354.355	75.19
354.583	78.19
354.81	102.19
355.037	85.19
355.264	84.19
355.491	86.19
355.718	78.19
355.945	70.19
356.172	90.19
356.399	78.19
356.626	80.19
356.853	94.19
357.08	99.19
357.307	83.19
357.534	78.19
357.761	84.19
357.988	70.19
358.215	84.19
358.441	93.19
358.668	82.19
358.895	91.19
359.122	91.19
359.349	75.19
359.576	81.19
359.802	78.19
360.029	72.19
360.256	71.19
360.483	84.19
360.709	93.19
360.936	79.19
361.163	72.19
361.39	76.19
361.616	82.19
361.843	66.19
362.07	81.19
362.296	89.19
362.523	73.19
362.749	91.19
362.976	80.19
363.203	81.19
363.429	86.19
363.656	88.19
363.882	73.19
364.109	82.19
364.335	81.19
364.562	101.19
364.788	93.19
365.015	78.19
365.241	70.19
365.468	84.19
365.694	73.19
365.92	89.19
366.147	77.19
366.373	74.19
366.599	75.19
366.826	89.19
367.052	83.19
367.278	81.19
367.505	95.19
367.731	91.19
367.957	72.19
368.184	89.19
368.41	64.19
368.636	78.19
368.862	78.19
369.089	70.19
369.315	66.19
369.541	77.19
369.767	84.19
369.993	75.19
370.219	84.19
370.445	93.19
370.672	81.19
370.898	69.19
371.124	74.19
371.35	84.19
371.576	71.19
371.802	84.19
372.028	97.19
372.254	92.19
372.48	78.19
372.706	78.19
372.932	86.19
373.158	95.19
373.384	96.19
373.61	95.19
373.835	92.19
374.061	101.19
374.287	82.19
374.513	77.19
374.739	76.19
374.965	70.19
375.191	81.19
375.416	89.19
375.642	69.19
375.868	81.19
376.094	70.19
376.319	76.19
376.545	78.19
376.771	71.19
376.997	76.19
377.222	86.19
377.448	81.19
377.674	85.19
377.899	92.19
378.125	73.19
378.35	93.19
378.576	92.19
378.802	69.19
379.027	90.19
379.253	89.19
379.478	84.19
379.704	69.19
379.929	78.19
380.155	68.19
380.38	90.19
380.606	98.19
380.831	89.19
381.057	83.19
381.282	91.19
381.507	72.19
381.733	68.19
381.958	82.19
382.184	84.19
382.409	88.19
382.634	73.19
382.86	71.19
383.085	82.19
383.31	76.19
383.535	84.19
383.761	82.19
383.986	75.19
384.211	71.19
384.436	89.19
384.662	82.19
384.887	82.19
385.112	83.19
385.337	87.19
385.562	73.19
385.787	97.19
386.013	75.19
386.238	73.19
386.463	68.19
386.688	82.19
386.913	92.19
387.138	85.19
387.363	87.19
387.588	82.19
387.813	91.19
388.038	77.19
388.263	85.19
388.488	74.19
388.713	80.19
388.938	59.19
389.163	80.19
389.387	83.19
389.612	78.19
389.837	91.19
390.062	86.19
390.287	88.19
390.512	79.19
390.736	78.19
390.961	78.19
391.186	77.19
391.411	66.19
391.636	77.19
391.86	87.19
392.085	86.19
392.31	93.19
392.534	72.19
392.759	93.19
392.984	129.19
393.208	232.19
393.433	342.19
393.658	262.19
393.882	112.19
394.107	93.19
394.331	95.19
394.556	87.19
394.78	79.19
395.005	93.19
395.229	94.19
395.454	86.19
395.678	90.19
395.903	95.19
396.127	101.19
396.352	106.19
396.576	139.19
396.801	238.19
397.025	265.19
397.249	133.19
397.474	91.19
397.698	81.19
397.922	67.19
398.147	87.19
398.371	73.19
398.595	86.19
398.82	69.19
399.044	81.19
399.268	75.19
399.492	76.19
399.717	85.19
399.941	85.19
400.165	83.19
400.389	77.19
400.613	84.19
400.837	65.19
401.062	70.19
401.286	89.19
401.51	68.19
401.734	62.19
401.958	72.19
402.182	85.19
402.406	70.19
402.63	80.19
402.854	74.19
403.078	81.19
403.302	75.19
403.526	95.19
403.75	89.19
403.974	87.19
404.198	85.19
404.422	82.19
404.645	80.19
404.869	86.19
405.093	83.19
405.317	86.19
405.541	85.19
405.765	78.19
405.988	77.19
406.212	90.19
406.436	72.19
406.66	74.19
406.883	94.19
407.107	88.19
407.331	73.19
407.555	85.19
407.778	93.19
408.002	106.19
408.226	77.19
408.449	89.19
408.673	67.19
408.896	93.19
409.12	78.19
409.344	94.19
409.567	89.19
409.791	74.19
410.014	89.19
410.238	71.19
410.461	87.19
410.685	84.19
410.908	71.19
411.132	74.19
411.355	80.19
411.578	82.19
411.802	83.19
412.025	88.19
412.249	78.19
412.472	69.19
412.695	86.19
412.919	74.19
413.142	89.19
413.365	76.19
413.589	97.19
413.812	69.19
414.035	81.19
414.258	88.19
414.482	86.19
414.705	87.19
414.928	62.19
415.151	84.19
415.374	75.19
415.597	80.19
415.821	84.19
416.044	73.19
416.267	95.19
416.49	89.19
416.713	82.19
416.936	75.19
417.159	74.19
417.382	72.19
417.605	82.19
417.828	71.19
418.051	96.19
418.274	80.19
418.497	91.19
418.72	82.19
418.943	79.19
419.166	75.19
419.389	79.19
419.611	81.19
419.834	85.19
420.057	72.19
420.28	66.19
420.503	77.19
420.726	62.19
420.948	80.19
421.171	88.19
421.394	83.19
421.617	104.19
421.839	105.19
422.062	88.19
422.285	96.19
422.507	117.19
422.73	166.19
422.953	153.19
423.175	85.19
423.398	88.19
423.621	83.19
423.843	85.19
424.066	84.19
424.288	75.19
424.511	86.19
424.733	92.19
424.956	92.19
425.178	80.19
425.401	74.19
425.623	74.19
425.846	78.19
426.068	68.19
426.291	92.19
426.513	84.19
426.735	64.19
426.958	77.19
427.18	81.19
427.402	79.19
427.625	88.19
427.847	67.19
428.069	81.19
428.292	104.19
428.514	88.19
428.736	87.19
428.958	88.19
429.181	93.19
429.403	90.19
429.625	72.19
429.847	89.19
430.069	103.19
430.292	102.19
430.514	104.19
430.736	91.19
430.958	92.19
431.18	73.19
431.402	73.19
431.624	95.19
431.846	83.19
432.068	94.19
432.29	79.19
432.512	80.19
432.734	81.19
432.956	81.19
433.178	85.19
433.4	74.19
433.622	72.19
433.844	86.19
434.066	84.19
434.287	83.19
434.509	85.19
434.731	80.19
434.953	82.19
435.175	97.19
435.397	76.19
435.618	73.19
435.84	81.19
436.062	88.19
436.284	89.19
436.505	71.19
436.727	66.19
436.949	69.19
437.17	87.19
437.392	85.19
437.614	88.19
437.835	81.19
438.057	81.19
438.278	79.19
438.5	80.19
438.721	65.19
438.943	67.19
439.165	75.19
439.386	88.19
439.608	95.19
439.829	90.19
440.05	73.19
440.272	76.19
440.493	71.19
440.715	78.19
440.936	84.19
441.158	76.19
441.379	87.19
441.6	59.19
441.822	65.19
442.043	73.19
442.264	86.19
442.486	90.19
442.707	93.19
442.928	75.19
443.149	78.19
443.371	83.19
443.592	102.19
443.813	88.19
444.034	73.19
444.255	78.19
444.476	84.19
444.698	74.19
444.919	76.19
445.14	142.19
445.361	108.19
445.582	117.19
445.803	99.19
446.024	99.19
446.245	84.19
446.466	80.19
446.687	84.19
446.908	72.19
447.129	75.19
447.35	72.19
447.571	86.19
447.792	94.19
448.013	80.19
448.234	88.19
448.455	79.19
448.675	81.19
448.896	86.19
449.117	83.19
449.338	84.19
449.559	79.19
449.779	69.19
450	71.19
450.221	78.19
450.442	82.19
450.662	93.19
450.883	79.19
451.104	72.19
451.324	75.19
451.545	75.19
451.766	81.19
451.986	89.19
452.207	86.19
452.428	89.19
452.648	78.19
452.869	94.19
453.089	75.19
453.31	82.19
453.53	87.19
453.751	74.19
453.971	86.19
454.192	76.19
454.412	79.19
454.633	72.19
454.853	68.19
455.073	81.19
455.294	71.19
455.514	75.19
455.734	72.19
455.955	80.19
456.175	92.19
456.395	82.19
456.616	78.19
456.836	89.19
457.056	97.19
457.276	73.19
457.497	85.19
457.717	81.19
457.937	70.19
458.157	83.19
458.377	72.19
458.598	82.19
458.818	85.19
459.038	85.19
459.258	75.19
459.478	85.19
459.698	104.19
459.918	74.19
460.138	76.19
460.358	84.19
460.578	79.19
460.798	80.19
461.018	89.19
461.238	80.19
461.458	83.19
461.678	68.19
461.898	68.19
462.118	65.19
462.338	84.19
462.558	78.19
462.777	73.19
462.997	78.19
463.217	80.19
463.437	82.19
463.657	81.19
463.876	74.19
464.096	80.19
464.316	67.19
464.536	80.19
464.755	84.19
464.975	80.19
465.195	64.19
465.414	85.19
465.634	77.19
465.854	81.19
466.073	82.19
466.293	90.19
466.512	72.19
466.732	94.19
466.951	76.19
467.171	85.19
467.391	71.19
467.61	76.19
467.829	76.19
468.049	79.19
468.268	73.19
468.488	78.19
468.707	65.19
468.927	93.19
469.146	82.19
469.365	65.19
469.585	69.19
469.804	76.19
470.023	80.19
470.243	80.19
470.462	92.19
470.681	92.19
470.901	75.19
471.12	75.19
471.339	76.19
471.558	65.19
471.777	79.19
471.997	81.19
472.216	92.19
472.435	88.19
472.654	87.19
472.873	86.19
473.092	83.19
473.311	77.19
473.53	82.19
473.749	89.19
473.968	82.19
474.187	78.19
474.406	73.19
474.625	66.19
474.844	76.19
475.063	82.19
475.282	73.19
475.501	74.19
475.72	78.19
475.939	82.19
476.158	67.19
476.377	88.19
476.596	83.19
476.814	82.19
477.033	87.19
477.252	81.19
477.471	68.19
477.69	83.19
477.908	87.19
478.127	77.19
478.346	82.19
478.564	95.19
478.783	83.19
479.002	80.19
479.22	87.19
479.439	89.19
479.658	63.19
479.876	81.19
480.095	94.19
480.313	88.19
480.532	74.19
480.751	80.19
480.969	86.19
481.188	99.19
481.406	78.19
481.624	80.19
481.843	84.19
482.061	81.19
482.28	78.19
482.498	75.19
482.717	95.19
482.935	82.19
483.153	92.19
483.372	69.19
483.59	84.19
483.808	80.19
484.027	92.19
484.245	88.19
484.463	83.19
484.681	91.19
484.9	86.19
485.118	93.19
485.336	75.19
485.554	71.19
485.772	82.19
485.99	82.19
486.209	79.19
486.427	83.19
486.645	84.19
486.863	100.19
487.081	84.19
487.299	77.19
487.517	79.19
487.735	85.19
487.953	86.19
488.171	72.19
488.389	86.19
488.607	90.19
488.825	73.19
489.043	87.19
489.261	91.19
489.479	100.19
489.696	83.19
489.914	79.19
490.132	84.19
490.35	87.19
490.568	90.19
490.786	89.19
491.003	94.19
491.221	90.19
491.439	75.19
491.657	77.19
491.874	81.19
492.092	77.19
492.31	87.19
492.527	74.19
492.745	82.19
492.963	77.19
493.18	84.19
493.398	77.19
493.615	85.19
493.833	80.19
494.05	75.19
494.268	94.19
494.485	80.19
494.703	88.19
494.92	88.19
495.138	81.19
495.355	80.19
495.573	82.19
495.79	87.19
496.008	92.19
496.225	79.19
496.442	76.19
496.66	84.19
496.877	74.19
497.094	80.19
497.312	81.19
497.529	97.19
497.746	66.19
497.963	80.19
498.181	81.19
498.398	80.19
498.615	82.19
498.832	80.19
499.049	73.19
499.267	84.19
499.484	90.19
499.701	89.19
499.918	79.19
500.135	83.19
500.352	87.19
500.569	95.19
500.786	79.19
501.003	82.19
501.22	88.19
501.437	73.19
501.654	86.19
501.871	64.19
502.088	82.19
502.305	105.19
502.522	79.19
502.739	87.19
502.956	74.19
503.172	98.19
503.389	81.19
503.606	80.19
503.823	88.19
504.04	89.19
504.256	91.19
504.473	85.19
504.69	81.19
504.907	74.19
505.123	88.19
505.34	76.19
505.557	84.19
505.773	87.19
505.99	84.19
506.207	88.19
506.423	90.19
506.64	64.19
506.856	74.19
507.073	90.19
507.289	71.19
507.506	84.19
507.722	71.19
507.939	92.19
508.155	85.19
508.372	88.19
508.588	84.19
508.805	81.19
509.021	72.19
509.238	69.19
509.454	75.19
509.67	80.19
509.887	82.19
510.103	87.19
510.319	77.19
510.536	75.19
510.752	88.19
510.968	79.19
511.184	79.19
511.401	91.19
511.617	86.19
511.833	66.19
512.049	90.19
512.265	84.19
512.481	86.19
512.698	80.19
512.914	81.19
513.13	98.19
513.346	105.19
513.562	89.19
513.778	78.19
513.994	80.19
514.21	77.19
514.426	90.19
514.642	82.19
514.858	74.19
515.074	73.19
515.29	74.19
515.506	80.19
515.721	89.19
515.937	74.19
516.153	92.19
516.369	87.19
516.585	79.19
516.801	81.19
517.016	94.19
517.232	75.19
517.448	77.19
517.664	79.19
517.879	85.19
518.095	91.19
518.311	90.19
518.527	80.19
518.742	81.19
518.958	77.19
519.173	87.19
519.389	86.19
519.605	63.19
519.82	74.19
