Data from 17600_2_HRD10591_00005.txt Node
Date: Mon Jan 19 14:08:25 EST 2026
User: Yrep
Spectrometer: HR+D1059
Trigger mode: 1
Integration Time (sec): 1.000000E-1
Scans to average: 1
Electric dark correction enabled: true
Nonlinearity correction enabled: false
Boxcar width: 0
XAxis mode: Wavelengths
Number of Pixels in Spectrum: 2048
>>>>>Begin Spectral Data<<<<<
223.165	-15
223.4	-15
223.635	-15
223.869	-17
224.104	-18
224.338	8
224.573	-21
224.808	-14
225.042	-16
225.277	4
225.511	-5
225.746	-2
225.98	0
226.215	3
226.449	17
226.683	25
226.918	23
227.152	28
227.387	35
227.621	52
227.856	44
228.09	42
228.324	50
228.559	64
228.793	69
229.027	69
229.262	64
229.496	67
229.73	77
229.964	76
230.199	89
230.433	82
230.667	77
230.901	70
231.136	89
231.37	76
231.604	79
231.838	70
232.072	76
232.306	71
232.541	85
232.775	94
233.009	88
233.243	81
233.477	57
233.711	89
233.945	85
234.179	82
234.413	82
234.647	94
234.881	97
235.115	74
235.349	92
235.583	78
235.817	80
236.051	79
236.285	91
236.519	82
236.753	76
236.987	84
237.221	69
237.455	102
237.689	69
237.922	68
238.156	81
238.39	82
238.624	88
238.858	74
239.091	74
239.325	78
239.559	82
239.793	77
240.027	75
240.26	67
240.494	69
240.728	85
240.961	73
241.195	80
241.429	76
241.662	72
241.896	86
242.13	82
242.363	78
242.597	85
242.83	85
243.064	69
243.298	74
243.531	84
243.765	82
243.998	81
244.232	90
244.465	99
244.699	70
244.932	83
245.166	68
245.399	87
245.633	70
245.866	74
246.099	90
246.333	88
246.566	68
246.8	83
247.033	75
247.266	84
247.5	82
247.733	83
247.966	81
248.2	89
248.433	78
248.666	81
248.899	65
249.133	88
249.366	92
249.599	66
249.832	99
250.066	82
250.299	75
250.532	84
250.765	66
250.998	79
251.231	96
251.465	87
251.698	78
251.931	80
252.164	84
252.397	76
252.63	88
252.863	68
253.096	85
253.329	79
253.562	73
253.795	94
254.028	91
254.261	70
254.494	80
254.727	95
254.96	73
255.193	79
255.426	72
255.659	88
255.892	102
256.124	92
256.357	92
256.59	96
256.823	102
257.056	89
257.289	82
257.521	69
257.754	76
257.987	86
258.22	86
258.452	86
258.685	68
258.918	89
259.151	90
259.383	84
259.616	92
259.849	81
260.081	70
260.314	91
260.547	88
260.779	74
261.012	72
261.244	90
261.477	95
261.71	90
261.942	85
262.175	84
262.407	78
262.64	85
262.872	96
263.105	93
263.337	90
263.57	89
263.802	90
264.035	81
264.267	86
264.499	98
264.732	82
264.964	81
265.197	90
265.429	86
265.661	84
265.894	78
266.126	87
266.358	88
266.591	94
266.823	92
267.055	80
267.287	91
267.52	83
267.752	89
267.984	90
268.216	80
268.448	85
268.681	92
268.913	89
269.145	84
269.377	80
269.609	81
269.841	78
270.073	77
270.306	86
270.538	72
270.77	88
271.002	78
271.234	93
271.466	75
271.698	82
271.93	83
272.162	88
272.394	82
272.626	85
272.858	90
273.09	78
273.322	89
273.553	74
273.785	87
274.017	95
274.249	85
274.481	77
274.713	86
274.945	106
275.176	82
275.408	92
275.64	100
275.872	84
276.104	76
276.335	92
276.567	78
276.799	92
277.031	93
277.262	89
277.494	108
277.726	101
277.957	80
278.189	91
278.421	86
278.652	76
278.884	98
279.115	83
279.347	100
279.579	89
279.81	92
280.042	74
280.273	82
280.505	87
280.736	78
280.968	95
281.199	79
281.431	95
281.662	92
281.894	79
282.125	97
282.356	92
282.588	90
282.819	82
283.051	98
283.282	69
283.513	86
283.745	85
283.976	85
284.207	100
284.439	88
284.67	101
284.901	86
285.132	82
285.364	106
285.595	98
285.826	84
286.057	79
286.288	68
286.52	96
286.751	73
286.982	97
287.213	78
287.444	84
287.675	79
287.906	92
288.138	102
288.369	88
288.6	85
288.831	88
289.062	79
289.293	88
289.524	95
289.755	91
289.986	96
290.217	90
290.448	92
290.679	76
290.91	82
291.141	88
291.371	85
291.602	84
291.833	78
292.064	106
292.295	79
292.526	97
292.757	78
292.987	94
293.218	87
293.449	88
293.68	91
293.91	97
294.141	100
294.372	92
294.603	84
294.833	105
295.064	76
295.295	73
295.525	88
295.756	92
295.987	82
296.217	87
296.448	85
296.679	95
296.909	98
297.14	97
297.37	107
297.601	95
297.831	84
298.062	78
298.292	99
298.523	87
298.753	69
298.984	87
299.214	86
299.445	86
299.675	117
299.905	84
300.136	86
300.366	86
300.597	89
300.827	102
301.057	86
301.288	86
301.518	94
301.748	100
301.979	102
302.209	95
302.439	92
302.669	99
302.9	91
303.13	68
303.36	108
303.59	100
303.82	78
304.051	93
304.281	78
304.511	91
304.741	91
304.971	86
305.201	98
305.431	64
305.661	92
305.891	78
306.121	77
306.352	97
306.582	78
306.812	77
307.042	88
307.272	83
307.502	91
307.731	82
307.961	88
308.191	95
308.421	87
308.651	100
308.881	88
309.111	92
309.341	107
309.571	90
309.8	85
310.03	81
310.26	88
310.49	90
310.72	92
310.949	85
311.179	96
311.409	91
311.639	74
311.868	83
312.098	84
312.328	90
312.557	83
312.787	98
313.017	87
313.246	104
313.476	79
313.706	88
313.935	94
314.165	98
314.394	99
314.624	102
314.853	99
315.083	96
315.312	92
315.542	88
315.771	96
316.001	88
316.23	102
316.46	91
316.689	82
316.919	94
317.148	92
317.377	84
317.607	93
317.836	93
318.065	97
318.295	98
318.524	89
318.753	89
318.983	96
319.212	103
319.441	96
319.67	89
319.9	94
320.129	93
320.358	101
320.587	82
320.816	90
321.046	103
321.275	97
321.504	100
321.733	103
321.962	79
322.191	92
322.42	84
322.649	98
322.878	92
323.108	78
323.337	89
323.566	105
323.795	101
324.024	92
324.253	100
324.482	88
324.71	103
324.939	93
325.168	91
325.397	104
325.626	91
325.855	96
326.084	93
326.313	90
326.542	89
326.77	81
326.999	100
327.228	75
327.457	96
327.686	100
327.914	92
328.143	84
328.372	91
328.6	83
328.829	98
329.058	87
329.287	94
329.515	77
329.744	84
329.972	91
330.201	90
330.43	82
330.658	84
330.887	102
331.115	97
331.344	90
331.572	93
331.801	87
332.03	73
332.258	89
332.486	79
332.715	89
332.943	92
333.172	91
333.4	96
333.629	94
333.857	97
334.085	80
334.314	97
334.542	99
334.771	92
334.999	95
335.227	82
335.455	88
335.684	97
335.912	102
336.14	99
336.369	96
336.597	93
336.825	78
337.053	101
337.281	87
337.51	102
337.738	92
337.966	104
338.194	93
338.422	92
338.65	94
338.878	94
339.106	90
339.334	91
339.562	92
339.79	80
340.018	96
340.246	90
340.474	88
340.702	101
340.93	93
341.158	91
341.386	91
341.614	81
341.842	92
342.07	106
342.298	84
342.526	88
342.754	96
342.981	100
343.209	87
343.437	95
343.665	89
343.893	99
344.12	93
344.348	96
344.576	94
344.804	86
345.031	84
345.259	90
345.487	92
345.714	79
345.942	84
346.17	82
346.397	84
346.625	88
346.853	87
347.08	78
347.308	91
347.535	89
347.763	87
347.99	100
348.218	87
348.445	90
348.673	84
348.9	89
349.128	94
349.355	90
349.583	84
349.81	82
350.037	94
350.265	85
350.492	93
350.72	95
350.947	98
351.174	96
351.402	91
351.629	92
351.856	94
352.083	87
352.311	96
352.538	90
352.765	103
352.992	108
353.22	105
353.447	86
353.674	98
353.901	94
354.128	106
354.355	96
354.583	86
354.81	92
355.037	75
355.264	78
355.491	106
355.718	83
355.945	96
356.172	82
356.399	96
356.626	101
356.853	104
357.08	107
357.307	97
357.534	96
357.761	93
357.988	96
358.215	117
358.441	91
358.668	103
358.895	86
359.122	85
359.349	92
359.576	104
359.802	85
360.029	89
360.256	81
360.483	94
360.709	90
360.936	107
361.163	104
361.39	84
361.616	78
361.843	92
362.07	105
362.296	108
362.523	102
362.749	101
362.976	135
363.203	146
363.429	110
363.656	100
363.882	93
364.109	122
364.335	137
364.562	146
364.788	110
365.015	105
365.241	95
365.468	100
365.694	97
365.92	115
366.147	94
366.373	90
366.599	87
366.826	86
367.052	83
367.278	98
367.505	101
367.731	97
367.957	92
368.184	106
368.41	77
368.636	98
368.862	110
369.089	85
369.315	96
369.541	86
369.767	90
369.993	102
370.219	93
370.445	102
370.672	94
370.898	114
371.124	90
371.35	93
371.576	89
371.802	92
372.028	86
372.254	98
372.48	91
372.706	102
372.932	102
373.158	97
373.384	101
373.61	109
373.835	118
374.061	92
374.287	119
374.513	96
374.739	95
374.965	105
375.191	110
375.416	101
375.642	105
375.868	101
376.094	92
376.319	113
376.545	96
376.771	105
376.997	102
377.222	96
377.448	85
377.674	78
377.899	84
378.125	97
378.35	86
378.576	92
378.802	97
379.027	104
379.253	101
379.478	88
379.704	104
379.929	98
380.155	99
380.38	96
380.606	90
380.831	92
381.057	112
381.282	99
381.507	98
381.733	102
381.958	86
382.184	112
382.409	107
382.634	109
382.86	102
383.085	124
383.31	111
383.535	117
383.761	112
383.986	101
384.211	100
384.436	104
384.662	86
384.887	90
385.112	97
385.337	108
385.562	97
385.787	113
386.013	104
386.238	106
386.463	87
386.688	96
386.913	104
387.138	106
387.363	105
387.588	113
387.813	111
388.038	100
388.263	100
388.488	98
388.713	97
388.938	117
389.163	78
389.387	84
389.612	114
389.837	96
390.062	85
390.287	104
390.512	102
390.736	114
390.961	104
391.186	102
391.411	109
391.636	106
391.86	105
392.085	99
392.31	99
392.534	121
392.759	143
392.984	178
393.208	268
393.433	356
393.658	301
393.882	134
394.107	132
394.331	116
394.556	134
394.78	117
395.005	102
395.229	84
395.454	109
395.678	112
395.903	123
396.127	135
396.352	173
396.576	196
396.801	258
397.025	309
397.249	171
397.474	127
397.698	107
397.922	96
398.147	98
398.371	95
398.595	104
398.82	87
399.044	93
399.268	89
399.492	102
399.717	92
399.941	91
400.165	102
400.389	91
400.613	104
400.837	88
401.062	96
401.286	96
401.51	86
401.734	89
401.958	103
402.182	102
402.406	107
402.63	93
402.854	96
403.078	93
403.302	103
403.526	99
403.75	95
403.974	102
404.198	91
404.422	116
404.645	129
404.869	103
405.093	96
405.317	91
405.541	91
405.765	97
405.988	105
406.212	92
406.436	99
406.66	97
406.883	75
407.107	91
407.331	104
407.555	109
407.778	129
408.002	124
408.226	116
408.449	98
408.673	110
408.896	85
409.12	89
409.344	107
409.567	107
409.791	105
410.014	99
410.238	89
410.461	96
410.685	92
410.908	91
411.132	96
411.355	93
411.578	88
411.802	101
412.025	91
412.249	96
412.472	93
412.695	91
412.919	94
413.142	94
413.365	97
413.589	82
413.812	105
414.035	107
414.258	107
414.482	89
414.705	90
414.928	109
415.151	80
415.374	85
415.597	79
415.821	92
416.044	71
416.267	86
416.49	86
416.713	106
416.936	94
417.159	83
417.382	78
417.605	86
417.828	97
418.051	87
418.274	104
418.497	98
418.72	94
418.943	99
419.166	96
419.389	76
419.611	88
419.834	85
420.057	100
420.28	113
420.503	113
420.726	101
420.948	103
421.171	91
421.394	113
421.617	146
421.839	123
422.062	152
422.285	178
422.507	275
422.73	389
422.953	338
423.175	225
423.398	153
423.621	127
423.843	108
424.066	96
424.288	102
424.511	95
424.733	87
424.956	102
425.178	101
425.401	107
425.623	104
425.846	94
426.068	82
426.291	90
426.513	99
426.735	91
426.958	104
427.18	114
427.402	103
427.625	114
427.847	84
428.069	92
428.292	133
428.514	139
428.736	109
428.958	130
429.181	138
429.403	113
429.625	96
429.847	121
430.069	171
430.292	176
430.514	186
430.736	134
430.958	153
431.18	106
431.402	87
431.624	106
431.846	126
432.068	142
432.29	108
432.512	102
432.734	100
432.956	89
433.178	95
433.4	90
433.622	99
433.844	94
434.066	88
434.287	98
434.509	84
434.731	107
434.953	80
435.175	100
435.397	93
435.618	89
435.84	103
436.062	98
436.284	114
436.505	94
436.727	94
436.949	75
437.17	100
437.392	77
437.614	84
437.835	94
438.057	84
438.278	96
438.5	106
438.721	91
438.943	109
439.165	90
439.386	78
439.608	100
439.829	98
440.05	98
440.272	91
440.493	100
440.715	109
440.936	98
441.158	100
441.379	88
441.6	100
441.822	104
442.043	91
442.264	97
442.486	143
442.707	180
442.928	137
443.149	121
443.371	169
443.592	270
443.813	222
444.034	128
444.255	106
444.476	107
444.698	94
444.919	102
445.14	167
445.361	196
445.582	317
445.803	276
446.024	132
446.245	103
446.466	96
446.687	89
446.908	97
447.129	86
447.35	100
447.571	84
447.792	88
448.013	79
448.234	94
448.455	91
448.675	98
448.896	82
449.117	87
449.338	92
449.559	90
449.779	82
450	97
450.221	78
450.442	92
450.662	87
450.883	105
451.104	90
451.324	78
451.545	96
451.766	89
451.986	88
452.207	97
452.428	97
452.648	119
452.869	106
453.089	98
453.31	93
453.53	101
453.751	94
453.971	81
454.192	96
454.412	89
454.633	106
454.853	88
455.073	97
455.294	92
455.514	96
455.734	96
455.955	91
456.175	91
456.395	104
456.616	98
456.836	98
457.056	81
457.276	95
457.497	89
457.717	107
457.937	124
458.157	146
458.377	150
458.598	137
458.818	129
459.038	84
459.258	89
459.478	84
459.698	89
459.918	103
460.138	97
460.358	84
460.578	120
460.798	132
461.018	146
461.238	100
461.458	92
461.678	86
461.898	94
462.118	92
462.338	81
462.558	100
462.777	77
462.997	83
463.217	78
463.437	86
463.657	87
463.876	89
464.096	106
464.316	93
464.536	92
464.755	96
464.975	84
465.195	81
465.414	83
465.634	88
465.854	75
466.073	82
466.293	97
466.512	113
466.732	95
466.951	88
467.171	88
467.391	96
467.61	94
467.829	92
468.049	98
468.268	88
468.488	99
468.707	100
468.927	93
469.146	98
469.365	97
469.585	91
469.804	91
470.023	94
470.243	84
470.462	104
470.681	104
470.901	78
471.12	86
471.339	84
471.558	89
471.777	93
471.997	87
472.216	87
472.435	100
472.654	87
472.873	89
473.092	93
473.311	85
473.53	99
473.749	94
473.968	97
474.187	76
474.406	110
474.625	108
474.844	92
475.063	78
475.282	97
475.501	106
475.72	80
475.939	88
476.158	85
476.377	102
476.596	106
476.814	88
477.033	101
477.252	86
477.471	101
477.69	93
477.908	96
478.127	84
478.346	102
478.564	107
478.783	104
479.002	96
479.22	91
479.439	84
479.658	89
479.876	96
480.095	90
480.313	88
480.532	92
480.751	103
480.969	102
481.188	94
481.406	94
481.624	67
481.843	94
482.061	86
482.28	93
482.498	104
482.717	94
482.935	95
483.153	100
483.372	107
483.59	100
483.808	85
484.027	94
484.245	92
484.463	91
484.681	102
484.9	95
485.118	101
485.336	118
485.554	102
485.772	99
485.99	96
486.209	89
486.427	91
486.645	103
486.863	99
487.081	100
487.299	115
487.517	101
487.735	139
487.953	205
488.171	163
488.389	102
488.607	107
488.825	101
489.043	102
489.261	104
489.479	106
489.696	87
489.914	96
490.132	77
490.35	100
490.568	112
490.786	92
491.003	82
491.221	84
491.439	93
491.657	78
491.874	101
492.092	103
492.31	97
492.527	95
492.745	96
492.963	98
493.18	94
493.398	92
493.615	89
493.833	106
494.05	94
494.268	90
494.485	105
494.703	100
494.92	89
495.138	98
495.355	95
495.573	82
495.79	91
496.008	97
496.225	107
496.442	108
496.66	88
496.877	96
497.094	103
497.312	108
497.529	99
497.746	96
497.963	101
498.181	118
498.398	109
498.615	95
498.832	97
499.049	99
499.267	102
499.484	82
499.701	100
499.918	115
500.135	107
500.352	98
500.569	89
500.786	105
501.003	97
501.22	94
501.437	100
501.654	104
501.871	96
502.088	92
502.305	107
502.522	96
502.739	104
502.956	89
503.172	92
503.389	93
503.606	98
503.823	114
504.04	116
504.256	171
504.473	153
504.69	97
504.907	103
505.123	82
505.34	87
505.557	93
505.773	78
505.99	87
506.207	102
506.423	98
506.64	88
506.856	92
507.073	100
507.289	101
507.506	90
507.722	90
507.939	92
508.155	104
508.372	101
508.588	81
508.805	104
509.021	101
509.238	97
509.454	96
509.67	99
509.887	100
510.103	102
510.319	100
510.536	97
510.752	99
510.968	97
511.184	84
511.401	77
511.617	109
511.833	100
512.049	101
512.265	108
512.481	100
512.698	98
512.914	104
513.13	76
513.346	94
513.562	91
513.778	96
513.994	90
514.21	104
514.426	102
514.642	110
514.858	101
515.074	92
515.29	108
515.506	94
515.721	90
515.937	107
516.153	86
516.369	76
516.585	92
516.801	101
517.016	95
517.232	92
517.448	114
517.664	102
517.879	98
518.095	110
518.311	105
518.527	120
518.742	132
518.958	170
519.173	202
519.389	115
519.605	110
519.82	96
520.036	96
520.251	93
520.467	106
520.682	95
520.898	100
521.113	112
521.329	99
521.544	99
521.76	104
521.975	101
522.19	96
522.406	98
522.621	91
522.836	80
523.052	104
523.267	97
523.482	88
523.698	100
523.913	75
524.128	107
524.343	104
524.559	98
524.774	85
524.989	116
525.204	105
525.419	108
525.634	109
525.849	113
526.064	139
526.28	256
526.495	378
526.71	381
526.925	235
527.14	290
527.355	280
527.57	130
527.785	97
527.999	98
528.214	93
528.429	100
528.644	116
528.859	97
529.074	94
529.289	100
529.503	104
529.718	99
529.933	106
530.148	99
530.363	107
530.577	94
530.792	117
531.007	96
531.221	136
531.436	118
531.651	105
531.865	107
532.08	114
532.295	106
532.509	118
532.724	120
532.938	116
533.153	127
533.367	104
533.582	114
533.796	122
534.011	124
534.225	118
534.44	130
534.654	137
534.868	131
535.083	198
535.297	181
535.511	132
535.726	125
535.94	105
536.154	124
536.369	97
536.583	120
536.797	109
537.011	118
537.225	118
537.44	106
537.654	134
537.868	110
538.082	122
538.296	119
538.51	125
538.724	121
538.938	108
539.153	116
539.367	140
539.581	112
539.795	132
540.009	140
540.222	107
540.436	120
540.65	120
540.864	123
541.078	128
541.292	129
541.506	120
541.72	128
541.934	129
542.147	140
542.361	124
542.575	110
542.789	110
543.002	109
543.216	121
543.43	126
543.644	114
543.857	103
544.071	120
544.285	119
544.498	112
544.712	138
544.925	123
545.139	118
545.352	145
545.566	122
545.779	126
545.993	125
546.206	148
546.42	145
546.633	164
546.847	166
547.06	170
547.274	183
547.487	213
547.7	259
547.914	256
548.127	268
548.34	264
548.554	274
548.767	269
548.98	289
549.193	297
549.407	287
549.62	312
549.833	328
550.046	359
550.259	373
550.473	375
550.686	387
550.899	452
551.112	477
551.325	531
551.538	520
551.751	509
551.964	490
552.177	528
552.39	496
552.603	499
552.816	507
553.029	498
553.242	491
553.455	534
553.667	548
553.88	582
554.093	603
554.306	594
554.519	630
554.732	615
554.944	624
555.157	570
555.37	560
555.583	547
555.795	522
556.008	468
556.221	437
556.433	421
556.646	402
556.859	406
557.071	356
557.284	341
557.496	312
557.709	299
557.921	289
558.134	299
558.346	330
558.559	277
558.771	296
558.984	418
559.196	499
559.409	325
559.621	410
559.833	326
560.046	355
560.258	316
560.47	316
560.683	207
560.895	169
561.107	169
561.32	151
561.532	148
561.744	164
561.956	156
562.168	152
562.381	165
562.593	157
562.805	139
563.017	134
563.229	139
563.441	137
563.653	134
563.865	147
564.077	129
564.289	145
564.501	143
564.713	140
564.925	139
565.137	138
565.349	138
565.561	133
565.773	131
565.985	128
566.197	137
566.408	123
566.62	122
566.832	137
567.044	132
567.255	127
567.467	138
567.679	129
567.891	138
568.102	132
568.314	134
568.526	138
568.737	137
568.949	135
569.161	129
569.372	128
569.584	132
569.795	146
570.007	120
570.218	125
570.43	121
570.641	131
570.853	125
571.064	142
571.276	121
571.487	125
571.698	117
571.91	135
572.121	116
572.333	120
572.544	141
572.755	149
572.966	132
573.178	131
573.389	131
573.6	125
573.811	128
574.023	123
574.234	123
574.445	127
574.656	119
574.867	125
575.078	122
575.289	121
575.501	123
575.712	109
575.923	114
576.134	112
576.345	121
576.556	120
576.767	120
576.978	112
577.188	128
577.399	99
577.61	99
577.821	120
578.032	96
578.243	105
578.454	104
578.665	107
578.875	110
579.086	105
579.297	96
579.508	113
579.718	109
579.929	130
