Data from 17600_2_HRD10591_00023.txt Node
Date: Mon Jan 19 14:08:34 EST 2026
User: Yrep
Spectrometer: HR+D1059
Trigger mode: 1
Integration Time (sec): 1.000000E-1
Scans to average: 1
Electric dark correction enabled: true
Nonlinearity correction enabled: false
Boxcar width: 0
XAxis mode: Wavelengths
Number of Pixels in Spectrum: 2048
>>>>>Begin Spectral Data<<<<<
223.165	-12.94
223.4	-12.94
223.635	-12.94
223.869	-3.94
224.104	-23.94
224.338	-18.94
224.573	-18.94
224.808	-9.94
225.042	-13.94
225.277	-5.94
225.511	-14.94
225.746	0.06
225.98	-4.94
226.215	23.06
226.449	26.06
226.683	15.06
226.918	25.06
227.152	39.06
227.387	34.06
227.621	45.06
227.856	49.06
228.09	40.06
228.324	63.06
228.559	56.06
228.793	57.06
229.027	66.06
229.262	78.06
229.496	73.06
229.73	78.06
229.964	79.06
230.199	82.06
230.433	82.06
230.667	73.06
230.901	88.06
231.136	82.06
231.37	78.06
231.604	93.06
231.838	73.06
232.072	71.06
232.306	78.06
232.541	76.06
232.775	78.06
233.009	85.06
233.243	73.06
233.477	75.06
233.711	80.06
233.945	88.06
234.179	82.06
234.413	83.06
234.647	83.06
234.881	73.06
235.115	77.06
235.349	90.06
235.583	73.06
235.817	84.06
236.051	69.06
236.285	63.06
236.519	70.06
236.753	76.06
236.987	83.06
237.221	84.06
237.455	83.06
237.689	84.06
237.922	73.06
238.156	75.06
238.39	71.06
238.624	76.06
238.858	75.06
239.091	78.06
239.325	63.06
239.559	78.06
239.793	72.06
240.027	77.06
240.26	60.06
240.494	83.06
240.728	88.06
240.961	71.06
241.195	77.06
241.429	85.06
241.662	82.06
241.896	78.06
242.13	83.06
242.363	86.06
242.597	79.06
242.83	71.06
243.064	75.06
243.298	75.06
243.531	68.06
243.765	81.06
243.998	81.06
244.232	77.06
244.465	77.06
244.699	79.06
244.932	77.06
245.166	82.06
245.399	71.06
245.633	86.06
245.866	83.06
246.099	83.06
246.333	86.06
246.566	65.06
246.8	71.06
247.033	82.06
247.266	73.06
247.5	71.06
247.733	75.06
247.966	68.06
248.2	79.06
248.433	81.06
248.666	64.06
248.899	94.06
249.133	84.06
249.366	87.06
249.599	72.06
249.832	65.06
250.066	70.06
250.299	75.06
250.532	79.06
250.765	94.06
250.998	75.06
251.231	83.06
251.465	68.06
251.698	88.06
251.931	79.06
252.164	87.06
252.397	79.06
252.63	74.06
252.863	95.06
253.096	78.06
253.329	85.06
253.562	83.06
253.795	75.06
254.028	78.06
254.261	81.06
254.494	73.06
254.727	83.06
254.96	83.06
255.193	72.06
255.426	77.06
255.659	74.06
255.892	93.06
256.124	85.06
256.357	87.06
256.59	81.06
256.823	87.06
257.056	84.06
257.289	83.06
257.521	81.06
257.754	77.06
257.987	63.06
258.22	77.06
258.452	82.06
258.685	81.06
258.918	92.06
259.151	82.06
259.383	88.06
259.616	75.06
259.849	83.06
260.081	90.06
260.314	67.06
260.547	81.06
260.779	81.06
261.012	80.06
261.244	80.06
261.477	76.06
261.71	90.06
261.942	89.06
262.175	74.06
262.407	79.06
262.64	81.06
262.872	88.06
263.105	85.06
263.337	87.06
263.57	85.06
263.802	96.06
264.035	76.06
264.267	73.06
264.499	76.06
264.732	84.06
264.964	88.06
265.197	83.06
265.429	92.06
265.661	88.06
265.894	84.06
266.126	73.06
266.358	85.06
266.591	72.06
266.823	73.06
267.055	76.06
267.287	78.06
267.52	82.06
267.752	81.06
267.984	88.06
268.216	79.06
268.448	93.06
268.681	99.06
268.913	98.06
269.145	91.06
269.377	79.06
269.609	80.06
269.841	84.06
270.073	78.06
270.306	87.06
270.538	84.06
270.77	95.06
271.002	65.06
271.234	81.06
271.466	91.06
271.698	94.06
271.93	73.06
272.162	89.06
272.394	78.06
272.626	65.06
272.858	87.06
273.09	83.06
273.322	93.06
273.553	93.06
273.785	80.06
274.017	107.06
274.249	98.06
274.481	91.06
274.713	81.06
274.945	84.06
275.176	77.06
275.408	70.06
275.64	83.06
275.872	69.06
276.104	86.06
276.335	81.06
276.567	88.06
276.799	82.06
277.031	76.06
277.262	91.06
277.494	83.06
277.726	80.06
277.957	84.06
278.189	83.06
278.421	78.06
278.652	92.06
278.884	87.06
279.115	84.06
279.347	83.06
279.579	89.06
279.81	76.06
280.042	92.06
280.273	91.06
280.505	92.06
280.736	83.06
280.968	86.06
281.199	74.06
281.431	85.06
281.662	95.06
281.894	73.06
282.125	72.06
282.356	84.06
282.588	77.06
282.819	70.06
283.051	72.06
283.282	77.06
283.513	72.06
283.745	84.06
283.976	74.06
284.207	82.06
284.439	94.06
284.67	84.06
284.901	90.06
285.132	99.06
285.364	81.06
285.595	95.06
285.826	95.06
286.057	77.06
286.288	83.06
286.52	85.06
286.751	89.06
286.982	88.06
287.213	73.06
287.444	91.06
287.675	89.06
287.906	75.06
288.138	86.06
288.369	88.06
288.6	90.06
288.831	79.06
289.062	89.06
289.293	97.06
289.524	75.06
289.755	90.06
289.986	96.06
290.217	84.06
290.448	86.06
290.679	92.06
290.91	73.06
291.141	84.06
291.371	86.06
291.602	68.06
291.833	87.06
292.064	90.06
292.295	78.06
292.526	103.06
292.757	76.06
292.987	85.06
293.218	89.06
293.449	75.06
293.68	101.06
293.91	87.06
294.141	83.06
294.372	96.06
294.603	93.06
294.833	90.06
295.064	91.06
295.295	94.06
295.525	83.06
295.756	96.06
295.987	96.06
296.217	84.06
296.448	86.06
296.679	82.06
296.909	91.06
297.14	91.06
297.37	87.06
297.601	80.06
297.831	77.06
298.062	102.06
298.292	86.06
298.523	82.06
298.753	90.06
298.984	84.06
299.214	91.06
299.445	93.06
299.675	90.06
299.905	88.06
300.136	87.06
300.366	95.06
300.597	83.06
300.827	80.06
301.057	77.06
301.288	76.06
301.518	102.06
301.748	97.06
301.979	90.06
302.209	93.06
302.439	75.06
302.669	79.06
302.9	111.06
303.13	91.06
303.36	76.06
303.59	81.06
303.82	95.06
304.051	90.06
304.281	87.06
304.511	77.06
304.741	99.06
304.971	80.06
305.201	91.06
305.431	88.06
305.661	99.06
305.891	82.06
306.121	85.06
306.352	82.06
306.582	88.06
306.812	92.06
307.042	84.06
307.272	87.06
307.502	91.06
307.731	97.06
307.961	78.06
308.191	92.06
308.421	102.06
308.651	99.06
308.881	95.06
309.111	81.06
309.341	103.06
309.571	100.06
309.8	90.06
310.03	95.06
310.26	75.06
310.49	82.06
310.72	77.06
310.949	80.06
311.179	75.06
311.409	77.06
311.639	97.06
311.868	100.06
312.098	79.06
312.328	87.06
312.557	87.06
312.787	90.06
313.017	80.06
313.246	75.06
313.476	97.06
313.706	65.06
313.935	93.06
314.165	104.06
314.394	81.06
314.624	103.06
314.853	81.06
315.083	85.06
315.312	92.06
315.542	88.06
315.771	85.06
316.001	84.06
316.23	90.06
316.46	106.06
316.689	100.06
316.919	91.06
317.148	86.06
317.377	97.06
317.607	93.06
317.836	98.06
318.065	114.06
318.295	110.06
318.524	93.06
318.753	95.06
318.983	87.06
319.212	80.06
319.441	84.06
319.67	83.06
319.9	92.06
320.129	76.06
320.358	84.06
320.587	75.06
320.816	77.06
321.046	87.06
321.275	77.06
321.504	84.06
321.733	93.06
321.962	91.06
322.191	88.06
322.42	90.06
322.649	91.06
322.878	117.06
323.108	95.06
323.337	91.06
323.566	91.06
323.795	94.06
324.024	95.06
324.253	76.06
324.482	83.06
324.71	73.06
324.939	93.06
325.168	100.06
325.397	91.06
325.626	90.06
325.855	85.06
326.084	87.06
326.313	92.06
326.542	84.06
326.77	95.06
326.999	93.06
327.228	65.06
327.457	77.06
327.686	95.06
327.914	85.06
328.143	94.06
328.372	79.06
328.6	88.06
328.829	94.06
329.058	82.06
329.287	88.06
329.515	80.06
329.744	76.06
329.972	88.06
330.201	84.06
330.43	106.06
330.658	86.06
330.887	84.06
331.115	79.06
331.344	82.06
331.572	92.06
331.801	93.06
332.03	82.06
332.258	99.06
332.486	95.06
332.715	85.06
332.943	98.06
333.172	76.06
333.4	84.06
333.629	82.06
333.857	89.06
334.085	97.06
334.314	100.06
334.542	82.06
334.771	98.06
334.999	103.06
335.227	95.06
335.455	96.06
335.684	107.06
335.912	102.06
336.14	103.06
336.369	111.06
336.597	96.06
336.825	103.06
337.053	87.06
337.281	102.06
337.51	103.06
337.738	86.06
337.966	80.06
338.194	98.06
338.422	89.06
338.65	87.06
338.878	86.06
339.106	88.06
339.334	88.06
339.562	94.06
339.79	94.06
340.018	93.06
340.246	77.06
340.474	89.06
340.702	83.06
340.93	85.06
341.158	88.06
341.386	76.06
341.614	85.06
341.842	85.06
342.07	92.06
342.298	103.06
342.526	89.06
342.754	75.06
342.981	76.06
343.209	96.06
343.437	88.06
343.665	82.06
343.893	82.06
344.12	98.06
344.348	92.06
344.576	85.06
344.804	85.06
345.031	85.06
345.259	87.06
345.487	81.06
345.714	80.06
345.942	77.06
346.17	96.06
346.397	77.06
346.625	91.06
346.853	85.06
347.08	93.06
347.308	99.06
347.535	87.06
347.763	79.06
347.99	97.06
348.218	95.06
348.445	96.06
348.673	92.06
348.9	93.06
349.128	101.06
349.355	79.06
349.583	84.06
349.81	91.06
350.037	99.06
350.265	106.06
350.492	82.06
350.72	83.06
350.947	82.06
351.174	92.06
351.402	83.06
351.629	89.06
351.856	91.06
352.083	85.06
352.311	77.06
352.538	86.06
352.765	93.06
352.992	81.06
353.22	88.06
353.447	84.06
353.674	92.06
353.901	83.06
354.128	96.06
354.355	87.06
354.583	91.06
354.81	92.06
355.037	97.06
355.264	97.06
355.491	89.06
355.718	96.06
355.945	99.06
356.172	93.06
356.399	75.06
356.626	88.06
356.853	95.06
357.08	104.06
357.307	101.06
357.534	83.06
357.761	98.06
357.988	103.06
358.215	104.06
358.441	86.06
358.668	90.06
358.895	99.06
359.122	97.06
359.349	94.06
359.576	95.06
359.802	75.06
360.029	85.06
360.256	105.06
360.483	97.06
360.709	98.06
360.936	88.06
361.163	99.06
361.39	94.06
361.616	96.06
361.843	101.06
362.07	87.06
362.296	108.06
362.523	105.06
362.749	102.06
362.976	129.06
363.203	141.06
363.429	116.06
363.656	103.06
363.882	105.06
364.109	130.06
364.335	149.06
364.562	155.06
364.788	123.06
365.015	78.06
365.241	93.06
365.468	87.06
365.694	88.06
365.92	91.06
366.147	94.06
366.373	99.06
366.599	69.06
366.826	91.06
367.052	107.06
367.278	98.06
367.505	96.06
367.731	100.06
367.957	99.06
368.184	92.06
368.41	81.06
368.636	93.06
368.862	92.06
369.089	82.06
369.315	73.06
369.541	99.06
369.767	96.06
369.993	98.06
370.219	102.06
370.445	92.06
370.672	99.06
370.898	89.06
371.124	92.06
371.35	86.06
371.576	91.06
371.802	84.06
372.028	96.06
372.254	99.06
372.48	107.06
372.706	89.06
372.932	100.06
373.158	83.06
373.384	117.06
373.61	127.06
373.835	120.06
374.061	107.06
374.287	103.06
374.513	95.06
374.739	99.06
374.965	99.06
375.191	107.06
375.416	98.06
375.642	104.06
375.868	105.06
376.094	96.06
376.319	91.06
376.545	87.06
376.771	102.06
376.997	87.06
377.222	97.06
377.448	81.06
377.674	95.06
377.899	104.06
378.125	96.06
378.35	87.06
378.576	89.06
378.802	89.06
379.027	96.06
379.253	95.06
379.478	90.06
379.704	95.06
379.929	90.06
380.155	91.06
380.38	88.06
380.606	92.06
380.831	96.06
381.057	103.06
381.282	100.06
381.507	91.06
381.733	88.06
381.958	100.06
382.184	90.06
382.409	88.06
382.634	108.06
382.86	105.06
383.085	100.06
383.31	115.06
383.535	100.06
383.761	92.06
383.986	119.06
384.211	96.06
384.436	101.06
384.662	98.06
384.887	92.06
385.112	113.06
385.337	96.06
385.562	95.06
385.787	108.06
386.013	107.06
386.238	112.06
386.463	107.06
386.688	97.06
386.913	101.06
387.138	91.06
387.363	104.06
387.588	112.06
387.813	90.06
388.038	99.06
388.263	101.06
388.488	97.06
388.713	99.06
388.938	90.06
389.163	102.06
389.387	87.06
389.612	97.06
389.837	110.06
390.062	103.06
390.287	93.06
390.512	87.06
390.736	95.06
390.961	92.06
391.186	94.06
391.411	101.06
391.636	92.06
391.86	113.06
392.085	92.06
392.31	100.06
392.534	121.06
392.759	144.06
392.984	206.06
393.208	357.06
393.433	507.06
393.658	402.06
393.882	182.06
394.107	141.06
394.331	143.06
394.556	148.06
394.78	116.06
395.005	101.06
395.229	98.06
395.454	108.06
395.678	131.06
395.903	133.06
396.127	162.06
396.352	191.06
396.576	225.06
396.801	351.06
397.025	426.06
397.249	217.06
397.474	147.06
397.698	113.06
397.922	96.06
398.147	106.06
398.371	84.06
398.595	93.06
398.82	88.06
399.044	99.06
399.268	99.06
399.492	86.06
399.717	76.06
399.941	98.06
400.165	106.06
400.389	82.06
400.613	85.06
400.837	97.06
401.062	87.06
401.286	93.06
401.51	75.06
401.734	74.06
401.958	93.06
402.182	97.06
402.406	86.06
402.63	108.06
402.854	102.06
403.078	102.06
403.302	93.06
403.526	91.06
403.75	105.06
403.974	93.06
404.198	80.06
404.422	105.06
404.645	109.06
404.869	98.06
405.093	75.06
405.317	82.06
405.541	82.06
405.765	87.06
405.988	93.06
406.212	96.06
406.436	90.06
406.66	76.06
406.883	87.06
407.107	99.06
407.331	103.06
407.555	108.06
407.778	142.06
408.002	139.06
408.226	102.06
408.449	85.06
408.673	106.06
408.896	96.06
409.12	97.06
409.344	102.06
409.567	88.06
409.791	112.06
410.014	104.06
410.238	121.06
410.461	97.06
410.685	91.06
410.908	93.06
411.132	95.06
411.355	90.06
411.578	108.06
411.802	99.06
412.025	91.06
412.249	91.06
412.472	96.06
412.695	103.06
412.919	95.06
413.142	102.06
413.365	72.06
413.589	86.06
413.812	87.06
414.035	103.06
414.258	107.06
414.482	97.06
414.705	93.06
414.928	90.06
415.151	92.06
415.374	84.06
415.597	96.06
415.821	87.06
416.044	77.06
416.267	91.06
416.49	93.06
416.713	93.06
416.936	99.06
417.159	89.06
417.382	87.06
417.605	86.06
417.828	83.06
418.051	93.06
418.274	96.06
418.497	91.06
418.72	89.06
418.943	103.06
419.166	93.06
419.389	94.06
419.611	89.06
419.834	99.06
420.057	98.06
420.28	90.06
420.503	88.06
420.726	93.06
420.948	97.06
421.171	121.06
421.394	120.06
421.617	153.06
421.839	160.06
422.062	148.06
422.285	200.06
422.507	367.06
422.73	548.06
422.953	506.06
423.175	270.06
423.398	169.06
423.621	127.06
423.843	112.06
424.066	110.06
424.288	108.06
424.511	95.06
424.733	90.06
424.956	104.06
425.178	111.06
425.401	85.06
425.623	87.06
425.846	98.06
426.068	83.06
426.291	99.06
426.513	92.06
426.735	87.06
426.958	97.06
427.18	96.06
427.402	103.06
427.625	91.06
427.847	105.06
428.069	108.06
428.292	135.06
428.514	160.06
428.736	124.06
428.958	150.06
429.181	168.06
429.403	107.06
429.625	108.06
429.847	147.06
430.069	197.06
430.292	209.06
430.514	199.06
430.736	162.06
430.958	163.06
431.18	121.06
431.402	103.06
431.624	108.06
431.846	124.06
432.068	151.06
432.29	117.06
432.512	87.06
432.734	93.06
432.956	97.06
433.178	88.06
433.4	97.06
433.622	80.06
433.844	97.06
434.066	87.06
434.287	91.06
434.509	92.06
434.731	90.06
434.953	86.06
435.175	100.06
435.397	92.06
435.618	114.06
435.84	87.06
436.062	83.06
436.284	72.06
436.505	94.06
436.727	89.06
436.949	97.06
437.17	77.06
437.392	85.06
437.614	96.06
437.835	91.06
438.057	77.06
438.278	86.06
438.5	100.06
438.721	97.06
438.943	95.06
439.165	100.06
439.386	98.06
439.608	89.06
439.829	85.06
440.05	93.06
440.272	97.06
440.493	91.06
440.715	89.06
440.936	89.06
441.158	92.06
441.379	91.06
441.6	93.06
441.822	84.06
442.043	83.06
442.264	103.06
442.486	157.06
442.707	193.06
442.928	148.06
443.149	123.06
443.371	191.06
443.592	302.06
443.813	268.06
444.034	127.06
444.255	109.06
444.476	91.06
444.698	103.06
444.919	97.06
445.14	189.06
445.361	226.06
445.582	367.06
445.803	313.06
446.024	134.06
446.245	97.06
446.466	91.06
446.687	87.06
446.908	105.06
447.129	88.06
447.35	87.06
447.571	90.06
447.792	94.06
448.013	82.06
448.234	109.06
448.455	84.06
448.675	83.06
448.896	75.06
449.117	99.06
449.338	84.06
449.559	87.06
449.779	80.06
450	80.06
450.221	83.06
450.442	73.06
450.662	96.06
450.883	91.06
451.104	96.06
451.324	89.06
451.545	100.06
451.766	72.06
451.986	94.06
452.207	95.06
452.428	84.06
452.648	113.06
452.869	113.06
453.089	111.06
453.31	100.06
453.53	104.06
453.751	91.06
453.971	86.06
454.192	87.06
454.412	80.06
454.633	97.06
454.853	75.06
455.073	87.06
455.294	81.06
455.514	96.06
455.734	86.06
455.955	89.06
456.175	100.06
456.395	88.06
456.616	88.06
456.836	98.06
457.056	90.06
457.276	76.06
457.497	89.06
457.717	117.06
457.937	122.06
458.157	139.06
458.377	156.06
458.598	128.06
458.818	151.06
459.038	98.06
459.258	93.06
459.478	81.06
459.698	89.06
459.918	89.06
460.138	93.06
460.358	74.06
460.578	121.06
460.798	142.06
461.018	155.06
461.238	100.06
461.458	90.06
461.678	99.06
461.898	92.06
462.118	100.06
462.338	93.06
462.558	91.06
462.777	91.06
462.997	80.06
463.217	85.06
463.437	89.06
463.657	87.06
463.876	83.06
464.096	77.06
464.316	75.06
464.536	70.06
464.755	95.06
464.975	95.06
465.195	90.06
465.414	95.06
465.634	96.06
465.854	85.06
466.073	84.06
466.293	75.06
466.512	93.06
466.732	89.06
466.951	89.06
467.171	92.06
467.391	89.06
467.61	88.06
467.829	90.06
468.049	80.06
468.268	95.06
468.488	98.06
468.707	94.06
468.927	107.06
469.146	86.06
469.365	103.06
469.585	83.06
469.804	93.06
470.023	95.06
470.243	105.06
470.462	81.06
470.681	86.06
470.901	91.06
471.12	89.06
471.339	90.06
471.558	99.06
471.777	88.06
471.997	101.06
472.216	76.06
472.435	85.06
472.654	84.06
472.873	87.06
473.092	86.06
473.311	96.06
473.53	87.06
473.749	91.06
473.968	108.06
474.187	91.06
474.406	93.06
474.625	92.06
474.844	98.06
475.063	90.06
475.282	93.06
475.501	83.06
475.72	87.06
475.939	87.06
476.158	92.06
476.377	75.06
476.596	87.06
476.814	92.06
477.033	98.06
477.252	102.06
477.471	85.06
477.69	72.06
477.908	83.06
478.127	97.06
478.346	90.06
478.564	101.06
478.783	87.06
479.002	111.06
479.22	83.06
479.439	96.06
479.658	99.06
479.876	104.06
480.095	91.06
480.313	92.06
480.532	111.06
480.751	91.06
480.969	81.06
481.188	92.06
481.406	121.06
481.624	85.06
481.843	68.06
482.061	94.06
482.28	99.06
482.498	95.06
482.717	90.06
482.935	99.06
483.153	85.06
483.372	108.06
483.59	82.06
483.808	95.06
484.027	101.06
484.245	93.06
484.463	104.06
484.681	91.06
484.9	92.06
485.118	112.06
485.336	92.06
485.554	91.06
485.772	88.06
485.99	76.06
486.209	90.06
486.427	82.06
486.645	112.06
486.863	99.06
487.081	89.06
487.299	102.06
487.517	117.06
487.735	128.06
487.953	212.06
488.171	170.06
488.389	104.06
488.607	112.06
488.825	95.06
489.043	98.06
489.261	104.06
489.479	101.06
489.696	84.06
489.914	89.06
490.132	96.06
490.35	95.06
490.568	93.06
490.786	93.06
491.003	101.06
491.221	89.06
491.439	76.06
491.657	81.06
491.874	99.06
492.092	109.06
492.31	93.06
492.527	91.06
492.745	98.06
492.963	87.06
493.18	96.06
493.398	92.06
493.615	96.06
493.833	78.06
494.05	85.06
494.268	82.06
494.485	103.06
494.703	90.06
494.92	98.06
495.138	86.06
495.355	84.06
495.573	97.06
495.79	95.06
496.008	95.06
496.225	83.06
496.442	104.06
496.66	103.06
496.877	85.06
497.094	107.06
497.312	99.06
497.529	85.06
497.746	100.06
497.963	103.06
498.181	105.06
498.398	91.06
498.615	93.06
498.832	87.06
499.049	99.06
499.267	103.06
499.484	99.06
499.701	119.06
499.918	95.06
500.135	104.06
500.352	102.06
500.569	95.06
500.786	109.06
501.003	86.06
501.22	96.06
501.437	91.06
501.654	85.06
501.871	103.06
502.088	95.06
502.305	103.06
502.522	116.06
502.739	85.06
502.956	88.06
503.172	97.06
503.389	96.06
503.606	97.06
503.823	99.06
504.04	113.06
504.256	155.06
504.473	141.06
504.69	102.06
504.907	102.06
505.123	86.06
505.34	86.06
505.557	100.06
505.773	109.06
505.99	72.06
506.207	88.06
506.423	98.06
506.64	89.06
506.856	98.06
507.073	91.06
507.289	88.06
507.506	101.06
507.722	97.06
507.939	82.06
508.155	85.06
508.372	84.06
508.588	90.06
508.805	95.06
509.021	92.06
509.238	98.06
509.454	84.06
509.67	88.06
509.887	82.06
510.103	94.06
510.319	76.06
510.536	96.06
510.752	87.06
510.968	84.06
511.184	93.06
511.401	98.06
511.617	92.06
511.833	95.06
512.049	87.06
512.265	103.06
512.481	85.06
512.698	83.06
512.914	95.06
513.13	83.06
513.346	89.06
513.562	91.06
513.778	91.06
513.994	88.06
514.21	81.06
514.426	89.06
514.642	89.06
514.858	89.06
515.074	103.06
515.29	85.06
515.506	87.06
515.721	99.06
515.937	89.06
516.153	97.06
516.369	84.06
