Data from 17600_2_HRD10591_00013.txt Node
Date: Mon Jan 19 14:08:29 EST 2026
User: Yrep
Spectrometer: HR+D1059
Trigger mode: 1
Integration Time (sec): 1.000000E-1
Scans to average: 1
Electric dark correction enabled: true
Nonlinearity correction enabled: false
Boxcar width: 0
XAxis mode: Wavelengths
Number of Pixels in Spectrum: 2048
>>>>>Begin Spectral Data<<<<<
223.165	-9.94
223.4	-9.94
223.635	-9.94
223.869	-20.94
224.104	-12.94
224.338	-24.94
224.573	-11.94
224.808	-17.94
225.042	3.06
225.277	-4.94
225.511	-12.94
225.746	12.06
225.98	6.06
226.215	14.06
226.449	23.06
226.683	16.06
226.918	18.06
227.152	24.06
227.387	45.06
227.621	48.06
227.856	31.06
228.09	38.06
228.324	42.06
228.559	55.06
228.793	65.06
229.027	51.06
229.262	59.06
229.496	71.06
229.73	71.06
229.964	67.06
230.199	51.06
230.433	73.06
230.667	92.06
230.901	78.06
231.136	70.06
231.37	81.06
231.604	80.06
231.838	84.06
232.072	68.06
232.306	87.06
232.541	80.06
232.775	88.06
233.009	85.06
233.243	88.06
233.477	68.06
233.711	83.06
233.945	81.06
234.179	93.06
234.413	87.06
234.647	74.06
234.881	84.06
235.115	82.06
235.349	82.06
235.583	90.06
235.817	66.06
236.051	68.06
236.285	71.06
236.519	79.06
236.753	75.06
236.987	72.06
237.221	85.06
237.455	59.06
237.689	81.06
237.922	86.06
238.156	82.06
238.39	72.06
238.624	74.06
238.858	81.06
239.091	74.06
239.325	63.06
239.559	82.06
239.793	62.06
240.027	82.06
240.26	64.06
240.494	83.06
240.728	77.06
240.961	72.06
241.195	74.06
241.429	73.06
241.662	59.06
241.896	70.06
242.13	71.06
242.363	82.06
242.597	99.06
242.83	68.06
243.064	79.06
243.298	94.06
243.531	85.06
243.765	57.06
243.998	80.06
244.232	75.06
244.465	71.06
244.699	81.06
244.932	81.06
245.166	75.06
245.399	71.06
245.633	81.06
245.866	74.06
246.099	66.06
246.333	66.06
246.566	74.06
246.8	74.06
247.033	76.06
247.266	81.06
247.5	70.06
247.733	87.06
247.966	82.06
248.2	60.06
248.433	83.06
248.666	87.06
248.899	80.06
249.133	78.06
249.366	80.06
249.599	86.06
249.832	78.06
250.066	80.06
250.299	96.06
250.532	67.06
250.765	68.06
250.998	80.06
251.231	77.06
251.465	77.06
251.698	80.06
251.931	72.06
252.164	87.06
252.397	77.06
252.63	78.06
252.863	71.06
253.096	88.06
253.329	76.06
253.562	83.06
253.795	80.06
254.028	95.06
254.261	77.06
254.494	75.06
254.727	84.06
254.96	82.06
255.193	79.06
255.426	80.06
255.659	65.06
255.892	84.06
256.124	75.06
256.357	88.06
256.59	79.06
256.823	80.06
257.056	99.06
257.289	85.06
257.521	89.06
257.754	80.06
257.987	86.06
258.22	81.06
258.452	73.06
258.685	64.06
258.918	82.06
259.151	84.06
259.383	90.06
259.616	85.06
259.849	87.06
260.081	92.06
260.314	74.06
260.547	89.06
260.779	88.06
261.012	84.06
261.244	77.06
261.477	72.06
261.71	70.06
261.942	84.06
262.175	90.06
262.407	87.06
262.64	70.06
262.872	77.06
263.105	68.06
263.337	69.06
263.57	80.06
263.802	84.06
264.035	77.06
264.267	83.06
264.499	85.06
264.732	85.06
264.964	86.06
265.197	84.06
265.429	77.06
265.661	83.06
265.894	84.06
266.126	94.06
266.358	82.06
266.591	88.06
266.823	75.06
267.055	98.06
267.287	82.06
267.52	83.06
267.752	91.06
267.984	87.06
268.216	75.06
268.448	78.06
268.681	76.06
268.913	88.06
269.145	78.06
269.377	72.06
269.609	85.06
269.841	80.06
270.073	82.06
270.306	89.06
270.538	86.06
270.77	79.06
271.002	93.06
271.234	84.06
271.466	86.06
271.698	73.06
271.93	89.06
272.162	72.06
272.394	86.06
272.626	68.06
272.858	86.06
273.09	72.06
273.322	71.06
273.553	76.06
273.785	82.06
274.017	88.06
274.249	81.06
274.481	93.06
274.713	77.06
274.945	86.06
275.176	87.06
275.408	81.06
275.64	80.06
275.872	82.06
276.104	91.06
276.335	76.06
276.567	84.06
276.799	73.06
277.031	82.06
277.262	84.06
277.494	81.06
277.726	73.06
277.957	75.06
278.189	87.06
278.421	84.06
278.652	91.06
278.884	97.06
279.115	88.06
279.347	82.06
279.579	86.06
279.81	77.06
280.042	89.06
280.273	84.06
280.505	81.06
280.736	96.06
280.968	89.06
281.199	106.06
281.431	72.06
281.662	74.06
281.894	78.06
282.125	90.06
282.356	83.06
282.588	86.06
282.819	89.06
283.051	76.06
283.282	74.06
283.513	83.06
283.745	86.06
283.976	92.06
284.207	91.06
284.439	80.06
284.67	85.06
284.901	96.06
285.132	97.06
285.364	84.06
285.595	102.06
285.826	89.06
286.057	75.06
286.288	80.06
286.52	89.06
286.751	92.06
286.982	77.06
287.213	78.06
287.444	80.06
287.675	95.06
287.906	72.06
288.138	87.06
288.369	83.06
288.6	79.06
288.831	77.06
289.062	90.06
289.293	87.06
289.524	87.06
289.755	91.06
289.986	80.06
290.217	92.06
290.448	92.06
290.679	79.06
290.91	81.06
291.141	106.06
291.371	95.06
291.602	83.06
291.833	94.06
292.064	80.06
292.295	76.06
292.526	100.06
292.757	99.06
292.987	81.06
293.218	74.06
293.449	78.06
293.68	77.06
293.91	87.06
294.141	85.06
294.372	77.06
294.603	90.06
294.833	80.06
295.064	88.06
295.295	81.06
295.525	83.06
295.756	92.06
295.987	90.06
296.217	76.06
296.448	80.06
296.679	91.06
296.909	80.06
297.14	79.06
297.37	82.06
297.601	98.06
297.831	84.06
298.062	79.06
298.292	82.06
298.523	92.06
298.753	80.06
298.984	92.06
299.214	75.06
299.445	86.06
299.675	100.06
299.905	78.06
300.136	76.06
300.366	79.06
300.597	95.06
300.827	102.06
301.057	85.06
301.288	75.06
301.518	77.06
301.748	85.06
301.979	111.06
302.209	87.06
302.439	87.06
302.669	94.06
302.9	73.06
303.13	84.06
303.36	88.06
303.59	91.06
303.82	95.06
304.051	83.06
304.281	86.06
304.511	90.06
304.741	94.06
304.971	98.06
305.201	77.06
305.431	76.06
305.661	82.06
305.891	82.06
306.121	95.06
306.352	79.06
306.582	89.06
306.812	82.06
307.042	95.06
307.272	83.06
307.502	86.06
307.731	103.06
307.961	90.06
308.191	86.06
308.421	87.06
308.651	91.06
308.881	83.06
309.111	86.06
309.341	97.06
309.571	103.06
309.8	93.06
310.03	88.06
310.26	84.06
310.49	87.06
310.72	81.06
310.949	96.06
311.179	87.06
311.409	76.06
311.639	90.06
311.868	88.06
312.098	95.06
312.328	94.06
312.557	80.06
312.787	89.06
313.017	98.06
313.246	87.06
313.476	86.06
313.706	84.06
313.935	75.06
314.165	90.06
314.394	89.06
314.624	93.06
314.853	95.06
315.083	82.06
315.312	83.06
315.542	96.06
315.771	86.06
316.001	96.06
316.23	82.06
316.46	84.06
316.689	102.06
316.919	84.06
317.148	85.06
317.377	81.06
317.607	95.06
317.836	96.06
318.065	91.06
318.295	91.06
318.524	74.06
318.753	95.06
318.983	82.06
319.212	88.06
319.441	92.06
319.67	71.06
319.9	88.06
320.129	95.06
320.358	87.06
320.587	89.06
320.816	90.06
321.046	81.06
321.275	83.06
321.504	84.06
321.733	74.06
321.962	69.06
322.191	86.06
322.42	89.06
322.649	87.06
322.878	78.06
323.108	82.06
323.337	90.06
323.566	82.06
323.795	85.06
324.024	100.06
324.253	78.06
324.482	80.06
324.71	93.06
324.939	77.06
325.168	87.06
325.397	82.06
325.626	99.06
325.855	88.06
326.084	88.06
326.313	71.06
326.542	93.06
326.77	91.06
326.999	84.06
327.228	86.06
327.457	98.06
327.686	85.06
327.914	73.06
328.143	98.06
328.372	80.06
328.6	77.06
328.829	100.06
329.058	99.06
329.287	95.06
329.515	87.06
329.744	86.06
329.972	100.06
330.201	91.06
330.43	98.06
330.658	84.06
330.887	83.06
331.115	80.06
331.344	90.06
331.572	76.06
331.801	91.06
332.03	86.06
332.258	76.06
332.486	82.06
332.715	87.06
332.943	96.06
333.172	91.06
333.4	94.06
333.629	87.06
333.857	82.06
334.085	82.06
334.314	99.06
334.542	92.06
334.771	104.06
334.999	106.06
335.227	104.06
335.455	98.06
335.684	100.06
335.912	94.06
336.14	94.06
336.369	94.06
336.597	76.06
336.825	88.06
337.053	86.06
337.281	80.06
337.51	83.06
337.738	87.06
337.966	90.06
338.194	81.06
338.422	87.06
338.65	92.06
338.878	73.06
339.106	86.06
339.334	97.06
339.562	88.06
339.79	85.06
340.018	83.06
340.246	96.06
340.474	93.06
340.702	75.06
340.93	89.06
341.158	81.06
341.386	79.06
341.614	87.06
341.842	108.06
342.07	92.06
342.298	79.06
342.526	72.06
342.754	95.06
342.981	84.06
343.209	88.06
343.437	93.06
343.665	80.06
343.893	94.06
344.12	103.06
344.348	86.06
344.576	90.06
344.804	77.06
345.031	77.06
345.259	90.06
345.487	77.06
345.714	85.06
345.942	83.06
346.17	95.06
346.397	87.06
346.625	92.06
346.853	95.06
347.08	70.06
347.308	89.06
347.535	93.06
347.763	95.06
347.99	90.06
348.218	86.06
348.445	89.06
348.673	76.06
348.9	81.06
349.128	83.06
349.355	89.06
349.583	84.06
349.81	92.06
350.037	80.06
350.265	84.06
350.492	79.06
350.72	98.06
350.947	98.06
351.174	83.06
351.402	90.06
351.629	92.06
351.856	88.06
352.083	88.06
352.311	103.06
352.538	92.06
352.765	88.06
352.992	92.06
353.22	86.06
353.447	77.06
353.674	92.06
353.901	77.06
354.128	90.06
354.355	78.06
354.583	82.06
354.81	94.06
355.037	93.06
355.264	92.06
355.491	87.06
355.718	86.06
355.945	90.06
356.172	90.06
356.399	81.06
356.626	94.06
356.853	84.06
357.08	89.06
357.307	109.06
357.534	81.06
357.761	98.06
357.988	92.06
358.215	81.06
358.441	96.06
358.668	94.06
358.895	84.06
359.122	102.06
359.349	101.06
359.576	86.06
359.802	80.06
360.029	89.06
360.256	98.06
360.483	94.06
360.709	87.06
360.936	96.06
361.163	91.06
361.39	89.06
361.616	103.06
361.843	99.06
362.07	98.06
362.296	102.06
362.523	98.06
362.749	98.06
362.976	118.06
363.203	122.06
363.429	98.06
363.656	83.06
363.882	80.06
364.109	116.06
364.335	133.06
364.562	126.06
364.788	103.06
365.015	74.06
365.241	86.06
365.468	79.06
365.694	86.06
365.92	85.06
366.147	106.06
366.373	85.06
366.599	87.06
366.826	95.06
367.052	88.06
367.278	96.06
367.505	74.06
367.731	81.06
367.957	88.06
368.184	91.06
368.41	95.06
368.636	83.06
368.862	93.06
369.089	95.06
369.315	93.06
369.541	92.06
369.767	88.06
369.993	88.06
370.219	88.06
370.445	94.06
370.672	111.06
370.898	103.06
371.124	88.06
371.35	89.06
371.576	79.06
371.802	81.06
372.028	85.06
372.254	107.06
372.48	94.06
372.706	103.06
372.932	100.06
373.158	101.06
373.384	93.06
373.61	109.06
373.835	106.06
374.061	107.06
374.287	83.06
374.513	95.06
374.739	86.06
374.965	83.06
375.191	96.06
375.416	88.06
375.642	82.06
375.868	89.06
376.094	88.06
376.319	86.06
376.545	97.06
376.771	85.06
376.997	84.06
377.222	74.06
377.448	89.06
377.674	83.06
377.899	77.06
378.125	94.06
378.35	96.06
378.576	86.06
378.802	100.06
379.027	100.06
379.253	102.06
379.478	86.06
379.704	95.06
379.929	90.06
380.155	82.06
380.38	86.06
380.606	83.06
380.831	78.06
381.057	90.06
381.282	81.06
381.507	94.06
381.733	98.06
381.958	94.06
382.184	111.06
382.409	101.06
382.634	94.06
382.86	112.06
383.085	92.06
383.31	90.06
383.535	114.06
383.761	95.06
383.986	98.06
384.211	85.06
384.436	96.06
384.662	94.06
384.887	94.06
385.112	79.06
385.337	85.06
385.562	99.06
385.787	86.06
386.013	87.06
386.238	102.06
386.463	97.06
386.688	94.06
386.913	83.06
387.138	93.06
387.363	99.06
387.588	114.06
387.813	94.06
388.038	102.06
388.263	88.06
388.488	100.06
388.713	100.06
388.938	94.06
389.163	91.06
389.387	76.06
389.612	88.06
389.837	90.06
390.062	91.06
390.287	100.06
390.512	76.06
390.736	86.06
390.961	80.06
391.186	86.06
391.411	90.06
391.636	70.06
391.86	95.06
392.085	100.06
392.31	98.06
392.534	106.06
392.759	105.06
392.984	153.06
393.208	254.06
393.433	373.06
393.658	284.06
393.882	134.06
394.107	108.06
394.331	122.06
394.556	112.06
394.78	116.06
395.005	96.06
395.229	100.06
395.454	99.06
395.678	108.06
395.903	105.06
396.127	122.06
396.352	164.06
396.576	166.06
396.801	253.06
397.025	286.06
397.249	159.06
397.474	136.06
397.698	103.06
397.922	112.06
398.147	104.06
398.371	78.06
398.595	90.06
398.82	70.06
399.044	91.06
399.268	82.06
399.492	98.06
399.717	95.06
399.941	96.06
400.165	88.06
400.389	75.06
400.613	81.06
400.837	97.06
401.062	86.06
401.286	88.06
401.51	103.06
401.734	79.06
401.958	82.06
402.182	88.06
402.406	89.06
402.63	78.06
402.854	75.06
403.078	91.06
403.302	95.06
403.526	102.06
403.75	99.06
403.974	98.06
404.198	99.06
404.422	103.06
404.645	96.06
404.869	102.06
405.093	82.06
405.317	78.06
405.541	73.06
405.765	80.06
405.988	88.06
406.212	81.06
406.436	89.06
406.66	87.06
406.883	64.06
407.107	90.06
407.331	98.06
407.555	98.06
407.778	130.06
408.002	107.06
408.226	94.06
408.449	83.06
408.673	89.06
408.896	96.06
409.12	92.06
409.344	104.06
409.567	110.06
409.791	101.06
410.014	103.06
410.238	88.06
410.461	85.06
410.685	81.06
410.908	93.06
411.132	74.06
411.355	95.06
411.578	88.06
411.802	98.06
412.025	76.06
412.249	79.06
412.472	100.06
412.695	75.06
412.919	75.06
413.142	74.06
413.365	98.06
413.589	99.06
413.812	89.06
414.035	85.06
414.258	94.06
414.482	76.06
414.705	94.06
414.928	74.06
415.151	85.06
415.374	82.06
415.597	84.06
415.821	78.06
416.044	75.06
416.267	98.06
416.49	86.06
416.713	75.06
416.936	86.06
417.159	88.06
417.382	87.06
417.605	80.06
417.828	89.06
418.051	94.06
418.274	91.06
418.497	90.06
418.72	83.06
418.943	79.06
419.166	81.06
419.389	75.06
419.611	82.06
419.834	83.06
420.057	76.06
420.28	102.06
420.503	94.06
420.726	89.06
420.948	100.06
421.171	87.06
421.394	110.06
421.617	120.06
421.839	116.06
422.062	139.06
422.285	152.06
422.507	270.06
422.73	377.06
422.953	361.06
423.175	212.06
423.398	144.06
423.621	98.06
423.843	96.06
424.066	113.06
424.288	104.06
424.511	86.06
424.733	91.06
424.956	67.06
425.178	91.06
425.401	90.06
425.623	96.06
425.846	102.06
426.068	75.06
426.291	97.06
426.513	81.06
426.735	97.06
426.958	94.06
427.18	79.06
427.402	85.06
427.625	90.06
427.847	102.06
428.069	90.06
428.292	135.06
428.514	136.06
428.736	121.06
428.958	127.06
429.181	135.06
429.403	103.06
429.625	99.06
429.847	120.06
430.069	144.06
430.292	169.06
430.514	154.06
430.736	138.06
430.958	160.06
431.18	96.06
431.402	95.06
431.624	91.06
431.846	121.06
432.068	118.06
432.29	106.06
432.512	98.06
432.734	89.06
432.956	85.06
433.178	86.06
433.4	84.06
433.622	87.06
433.844	93.06
434.066	75.06
434.287	83.06
434.509	73.06
434.731	84.06
434.953	83.06
435.175	87.06
435.397	98.06
435.618	102.06
435.84	77.06
436.062	107.06
436.284	94.06
436.505	93.06
436.727	86.06
436.949	86.06
437.17	76.06
437.392	81.06
437.614	86.06
437.835	87.06
438.057	96.06
438.278	79.06
438.5	87.06
438.721	84.06
438.943	82.06
439.165	78.06
439.386	90.06
439.608	81.06
439.829	82.06
440.05	89.06
440.272	88.06
440.493	92.06
440.715	95.06
440.936	76.06
441.158	87.06
441.379	89.06
441.6	96.06
441.822	80.06
442.043	95.06
442.264	86.06
442.486	134.06
442.707	170.06
442.928	122.06
443.149	104.06
443.371	150.06
443.592	220.06
443.813	192.06
444.034	110.06
444.255	97.06
444.476	90.06
444.698	101.06
444.919	97.06
445.14	167.06
445.361	183.06
445.582	272.06
445.803	235.06
446.024	138.06
446.245	98.06
446.466	92.06
446.687	87.06
446.908	91.06
447.129	84.06
447.35	103.06
447.571	84.06
447.792	85.06
448.013	82.06
448.234	99.06
448.455	78.06
448.675	82.06
448.896	86.06
449.117	94.06
449.338	87.06
449.559	74.06
449.779	86.06
450	93.06
450.221	87.06
450.442	97.06
450.662	75.06
450.883	80.06
451.104	98.06
451.324	82.06
451.545	86.06
451.766	93.06
451.986	91.06
452.207	80.06
452.428	84.06
452.648	89.06
452.869	96.06
453.089	91.06
453.31	103.06
453.53	91.06
453.751	82.06
453.971	81.06
454.192	80.06
454.412	90.06
454.633	86.06
454.853	87.06
455.073	75.06
455.294	96.06
455.514	91.06
455.734	88.06
455.955	98.06
456.175	87.06
456.395	84.06
456.616	86.06
456.836	82.06
457.056	91.06
457.276	91.06
457.497	86.06
457.717	89.06
457.937	107.06
458.157	129.06
458.377	123.06
458.598	105.06
458.818	118.06
459.038	94.06
459.258	86.06
459.478	82.06
459.698	77.06
459.918	75.06
460.138	90.06
460.358	77.06
460.578	120.06
460.798	124.06
461.018	122.06
461.238	100.06
461.458	94.06
461.678	92.06
461.898	97.06
462.118	85.06
462.338	84.06
462.558	98.06
462.777	92.06
462.997	86.06
463.217	91.06
463.437	83.06
463.657	82.06
463.876	76.06
464.096	86.06
464.316	80.06
464.536	85.06
464.755	74.06
464.975	78.06
465.195	92.06
465.414	90.06
465.634	94.06
465.854	95.06
466.073	95.06
466.293	74.06
466.512	86.06
466.732	98.06
466.951	82.06
467.171	82.06
467.391	82.06
467.61	82.06
467.829	81.06
468.049	82.06
468.268	91.06
468.488	96.06
468.707	90.06
468.927	82.06
469.146	77.06
469.365	88.06
469.585	90.06
469.804	77.06
470.023	77.06
470.243	83.06
470.462	75.06
470.681	90.06
470.901	100.06
471.12	98.06
471.339	92.06
471.558	93.06
471.777	78.06
471.997	92.06
472.216	94.06
472.435	83.06
472.654	104.06
472.873	89.06
473.092	92.06
473.311	101.06
473.53	86.06
473.749	83.06
473.968	85.06
474.187	82.06
474.406	82.06
474.625	88.06
474.844	110.06
475.063	88.06
475.282	91.06
475.501	84.06
475.72	82.06
475.939	83.06
476.158	83.06
476.377	98.06
476.596	75.06
476.814	83.06
477.033	83.06
477.252	91.06
477.471	96.06
477.69	85.06
477.908	91.06
478.127	92.06
478.346	94.06
478.564	76.06
478.783	84.06
479.002	94.06
479.22	85.06
479.439	95.06
479.658	96.06
479.876	94.06
480.095	89.06
480.313	81.06
480.532	92.06
480.751	93.06
480.969	100.06
481.188	90.06
481.406	72.06
481.624	74.06
481.843	91.06
482.061	75.06
482.28	82.06
482.498	92.06
482.717	75.06
482.935	99.06
483.153	103.06
483.372	90.06
483.59	95.06
483.808	90.06
484.027	91.06
484.245	89.06
484.463	79.06
484.681	90.06
484.9	101.06
485.118	98.06
485.336	88.06
485.554	84.06
485.772	80.06
485.99	94.06
486.209	95.06
486.427	82.06
486.645	87.06
486.863	92.06
487.081	96.06
487.299	95.06
487.517	103.06
487.735	123.06
487.953	198.06
488.171	135.06
488.389	90.06
488.607	97.06
488.825	90.06
489.043	87.06
489.261	91.06
489.479	97.06
489.696	90.06
489.914	88.06
490.132	91.06
490.35	86.06
490.568	80.06
490.786	102.06
491.003	85.06
491.221	86.06
491.439	87.06
491.657	86.06
491.874	77.06
492.092	88.06
492.31	80.06
492.527	91.06
492.745	95.06
492.963	96.06
493.18	106.06
493.398	94.06
493.615	100.06
493.833	97.06
494.05	90.06
494.268	99.06
494.485	103.06
494.703	86.06
494.92	84.06
495.138	87.06
495.355	91.06
495.573	85.06
495.79	103.06
496.008	87.06
496.225	87.06
496.442	106.06
496.66	97.06
496.877	92.06
497.094	87.06
497.312	82.06
497.529	92.06
497.746	98.06
497.963	79.06
498.181	86.06
498.398	102.06
498.615	84.06
498.832	83.06
499.049	84.06
499.267	90.06
499.484	102.06
499.701	84.06
499.918	85.06
500.135	90.06
500.352	88.06
500.569	93.06
500.786	90.06
501.003	88.06
501.22	80.06
501.437	101.06
501.654	81.06
501.871	88.06
502.088	90.06
502.305	87.06
502.522	86.06
502.739	82.06
502.956	102.06
503.172	102.06
503.389	89.06
503.606	88.06
503.823	95.06
504.04	102.06
504.256	138.06
504.473	141.06
504.69	101.06
504.907	104.06
505.123	89.06
505.34	82.06
505.557	93.06
505.773	87.06
505.99	93.06
506.207	91.06
506.423	83.06
506.64	93.06
506.856	90.06
507.073	82.06
507.289	93.06
507.506	98.06
507.722	92.06
507.939	106.06
508.155	106.06
508.372	93.06
508.588	96.06
508.805	88.06
509.021	107.06
509.238	86.06
509.454	86.06
509.67	92.06
509.887	89.06
510.103	74.06
510.319	85.06
510.536	90.06
510.752	84.06
510.968	86.06
511.184	96.06
511.401	82.06
511.617	69.06
511.833	93.06
512.049	81.06
512.265	88.06
512.481	97.06
512.698	86.06
512.914	90.06
513.13	82.06
513.346	93.06
513.562	76.06
513.778	86.06
513.994	98.06
514.21	91.06
514.426	83.06
514.642	94.06
514.858	110.06
515.074	91.06
515.29	96.06
515.506	92.06
515.721	81.06
515.937	83.06
516.153	87.06
516.369	92.06
516.585	112.06
516.801	85.06
517.016	90.06
517.232	95.06
517.448	93.06
517.664	92.06
