Data from 17600_2_HRD10591_00010.txt Node
Date: Mon Jan 19 14:08:27 EST 2026
User: Yrep
Spectrometer: HR+D1059
Trigger mode: 1
Integration Time (sec): 1.000000E-1
Scans to average: 1
Electric dark correction enabled: true
Nonlinearity correction enabled: false
Boxcar width: 0
XAxis mode: Wavelengths
Number of Pixels in Spectrum: 2048
>>>>>Begin Spectral Data<<<<<
223.165	-14.12
223.4	-14.12
223.635	-14.12
223.869	-1.12
224.104	-40.12
224.338	-5.12
224.573	0.88
224.808	-16.12
225.042	-18.12
225.277	8.88
225.511	-1.12
225.746	3.88
225.98	2.88
226.215	-1.12
226.449	14.88
226.683	19.88
226.918	23.88
227.152	21.88
227.387	23.88
227.621	40.88
227.856	38.88
228.09	39.88
228.324	51.88
228.559	53.88
228.793	49.88
229.027	61.88
229.262	64.88
229.496	69.88
229.73	72.88
229.964	80.88
230.199	80.88
230.433	83.88
230.667	72.88
230.901	81.88
231.136	75.88
231.37	78.88
231.604	85.88
231.838	67.88
232.072	80.88
232.306	87.88
232.541	67.88
232.775	75.88
233.009	76.88
233.243	85.88
233.477	102.88
233.711	81.88
233.945	87.88
234.179	86.88
234.413	86.88
234.647	79.88
234.881	80.88
235.115	81.88
235.349	74.88
235.583	63.88
235.817	67.88
236.051	78.88
236.285	78.88
236.519	77.88
236.753	71.88
236.987	84.88
237.221	95.88
237.455	75.88
237.689	79.88
237.922	71.88
238.156	67.88
238.39	70.88
238.624	93.88
238.858	68.88
239.091	80.88
239.325	104.88
239.559	71.88
239.793	72.88
240.027	81.88
240.26	88.88
240.494	87.88
240.728	70.88
240.961	87.88
241.195	66.88
241.429	89.88
241.662	61.88
241.896	79.88
242.13	73.88
242.363	73.88
242.597	82.88
242.83	79.88
243.064	81.88
243.298	66.88
243.531	92.88
243.765	70.88
243.998	83.88
244.232	93.88
244.465	81.88
244.699	72.88
244.932	83.88
245.166	89.88
245.399	76.88
245.633	75.88
245.866	80.88
246.099	83.88
246.333	81.88
246.566	63.88
246.8	78.88
247.033	79.88
247.266	69.88
247.5	75.88
247.733	62.88
247.966	81.88
248.2	87.88
248.433	84.88
248.666	50.88
248.899	79.88
249.133	71.88
249.366	82.88
249.599	79.88
249.832	68.88
250.066	70.88
250.299	79.88
250.532	83.88
250.765	74.88
250.998	80.88
251.231	84.88
251.465	88.88
251.698	74.88
251.931	83.88
252.164	75.88
252.397	87.88
252.63	82.88
252.863	79.88
253.096	65.88
253.329	93.88
253.562	58.88
253.795	89.88
254.028	71.88
254.261	81.88
254.494	88.88
254.727	79.88
254.96	82.88
255.193	69.88
255.426	84.88
255.659	90.88
255.892	79.88
256.124	73.88
256.357	81.88
256.59	75.88
256.823	81.88
257.056	60.88
257.289	67.88
257.521	78.88
257.754	92.88
257.987	87.88
258.22	95.88
258.452	81.88
258.685	74.88
258.918	88.88
259.151	74.88
259.383	74.88
259.616	81.88
259.849	69.88
260.081	74.88
260.314	74.88
260.547	89.88
260.779	81.88
261.012	81.88
261.244	95.88
261.477	70.88
261.71	67.88
261.942	66.88
262.175	72.88
262.407	80.88
262.64	80.88
262.872	82.88
263.105	76.88
263.337	90.88
263.57	74.88
263.802	90.88
264.035	66.88
264.267	70.88
264.499	74.88
264.732	82.88
264.964	75.88
265.197	93.88
265.429	87.88
265.661	67.88
265.894	86.88
266.126	114.88
266.358	97.88
266.591	96.88
266.823	75.88
267.055	87.88
267.287	97.88
267.52	85.88
267.752	72.88
267.984	80.88
268.216	73.88
268.448	75.88
268.681	88.88
268.913	87.88
269.145	81.88
269.377	69.88
269.609	79.88
269.841	72.88
270.073	89.88
270.306	75.88
270.538	74.88
270.77	75.88
271.002	87.88
271.234	71.88
271.466	89.88
271.698	83.88
271.93	90.88
272.162	82.88
272.394	80.88
272.626	73.88
272.858	78.88
273.09	87.88
273.322	90.88
273.553	88.88
273.785	98.88
274.017	96.88
274.249	93.88
274.481	95.88
274.713	79.88
274.945	83.88
275.176	88.88
275.408	97.88
275.64	80.88
275.872	88.88
276.104	82.88
276.335	88.88
276.567	88.88
276.799	86.88
277.031	78.88
277.262	98.88
277.494	83.88
277.726	87.88
277.957	94.88
278.189	85.88
278.421	77.88
278.652	85.88
278.884	87.88
279.115	88.88
279.347	81.88
279.579	104.88
279.81	101.88
280.042	94.88
280.273	92.88
280.505	86.88
280.736	90.88
280.968	73.88
281.199	86.88
281.431	87.88
281.662	78.88
281.894	90.88
282.125	92.88
282.356	82.88
282.588	83.88
282.819	93.88
283.051	77.88
283.282	83.88
283.513	80.88
283.745	97.88
283.976	80.88
284.207	79.88
284.439	75.88
284.67	82.88
284.901	95.88
285.132	100.88
285.364	104.88
285.595	105.88
285.826	87.88
286.057	82.88
286.288	69.88
286.52	81.88
286.751	72.88
286.982	76.88
287.213	76.88
287.444	96.88
287.675	84.88
287.906	86.88
288.138	94.88
288.369	97.88
288.6	94.88
288.831	85.88
289.062	93.88
289.293	83.88
289.524	81.88
289.755	87.88
289.986	78.88
290.217	80.88
290.448	89.88
290.679	83.88
290.91	102.88
291.141	98.88
291.371	90.88
291.602	85.88
291.833	95.88
292.064	89.88
292.295	89.88
292.526	104.88
292.757	103.88
292.987	90.88
293.218	60.88
293.449	95.88
293.68	82.88
293.91	86.88
294.141	85.88
294.372	76.88
294.603	81.88
294.833	78.88
295.064	80.88
295.295	86.88
295.525	97.88
295.756	99.88
295.987	93.88
296.217	80.88
296.448	82.88
296.679	95.88
296.909	98.88
297.14	82.88
297.37	87.88
297.601	88.88
297.831	87.88
298.062	78.88
298.292	91.88
298.523	83.88
298.753	103.88
298.984	100.88
299.214	98.88
299.445	92.88
299.675	103.88
299.905	98.88
300.136	98.88
300.366	98.88
300.597	103.88
300.827	106.88
301.057	101.88
301.288	96.88
301.518	85.88
301.748	73.88
301.979	106.88
302.209	109.88
302.439	88.88
302.669	99.88
302.9	87.88
303.13	90.88
303.36	90.88
303.59	91.88
303.82	101.88
304.051	95.88
304.281	84.88
304.511	97.88
304.741	111.88
304.971	76.88
305.201	97.88
305.431	83.88
305.661	96.88
305.891	93.88
306.121	85.88
306.352	99.88
306.582	85.88
306.812	90.88
307.042	85.88
307.272	81.88
307.502	83.88
307.731	103.88
307.961	98.88
308.191	118.88
308.421	135.88
308.651	122.88
308.881	96.88
309.111	100.88
309.341	146.88
309.571	131.88
309.8	108.88
310.03	82.88
310.26	79.88
310.49	91.88
310.72	78.88
310.949	79.88
311.179	79.88
311.409	82.88
311.639	87.88
311.868	92.88
312.098	84.88
312.328	94.88
312.557	93.88
312.787	104.88
313.017	101.88
313.246	91.88
313.476	84.88
313.706	84.88
313.935	102.88
314.165	87.88
314.394	105.88
314.624	95.88
314.853	86.88
315.083	89.88
315.312	90.88
315.542	94.88
315.771	114.88
316.001	135.88
316.23	102.88
316.46	102.88
316.689	85.88
316.919	94.88
317.148	91.88
317.377	93.88
317.607	101.88
317.836	124.88
318.065	154.88
318.295	128.88
318.524	117.88
318.753	105.88
318.983	88.88
319.212	93.88
319.441	82.88
319.67	97.88
319.9	84.88
320.129	95.88
320.358	97.88
320.587	95.88
320.816	93.88
321.046	112.88
321.275	101.88
321.504	103.88
321.733	101.88
321.962	111.88
322.191	120.88
322.42	95.88
322.649	109.88
322.878	98.88
323.108	106.88
323.337	95.88
323.566	98.88
323.795	101.88
324.024	81.88
324.253	91.88
324.482	86.88
324.71	106.88
324.939	90.88
325.168	91.88
325.397	101.88
325.626	82.88
325.855	92.88
326.084	91.88
326.313	97.88
326.542	87.88
326.77	84.88
326.999	95.88
327.228	93.88
327.457	110.88
327.686	111.88
327.914	100.88
328.143	83.88
328.372	97.88
328.6	95.88
328.829	100.88
329.058	80.88
329.287	88.88
329.515	95.88
329.744	103.88
329.972	102.88
330.201	115.88
330.43	100.88
330.658	90.88
330.887	109.88
331.115	91.88
331.344	81.88
331.572	87.88
331.801	92.88
332.03	94.88
332.258	95.88
332.486	93.88
332.715	90.88
332.943	75.88
333.172	94.88
333.4	100.88
333.629	95.88
333.857	106.88
334.085	101.88
334.314	107.88
334.542	126.88
334.771	129.88
334.999	135.88
335.227	139.88
335.455	117.88
335.684	131.88
335.912	138.88
336.14	144.88
336.369	147.88
336.597	119.88
336.825	97.88
337.053	104.88
337.281	103.88
337.51	103.88
337.738	99.88
337.966	105.88
338.194	100.88
338.422	91.88
338.65	87.88
338.878	96.88
339.106	90.88
339.334	106.88
339.562	82.88
339.79	86.88
340.018	98.88
340.246	105.88
340.474	79.88
340.702	106.88
340.93	86.88
341.158	88.88
341.386	93.88
341.614	101.88
341.842	81.88
342.07	96.88
342.298	101.88
342.526	101.88
342.754	83.88
342.981	88.88
343.209	90.88
343.437	114.88
343.665	93.88
343.893	111.88
344.12	111.88
344.348	121.88
344.576	103.88
344.804	97.88
345.031	67.88
345.259	104.88
345.487	107.88
345.714	97.88
345.942	85.88
346.17	95.88
346.397	91.88
346.625	91.88
346.853	100.88
347.08	84.88
347.308	95.88
347.535	108.88
347.763	115.88
347.99	95.88
348.218	90.88
348.445	107.88
348.673	120.88
348.9	113.88
349.128	90.88
349.355	104.88
349.583	89.88
349.81	104.88
350.037	88.88
350.265	68.88
350.492	96.88
350.72	96.88
350.947	92.88
351.174	96.88
351.402	91.88
351.629	93.88
351.856	87.88
352.083	91.88
352.311	96.88
352.538	90.88
352.765	112.88
352.992	105.88
353.22	87.88
353.447	93.88
353.674	82.88
353.901	99.88
354.128	81.88
354.355	81.88
354.583	90.88
354.81	95.88
355.037	91.88
355.264	87.88
355.491	98.88
355.718	89.88
355.945	114.88
356.172	110.88
356.399	102.88
356.626	122.88
356.853	102.88
357.08	113.88
357.307	104.88
357.534	89.88
357.761	113.88
357.988	123.88
358.215	127.88
358.441	112.88
358.668	108.88
358.895	95.88
359.122	81.88
359.349	105.88
359.576	98.88
359.802	104.88
360.029	95.88
360.256	92.88
360.483	98.88
360.709	121.88
360.936	131.88
361.163	103.88
361.39	101.88
361.616	87.88
361.843	114.88
362.07	148.88
362.296	177.88
362.523	189.88
362.749	204.88
362.976	219.88
363.203	256.88
363.429	195.88
363.656	142.88
363.882	157.88
364.109	208.88
364.335	273.88
364.562	316.88
364.788	209.88
365.015	121.88
365.241	97.88
365.468	120.88
365.694	91.88
365.92	103.88
366.147	99.88
366.373	93.88
366.599	87.88
366.826	112.88
367.052	89.88
367.278	98.88
367.505	109.88
367.731	101.88
367.957	91.88
368.184	106.88
368.41	101.88
368.636	102.88
368.862	93.88
369.089	104.88
369.315	89.88
369.541	101.88
369.767	90.88
369.993	90.88
370.219	105.88
370.445	113.88
370.672	123.88
370.898	123.88
371.124	99.88
371.35	99.88
371.576	103.88
371.802	107.88
372.028	115.88
372.254	133.88
372.48	126.88
372.706	100.88
372.932	111.88
373.158	117.88
373.384	148.88
373.61	187.88
373.835	187.88
374.061	131.88
374.287	132.88
374.513	123.88
374.739	133.88
374.965	136.88
375.191	139.88
375.416	118.88
375.642	126.88
375.868	119.88
376.094	113.88
376.319	116.88
376.545	105.88
376.771	129.88
376.997	102.88
377.222	105.88
377.448	90.88
377.674	108.88
377.899	102.88
378.125	111.88
378.35	91.88
378.576	103.88
378.802	101.88
379.027	88.88
379.253	108.88
379.478	100.88
379.704	114.88
379.929	112.88
380.155	117.88
380.38	87.88
380.606	96.88
380.831	97.88
381.057	106.88
381.282	104.88
381.507	120.88
381.733	124.88
381.958	134.88
382.184	140.88
382.409	128.88
382.634	114.88
382.86	134.88
383.085	143.88
383.31	142.88
383.535	150.88
383.761	151.88
383.986	159.88
384.211	136.88
384.436	119.88
384.662	109.88
384.887	128.88
385.112	122.88
385.337	125.88
385.562	119.88
385.787	152.88
386.013	133.88
386.238	129.88
386.463	124.88
386.688	126.88
386.913	126.88
387.138	114.88
387.363	138.88
387.588	127.88
387.813	142.88
388.038	140.88
388.263	148.88
388.488	133.88
388.713	119.88
388.938	106.88
389.163	109.88
389.387	99.88
389.612	120.88
389.837	116.88
390.062	107.88
390.287	122.88
390.512	132.88
390.736	117.88
390.961	109.88
391.186	104.88
391.411	120.88
391.636	101.88
391.86	122.88
392.085	133.88
392.31	173.88
392.534	177.88
392.759	259.88
392.984	391.88
393.208	744.88
393.433	1085.88
393.658	813.88
393.882	347.88
394.107	225.88
394.331	234.88
394.556	269.88
394.78	176.88
395.005	162.88
395.229	139.88
395.454	182.88
395.678	193.88
395.903	261.88
396.127	329.88
396.352	386.88
396.576	465.88
396.801	762.88
397.025	853.88
397.249	465.88
397.474	281.88
397.698	209.88
397.922	124.88
398.147	107.88
398.371	127.88
398.595	100.88
398.82	105.88
399.044	110.88
399.268	103.88
399.492	117.88
399.717	114.88
399.941	101.88
400.165	101.88
400.389	103.88
400.613	114.88
400.837	96.88
401.062	101.88
401.286	105.88
401.51	91.88
401.734	97.88
401.958	101.88
402.182	112.88
402.406	98.88
402.63	101.88
402.854	86.88
403.078	112.88
403.302	124.88
403.526	122.88
403.75	114.88
403.974	118.88
404.198	144.88
404.422	186.88
404.645	221.88
404.869	169.88
405.093	137.88
405.317	111.88
405.541	99.88
405.765	111.88
405.988	105.88
406.212	99.88
406.436	113.88
406.66	121.88
406.883	85.88
407.107	103.88
407.331	113.88
407.555	155.88
407.778	230.88
408.002	244.88
408.226	139.88
408.449	93.88
408.673	101.88
408.896	101.88
409.12	115.88
409.344	146.88
409.567	158.88
409.791	181.88
410.014	162.88
410.238	150.88
410.461	135.88
410.685	113.88
410.908	125.88
411.132	111.88
411.355	113.88
411.578	114.88
411.802	115.88
412.025	91.88
412.249	112.88
412.472	106.88
412.695	93.88
412.919	94.88
413.142	117.88
413.365	117.88
413.589	112.88
413.812	110.88
414.035	102.88
414.258	91.88
414.482	116.88
414.705	102.88
414.928	109.88
415.151	118.88
415.374	102.88
415.597	88.88
415.821	90.88
416.044	101.88
416.267	98.88
416.49	99.88
416.713	93.88
416.936	97.88
417.159	96.88
417.382	106.88
417.605	81.88
417.828	117.88
418.051	93.88
418.274	113.88
418.497	112.88
418.72	102.88
418.943	111.88
419.166	105.88
419.389	104.88
419.611	107.88
419.834	111.88
420.057	119.88
420.28	125.88
420.503	137.88
420.726	124.88
420.948	134.88
421.171	150.88
421.394	189.88
421.617	282.88
421.839	303.88
422.062	322.88
422.285	453.88
422.507	745.88
422.73	1083.88
422.953	998.88
423.175	609.88
423.398	333.88
423.621	235.88
423.843	189.88
424.066	162.88
424.288	153.88
424.511	133.88
424.733	127.88
424.956	122.88
425.178	137.88
425.401	113.88
425.623	121.88
425.846	112.88
426.068	113.88
426.291	105.88
426.513	104.88
426.735	108.88
426.958	110.88
427.18	113.88
427.402	126.88
427.625	122.88
427.847	118.88
428.069	160.88
428.292	259.88
428.514	313.88
428.736	209.88
428.958	279.88
429.181	275.88
429.403	146.88
429.625	150.88
429.847	253.88
430.069	416.88
430.292	478.88
430.514	466.88
430.736	300.88
430.958	328.88
431.18	170.88
431.402	128.88
431.624	154.88
431.846	255.88
432.068	289.88
432.29	160.88
432.512	125.88
432.734	114.88
432.956	101.88
433.178	107.88
433.4	96.88
433.622	91.88
433.844	96.88
434.066	84.88
434.287	99.88
434.509	91.88
434.731	98.88
434.953	108.88
435.175	93.88
435.397	120.88
435.618	137.88
435.84	127.88
436.062	117.88
436.284	123.88
436.505	110.88
436.727	102.88
436.949	103.88
437.17	105.88
437.392	103.88
437.614	93.88
437.835	93.88
438.057	90.88
438.278	98.88
438.5	119.88
438.721	122.88
438.943	81.88
439.165	91.88
439.386	94.88
439.608	97.88
439.829	89.88
440.05	94.88
440.272	103.88
440.493	105.88
440.715	106.88
440.936	99.88
441.158	104.88
441.379	95.88
441.6	93.88
441.822	109.88
442.043	101.88
442.264	174.88
442.486	286.88
442.707	452.88
442.928	281.88
443.149	219.88
443.371	375.88
443.592	776.88
443.813	673.88
444.034	225.88
444.255	143.88
444.476	139.88
444.698	138.88
444.919	145.88
445.14	274.88
445.361	489.88
445.582	938.88
445.803	767.88
446.024	289.88
446.245	139.88
446.466	112.88
446.687	94.88
446.908	111.88
447.129	97.88
447.35	94.88
447.571	102.88
447.792	83.88
448.013	97.88
448.234	90.88
448.455	82.88
448.675	87.88
448.896	90.88
449.117	93.88
449.338	99.88
449.559	89.88
449.779	93.88
450	108.88
450.221	95.88
450.442	92.88
450.662	101.88
450.883	105.88
451.104	100.88
451.324	100.88
451.545	102.88
451.766	100.88
451.986	97.88
452.207	101.88
452.428	110.88
452.648	153.88
452.869	178.88
453.089	145.88
453.31	115.88
453.53	122.88
453.751	135.88
453.971	98.88
454.192	88.88
454.412	101.88
454.633	87.88
454.853	108.88
455.073	109.88
455.294	93.88
455.514	125.88
455.734	103.88
455.955	97.88
456.175	89.88
456.395	95.88
456.616	98.88
456.836	95.88
457.056	96.88
457.276	93.88
457.497	110.88
457.717	146.88
457.937	209.88
458.157	285.88
458.377	311.88
458.598	297.88
458.818	331.88
459.038	175.88
459.258	119.88
459.478	111.88
459.698	91.88
459.918	100.88
460.138	99.88
460.358	105.88
460.578	141.88
460.798	255.88
461.018	256.88
461.238	125.88
461.458	96.88
461.678	104.88
461.898	103.88
462.118	85.88
462.338	92.88
462.558	104.88
462.777	113.88
462.997	104.88
463.217	101.88
463.437	84.88
463.657	88.88
463.876	94.88
464.096	93.88
464.316	95.88
464.536	96.88
464.755	90.88
464.975	84.88
465.195	84.88
465.414	105.88
465.634	80.88
465.854	91.88
466.073	93.88
466.293	103.88
466.512	95.88
466.732	93.88
466.951	102.88
467.171	105.88
467.391	100.88
467.61	85.88
467.829	95.88
468.049	88.88
468.268	101.88
468.488	121.88
468.707	114.88
468.927	109.88
469.146	103.88
469.365	90.88
469.585	69.88
469.804	92.88
470.023	95.88
470.243	103.88
470.462	104.88
470.681	105.88
470.901	93.88
471.12	91.88
471.339	96.88
471.558	82.88
471.777	95.88
471.997	96.88
472.216	93.88
472.435	99.88
472.654	110.88
472.873	97.88
473.092	93.88
473.311	95.88
473.53	109.88
473.749	105.88
473.968	90.88
474.187	102.88
474.406	114.88
474.625	102.88
474.844	90.88
475.063	95.88
475.282	96.88
475.501	93.88
475.72	105.88
475.939	99.88
476.158	88.88
476.377	96.88
476.596	100.88
476.814	115.88
477.033	125.88
477.252	96.88
477.471	97.88
477.69	95.88
477.908	85.88
478.127	93.88
478.346	89.88
478.564	101.88
478.783	99.88
479.002	100.88
479.22	97.88
479.439	88.88
479.658	93.88
479.876	91.88
480.095	98.88
480.313	104.88
480.532	100.88
480.751	107.88
480.969	121.88
481.188	115.88
481.406	134.88
481.624	102.88
481.843	103.88
482.061	88.88
482.28	103.88
482.498	111.88
482.717	95.88
482.935	109.88
483.153	104.88
483.372	121.88
483.59	119.88
483.808	90.88
484.027	98.88
484.245	119.88
484.463	118.88
484.681	115.88
484.9	116.88
485.118	115.88
485.336	103.88
485.554	95.88
485.772	83.88
485.99	106.88
486.209	96.88
486.427	104.88
486.645	101.88
486.863	128.88
487.081	113.88
487.299	118.88
487.517	171.88
487.735	229.88
487.953	527.88
488.171	399.88
488.389	169.88
488.607	116.88
488.825	117.88
489.043	101.88
489.261	128.88
489.479	113.88
489.696	122.88
489.914	94.88
490.132	119.88
490.35	106.88
490.568	115.88
490.786	109.88
491.003	97.88
491.221	105.88
491.439	105.88
491.657	114.88
491.874	106.88
492.092	115.88
492.31	112.88
492.527	105.88
492.745	109.88
492.963	104.88
493.18	106.88
493.398	118.88
493.615	115.88
493.833	112.88
494.05	85.88
494.268	117.88
494.485	102.88
494.703	102.88
494.92	97.88
495.138	98.88
495.355	108.88
495.573	99.88
495.79	104.88
496.008	115.88
496.225	127.88
496.442	137.88
496.66	111.88
496.877	127.88
497.094	113.88
497.312	103.88
497.529	88.88
497.746	95.88
497.963	93.88
498.181	116.88
498.398	159.88
498.615	107.88
498.832	98.88
499.049	108.88
499.267	137.88
499.484	118.88
499.701	105.88
499.918	117.88
500.135	133.88
500.352	121.88
500.569	106.88
500.786	120.88
501.003	132.88
501.22	117.88
501.437	105.88
501.654	117.88
501.871	118.88
502.088	101.88
502.305	105.88
502.522	104.88
502.739	122.88
502.956	103.88
503.172	106.88
503.389	92.88
503.606	116.88
503.823	147.88
504.04	176.88
504.256	317.88
504.473	326.88
504.69	173.88
504.907	127.88
505.123	103.88
505.34	112.88
505.557	109.88
505.773	106.88
505.99	102.88
506.207	106.88
506.423	96.88
506.64	111.88
506.856	111.88
507.073	104.88
507.289	102.88
507.506	96.88
507.722	91.88
507.939	93.88
508.155	102.88
508.372	99.88
508.588	100.88
508.805	123.88
509.021	103.88
509.238	106.88
509.454	104.88
509.67	85.88
509.887	105.88
510.103	112.88
510.319	114.88
510.536	109.88
510.752	114.88
510.968	125.88
511.184	111.88
