Data from 17600_2_HRD10591_00029.txt Node
Date: Mon Jan 19 14:08:37 EST 2026
User: Yrep
Spectrometer: HR+D1059
Trigger mode: 1
Integration Time (sec): 1.000000E-1
Scans to average: 1
Electric dark correction enabled: true
Nonlinearity correction enabled: false
Boxcar width: 0
XAxis mode: Wavelengths
Number of Pixels in Spectrum: 2048
>>>>>Begin Spectral Data<<<<<
223.165	-20.94
223.4	-20.94
223.635	-20.94
223.869	-20.94
224.104	-6.94
224.338	-5.94
224.573	-16.94
224.808	-14.94
225.042	-14.94
225.277	-11.94
225.511	-2.94
225.746	5.06
225.98	8.06
226.215	13.06
226.449	20.06
226.683	9.06
226.918	27.06
227.152	34.06
227.387	41.06
227.621	43.06
227.856	35.06
228.09	50.06
228.324	51.06
228.559	57.06
228.793	55.06
229.027	59.06
229.262	57.06
229.496	58.06
229.73	62.06
229.964	90.06
230.199	85.06
230.433	69.06
230.667	82.06
230.901	78.06
231.136	75.06
231.37	81.06
231.604	83.06
231.838	80.06
232.072	79.06
232.306	75.06
232.541	74.06
232.775	79.06
233.009	95.06
233.243	74.06
233.477	69.06
233.711	71.06
233.945	90.06
234.179	72.06
234.413	68.06
234.647	87.06
234.881	68.06
235.115	58.06
235.349	89.06
235.583	82.06
235.817	81.06
236.051	69.06
236.285	85.06
236.519	72.06
236.753	78.06
236.987	78.06
237.221	73.06
237.455	95.06
237.689	67.06
237.922	69.06
238.156	73.06
238.39	63.06
238.624	70.06
238.858	76.06
239.091	58.06
239.325	69.06
239.559	76.06
239.793	66.06
240.027	83.06
240.26	73.06
240.494	72.06
240.728	79.06
240.961	76.06
241.195	71.06
241.429	76.06
241.662	79.06
241.896	69.06
242.13	71.06
242.363	70.06
242.597	77.06
242.83	83.06
243.064	74.06
243.298	82.06
243.531	63.06
243.765	81.06
243.998	92.06
244.232	78.06
244.465	77.06
244.699	78.06
244.932	64.06
245.166	71.06
245.399	61.06
245.633	72.06
245.866	71.06
246.099	80.06
246.333	77.06
246.566	78.06
246.8	73.06
247.033	70.06
247.266	89.06
247.5	72.06
247.733	84.06
247.966	71.06
248.2	91.06
248.433	76.06
248.666	81.06
248.899	99.06
249.133	70.06
249.366	77.06
249.599	91.06
249.832	86.06
250.066	65.06
250.299	81.06
250.532	76.06
250.765	76.06
250.998	89.06
251.231	65.06
251.465	85.06
251.698	78.06
251.931	75.06
252.164	99.06
252.397	76.06
252.63	80.06
252.863	80.06
253.096	80.06
253.329	80.06
253.562	68.06
253.795	78.06
254.028	91.06
254.261	77.06
254.494	70.06
254.727	81.06
254.96	75.06
255.193	69.06
255.426	82.06
255.659	77.06
255.892	82.06
256.124	80.06
256.357	72.06
256.59	76.06
256.823	83.06
257.056	90.06
257.289	85.06
257.521	87.06
257.754	86.06
257.987	73.06
258.22	84.06
258.452	91.06
258.685	72.06
258.918	90.06
259.151	88.06
259.383	87.06
259.616	89.06
259.849	77.06
260.081	84.06
260.314	80.06
260.547	96.06
260.779	66.06
261.012	78.06
261.244	79.06
261.477	76.06
261.71	79.06
261.942	73.06
262.175	100.06
262.407	82.06
262.64	85.06
262.872	89.06
263.105	64.06
263.337	71.06
263.57	65.06
263.802	78.06
264.035	71.06
264.267	81.06
264.499	72.06
264.732	83.06
264.964	77.06
265.197	91.06
265.429	81.06
265.661	86.06
265.894	81.06
266.126	81.06
266.358	78.06
266.591	70.06
266.823	75.06
267.055	82.06
267.287	97.06
267.52	66.06
267.752	71.06
267.984	86.06
268.216	68.06
268.448	90.06
268.681	77.06
268.913	94.06
269.145	76.06
269.377	91.06
269.609	79.06
269.841	72.06
270.073	83.06
270.306	77.06
270.538	67.06
270.77	71.06
271.002	80.06
271.234	94.06
271.466	77.06
271.698	87.06
271.93	86.06
272.162	94.06
272.394	84.06
272.626	75.06
272.858	91.06
273.09	86.06
273.322	68.06
273.553	85.06
273.785	88.06
274.017	83.06
274.249	79.06
274.481	81.06
274.713	71.06
274.945	70.06
275.176	78.06
275.408	80.06
275.64	85.06
275.872	70.06
276.104	82.06
276.335	69.06
276.567	86.06
276.799	72.06
277.031	87.06
277.262	94.06
277.494	87.06
277.726	81.06
277.957	76.06
278.189	91.06
278.421	85.06
278.652	81.06
278.884	85.06
279.115	75.06
279.347	75.06
279.579	78.06
279.81	77.06
280.042	87.06
280.273	86.06
280.505	88.06
280.736	90.06
280.968	59.06
281.199	89.06
281.431	69.06
281.662	71.06
281.894	83.06
282.125	70.06
282.356	88.06
282.588	83.06
282.819	85.06
283.051	81.06
283.282	86.06
283.513	69.06
283.745	84.06
283.976	79.06
284.207	76.06
284.439	66.06
284.67	87.06
284.901	87.06
285.132	78.06
285.364	88.06
285.595	86.06
285.826	81.06
286.057	86.06
286.288	95.06
286.52	92.06
286.751	75.06
286.982	73.06
287.213	95.06
287.444	88.06
287.675	95.06
287.906	83.06
288.138	97.06
288.369	90.06
288.6	74.06
288.831	93.06
289.062	87.06
289.293	82.06
289.524	84.06
289.755	90.06
289.986	93.06
290.217	97.06
290.448	73.06
290.679	86.06
290.91	82.06
291.141	85.06
291.371	80.06
291.602	84.06
291.833	80.06
292.064	96.06
292.295	75.06
292.526	78.06
292.757	73.06
292.987	99.06
293.218	85.06
293.449	80.06
293.68	80.06
293.91	76.06
294.141	78.06
294.372	99.06
294.603	67.06
294.833	83.06
295.064	85.06
295.295	87.06
295.525	89.06
295.756	81.06
295.987	67.06
296.217	88.06
296.448	83.06
296.679	91.06
296.909	90.06
297.14	78.06
297.37	76.06
297.601	65.06
297.831	83.06
298.062	84.06
298.292	89.06
298.523	85.06
298.753	86.06
298.984	90.06
299.214	66.06
299.445	77.06
299.675	81.06
299.905	85.06
300.136	82.06
300.366	81.06
300.597	85.06
300.827	100.06
301.057	74.06
301.288	75.06
301.518	72.06
301.748	89.06
301.979	102.06
302.209	76.06
302.439	79.06
302.669	71.06
302.9	75.06
303.13	85.06
303.36	69.06
303.59	84.06
303.82	98.06
304.051	86.06
304.281	87.06
304.511	88.06
304.741	92.06
304.971	72.06
305.201	76.06
305.431	77.06
305.661	78.06
305.891	81.06
306.121	90.06
306.352	85.06
306.582	83.06
306.812	89.06
307.042	88.06
307.272	80.06
307.502	77.06
307.731	77.06
307.961	88.06
308.191	91.06
308.421	86.06
308.651	93.06
308.881	99.06
309.111	79.06
309.341	93.06
309.571	85.06
309.8	80.06
310.03	77.06
310.26	75.06
310.49	85.06
310.72	77.06
310.949	91.06
311.179	70.06
311.409	83.06
311.639	73.06
311.868	90.06
312.098	83.06
312.328	81.06
312.557	71.06
312.787	75.06
313.017	81.06
313.246	92.06
313.476	75.06
313.706	77.06
313.935	85.06
314.165	83.06
314.394	101.06
314.624	86.06
314.853	97.06
315.083	76.06
315.312	83.06
315.542	90.06
315.771	94.06
316.001	94.06
316.23	86.06
316.46	89.06
316.689	71.06
316.919	86.06
317.148	90.06
317.377	75.06
317.607	87.06
317.836	91.06
318.065	95.06
318.295	90.06
318.524	95.06
318.753	77.06
318.983	83.06
319.212	76.06
319.441	83.06
319.67	88.06
319.9	82.06
320.129	75.06
320.358	85.06
320.587	84.06
320.816	86.06
321.046	86.06
321.275	68.06
321.504	99.06
321.733	91.06
321.962	83.06
322.191	92.06
322.42	91.06
322.649	88.06
322.878	89.06
323.108	84.06
323.337	85.06
323.566	86.06
323.795	84.06
324.024	76.06
324.253	74.06
324.482	87.06
324.71	85.06
324.939	84.06
325.168	90.06
325.397	86.06
325.626	80.06
325.855	97.06
326.084	74.06
326.313	70.06
326.542	86.06
326.77	79.06
326.999	103.06
327.228	113.06
327.457	100.06
327.686	93.06
327.914	94.06
328.143	86.06
328.372	85.06
328.6	88.06
328.829	85.06
329.058	80.06
329.287	94.06
329.515	85.06
329.744	83.06
329.972	82.06
330.201	72.06
330.43	81.06
330.658	81.06
330.887	79.06
331.115	78.06
331.344	72.06
331.572	83.06
331.801	83.06
332.03	96.06
332.258	95.06
332.486	84.06
332.715	87.06
332.943	87.06
333.172	96.06
333.4	75.06
333.629	98.06
333.857	81.06
334.085	79.06
334.314	64.06
334.542	90.06
334.771	81.06
334.999	85.06
335.227	84.06
335.455	90.06
335.684	100.06
335.912	105.06
336.14	89.06
336.369	86.06
336.597	84.06
336.825	87.06
337.053	86.06
337.281	91.06
337.51	83.06
337.738	81.06
337.966	85.06
338.194	69.06
338.422	85.06
338.65	89.06
338.878	85.06
339.106	71.06
339.334	95.06
339.562	71.06
339.79	71.06
340.018	68.06
340.246	89.06
340.474	81.06
340.702	82.06
340.93	75.06
341.158	77.06
341.386	75.06
341.614	76.06
341.842	85.06
342.07	90.06
342.298	70.06
342.526	67.06
342.754	79.06
342.981	81.06
343.209	92.06
343.437	102.06
343.665	86.06
343.893	88.06
344.12	93.06
344.348	87.06
344.576	69.06
344.804	83.06
345.031	89.06
345.259	74.06
345.487	73.06
345.714	87.06
345.942	90.06
346.17	82.06
346.397	79.06
346.625	71.06
346.853	91.06
347.08	69.06
347.308	76.06
347.535	90.06
347.763	95.06
347.99	89.06
348.218	87.06
348.445	75.06
348.673	76.06
348.9	90.06
349.128	85.06
349.355	87.06
349.583	83.06
349.81	85.06
350.037	86.06
350.265	82.06
350.492	72.06
350.72	75.06
350.947	73.06
351.174	66.06
351.402	91.06
351.629	93.06
351.856	83.06
352.083	88.06
352.311	83.06
352.538	84.06
352.765	96.06
352.992	100.06
353.22	85.06
353.447	80.06
353.674	91.06
353.901	90.06
354.128	97.06
354.355	84.06
354.583	71.06
354.81	76.06
355.037	81.06
355.264	91.06
355.491	83.06
355.718	82.06
355.945	75.06
356.172	73.06
356.399	80.06
356.626	73.06
356.853	89.06
357.08	96.06
357.307	86.06
357.534	83.06
357.761	76.06
357.988	95.06
358.215	76.06
358.441	100.06
358.668	86.06
358.895	72.06
359.122	77.06
359.349	89.06
359.576	89.06
359.802	93.06
360.029	89.06
360.256	63.06
360.483	81.06
360.709	82.06
360.936	89.06
361.163	86.06
361.39	64.06
361.616	87.06
361.843	85.06
362.07	80.06
362.296	94.06
362.523	101.06
362.749	89.06
362.976	101.06
363.203	92.06
363.429	78.06
363.656	98.06
363.882	82.06
364.109	91.06
364.335	102.06
364.562	109.06
364.788	95.06
365.015	102.06
365.241	93.06
365.468	75.06
365.694	81.06
365.92	91.06
366.147	90.06
366.373	79.06
366.599	89.06
366.826	81.06
367.052	84.06
367.278	67.06
367.505	81.06
367.731	93.06
367.957	102.06
368.184	89.06
368.41	93.06
368.636	90.06
368.862	84.06
369.089	74.06
369.315	75.06
369.541	80.06
369.767	90.06
369.993	93.06
370.219	90.06
370.445	95.06
370.672	93.06
370.898	95.06
371.124	97.06
371.35	86.06
371.576	79.06
371.802	85.06
372.028	94.06
372.254	89.06
372.48	86.06
372.706	85.06
372.932	85.06
373.158	92.06
373.384	90.06
373.61	97.06
373.835	90.06
374.061	93.06
374.287	72.06
374.513	92.06
374.739	93.06
374.965	87.06
375.191	93.06
375.416	98.06
375.642	90.06
375.868	84.06
376.094	79.06
376.319	86.06
376.545	81.06
376.771	81.06
376.997	76.06
377.222	88.06
377.448	87.06
377.674	85.06
377.899	86.06
378.125	75.06
378.35	79.06
378.576	77.06
378.802	76.06
379.027	94.06
379.253	86.06
379.478	80.06
379.704	86.06
379.929	90.06
380.155	80.06
380.38	79.06
380.606	83.06
380.831	80.06
381.057	85.06
381.282	96.06
381.507	86.06
381.733	68.06
381.958	79.06
382.184	87.06
382.409	91.06
382.634	91.06
382.86	86.06
383.085	93.06
383.31	83.06
383.535	89.06
383.761	77.06
383.986	96.06
384.211	78.06
384.436	89.06
384.662	91.06
384.887	83.06
385.112	80.06
385.337	93.06
385.562	90.06
385.787	77.06
386.013	95.06
386.238	80.06
386.463	93.06
386.688	97.06
386.913	87.06
387.138	90.06
387.363	84.06
387.588	92.06
387.813	79.06
388.038	83.06
388.263	87.06
388.488	89.06
388.713	99.06
388.938	93.06
389.163	90.06
389.387	87.06
389.612	81.06
389.837	71.06
390.062	97.06
390.287	71.06
390.512	82.06
390.736	84.06
390.961	71.06
391.186	84.06
391.411	93.06
391.636	83.06
391.86	95.06
392.085	87.06
392.31	73.06
392.534	98.06
392.759	96.06
392.984	138.06
393.208	233.06
393.433	321.06
393.658	245.06
393.882	113.06
394.107	93.06
394.331	100.06
394.556	101.06
394.78	102.06
395.005	85.06
395.229	88.06
395.454	88.06
395.678	91.06
395.903	101.06
396.127	109.06
396.352	117.06
396.576	146.06
396.801	221.06
397.025	261.06
397.249	145.06
397.474	111.06
397.698	82.06
397.922	95.06
398.147	95.06
398.371	96.06
398.595	75.06
398.82	81.06
399.044	81.06
399.268	91.06
399.492	85.06
399.717	86.06
399.941	87.06
400.165	77.06
400.389	63.06
400.613	93.06
400.837	86.06
401.062	85.06
401.286	83.06
401.51	66.06
401.734	77.06
401.958	101.06
402.182	84.06
402.406	75.06
402.63	83.06
402.854	90.06
403.078	80.06
403.302	89.06
403.526	75.06
403.75	92.06
403.974	87.06
404.198	73.06
404.422	78.06
404.645	94.06
404.869	86.06
405.093	95.06
405.317	87.06
405.541	75.06
405.765	94.06
405.988	98.06
406.212	82.06
406.436	86.06
406.66	80.06
406.883	91.06
407.107	75.06
407.331	95.06
407.555	99.06
407.778	118.06
408.002	115.06
408.226	93.06
408.449	75.06
408.673	73.06
408.896	86.06
409.12	71.06
409.344	82.06
409.567	92.06
409.791	89.06
410.014	86.06
410.238	88.06
410.461	76.06
410.685	91.06
410.908	82.06
411.132	82.06
411.355	89.06
411.578	83.06
411.802	84.06
412.025	78.06
412.249	76.06
412.472	87.06
412.695	98.06
412.919	97.06
413.142	76.06
413.365	76.06
413.589	85.06
413.812	89.06
414.035	103.06
414.258	88.06
414.482	76.06
414.705	86.06
414.928	89.06
415.151	72.06
415.374	69.06
415.597	82.06
415.821	82.06
416.044	69.06
416.267	96.06
416.49	86.06
416.713	85.06
416.936	86.06
417.159	89.06
417.382	84.06
417.605	80.06
417.828	81.06
418.051	90.06
418.274	82.06
418.497	91.06
418.72	97.06
418.943	81.06
419.166	79.06
419.389	72.06
419.611	83.06
419.834	82.06
420.057	94.06
420.28	81.06
420.503	82.06
420.726	88.06
420.948	98.06
421.171	89.06
421.394	89.06
421.617	130.06
421.839	113.06
422.062	111.06
422.285	134.06
422.507	235.06
422.73	316.06
422.953	282.06
423.175	171.06
423.398	119.06
423.621	95.06
423.843	97.06
424.066	108.06
424.288	98.06
424.511	95.06
424.733	86.06
424.956	90.06
425.178	75.06
425.401	98.06
425.623	79.06
425.846	80.06
426.068	78.06
426.291	84.06
426.513	80.06
426.735	74.06
426.958	61.06
427.18	84.06
427.402	84.06
427.625	96.06
427.847	87.06
428.069	95.06
428.292	99.06
428.514	120.06
428.736	96.06
428.958	110.06
429.181	121.06
429.403	93.06
429.625	82.06
429.847	89.06
430.069	129.06
430.292	150.06
430.514	142.06
430.736	116.06
430.958	113.06
431.18	92.06
431.402	79.06
431.624	85.06
431.846	104.06
432.068	126.06
432.29	79.06
432.512	105.06
432.734	70.06
432.956	86.06
433.178	89.06
433.4	84.06
433.622	71.06
433.844	72.06
434.066	79.06
434.287	83.06
434.509	85.06
434.731	81.06
434.953	70.06
435.175	81.06
435.397	83.06
435.618	88.06
435.84	101.06
436.062	80.06
436.284	69.06
436.505	83.06
436.727	79.06
436.949	92.06
437.17	92.06
437.392	82.06
437.614	85.06
437.835	78.06
438.057	84.06
438.278	69.06
438.5	83.06
438.721	84.06
438.943	81.06
439.165	84.06
439.386	81.06
439.608	67.06
439.829	83.06
440.05	89.06
440.272	75.06
440.493	77.06
440.715	89.06
440.936	91.06
441.158	102.06
441.379	75.06
441.6	81.06
441.822	85.06
442.043	99.06
442.264	86.06
442.486	106.06
442.707	127.06
442.928	90.06
443.149	102.06
443.371	127.06
443.592	185.06
443.813	152.06
444.034	102.06
444.255	82.06
444.476	101.06
444.698	98.06
444.919	88.06
445.14	140.06
445.361	151.06
445.582	222.06
445.803	189.06
446.024	107.06
446.245	95.06
446.466	71.06
446.687	78.06
446.908	75.06
447.129	91.06
447.35	82.06
447.571	94.06
447.792	90.06
448.013	80.06
448.234	101.06
448.455	92.06
448.675	82.06
448.896	85.06
449.117	77.06
449.338	80.06
449.559	79.06
449.779	87.06
450	74.06
450.221	77.06
450.442	85.06
450.662	79.06
450.883	94.06
451.104	91.06
451.324	83.06
451.545	71.06
451.766	85.06
451.986	75.06
452.207	88.06
452.428	74.06
452.648	96.06
452.869	95.06
453.089	93.06
453.31	85.06
453.53	80.06
453.751	83.06
453.971	93.06
454.192	75.06
454.412	78.06
454.633	77.06
454.853	67.06
455.073	81.06
455.294	83.06
455.514	92.06
455.734	87.06
455.955	84.06
456.175	76.06
456.395	82.06
456.616	83.06
456.836	83.06
457.056	83.06
457.276	76.06
457.497	87.06
457.717	95.06
457.937	109.06
458.157	109.06
458.377	105.06
458.598	109.06
458.818	107.06
459.038	90.06
459.258	86.06
459.478	87.06
459.698	92.06
459.918	92.06
460.138	101.06
460.358	89.06
460.578	99.06
460.798	110.06
461.018	108.06
461.238	74.06
461.458	83.06
461.678	79.06
461.898	97.06
462.118	84.06
462.338	70.06
462.558	76.06
462.777	78.06
462.997	83.06
463.217	72.06
463.437	77.06
463.657	79.06
463.876	80.06
464.096	75.06
464.316	70.06
464.536	104.06
464.755	88.06
464.975	83.06
465.195	71.06
465.414	81.06
465.634	95.06
465.854	100.06
466.073	68.06
466.293	86.06
466.512	62.06
466.732	98.06
466.951	71.06
467.171	79.06
467.391	94.06
467.61	81.06
467.829	76.06
468.049	81.06
468.268	68.06
468.488	71.06
468.707	74.06
468.927	93.06
469.146	65.06
469.365	74.06
469.585	73.06
469.804	78.06
470.023	75.06
470.243	77.06
470.462	85.06
470.681	88.06
470.901	93.06
471.12	87.06
471.339	91.06
471.558	76.06
471.777	82.06
471.997	78.06
472.216	79.06
472.435	91.06
472.654	88.06
472.873	75.06
473.092	89.06
473.311	81.06
473.53	68.06
473.749	75.06
473.968	76.06
474.187	81.06
474.406	72.06
474.625	82.06
474.844	92.06
475.063	91.06
475.282	76.06
475.501	82.06
475.72	84.06
475.939	89.06
476.158	81.06
476.377	70.06
476.596	89.06
476.814	72.06
477.033	81.06
477.252	81.06
477.471	75.06
477.69	73.06
477.908	80.06
478.127	81.06
478.346	80.06
478.564	89.06
478.783	89.06
479.002	82.06
479.22	90.06
479.439	96.06
479.658	90.06
479.876	88.06
480.095	78.06
480.313	79.06
480.532	87.06
480.751	77.06
480.969	76.06
481.188	84.06
481.406	83.06
481.624	75.06
481.843	79.06
482.061	76.06
482.28	79.06
482.498	94.06
482.717	86.06
482.935	93.06
483.153	95.06
483.372	84.06
483.59	104.06
483.808	88.06
484.027	70.06
484.245	85.06
484.463	88.06
484.681	86.06
484.9	78.06
485.118	76.06
485.336	87.06
485.554	83.06
485.772	95.06
485.99	86.06
486.209	80.06
486.427	85.06
486.645	64.06
486.863	75.06
487.081	73.06
487.299	88.06
487.517	87.06
487.735	93.06
487.953	130.06
488.171	111.06
488.389	94.06
488.607	69.06
488.825	85.06
489.043	78.06
489.261	81.06
489.479	81.06
489.696	93.06
489.914	100.06
490.132	72.06
490.35	103.06
490.568	81.06
490.786	79.06
491.003	95.06
491.221	77.06
491.439	78.06
491.657	71.06
491.874	93.06
492.092	89.06
492.31	82.06
492.527	87.06
492.745	78.06
492.963	84.06
493.18	89.06
493.398	99.06
493.615	76.06
493.833	85.06
494.05	82.06
494.268	81.06
494.485	82.06
494.703	74.06
494.92	85.06
495.138	83.06
495.355	87.06
495.573	79.06
495.79	87.06
496.008	93.06
496.225	93.06
496.442	85.06
496.66	87.06
496.877	84.06
497.094	94.06
497.312	100.06
497.529	86.06
497.746	103.06
497.963	98.06
498.181	85.06
498.398	77.06
498.615	83.06
498.832	92.06
499.049	71.06
499.267	94.06
499.484	84.06
499.701	89.06
499.918	84.06
500.135	89.06
500.352	94.06
500.569	83.06
500.786	88.06
501.003	87.06
501.22	85.06
501.437	91.06
501.654	94.06
501.871	106.06
502.088	81.06
502.305	98.06
502.522	90.06
502.739	89.06
502.956	81.06
503.172	84.06
503.389	79.06
503.606	81.06
503.823	87.06
504.04	99.06
504.256	110.06
504.473	120.06
504.69	93.06
504.907	89.06
505.123	83.06
505.34	74.06
505.557	74.06
505.773	95.06
505.99	85.06
506.207	85.06
506.423	90.06
506.64	73.06
506.856	89.06
507.073	89.06
507.289	78.06
507.506	86.06
507.722	87.06
507.939	93.06
508.155	95.06
508.372	97.06
508.588	70.06
508.805	90.06
509.021	92.06
509.238	88.06
509.454	87.06
509.67	79.06
509.887	93.06
510.103	88.06
510.319	86.06
510.536	75.06
510.752	78.06
510.968	90.06
511.184	77.06
511.401	71.06
511.617	90.06
511.833	79.06
512.049	89.06
512.265	89.06
512.481	96.06
512.698	74.06
512.914	95.06
513.13	82.06
513.346	75.06
513.562	68.06
513.778	86.06
513.994	90.06
514.21	86.06
514.426	87.06
514.642	74.06
514.858	82.06
515.074	69.06
515.29	83.06
515.506	99.06
515.721	106.06
515.937	105.06
516.153	85.06
516.369	85.06
516.585	73.06
516.801	95.06
517.016	78.06
517.232	100.06
517.448	90.06
517.664	85.06
517.879	94.06
518.095	92.06
518.311	76.06
518.527	91.06
518.742	92.06
518.958	122.06
