Data from 17600_2_HRD10591_00020.txt Node
Date: Mon Jan 19 14:08:32 EST 2026
User: Yrep
Spectrometer: HR+D1059
Trigger mode: 1
Integration Time (sec): 1.000000E-1
Scans to average: 1
Electric dark correction enabled: true
Nonlinearity correction enabled: false
Boxcar width: 0
XAxis mode: Wavelengths
Number of Pixels in Spectrum: 2048
>>>>>Begin Spectral Data<<<<<
223.165	-21.06
223.4	-21.06
223.635	-21.06
223.869	-13.06
224.104	-22.06
224.338	-12.06
224.573	-4.06
224.808	-9.06
225.042	-11.06
225.277	-14.06
225.511	-5.06
225.746	-10.06
225.98	-6.06
226.215	19.94
226.449	25.94
226.683	15.94
226.918	23.94
227.152	41.94
227.387	40.94
227.621	37.94
227.856	46.94
228.09	37.94
228.324	49.94
228.559	56.94
228.793	65.94
229.027	55.94
229.262	59.94
229.496	65.94
229.73	59.94
229.964	68.94
230.199	65.94
230.433	79.94
230.667	67.94
230.901	87.94
231.136	73.94
231.37	77.94
231.604	74.94
231.838	76.94
232.072	90.94
232.306	80.94
232.541	85.94
232.775	73.94
233.009	84.94
233.243	79.94
233.477	87.94
233.711	82.94
233.945	74.94
234.179	81.94
234.413	77.94
234.647	89.94
234.881	77.94
235.115	91.94
235.349	77.94
235.583	73.94
235.817	76.94
236.051	69.94
236.285	91.94
236.519	91.94
236.753	82.94
236.987	90.94
237.221	72.94
237.455	72.94
237.689	79.94
237.922	63.94
238.156	82.94
238.39	72.94
238.624	79.94
238.858	60.94
239.091	67.94
239.325	82.94
239.559	83.94
239.793	81.94
240.027	82.94
240.26	83.94
240.494	79.94
240.728	80.94
240.961	79.94
241.195	83.94
241.429	84.94
241.662	88.94
241.896	77.94
242.13	75.94
242.363	81.94
242.597	85.94
242.83	80.94
243.064	81.94
243.298	85.94
243.531	85.94
243.765	69.94
243.998	82.94
244.232	80.94
244.465	65.94
244.699	82.94
244.932	73.94
245.166	85.94
245.399	72.94
245.633	88.94
245.866	89.94
246.099	77.94
246.333	60.94
246.566	88.94
246.8	79.94
247.033	81.94
247.266	71.94
247.5	74.94
247.733	83.94
247.966	92.94
248.2	73.94
248.433	83.94
248.666	57.94
248.899	72.94
249.133	86.94
249.366	70.94
249.599	78.94
249.832	96.94
250.066	87.94
250.299	85.94
250.532	69.94
250.765	74.94
250.998	86.94
251.231	76.94
251.465	86.94
251.698	85.94
251.931	86.94
252.164	74.94
252.397	68.94
252.63	83.94
252.863	91.94
253.096	83.94
253.329	83.94
253.562	66.94
253.795	92.94
254.028	74.94
254.261	79.94
254.494	74.94
254.727	92.94
254.96	84.94
255.193	81.94
255.426	74.94
255.659	77.94
255.892	76.94
256.124	90.94
256.357	83.94
256.59	81.94
256.823	86.94
257.056	89.94
257.289	93.94
257.521	83.94
257.754	75.94
257.987	90.94
258.22	77.94
258.452	74.94
258.685	77.94
258.918	80.94
259.151	69.94
259.383	81.94
259.616	84.94
259.849	81.94
260.081	96.94
260.314	76.94
260.547	64.94
260.779	85.94
261.012	79.94
261.244	74.94
261.477	88.94
261.71	77.94
261.942	72.94
262.175	87.94
262.407	81.94
262.64	78.94
262.872	89.94
263.105	91.94
263.337	84.94
263.57	88.94
263.802	75.94
264.035	84.94
264.267	89.94
264.499	78.94
264.732	71.94
264.964	81.94
265.197	89.94
265.429	72.94
265.661	85.94
265.894	83.94
266.126	81.94
266.358	74.94
266.591	65.94
266.823	98.94
267.055	81.94
267.287	83.94
267.52	77.94
267.752	84.94
267.984	80.94
268.216	77.94
268.448	78.94
268.681	95.94
268.913	60.94
269.145	87.94
269.377	71.94
269.609	90.94
269.841	85.94
270.073	81.94
270.306	90.94
270.538	86.94
270.77	71.94
271.002	79.94
271.234	84.94
271.466	77.94
271.698	89.94
271.93	84.94
272.162	95.94
272.394	89.94
272.626	80.94
272.858	87.94
273.09	100.94
273.322	87.94
273.553	87.94
273.785	94.94
274.017	99.94
274.249	91.94
274.481	92.94
274.713	77.94
274.945	101.94
275.176	75.94
275.408	84.94
275.64	77.94
275.872	95.94
276.104	100.94
276.335	83.94
276.567	91.94
276.799	86.94
277.031	57.94
277.262	75.94
277.494	75.94
277.726	84.94
277.957	93.94
278.189	92.94
278.421	83.94
278.652	70.94
278.884	92.94
279.115	87.94
279.347	81.94
279.579	83.94
279.81	83.94
280.042	74.94
280.273	79.94
280.505	89.94
280.736	85.94
280.968	95.94
281.199	78.94
281.431	83.94
281.662	84.94
281.894	83.94
282.125	76.94
282.356	77.94
282.588	79.94
282.819	79.94
283.051	76.94
283.282	75.94
283.513	95.94
283.745	85.94
283.976	78.94
284.207	85.94
284.439	78.94
284.67	93.94
284.901	85.94
285.132	88.94
285.364	87.94
285.595	76.94
285.826	80.94
286.057	77.94
286.288	75.94
286.52	80.94
286.751	85.94
286.982	76.94
287.213	84.94
287.444	69.94
287.675	77.94
287.906	79.94
288.138	85.94
288.369	99.94
288.6	76.94
288.831	92.94
289.062	88.94
289.293	88.94
289.524	83.94
289.755	81.94
289.986	83.94
290.217	77.94
290.448	84.94
290.679	76.94
290.91	97.94
291.141	68.94
291.371	77.94
291.602	79.94
291.833	85.94
292.064	86.94
292.295	95.94
292.526	98.94
292.757	83.94
292.987	75.94
293.218	81.94
293.449	77.94
293.68	71.94
293.91	84.94
294.141	86.94
294.372	78.94
294.603	81.94
294.833	100.94
295.064	82.94
295.295	87.94
295.525	79.94
295.756	80.94
295.987	77.94
296.217	78.94
296.448	85.94
296.679	93.94
296.909	78.94
297.14	75.94
297.37	88.94
297.601	77.94
297.831	81.94
298.062	80.94
298.292	90.94
298.523	88.94
298.753	93.94
298.984	89.94
299.214	87.94
299.445	89.94
299.675	77.94
299.905	84.94
300.136	97.94
300.366	84.94
300.597	96.94
300.827	95.94
301.057	87.94
301.288	110.94
301.518	106.94
301.748	73.94
301.979	100.94
302.209	92.94
302.439	92.94
302.669	89.94
302.9	82.94
303.13	65.94
303.36	89.94
303.59	91.94
303.82	99.94
304.051	98.94
304.281	91.94
304.511	90.94
304.741	89.94
304.971	94.94
305.201	91.94
305.431	82.94
305.661	78.94
305.891	77.94
306.121	93.94
306.352	90.94
306.582	93.94
306.812	90.94
307.042	98.94
307.272	88.94
307.502	81.94
307.731	73.94
307.961	85.94
308.191	99.94
308.421	97.94
308.651	85.94
308.881	107.94
309.111	102.94
309.341	107.94
309.571	92.94
309.8	80.94
310.03	83.94
310.26	89.94
310.49	87.94
310.72	87.94
310.949	86.94
311.179	81.94
311.409	83.94
311.639	91.94
311.868	96.94
312.098	80.94
312.328	88.94
312.557	74.94
312.787	81.94
313.017	95.94
313.246	80.94
313.476	85.94
313.706	96.94
313.935	104.94
314.165	90.94
314.394	77.94
314.624	92.94
314.853	101.94
315.083	86.94
315.312	89.94
315.542	83.94
315.771	100.94
316.001	99.94
316.23	94.94
316.46	87.94
316.689	92.94
316.919	74.94
317.148	77.94
317.377	101.94
317.607	109.94
317.836	109.94
318.065	111.94
318.295	86.94
318.524	99.94
318.753	88.94
318.983	91.94
319.212	75.94
319.441	99.94
319.67	83.94
319.9	71.94
320.129	92.94
320.358	99.94
320.587	85.94
320.816	81.94
321.046	83.94
321.275	99.94
321.504	88.94
321.733	77.94
321.962	97.94
322.191	102.94
322.42	91.94
322.649	89.94
322.878	95.94
323.108	83.94
323.337	89.94
323.566	87.94
323.795	95.94
324.024	90.94
324.253	91.94
324.482	83.94
324.71	78.94
324.939	97.94
325.168	89.94
325.397	95.94
325.626	80.94
325.855	81.94
326.084	99.94
326.313	83.94
326.542	92.94
326.77	95.94
326.999	91.94
327.228	89.94
327.457	100.94
327.686	99.94
327.914	89.94
328.143	85.94
328.372	87.94
328.6	83.94
328.829	96.94
329.058	86.94
329.287	85.94
329.515	96.94
329.744	93.94
329.972	87.94
330.201	89.94
330.43	98.94
330.658	93.94
330.887	79.94
331.115	85.94
331.344	95.94
331.572	99.94
331.801	103.94
332.03	78.94
332.258	82.94
332.486	84.94
332.715	87.94
332.943	97.94
333.172	88.94
333.4	88.94
333.629	86.94
333.857	78.94
334.085	103.94
334.314	95.94
334.542	101.94
334.771	83.94
334.999	99.94
335.227	104.94
335.455	71.94
335.684	106.94
335.912	106.94
336.14	89.94
336.369	103.94
336.597	76.94
336.825	83.94
337.053	84.94
337.281	104.94
337.51	80.94
337.738	84.94
337.966	80.94
338.194	85.94
338.422	83.94
338.65	84.94
338.878	92.94
339.106	97.94
339.334	89.94
339.562	90.94
339.79	87.94
340.018	92.94
340.246	98.94
340.474	101.94
340.702	87.94
340.93	81.94
341.158	77.94
341.386	92.94
341.614	87.94
341.842	88.94
342.07	83.94
342.298	91.94
342.526	77.94
342.754	99.94
342.981	91.94
343.209	84.94
343.437	101.94
343.665	93.94
343.893	97.94
344.12	96.94
344.348	101.94
344.576	98.94
344.804	101.94
345.031	99.94
345.259	93.94
345.487	83.94
345.714	92.94
345.942	98.94
346.17	84.94
346.397	93.94
346.625	103.94
346.853	96.94
347.08	90.94
347.308	87.94
347.535	88.94
347.763	87.94
347.99	107.94
348.218	99.94
348.445	87.94
348.673	93.94
348.9	98.94
349.128	95.94
349.355	85.94
349.583	85.94
349.81	82.94
350.037	85.94
350.265	88.94
350.492	85.94
350.72	95.94
350.947	98.94
351.174	94.94
351.402	95.94
351.629	84.94
351.856	98.94
352.083	91.94
352.311	88.94
352.538	84.94
352.765	91.94
352.992	86.94
353.22	84.94
353.447	98.94
353.674	92.94
353.901	78.94
354.128	83.94
354.355	93.94
354.583	99.94
354.81	101.94
355.037	87.94
355.264	87.94
355.491	93.94
355.718	90.94
355.945	89.94
356.172	77.94
356.399	99.94
356.626	89.94
356.853	85.94
357.08	79.94
357.307	101.94
357.534	84.94
357.761	94.94
357.988	104.94
358.215	95.94
358.441	95.94
358.668	88.94
358.895	87.94
359.122	84.94
359.349	103.94
359.576	87.94
359.802	86.94
360.029	83.94
360.256	81.94
360.483	84.94
360.709	88.94
360.936	91.94
361.163	98.94
361.39	91.94
361.616	81.94
361.843	96.94
362.07	113.94
362.296	113.94
362.523	106.94
362.749	107.94
362.976	145.94
363.203	142.94
363.429	109.94
363.656	101.94
363.882	85.94
364.109	124.94
364.335	148.94
364.562	151.94
364.788	116.94
365.015	103.94
365.241	99.94
365.468	97.94
365.694	95.94
365.92	86.94
366.147	90.94
366.373	77.94
366.599	84.94
366.826	99.94
367.052	93.94
367.278	97.94
367.505	97.94
367.731	107.94
367.957	77.94
368.184	88.94
368.41	99.94
368.636	97.94
368.862	97.94
369.089	97.94
369.315	113.94
369.541	99.94
369.767	92.94
369.993	84.94
370.219	86.94
370.445	96.94
370.672	108.94
370.898	108.94
371.124	112.94
371.35	92.94
371.576	106.94
371.802	89.94
372.028	93.94
372.254	97.94
372.48	95.94
372.706	107.94
372.932	99.94
373.158	76.94
373.384	104.94
373.61	109.94
373.835	108.94
374.061	101.94
374.287	84.94
374.513	105.94
374.739	105.94
374.965	111.94
375.191	96.94
375.416	90.94
375.642	108.94
375.868	109.94
376.094	98.94
376.319	90.94
376.545	103.94
376.771	107.94
376.997	87.94
377.222	86.94
377.448	88.94
377.674	84.94
377.899	83.94
378.125	89.94
378.35	89.94
378.576	95.94
378.802	83.94
379.027	90.94
379.253	88.94
379.478	89.94
379.704	76.94
379.929	92.94
380.155	82.94
380.38	100.94
380.606	100.94
380.831	85.94
381.057	93.94
381.282	74.94
381.507	93.94
381.733	87.94
381.958	92.94
382.184	108.94
382.409	100.94
382.634	110.94
382.86	123.94
383.085	105.94
383.31	101.94
383.535	101.94
383.761	116.94
383.986	114.94
384.211	98.94
384.436	96.94
384.662	95.94
384.887	78.94
385.112	93.94
385.337	91.94
385.562	119.94
385.787	103.94
386.013	118.94
386.238	91.94
386.463	104.94
386.688	97.94
386.913	98.94
387.138	100.94
387.363	92.94
387.588	104.94
387.813	108.94
388.038	109.94
388.263	104.94
388.488	102.94
388.713	99.94
388.938	96.94
389.163	88.94
389.387	83.94
389.612	96.94
389.837	100.94
390.062	99.94
390.287	100.94
390.512	106.94
390.736	80.94
390.961	102.94
391.186	96.94
391.411	97.94
391.636	103.94
391.86	88.94
392.085	104.94
392.31	114.94
392.534	125.94
392.759	140.94
392.984	205.94
393.208	314.94
393.433	462.94
393.658	376.94
393.882	185.94
394.107	139.94
394.331	141.94
394.556	147.94
394.78	126.94
395.005	109.94
395.229	105.94
395.454	107.94
395.678	124.94
395.903	130.94
396.127	165.94
396.352	205.94
396.576	211.94
396.801	323.94
397.025	385.94
397.249	224.94
397.474	149.94
397.698	115.94
397.922	100.94
398.147	107.94
398.371	102.94
398.595	99.94
398.82	82.94
399.044	98.94
399.268	99.94
399.492	88.94
399.717	95.94
399.941	110.94
400.165	111.94
400.389	88.94
400.613	83.94
400.837	91.94
401.062	80.94
401.286	87.94
401.51	93.94
401.734	81.94
401.958	78.94
402.182	94.94
402.406	86.94
402.63	96.94
402.854	89.94
403.078	102.94
403.302	97.94
403.526	91.94
403.75	89.94
403.974	81.94
404.198	100.94
404.422	101.94
404.645	108.94
404.869	101.94
405.093	77.94
405.317	89.94
405.541	90.94
405.765	97.94
405.988	86.94
406.212	85.94
406.436	95.94
406.66	95.94
406.883	99.94
407.107	97.94
407.331	100.94
407.555	108.94
407.778	148.94
408.002	140.94
408.226	96.94
408.449	95.94
408.673	93.94
408.896	87.94
409.12	111.94
409.344	111.94
409.567	106.94
409.791	114.94
410.014	131.94
410.238	103.94
410.461	95.94
410.685	84.94
410.908	91.94
411.132	91.94
411.355	87.94
411.578	101.94
411.802	96.94
412.025	89.94
412.249	79.94
412.472	84.94
412.695	84.94
412.919	79.94
413.142	89.94
413.365	87.94
413.589	75.94
413.812	92.94
414.035	89.94
414.258	76.94
414.482	103.94
414.705	88.94
414.928	104.94
415.151	97.94
415.374	86.94
415.597	83.94
415.821	103.94
416.044	79.94
416.267	91.94
416.49	90.94
416.713	99.94
416.936	89.94
417.159	99.94
417.382	101.94
417.605	83.94
417.828	92.94
418.051	78.94
418.274	90.94
418.497	93.94
418.72	97.94
418.943	96.94
419.166	71.94
419.389	85.94
419.611	79.94
419.834	80.94
420.057	92.94
420.28	99.94
420.503	98.94
420.726	97.94
420.948	104.94
421.171	107.94
421.394	125.94
421.617	157.94
421.839	149.94
422.062	134.94
422.285	195.94
422.507	363.94
422.73	509.94
422.953	449.94
423.175	273.94
423.398	168.94
423.621	134.94
423.843	124.94
424.066	115.94
424.288	108.94
424.511	107.94
424.733	103.94
424.956	97.94
425.178	97.94
425.401	93.94
425.623	112.94
425.846	98.94
426.068	65.94
426.291	73.94
426.513	99.94
426.735	107.94
426.958	103.94
427.18	88.94
427.402	97.94
427.625	101.94
427.847	109.94
428.069	105.94
428.292	147.94
428.514	161.94
428.736	128.94
428.958	155.94
429.181	165.94
429.403	108.94
429.625	107.94
429.847	144.94
430.069	191.94
430.292	222.94
430.514	199.94
430.736	145.94
430.958	155.94
431.18	136.94
431.402	117.94
431.624	118.94
431.846	151.94
432.068	158.94
432.29	107.94
432.512	77.94
432.734	85.94
432.956	108.94
433.178	92.94
433.4	101.94
433.622	83.94
433.844	70.94
434.066	97.94
434.287	92.94
434.509	89.94
434.731	90.94
434.953	95.94
435.175	76.94
435.397	91.94
435.618	108.94
435.84	92.94
436.062	100.94
436.284	84.94
436.505	95.94
436.727	81.94
436.949	92.94
437.17	91.94
437.392	101.94
437.614	88.94
437.835	81.94
438.057	95.94
438.278	88.94
438.5	105.94
438.721	99.94
438.943	91.94
439.165	82.94
439.386	85.94
439.608	88.94
439.829	82.94
440.05	94.94
440.272	95.94
440.493	96.94
440.715	84.94
440.936	102.94
441.158	98.94
441.379	95.94
441.6	91.94
441.822	81.94
442.043	84.94
442.264	118.94
442.486	168.94
442.707	206.94
442.928	155.94
443.149	111.94
443.371	179.94
443.592	316.94
443.813	271.94
444.034	135.94
444.255	115.94
444.476	101.94
444.698	100.94
444.919	99.94
445.14	179.94
445.361	258.94
445.582	360.94
445.803	314.94
446.024	149.94
446.245	97.94
446.466	85.94
446.687	91.94
446.908	84.94
447.129	92.94
447.35	88.94
447.571	93.94
447.792	101.94
448.013	81.94
448.234	84.94
448.455	84.94
448.675	84.94
448.896	95.94
449.117	87.94
449.338	90.94
449.559	98.94
449.779	84.94
450	81.94
450.221	92.94
450.442	86.94
450.662	91.94
450.883	93.94
451.104	79.94
451.324	80.94
451.545	91.94
451.766	93.94
451.986	92.94
452.207	91.94
452.428	88.94
452.648	113.94
452.869	101.94
453.089	113.94
453.31	95.94
453.53	99.94
453.751	88.94
453.971	95.94
454.192	87.94
454.412	90.94
454.633	82.94
454.853	84.94
455.073	88.94
455.294	96.94
455.514	102.94
455.734	88.94
455.955	77.94
456.175	95.94
456.395	87.94
456.616	86.94
456.836	81.94
457.056	98.94
457.276	87.94
457.497	91.94
457.717	93.94
457.937	141.94
458.157	146.94
458.377	159.94
458.598	152.94
458.818	149.94
459.038	116.94
459.258	80.94
459.478	77.94
459.698	86.94
459.918	75.94
460.138	95.94
460.358	84.94
460.578	113.94
460.798	135.94
461.018	147.94
461.238	104.94
461.458	96.94
461.678	87.94
461.898	95.94
462.118	103.94
462.338	90.94
462.558	95.94
462.777	77.94
462.997	76.94
463.217	85.94
463.437	89.94
463.657	92.94
463.876	88.94
464.096	92.94
464.316	79.94
464.536	75.94
464.755	72.94
464.975	82.94
465.195	100.94
465.414	94.94
465.634	83.94
465.854	89.94
466.073	77.94
466.293	84.94
466.512	75.94
466.732	84.94
466.951	88.94
467.171	92.94
467.391	89.94
467.61	75.94
467.829	106.94
468.049	106.94
468.268	101.94
468.488	98.94
468.707	98.94
468.927	91.94
469.146	102.94
469.365	98.94
469.585	94.94
469.804	104.94
470.023	82.94
470.243	82.94
470.462	82.94
470.681	77.94
470.901	77.94
471.12	98.94
471.339	79.94
471.558	99.94
471.777	84.94
471.997	84.94
472.216	92.94
472.435	95.94
472.654	96.94
472.873	100.94
473.092	101.94
473.311	97.94
473.53	87.94
473.749	84.94
473.968	93.94
474.187	114.94
474.406	103.94
474.625	88.94
474.844	86.94
475.063	86.94
475.282	98.94
475.501	83.94
475.72	91.94
475.939	76.94
476.158	89.94
476.377	102.94
476.596	91.94
476.814	94.94
477.033	93.94
477.252	76.94
477.471	83.94
477.69	85.94
477.908	90.94
478.127	98.94
478.346	91.94
478.564	81.94
478.783	89.94
479.002	87.94
479.22	91.94
479.439	83.94
479.658	81.94
479.876	88.94
480.095	75.94
480.313	100.94
480.532	88.94
480.751	86.94
480.969	90.94
481.188	95.94
481.406	97.94
481.624	90.94
481.843	93.94
482.061	86.94
482.28	108.94
482.498	83.94
482.717	85.94
482.935	96.94
483.153	99.94
483.372	100.94
483.59	92.94
483.808	107.94
484.027	81.94
484.245	92.94
484.463	92.94
484.681	102.94
484.9	88.94
485.118	108.94
485.336	92.94
485.554	104.94
485.772	96.94
485.99	93.94
486.209	83.94
486.427	99.94
486.645	88.94
486.863	101.94
487.081	97.94
487.299	109.94
487.517	107.94
487.735	135.94
487.953	260.94
488.171	208.94
488.389	94.94
488.607	89.94
488.825	95.94
489.043	84.94
489.261	85.94
489.479	93.94
489.696	88.94
489.914	105.94
490.132	102.94
490.35	93.94
490.568	101.94
490.786	90.94
491.003	103.94
491.221	100.94
491.439	87.94
491.657	87.94
491.874	97.94
492.092	96.94
492.31	87.94
492.527	92.94
492.745	99.94
492.963	96.94
493.18	82.94
493.398	102.94
493.615	98.94
493.833	87.94
494.05	92.94
494.268	84.94
494.485	69.94
494.703	84.94
494.92	94.94
495.138	101.94
495.355	94.94
495.573	105.94
495.79	88.94
496.008	96.94
496.225	99.94
496.442	105.94
496.66	116.94
496.877	90.94
497.094	108.94
497.312	114.94
497.529	95.94
497.746	98.94
497.963	91.94
498.181	99.94
498.398	109.94
498.615	90.94
498.832	84.94
499.049	97.94
499.267	102.94
499.484	101.94
499.701	94.94
499.918	91.94
500.135	108.94
500.352	97.94
500.569	91.94
500.786	106.94
501.003	98.94
501.22	93.94
501.437	91.94
501.654	105.94
501.871	102.94
502.088	82.94
502.305	106.94
502.522	87.94
502.739	105.94
502.956	98.94
503.172	87.94
503.389	83.94
503.606	100.94
503.823	87.94
504.04	129.94
504.256	182.94
504.473	173.94
504.69	94.94
504.907	98.94
505.123	94.94
505.34	108.94
505.557	91.94
505.773	98.94
505.99	99.94
506.207	79.94
506.423	97.94
506.64	87.94
506.856	90.94
507.073	98.94
507.289	87.94
507.506	87.94
507.722	83.94
507.939	75.94
508.155	99.94
508.372	91.94
508.588	91.94
508.805	95.94
509.021	98.94
509.238	81.94
509.454	89.94
509.67	96.94
509.887	96.94
510.103	81.94
510.319	101.94
510.536	93.94
510.752	95.94
510.968	83.94
511.184	83.94
511.401	95.94
511.617	82.94
511.833	94.94
512.049	86.94
512.265	88.94
512.481	89.94
512.698	92.94
512.914	99.94
513.13	99.94
513.346	93.94
513.562	87.94
513.778	82.94
513.994	80.94
514.21	78.94
514.426	91.94
514.642	94.94
514.858	80.94
515.074	92.94
515.29	95.94
515.506	97.94
515.721	96.94
515.937	95.94
516.153	93.94
