Data from 17600_2_HRD10591_00042.txt Node
Date: Mon Jan 19 14:08:43 EST 2026
User: Yrep
Spectrometer: HR+D1059
Trigger mode: 1
Integration Time (sec): 1.000000E-1
Scans to average: 1
Electric dark correction enabled: true
Nonlinearity correction enabled: false
Boxcar width: 0
XAxis mode: Wavelengths
Number of Pixels in Spectrum: 2048
>>>>>Begin Spectral Data<<<<<
223.165	-12.12
223.4	-12.12
223.635	-12.12
223.869	-7.12
224.104	-14.12
224.338	-13.12
224.573	-19.12
224.808	-13.12
225.042	-20.12
225.277	-17.12
225.511	4.88
225.746	-8.12
225.98	15.88
226.215	14.88
226.449	20.88
226.683	10.88
226.918	23.88
227.152	32.88
227.387	27.88
227.621	46.88
227.856	54.88
228.09	53.88
228.324	56.88
228.559	56.88
228.793	59.88
229.027	53.88
229.262	55.88
229.496	73.88
229.73	78.88
229.964	72.88
230.199	79.88
230.433	82.88
230.667	81.88
230.901	74.88
231.136	77.88
231.37	80.88
231.604	70.88
231.838	72.88
232.072	77.88
232.306	79.88
232.541	86.88
232.775	82.88
233.009	89.88
233.243	85.88
233.477	85.88
233.711	79.88
233.945	91.88
234.179	82.88
234.413	71.88
234.647	87.88
234.881	71.88
235.115	72.88
235.349	68.88
235.583	76.88
235.817	72.88
236.051	72.88
236.285	70.88
236.519	77.88
236.753	73.88
236.987	65.88
237.221	55.88
237.455	69.88
237.689	80.88
237.922	78.88
238.156	68.88
238.39	68.88
238.624	72.88
238.858	69.88
239.091	60.88
239.325	72.88
239.559	67.88
239.793	69.88
240.027	88.88
240.26	68.88
240.494	72.88
240.728	73.88
240.961	80.88
241.195	75.88
241.429	69.88
241.662	60.88
241.896	65.88
242.13	74.88
242.363	78.88
242.597	68.88
242.83	73.88
243.064	80.88
243.298	71.88
243.531	77.88
243.765	75.88
243.998	72.88
244.232	94.88
244.465	72.88
244.699	70.88
244.932	82.88
245.166	77.88
245.399	72.88
245.633	59.88
245.866	71.88
246.099	71.88
246.333	69.88
246.566	74.88
246.8	61.88
247.033	72.88
247.266	71.88
247.5	78.88
247.733	79.88
247.966	70.88
248.2	66.88
248.433	79.88
248.666	70.88
248.899	85.88
249.133	82.88
249.366	70.88
249.599	78.88
249.832	69.88
250.066	86.88
250.299	72.88
250.532	90.88
250.765	79.88
250.998	68.88
251.231	82.88
251.465	71.88
251.698	78.88
251.931	62.88
252.164	71.88
252.397	83.88
252.63	93.88
252.863	72.88
253.096	67.88
253.329	74.88
253.562	72.88
253.795	69.88
254.028	78.88
254.261	85.88
254.494	75.88
254.727	81.88
254.96	81.88
255.193	78.88
255.426	57.88
255.659	78.88
255.892	91.88
256.124	69.88
256.357	68.88
256.59	79.88
256.823	75.88
257.056	70.88
257.289	82.88
257.521	96.88
257.754	85.88
257.987	70.88
258.22	81.88
258.452	76.88
258.685	62.88
258.918	72.88
259.151	75.88
259.383	74.88
259.616	69.88
259.849	83.88
260.081	77.88
260.314	79.88
260.547	79.88
260.779	82.88
261.012	82.88
261.244	76.88
261.477	73.88
261.71	85.88
261.942	82.88
262.175	65.88
262.407	77.88
262.64	80.88
262.872	71.88
263.105	69.88
263.337	84.88
263.57	57.88
263.802	81.88
264.035	80.88
264.267	72.88
264.499	66.88
264.732	79.88
264.964	71.88
265.197	90.88
265.429	90.88
265.661	68.88
265.894	72.88
266.126	88.88
266.358	70.88
266.591	68.88
266.823	82.88
267.055	64.88
267.287	79.88
267.52	79.88
267.752	77.88
267.984	80.88
268.216	76.88
268.448	77.88
268.681	73.88
268.913	65.88
269.145	73.88
269.377	79.88
269.609	73.88
269.841	79.88
270.073	77.88
270.306	77.88
270.538	77.88
270.77	82.88
271.002	88.88
271.234	79.88
271.466	84.88
271.698	84.88
271.93	88.88
272.162	82.88
272.394	83.88
272.626	70.88
272.858	87.88
273.09	79.88
273.322	64.88
273.553	85.88
273.785	86.88
274.017	74.88
274.249	86.88
274.481	67.88
274.713	69.88
274.945	97.88
275.176	78.88
275.408	71.88
275.64	68.88
275.872	81.88
276.104	75.88
276.335	72.88
276.567	85.88
276.799	61.88
277.031	83.88
277.262	70.88
277.494	72.88
277.726	74.88
277.957	72.88
278.189	95.88
278.421	85.88
278.652	89.88
278.884	67.88
279.115	89.88
279.347	95.88
279.579	88.88
279.81	72.88
280.042	59.88
280.273	77.88
280.505	69.88
280.736	67.88
280.968	85.88
281.199	86.88
281.431	85.88
281.662	93.88
281.894	74.88
282.125	70.88
282.356	82.88
282.588	83.88
282.819	88.88
283.051	72.88
283.282	91.88
283.513	77.88
283.745	93.88
283.976	87.88
284.207	88.88
284.439	80.88
284.67	81.88
284.901	94.88
285.132	75.88
285.364	77.88
285.595	70.88
285.826	79.88
286.057	87.88
286.288	91.88
286.52	76.88
286.751	93.88
286.982	73.88
287.213	81.88
287.444	79.88
287.675	84.88
287.906	82.88
288.138	78.88
288.369	76.88
288.6	85.88
288.831	77.88
289.062	84.88
289.293	79.88
289.524	91.88
289.755	90.88
289.986	82.88
290.217	86.88
290.448	79.88
290.679	91.88
290.91	67.88
291.141	80.88
291.371	68.88
291.602	80.88
291.833	67.88
292.064	76.88
292.295	72.88
292.526	82.88
292.757	74.88
292.987	63.88
293.218	69.88
293.449	94.88
293.68	87.88
293.91	66.88
294.141	89.88
294.372	70.88
294.603	67.88
294.833	72.88
295.064	81.88
295.295	75.88
295.525	79.88
295.756	86.88
295.987	84.88
296.217	82.88
296.448	93.88
296.679	94.88
296.909	84.88
297.14	84.88
297.37	78.88
297.601	86.88
297.831	98.88
298.062	94.88
298.292	85.88
298.523	85.88
298.753	76.88
298.984	67.88
299.214	80.88
299.445	81.88
299.675	77.88
299.905	81.88
300.136	88.88
300.366	79.88
300.597	86.88
300.827	86.88
301.057	69.88
301.288	82.88
301.518	87.88
301.748	76.88
301.979	91.88
302.209	77.88
302.439	85.88
302.669	88.88
302.9	91.88
303.13	70.88
303.36	83.88
303.59	74.88
303.82	76.88
304.051	90.88
304.281	82.88
304.511	93.88
304.741	81.88
304.971	80.88
305.201	89.88
305.431	90.88
305.661	81.88
305.891	87.88
306.121	87.88
306.352	90.88
306.582	82.88
306.812	78.88
307.042	83.88
307.272	89.88
307.502	72.88
307.731	78.88
307.961	74.88
308.191	78.88
308.421	78.88
308.651	66.88
308.881	87.88
309.111	63.88
309.341	81.88
309.571	78.88
309.8	84.88
310.03	77.88
310.26	76.88
310.49	80.88
310.72	87.88
310.949	71.88
311.179	69.88
311.409	83.88
311.639	69.88
311.868	83.88
312.098	79.88
312.328	89.88
312.557	79.88
312.787	85.88
313.017	78.88
313.246	81.88
313.476	78.88
313.706	90.88
313.935	78.88
314.165	83.88
314.394	85.88
314.624	70.88
314.853	77.88
315.083	78.88
315.312	80.88
315.542	77.88
315.771	82.88
316.001	87.88
316.23	101.88
316.46	81.88
316.689	89.88
316.919	84.88
317.148	81.88
317.377	87.88
317.607	85.88
317.836	81.88
318.065	93.88
318.295	93.88
318.524	83.88
318.753	68.88
318.983	82.88
319.212	104.88
319.441	73.88
319.67	79.88
319.9	82.88
320.129	91.88
320.358	83.88
320.587	89.88
320.816	80.88
321.046	77.88
321.275	83.88
321.504	84.88
321.733	87.88
321.962	98.88
322.191	72.88
322.42	75.88
322.649	77.88
322.878	90.88
323.108	73.88
323.337	77.88
323.566	80.88
323.795	72.88
324.024	83.88
324.253	72.88
324.482	78.88
324.71	82.88
324.939	80.88
325.168	86.88
325.397	91.88
325.626	85.88
325.855	77.88
326.084	79.88
326.313	79.88
326.542	91.88
326.77	91.88
326.999	80.88
327.228	79.88
327.457	93.88
327.686	82.88
327.914	78.88
328.143	100.88
328.372	77.88
328.6	76.88
328.829	71.88
329.058	80.88
329.287	85.88
329.515	71.88
329.744	95.88
329.972	71.88
330.201	77.88
330.43	87.88
330.658	87.88
330.887	65.88
331.115	70.88
331.344	85.88
331.572	84.88
331.801	87.88
332.03	94.88
332.258	86.88
332.486	82.88
332.715	68.88
332.943	83.88
333.172	73.88
333.4	85.88
333.629	61.88
333.857	81.88
334.085	89.88
334.314	61.88
334.542	80.88
334.771	93.88
334.999	90.88
335.227	85.88
335.455	91.88
335.684	87.88
335.912	100.88
336.14	82.88
336.369	80.88
336.597	78.88
336.825	74.88
337.053	80.88
337.281	80.88
337.51	73.88
337.738	75.88
337.966	70.88
338.194	85.88
338.422	75.88
338.65	78.88
338.878	87.88
339.106	70.88
339.334	85.88
339.562	79.88
339.79	80.88
340.018	82.88
340.246	81.88
340.474	81.88
340.702	75.88
340.93	74.88
341.158	77.88
341.386	85.88
341.614	77.88
341.842	87.88
342.07	80.88
342.298	78.88
342.526	83.88
342.754	80.88
342.981	83.88
343.209	84.88
343.437	91.88
343.665	69.88
343.893	84.88
344.12	80.88
344.348	75.88
344.576	72.88
344.804	71.88
345.031	93.88
345.259	86.88
345.487	83.88
345.714	90.88
345.942	89.88
346.17	86.88
346.397	85.88
346.625	75.88
346.853	85.88
347.08	93.88
347.308	72.88
347.535	85.88
347.763	79.88
347.99	87.88
348.218	86.88
348.445	85.88
348.673	86.88
348.9	74.88
349.128	76.88
349.355	83.88
349.583	76.88
349.81	87.88
350.037	78.88
350.265	95.88
350.492	95.88
350.72	78.88
350.947	75.88
351.174	80.88
351.402	77.88
351.629	76.88
351.856	79.88
352.083	63.88
352.311	75.88
352.538	82.88
352.765	80.88
352.992	80.88
353.22	86.88
353.447	78.88
353.674	74.88
353.901	72.88
354.128	85.88
354.355	78.88
354.583	83.88
354.81	89.88
355.037	82.88
355.264	78.88
355.491	72.88
355.718	79.88
355.945	92.88
356.172	76.88
356.399	85.88
356.626	86.88
356.853	75.88
357.08	77.88
357.307	78.88
357.534	77.88
357.761	83.88
357.988	72.88
358.215	81.88
358.441	75.88
358.668	85.88
358.895	80.88
359.122	79.88
359.349	67.88
359.576	77.88
359.802	83.88
360.029	93.88
360.256	72.88
360.483	77.88
360.709	77.88
360.936	79.88
361.163	78.88
361.39	73.88
361.616	77.88
361.843	73.88
362.07	78.88
362.296	74.88
362.523	81.88
362.749	87.88
362.976	64.88
363.203	91.88
363.429	71.88
363.656	75.88
363.882	80.88
364.109	87.88
364.335	92.88
364.562	79.88
364.788	67.88
365.015	93.88
365.241	72.88
365.468	96.88
365.694	81.88
365.92	71.88
366.147	74.88
366.373	69.88
366.599	82.88
366.826	81.88
367.052	73.88
367.278	86.88
367.505	81.88
367.731	98.88
367.957	77.88
368.184	81.88
368.41	73.88
368.636	79.88
368.862	74.88
369.089	77.88
369.315	76.88
369.541	78.88
369.767	73.88
369.993	88.88
370.219	83.88
370.445	84.88
370.672	91.88
370.898	91.88
371.124	83.88
371.35	74.88
371.576	80.88
371.802	85.88
372.028	85.88
372.254	87.88
372.48	68.88
372.706	81.88
372.932	68.88
373.158	90.88
373.384	79.88
373.61	88.88
373.835	89.88
374.061	89.88
374.287	85.88
374.513	83.88
374.739	92.88
374.965	81.88
375.191	85.88
375.416	88.88
375.642	73.88
375.868	101.88
376.094	79.88
376.319	82.88
376.545	79.88
376.771	74.88
376.997	72.88
377.222	88.88
377.448	90.88
377.674	72.88
377.899	75.88
378.125	86.88
378.35	91.88
378.576	88.88
378.802	82.88
379.027	77.88
379.253	79.88
379.478	71.88
379.704	67.88
379.929	91.88
380.155	88.88
380.38	80.88
380.606	73.88
380.831	83.88
381.057	70.88
381.282	87.88
381.507	86.88
381.733	80.88
381.958	93.88
382.184	82.88
382.409	90.88
382.634	87.88
382.86	78.88
383.085	94.88
383.31	84.88
383.535	83.88
383.761	74.88
383.986	100.88
384.211	82.88
384.436	81.88
384.662	77.88
384.887	82.88
385.112	98.88
385.337	93.88
385.562	84.88
385.787	74.88
386.013	86.88
386.238	89.88
386.463	85.88
386.688	93.88
386.913	79.88
387.138	79.88
387.363	94.88
387.588	93.88
387.813	65.88
388.038	76.88
388.263	80.88
388.488	87.88
388.713	85.88
388.938	95.88
389.163	78.88
389.387	86.88
389.612	84.88
389.837	83.88
390.062	88.88
390.287	68.88
390.512	82.88
390.736	86.88
390.961	84.88
391.186	74.88
391.411	69.88
391.636	73.88
391.86	82.88
392.085	87.88
392.31	91.88
392.534	95.88
392.759	92.88
392.984	98.88
393.208	157.88
393.433	253.88
393.658	208.88
393.882	103.88
394.107	80.88
394.331	86.88
394.556	81.88
394.78	87.88
395.005	84.88
395.229	85.88
395.454	80.88
395.678	87.88
395.903	79.88
396.127	95.88
396.352	91.88
396.576	124.88
396.801	201.88
397.025	219.88
397.249	136.88
397.474	87.88
397.698	73.88
397.922	79.88
398.147	68.88
398.371	67.88
398.595	80.88
398.82	94.88
399.044	83.88
399.268	70.88
399.492	87.88
399.717	75.88
399.941	73.88
400.165	77.88
400.389	91.88
400.613	86.88
400.837	84.88
401.062	71.88
401.286	89.88
401.51	85.88
401.734	77.88
401.958	60.88
402.182	73.88
402.406	73.88
402.63	88.88
402.854	87.88
403.078	81.88
403.302	78.88
403.526	83.88
403.75	68.88
403.974	79.88
404.198	78.88
404.422	77.88
404.645	75.88
404.869	81.88
405.093	74.88
405.317	87.88
405.541	69.88
405.765	77.88
405.988	82.88
406.212	73.88
406.436	72.88
406.66	59.88
406.883	69.88
407.107	79.88
407.331	84.88
407.555	82.88
407.778	77.88
408.002	93.88
408.226	82.88
408.449	76.88
408.673	87.88
408.896	81.88
409.12	75.88
409.344	77.88
409.567	70.88
409.791	87.88
410.014	68.88
410.238	69.88
410.461	80.88
410.685	83.88
410.908	84.88
411.132	88.88
411.355	91.88
411.578	82.88
411.802	77.88
412.025	84.88
412.249	81.88
412.472	86.88
412.695	73.88
412.919	79.88
413.142	78.88
413.365	75.88
413.589	73.88
413.812	91.88
414.035	95.88
414.258	76.88
414.482	57.88
414.705	85.88
414.928	77.88
415.151	80.88
415.374	78.88
415.597	77.88
415.821	80.88
416.044	104.88
416.267	74.88
416.49	91.88
416.713	80.88
416.936	79.88
417.159	73.88
417.382	82.88
417.605	80.88
417.828	85.88
418.051	79.88
418.274	84.88
418.497	78.88
418.72	79.88
418.943	84.88
419.166	85.88
419.389	79.88
419.611	68.88
419.834	85.88
420.057	78.88
420.28	77.88
420.503	81.88
420.726	82.88
420.948	98.88
421.171	80.88
421.394	73.88
421.617	93.88
421.839	97.88
422.062	87.88
422.285	83.88
422.507	102.88
422.73	137.88
422.953	129.88
423.175	95.88
423.398	87.88
423.621	77.88
423.843	75.88
424.066	73.88
424.288	82.88
424.511	64.88
424.733	80.88
424.956	70.88
425.178	79.88
425.401	83.88
425.623	67.88
425.846	84.88
426.068	75.88
426.291	87.88
426.513	78.88
426.735	82.88
426.958	83.88
427.18	74.88
427.402	93.88
427.625	82.88
427.847	71.88
428.069	69.88
428.292	81.88
428.514	89.88
428.736	70.88
428.958	89.88
429.181	74.88
429.403	89.88
429.625	80.88
429.847	83.88
430.069	94.88
430.292	101.88
430.514	94.88
430.736	84.88
430.958	81.88
431.18	83.88
431.402	76.88
431.624	78.88
431.846	80.88
432.068	82.88
432.29	77.88
432.512	94.88
432.734	80.88
432.956	69.88
433.178	80.88
433.4	76.88
433.622	83.88
433.844	84.88
434.066	85.88
434.287	78.88
434.509	83.88
434.731	72.88
434.953	89.88
435.175	70.88
435.397	79.88
435.618	81.88
435.84	71.88
436.062	82.88
436.284	72.88
436.505	76.88
436.727	85.88
436.949	74.88
437.17	75.88
437.392	69.88
437.614	80.88
437.835	78.88
438.057	76.88
438.278	73.88
438.5	65.88
438.721	72.88
438.943	88.88
439.165	67.88
439.386	77.88
439.608	84.88
439.829	77.88
440.05	89.88
440.272	72.88
440.493	72.88
440.715	73.88
440.936	65.88
441.158	72.88
441.379	71.88
441.6	81.88
441.822	76.88
442.043	79.88
442.264	83.88
442.486	95.88
442.707	79.88
442.928	77.88
443.149	82.88
443.371	85.88
443.592	93.88
443.813	84.88
444.034	85.88
444.255	84.88
444.476	79.88
444.698	95.88
444.919	66.88
445.14	136.88
445.361	114.88
445.582	99.88
445.803	87.88
446.024	78.88
446.245	80.88
446.466	88.88
446.687	86.88
446.908	75.88
447.129	72.88
447.35	79.88
447.571	75.88
447.792	84.88
448.013	94.88
448.234	97.88
448.455	63.88
448.675	86.88
448.896	73.88
449.117	85.88
449.338	77.88
449.559	79.88
449.779	84.88
450	79.88
450.221	89.88
450.442	87.88
450.662	88.88
450.883	78.88
451.104	90.88
451.324	82.88
451.545	92.88
451.766	85.88
451.986	82.88
452.207	83.88
452.428	76.88
452.648	78.88
452.869	82.88
453.089	84.88
453.31	83.88
453.53	103.88
453.751	92.88
453.971	77.88
454.192	80.88
454.412	65.88
454.633	81.88
454.853	73.88
455.073	84.88
455.294	83.88
455.514	82.88
455.734	94.88
455.955	74.88
456.175	75.88
456.395	83.88
456.616	71.88
456.836	69.88
457.056	78.88
457.276	65.88
457.497	77.88
457.717	79.88
457.937	83.88
458.157	82.88
458.377	64.88
458.598	76.88
458.818	87.88
459.038	72.88
459.258	89.88
459.478	84.88
459.698	69.88
459.918	86.88
460.138	77.88
460.358	85.88
460.578	85.88
460.798	77.88
461.018	76.88
461.238	70.88
461.458	81.88
461.678	76.88
461.898	81.88
462.118	84.88
462.338	74.88
462.558	80.88
462.777	75.88
462.997	79.88
463.217	79.88
463.437	82.88
463.657	77.88
463.876	61.88
464.096	83.88
464.316	85.88
464.536	78.88
464.755	85.88
464.975	85.88
465.195	70.88
465.414	77.88
465.634	80.88
465.854	82.88
466.073	68.88
466.293	82.88
466.512	82.88
466.732	78.88
466.951	80.88
467.171	76.88
467.391	84.88
467.61	86.88
467.829	91.88
468.049	83.88
468.268	84.88
468.488	74.88
468.707	76.88
468.927	88.88
469.146	72.88
469.365	64.88
469.585	89.88
469.804	79.88
470.023	85.88
470.243	71.88
470.462	81.88
470.681	72.88
470.901	86.88
471.12	71.88
471.339	74.88
471.558	84.88
471.777	82.88
471.997	92.88
472.216	92.88
472.435	73.88
472.654	76.88
472.873	84.88
473.092	78.88
473.311	85.88
473.53	86.88
473.749	67.88
473.968	75.88
474.187	81.88
474.406	82.88
474.625	80.88
474.844	78.88
475.063	76.88
475.282	77.88
475.501	82.88
475.72	86.88
475.939	83.88
476.158	82.88
476.377	79.88
476.596	84.88
476.814	79.88
477.033	74.88
477.252	67.88
477.471	68.88
477.69	76.88
477.908	60.88
478.127	86.88
478.346	71.88
478.564	76.88
478.783	70.88
479.002	76.88
479.22	81.88
479.439	74.88
479.658	76.88
479.876	88.88
480.095	87.88
480.313	83.88
480.532	85.88
480.751	72.88
480.969	77.88
481.188	73.88
481.406	87.88
481.624	86.88
481.843	81.88
482.061	85.88
482.28	74.88
482.498	88.88
482.717	89.88
482.935	81.88
483.153	82.88
483.372	83.88
483.59	91.88
483.808	79.88
484.027	74.88
484.245	80.88
484.463	79.88
484.681	96.88
484.9	79.88
485.118	70.88
485.336	69.88
485.554	81.88
485.772	80.88
485.99	84.88
486.209	84.88
486.427	78.88
486.645	83.88
486.863	67.88
487.081	66.88
487.299	83.88
487.517	76.88
487.735	90.88
487.953	87.88
488.171	83.88
488.389	98.88
488.607	79.88
488.825	79.88
489.043	79.88
489.261	78.88
489.479	73.88
489.696	85.88
489.914	78.88
490.132	65.88
490.35	78.88
490.568	85.88
490.786	73.88
491.003	85.88
491.221	84.88
491.439	60.88
491.657	73.88
491.874	74.88
492.092	81.88
492.31	81.88
492.527	79.88
492.745	69.88
492.963	78.88
493.18	71.88
493.398	82.88
493.615	80.88
493.833	61.88
494.05	79.88
494.268	83.88
494.485	84.88
494.703	78.88
494.92	82.88
495.138	76.88
495.355	79.88
495.573	91.88
495.79	76.88
496.008	77.88
496.225	89.88
496.442	77.88
496.66	87.88
496.877	94.88
497.094	77.88
497.312	77.88
497.529	76.88
497.746	77.88
497.963	96.88
498.181	80.88
498.398	73.88
498.615	81.88
498.832	75.88
499.049	72.88
499.267	71.88
499.484	76.88
499.701	68.88
499.918	85.88
500.135	79.88
500.352	99.88
500.569	73.88
500.786	73.88
501.003	67.88
501.22	88.88
501.437	93.88
501.654	93.88
501.871	81.88
502.088	80.88
502.305	96.88
502.522	83.88
502.739	81.88
502.956	81.88
503.172	61.88
503.389	85.88
503.606	65.88
503.823	78.88
504.04	79.88
504.256	87.88
504.473	84.88
504.69	72.88
504.907	69.88
505.123	85.88
505.34	82.88
505.557	91.88
505.773	86.88
505.99	76.88
506.207	80.88
506.423	80.88
506.64	75.88
506.856	89.88
507.073	71.88
507.289	76.88
507.506	75.88
507.722	68.88
507.939	80.88
508.155	66.88
508.372	76.88
508.588	76.88
508.805	80.88
509.021	84.88
509.238	88.88
509.454	80.88
509.67	87.88
509.887	79.88
510.103	88.88
510.319	88.88
510.536	76.88
510.752	76.88
510.968	82.88
511.184	71.88
511.401	72.88
511.617	76.88
511.833	81.88
512.049	77.88
512.265	81.88
512.481	76.88
512.698	68.88
512.914	75.88
513.13	87.88
513.346	89.88
513.562	89.88
513.778	79.88
513.994	73.88
514.21	85.88
514.426	90.88
514.642	91.88
514.858	91.88
515.074	82.88
515.29	79.88
515.506	84.88
515.721	77.88
515.937	63.88
516.153	79.88
516.369	84.88
516.585	82.88
516.801	77.88
517.016	75.88
517.232	80.88
517.448	88.88
517.664	92.88
517.879	86.88
518.095	80.88
518.311	81.88
518.527	86.88
518.742	93.88
518.958	86.88
519.173	89.88
519.389	82.88
519.605	87.88
519.82	74.88
520.036	93.88
