Data from 17600_2_HRD10591_00050.txt Node
Date: Mon Jan 19 14:08:47 EST 2026
User: Yrep
Spectrometer: HR+D1059
Trigger mode: 1
Integration Time (sec): 1.000000E-1
Scans to average: 1
Electric dark correction enabled: true
Nonlinearity correction enabled: false
Boxcar width: 0
XAxis mode: Wavelengths
Number of Pixels in Spectrum: 2048
>>>>>Begin Spectral Data<<<<<
223.165	-16.19
223.4	-16.19
223.635	-16.19
223.869	-13.19
224.104	-32.19
224.338	-3.19
224.573	-1.19
224.808	-17.19
225.042	-3.19
225.277	6.81
225.511	-3.19
225.746	5.81
225.98	-1.19
226.215	8.81
226.449	20.81
226.683	8.81
226.918	18.81
227.152	20.81
227.387	38.81
227.621	49.81
227.856	44.81
228.09	49.81
228.324	38.81
228.559	58.81
228.793	54.81
229.027	78.81
229.262	73.81
229.496	72.81
229.73	73.81
229.964	61.81
230.199	57.81
230.433	76.81
230.667	70.81
230.901	72.81
231.136	86.81
231.37	86.81
231.604	86.81
231.838	77.81
232.072	82.81
232.306	89.81
232.541	93.81
232.775	78.81
233.009	68.81
233.243	90.81
233.477	78.81
233.711	96.81
233.945	82.81
234.179	78.81
234.413	72.81
234.647	76.81
234.881	68.81
235.115	77.81
235.349	84.81
235.583	83.81
235.817	80.81
236.051	81.81
236.285	73.81
236.519	75.81
236.753	94.81
236.987	83.81
237.221	75.81
237.455	83.81
237.689	92.81
237.922	74.81
238.156	70.81
238.39	88.81
238.624	76.81
238.858	87.81
239.091	77.81
239.325	74.81
239.559	74.81
239.793	71.81
240.027	73.81
240.26	71.81
240.494	69.81
240.728	78.81
240.961	74.81
241.195	71.81
241.429	78.81
241.662	70.81
241.896	89.81
242.13	84.81
242.363	84.81
242.597	75.81
242.83	71.81
243.064	78.81
243.298	79.81
243.531	82.81
243.765	60.81
243.998	65.81
244.232	69.81
244.465	78.81
244.699	70.81
244.932	71.81
245.166	69.81
245.399	80.81
245.633	81.81
245.866	86.81
246.099	66.81
246.333	56.81
246.566	64.81
246.8	88.81
247.033	82.81
247.266	63.81
247.5	76.81
247.733	99.81
247.966	71.81
248.2	80.81
248.433	90.81
248.666	74.81
248.899	64.81
249.133	71.81
249.366	78.81
249.599	76.81
249.832	70.81
250.066	82.81
250.299	80.81
250.532	86.81
250.765	82.81
250.998	78.81
251.231	60.81
251.465	62.81
251.698	75.81
251.931	80.81
252.164	81.81
252.397	70.81
252.63	92.81
252.863	78.81
253.096	82.81
253.329	83.81
253.562	87.81
253.795	92.81
254.028	64.81
254.261	82.81
254.494	81.81
254.727	65.81
254.96	78.81
255.193	79.81
255.426	73.81
255.659	69.81
255.892	88.81
256.124	81.81
256.357	82.81
256.59	82.81
256.823	70.81
257.056	85.81
257.289	70.81
257.521	72.81
257.754	56.81
257.987	65.81
258.22	85.81
258.452	71.81
258.685	77.81
258.918	77.81
259.151	82.81
259.383	72.81
259.616	80.81
259.849	86.81
260.081	79.81
260.314	88.81
260.547	91.81
260.779	84.81
261.012	77.81
261.244	78.81
261.477	74.81
261.71	74.81
261.942	77.81
262.175	83.81
262.407	86.81
262.64	64.81
262.872	99.81
263.105	82.81
263.337	92.81
263.57	74.81
263.802	80.81
264.035	83.81
264.267	82.81
264.499	85.81
264.732	86.81
264.964	85.81
265.197	77.81
265.429	88.81
265.661	82.81
265.894	86.81
266.126	77.81
266.358	80.81
266.591	86.81
266.823	94.81
267.055	76.81
267.287	69.81
267.52	93.81
267.752	72.81
267.984	82.81
268.216	84.81
268.448	68.81
268.681	84.81
268.913	80.81
269.145	84.81
269.377	88.81
269.609	73.81
269.841	80.81
270.073	86.81
270.306	80.81
270.538	89.81
270.77	75.81
271.002	95.81
271.234	89.81
271.466	80.81
271.698	81.81
271.93	79.81
272.162	81.81
272.394	76.81
272.626	78.81
272.858	76.81
273.09	88.81
273.322	89.81
273.553	82.81
273.785	90.81
274.017	83.81
274.249	94.81
274.481	66.81
274.713	85.81
274.945	83.81
275.176	80.81
275.408	78.81
275.64	80.81
275.872	80.81
276.104	75.81
276.335	82.81
276.567	97.81
276.799	95.81
277.031	80.81
277.262	81.81
277.494	73.81
277.726	70.81
277.957	76.81
278.189	69.81
278.421	87.81
278.652	88.81
278.884	69.81
279.115	81.81
279.347	93.81
279.579	83.81
279.81	81.81
280.042	76.81
280.273	71.81
280.505	86.81
280.736	93.81
280.968	79.81
281.199	72.81
281.431	94.81
281.662	76.81
281.894	94.81
282.125	80.81
282.356	72.81
282.588	83.81
282.819	64.81
283.051	70.81
283.282	87.81
283.513	80.81
283.745	85.81
283.976	88.81
284.207	79.81
284.439	88.81
284.67	73.81
284.901	82.81
285.132	75.81
285.364	92.81
285.595	90.81
285.826	74.81
286.057	95.81
286.288	96.81
286.52	89.81
286.751	81.81
286.982	86.81
287.213	93.81
287.444	80.81
287.675	83.81
287.906	73.81
288.138	68.81
288.369	94.81
288.6	85.81
288.831	72.81
289.062	94.81
289.293	77.81
289.524	68.81
289.755	84.81
289.986	72.81
290.217	91.81
290.448	88.81
290.679	87.81
290.91	96.81
291.141	78.81
291.371	84.81
291.602	87.81
291.833	82.81
292.064	77.81
292.295	86.81
292.526	85.81
292.757	86.81
292.987	74.81
293.218	69.81
293.449	93.81
293.68	92.81
293.91	78.81
294.141	88.81
294.372	99.81
294.603	83.81
294.833	72.81
295.064	87.81
295.295	79.81
295.525	79.81
295.756	90.81
295.987	89.81
296.217	78.81
296.448	82.81
296.679	75.81
296.909	82.81
297.14	86.81
297.37	82.81
297.601	83.81
297.831	80.81
298.062	84.81
298.292	85.81
298.523	90.81
298.753	77.81
298.984	80.81
299.214	85.81
299.445	86.81
299.675	84.81
299.905	94.81
300.136	92.81
300.366	80.81
300.597	91.81
300.827	87.81
301.057	85.81
301.288	94.81
301.518	79.81
301.748	71.81
301.979	93.81
302.209	71.81
302.439	78.81
302.669	72.81
302.9	90.81
303.13	88.81
303.36	88.81
303.59	71.81
303.82	82.81
304.051	88.81
304.281	82.81
304.511	75.81
304.741	84.81
304.971	87.81
305.201	88.81
305.431	89.81
305.661	92.81
305.891	88.81
306.121	85.81
306.352	74.81
306.582	78.81
306.812	72.81
307.042	79.81
307.272	95.81
307.502	74.81
307.731	92.81
307.961	93.81
308.191	82.81
308.421	80.81
308.651	86.81
308.881	77.81
309.111	69.81
309.341	81.81
309.571	96.81
309.8	71.81
310.03	78.81
310.26	93.81
310.49	90.81
310.72	72.81
310.949	78.81
311.179	81.81
311.409	83.81
311.639	92.81
311.868	67.81
312.098	80.81
312.328	90.81
312.557	100.81
312.787	88.81
313.017	82.81
313.246	81.81
313.476	77.81
313.706	84.81
313.935	76.81
314.165	77.81
314.394	73.81
314.624	74.81
314.853	86.81
315.083	97.81
315.312	93.81
315.542	74.81
315.771	80.81
316.001	74.81
316.23	81.81
316.46	69.81
316.689	76.81
316.919	90.81
317.148	68.81
317.377	65.81
317.607	86.81
317.836	93.81
318.065	69.81
318.295	83.81
318.524	66.81
318.753	86.81
318.983	82.81
319.212	92.81
319.441	87.81
319.67	83.81
319.9	95.81
320.129	84.81
320.358	85.81
320.587	81.81
320.816	85.81
321.046	92.81
321.275	85.81
321.504	91.81
321.733	71.81
321.962	103.81
322.191	74.81
322.42	79.81
322.649	74.81
322.878	98.81
323.108	87.81
323.337	82.81
323.566	90.81
323.795	83.81
324.024	83.81
324.253	78.81
324.482	82.81
324.71	81.81
324.939	80.81
325.168	90.81
325.397	88.81
325.626	79.81
325.855	88.81
326.084	92.81
326.313	62.81
326.542	91.81
326.77	73.81
326.999	87.81
327.228	78.81
327.457	72.81
327.686	84.81
327.914	87.81
328.143	86.81
328.372	71.81
328.6	98.81
328.829	84.81
329.058	74.81
329.287	79.81
329.515	80.81
329.744	77.81
329.972	87.81
330.201	97.81
330.43	83.81
330.658	83.81
330.887	93.81
331.115	98.81
331.344	76.81
331.572	69.81
331.801	84.81
332.03	94.81
332.258	88.81
332.486	82.81
332.715	80.81
332.943	77.81
333.172	72.81
333.4	78.81
333.629	80.81
333.857	82.81
334.085	87.81
334.314	83.81
334.542	76.81
334.771	86.81
334.999	81.81
335.227	106.81
335.455	92.81
335.684	80.81
335.912	78.81
336.14	72.81
336.369	75.81
336.597	78.81
336.825	83.81
337.053	69.81
337.281	87.81
337.51	75.81
337.738	96.81
337.966	80.81
338.194	89.81
338.422	73.81
338.65	80.81
338.878	92.81
339.106	94.81
339.334	86.81
339.562	95.81
339.79	96.81
340.018	83.81
340.246	75.81
340.474	84.81
340.702	81.81
340.93	84.81
341.158	73.81
341.386	80.81
341.614	77.81
341.842	80.81
342.07	84.81
342.298	82.81
342.526	88.81
342.754	83.81
342.981	85.81
343.209	93.81
343.437	86.81
343.665	83.81
343.893	87.81
344.12	84.81
344.348	84.81
344.576	86.81
344.804	90.81
345.031	104.81
345.259	86.81
345.487	76.81
345.714	84.81
345.942	83.81
346.17	87.81
346.397	67.81
346.625	98.81
346.853	68.81
347.08	99.81
347.308	100.81
347.535	90.81
347.763	82.81
347.99	75.81
348.218	86.81
348.445	72.81
348.673	82.81
348.9	88.81
349.128	87.81
349.355	84.81
349.583	66.81
349.81	78.81
350.037	84.81
350.265	86.81
350.492	76.81
350.72	64.81
350.947	90.81
351.174	92.81
351.402	81.81
351.629	75.81
351.856	92.81
352.083	76.81
352.311	74.81
352.538	83.81
352.765	87.81
352.992	95.81
353.22	76.81
353.447	80.81
353.674	93.81
353.901	97.81
354.128	82.81
354.355	75.81
354.583	92.81
354.81	93.81
355.037	92.81
355.264	91.81
355.491	79.81
355.718	78.81
355.945	76.81
356.172	82.81
356.399	94.81
356.626	85.81
356.853	82.81
357.08	86.81
357.307	84.81
357.534	82.81
357.761	83.81
357.988	83.81
358.215	79.81
358.441	77.81
358.668	89.81
358.895	84.81
359.122	90.81
359.349	87.81
359.576	78.81
359.802	96.81
360.029	90.81
360.256	89.81
360.483	90.81
360.709	84.81
360.936	92.81
361.163	86.81
361.39	87.81
361.616	94.81
361.843	72.81
362.07	85.81
362.296	101.81
362.523	81.81
362.749	82.81
362.976	86.81
363.203	104.81
363.429	69.81
363.656	94.81
363.882	84.81
364.109	88.81
364.335	90.81
364.562	76.81
364.788	76.81
365.015	84.81
365.241	83.81
365.468	95.81
365.694	76.81
365.92	86.81
366.147	74.81
366.373	77.81
366.599	80.81
366.826	81.81
367.052	82.81
367.278	77.81
367.505	93.81
367.731	95.81
367.957	82.81
368.184	74.81
368.41	75.81
368.636	86.81
368.862	92.81
369.089	80.81
369.315	88.81
369.541	88.81
369.767	91.81
369.993	76.81
370.219	88.81
370.445	67.81
370.672	83.81
370.898	81.81
371.124	69.81
371.35	84.81
371.576	82.81
371.802	78.81
372.028	104.81
372.254	88.81
372.48	72.81
372.706	80.81
372.932	89.81
373.158	78.81
373.384	81.81
373.61	84.81
373.835	92.81
374.061	74.81
374.287	86.81
374.513	72.81
374.739	85.81
374.965	87.81
375.191	89.81
375.416	92.81
375.642	78.81
375.868	86.81
376.094	81.81
376.319	81.81
376.545	82.81
376.771	66.81
376.997	82.81
377.222	76.81
377.448	78.81
377.674	87.81
377.899	73.81
378.125	75.81
378.35	87.81
378.576	88.81
378.802	82.81
379.027	81.81
379.253	88.81
379.478	83.81
379.704	88.81
379.929	90.81
380.155	83.81
380.38	84.81
380.606	81.81
380.831	76.81
381.057	82.81
381.282	82.81
381.507	80.81
381.733	85.81
381.958	81.81
382.184	77.81
382.409	88.81
382.634	87.81
382.86	90.81
383.085	78.81
383.31	87.81
383.535	92.81
383.761	93.81
383.986	88.81
384.211	82.81
384.436	74.81
384.662	68.81
384.887	73.81
385.112	82.81
385.337	94.81
385.562	101.81
385.787	79.81
386.013	84.81
386.238	87.81
386.463	93.81
386.688	107.81
386.913	96.81
387.138	88.81
387.363	68.81
387.588	85.81
387.813	79.81
388.038	92.81
388.263	97.81
388.488	104.81
388.713	83.81
388.938	90.81
389.163	72.81
389.387	77.81
389.612	78.81
389.837	83.81
390.062	103.81
390.287	81.81
390.512	69.81
390.736	98.81
390.961	99.81
391.186	72.81
391.411	79.81
391.636	90.81
391.86	82.81
392.085	83.81
392.31	85.81
392.534	82.81
392.759	86.81
392.984	111.81
393.208	120.81
393.433	149.81
393.658	127.81
393.882	84.81
394.107	82.81
394.331	80.81
394.556	100.81
394.78	80.81
395.005	74.81
395.229	94.81
395.454	74.81
395.678	79.81
395.903	95.81
396.127	105.81
396.352	75.81
396.576	98.81
396.801	124.81
397.025	137.81
397.249	105.81
397.474	92.81
397.698	98.81
397.922	90.81
398.147	83.81
398.371	92.81
398.595	86.81
398.82	79.81
399.044	63.81
399.268	78.81
399.492	93.81
399.717	85.81
399.941	81.81
400.165	82.81
400.389	77.81
400.613	74.81
400.837	67.81
401.062	84.81
401.286	83.81
401.51	86.81
401.734	78.81
401.958	75.81
402.182	83.81
402.406	74.81
402.63	84.81
402.854	75.81
403.078	86.81
403.302	67.81
403.526	85.81
403.75	86.81
403.974	97.81
404.198	88.81
404.422	89.81
404.645	85.81
404.869	106.81
405.093	76.81
405.317	65.81
405.541	91.81
405.765	84.81
405.988	75.81
406.212	72.81
406.436	71.81
406.66	93.81
406.883	85.81
407.107	87.81
407.331	77.81
407.555	81.81
407.778	89.81
408.002	73.81
408.226	83.81
408.449	81.81
408.673	72.81
408.896	88.81
409.12	76.81
409.344	83.81
409.567	85.81
409.791	72.81
410.014	88.81
410.238	88.81
410.461	97.81
410.685	93.81
410.908	84.81
411.132	68.81
411.355	76.81
411.578	80.81
411.802	84.81
412.025	95.81
412.249	84.81
412.472	76.81
412.695	81.81
412.919	81.81
413.142	96.81
413.365	85.81
413.589	74.81
413.812	67.81
414.035	85.81
414.258	85.81
414.482	92.81
414.705	80.81
414.928	82.81
415.151	81.81
415.374	81.81
415.597	96.81
415.821	93.81
416.044	86.81
416.267	93.81
416.49	88.81
416.713	81.81
416.936	87.81
417.159	91.81
417.382	78.81
417.605	80.81
417.828	66.81
418.051	85.81
418.274	66.81
418.497	89.81
418.72	86.81
418.943	86.81
419.166	84.81
419.389	74.81
419.611	87.81
419.834	84.81
420.057	84.81
420.28	70.81
420.503	73.81
420.726	77.81
420.948	89.81
421.171	95.81
421.394	88.81
421.617	82.81
421.839	92.81
422.062	83.81
422.285	100.81
422.507	109.81
422.73	137.81
422.953	126.81
423.175	95.81
423.398	90.81
423.621	74.81
423.843	89.81
424.066	84.81
424.288	79.81
424.511	88.81
424.733	71.81
424.956	79.81
425.178	77.81
425.401	77.81
425.623	80.81
425.846	70.81
426.068	79.81
426.291	94.81
426.513	92.81
426.735	87.81
426.958	88.81
427.18	85.81
427.402	99.81
427.625	75.81
427.847	68.81
428.069	92.81
428.292	85.81
428.514	82.81
428.736	87.81
428.958	97.81
429.181	90.81
429.403	74.81
429.625	84.81
429.847	80.81
430.069	94.81
430.292	97.81
430.514	102.81
430.736	78.81
430.958	82.81
431.18	91.81
431.402	85.81
431.624	85.81
431.846	99.81
432.068	101.81
432.29	85.81
432.512	83.81
432.734	84.81
432.956	86.81
433.178	92.81
433.4	79.81
433.622	89.81
433.844	72.81
434.066	74.81
434.287	68.81
434.509	86.81
434.731	83.81
434.953	76.81
435.175	82.81
435.397	75.81
435.618	88.81
435.84	78.81
436.062	83.81
436.284	81.81
436.505	93.81
436.727	93.81
436.949	75.81
437.17	77.81
437.392	86.81
437.614	86.81
437.835	86.81
438.057	70.81
438.278	76.81
438.5	82.81
438.721	85.81
438.943	86.81
439.165	69.81
439.386	92.81
439.608	78.81
439.829	80.81
440.05	89.81
440.272	66.81
440.493	74.81
440.715	92.81
440.936	74.81
441.158	68.81
441.379	86.81
441.6	81.81
441.822	78.81
442.043	64.81
442.264	76.81
442.486	79.81
442.707	76.81
442.928	81.81
443.149	97.81
443.371	93.81
443.592	96.81
443.813	106.81
444.034	81.81
444.255	73.81
444.476	65.81
444.698	73.81
444.919	69.81
445.14	145.81
445.361	119.81
445.582	96.81
445.803	102.81
446.024	106.81
446.245	86.81
446.466	88.81
446.687	70.81
446.908	72.81
447.129	93.81
447.35	71.81
447.571	69.81
447.792	76.81
448.013	89.81
448.234	90.81
448.455	83.81
448.675	69.81
448.896	78.81
449.117	73.81
449.338	68.81
449.559	87.81
449.779	87.81
450	82.81
450.221	80.81
450.442	78.81
450.662	95.81
450.883	76.81
451.104	88.81
451.324	78.81
451.545	87.81
451.766	93.81
451.986	80.81
452.207	76.81
452.428	85.81
452.648	82.81
452.869	82.81
453.089	74.81
453.31	69.81
453.53	87.81
453.751	87.81
453.971	86.81
454.192	78.81
454.412	84.81
454.633	84.81
454.853	80.81
455.073	76.81
455.294	86.81
455.514	64.81
455.734	74.81
455.955	75.81
456.175	72.81
456.395	87.81
456.616	88.81
456.836	84.81
457.056	84.81
457.276	82.81
457.497	80.81
457.717	83.81
457.937	79.81
458.157	79.81
458.377	95.81
458.598	72.81
458.818	88.81
459.038	78.81
459.258	84.81
459.478	82.81
459.698	87.81
459.918	72.81
460.138	82.81
460.358	77.81
460.578	86.81
460.798	82.81
461.018	94.81
461.238	87.81
461.458	72.81
461.678	63.81
461.898	65.81
462.118	63.81
462.338	81.81
462.558	90.81
462.777	90.81
462.997	93.81
463.217	75.81
463.437	72.81
463.657	82.81
463.876	85.81
464.096	81.81
464.316	84.81
464.536	72.81
464.755	90.81
464.975	72.81
465.195	70.81
465.414	75.81
465.634	80.81
465.854	70.81
466.073	64.81
466.293	87.81
466.512	84.81
466.732	72.81
466.951	72.81
467.171	78.81
467.391	86.81
467.61	81.81
467.829	74.81
468.049	87.81
468.268	81.81
468.488	72.81
468.707	87.81
468.927	81.81
469.146	74.81
469.365	85.81
469.585	74.81
469.804	75.81
470.023	74.81
470.243	79.81
470.462	82.81
470.681	72.81
470.901	80.81
471.12	80.81
471.339	99.81
471.558	84.81
471.777	71.81
471.997	96.81
472.216	83.81
472.435	72.81
472.654	86.81
472.873	81.81
473.092	87.81
473.311	77.81
473.53	86.81
473.749	89.81
473.968	88.81
474.187	76.81
474.406	80.81
474.625	80.81
474.844	74.81
475.063	74.81
475.282	90.81
475.501	87.81
475.72	78.81
475.939	80.81
476.158	81.81
476.377	72.81
476.596	72.81
476.814	85.81
477.033	71.81
477.252	79.81
477.471	73.81
477.69	97.81
477.908	71.81
478.127	83.81
478.346	78.81
478.564	66.81
478.783	77.81
479.002	75.81
479.22	84.81
479.439	80.81
479.658	67.81
479.876	74.81
480.095	76.81
480.313	78.81
480.532	73.81
480.751	64.81
480.969	86.81
481.188	76.81
481.406	88.81
481.624	85.81
481.843	78.81
482.061	70.81
482.28	70.81
482.498	82.81
482.717	74.81
482.935	75.81
483.153	96.81
483.372	81.81
483.59	77.81
483.808	79.81
484.027	85.81
484.245	78.81
484.463	82.81
484.681	96.81
484.9	80.81
485.118	72.81
485.336	95.81
485.554	85.81
485.772	80.81
485.99	82.81
486.209	78.81
486.427	68.81
486.645	77.81
486.863	84.81
487.081	84.81
487.299	91.81
487.517	75.81
487.735	93.81
487.953	93.81
488.171	74.81
488.389	72.81
488.607	64.81
488.825	84.81
489.043	86.81
489.261	86.81
489.479	80.81
489.696	78.81
489.914	89.81
490.132	70.81
490.35	80.81
490.568	85.81
490.786	83.81
491.003	101.81
491.221	73.81
491.439	85.81
491.657	82.81
491.874	83.81
492.092	72.81
492.31	79.81
492.527	82.81
492.745	80.81
492.963	106.81
493.18	88.81
493.398	88.81
493.615	89.81
493.833	79.81
494.05	67.81
494.268	74.81
494.485	81.81
494.703	84.81
494.92	83.81
495.138	78.81
495.355	89.81
495.573	93.81
495.79	84.81
496.008	80.81
496.225	87.81
496.442	81.81
496.66	87.81
496.877	88.81
497.094	95.81
497.312	89.81
497.529	78.81
497.746	76.81
497.963	79.81
498.181	96.81
498.398	70.81
498.615	92.81
498.832	83.81
499.049	85.81
499.267	83.81
499.484	88.81
499.701	96.81
499.918	76.81
500.135	82.81
500.352	90.81
500.569	75.81
500.786	70.81
501.003	85.81
501.22	84.81
501.437	84.81
501.654	85.81
501.871	92.81
502.088	78.81
502.305	87.81
502.522	83.81
502.739	85.81
502.956	93.81
503.172	86.81
503.389	72.81
503.606	83.81
503.823	86.81
504.04	95.81
504.256	86.81
504.473	74.81
504.69	73.81
504.907	76.81
505.123	94.81
505.34	83.81
505.557	75.81
505.773	91.81
505.99	78.81
506.207	85.81
506.423	78.81
506.64	84.81
506.856	74.81
507.073	76.81
507.289	86.81
507.506	74.81
507.722	87.81
507.939	89.81
508.155	79.81
508.372	75.81
508.588	89.81
508.805	93.81
509.021	74.81
509.238	88.81
509.454	86.81
509.67	78.81
509.887	80.81
510.103	88.81
510.319	93.81
510.536	89.81
510.752	75.81
510.968	81.81
511.184	89.81
511.401	89.81
511.617	88.81
511.833	85.81
512.049	79.81
512.265	94.81
512.481	82.81
512.698	69.81
512.914	88.81
513.13	80.81
513.346	89.81
513.562	82.81
513.778	65.81
513.994	80.81
514.21	73.81
514.426	86.81
514.642	80.81
514.858	94.81
515.074	80.81
515.29	102.81
515.506	84.81
515.721	74.81
515.937	79.81
516.153	88.81
516.369	79.81
516.585	75.81
516.801	61.81
517.016	78.81
517.232	85.81
517.448	90.81
517.664	87.81
517.879	73.81
518.095	81.81
518.311	73.81
518.527	78.81
518.742	87.81
518.958	86.81
519.173	83.81
519.389	83.81
519.605	85.81
519.82	80.81
