Data from 17600_2_HRD10591_00028.txt Node
Date: Mon Jan 19 14:08:36 EST 2026
User: Yrep
Spectrometer: HR+D1059
Trigger mode: 1
Integration Time (sec): 1.000000E-1
Scans to average: 1
Electric dark correction enabled: true
Nonlinearity correction enabled: false
Boxcar width: 0
XAxis mode: Wavelengths
Number of Pixels in Spectrum: 2048
>>>>>Begin Spectral Data<<<<<
223.165	-5.62
223.4	-5.62
223.635	-5.62
223.869	-25.62
224.104	-25.62
224.338	-18.62
224.573	-15.62
224.808	-19.62
225.042	1.38
225.277	-1.62
225.511	-2.62
225.746	-2.62
225.98	18.38
226.215	22.38
226.449	13.38
226.683	21.38
226.918	21.38
227.152	19.38
227.387	30.38
227.621	42.38
227.856	47.38
228.09	35.38
228.324	49.38
228.559	60.38
228.793	55.38
229.027	57.38
229.262	59.38
229.496	65.38
229.73	74.38
229.964	76.38
230.199	68.38
230.433	77.38
230.667	70.38
230.901	61.38
231.136	77.38
231.37	77.38
231.604	75.38
231.838	78.38
232.072	83.38
232.306	63.38
232.541	75.38
232.775	87.38
233.009	80.38
233.243	79.38
233.477	73.38
233.711	62.38
233.945	68.38
234.179	63.38
234.413	85.38
234.647	71.38
234.881	70.38
235.115	73.38
235.349	74.38
235.583	71.38
235.817	85.38
236.051	73.38
236.285	63.38
236.519	70.38
236.753	79.38
236.987	80.38
237.221	88.38
237.455	75.38
237.689	59.38
237.922	83.38
238.156	66.38
238.39	75.38
238.624	78.38
238.858	76.38
239.091	81.38
239.325	76.38
239.559	65.38
239.793	68.38
240.027	75.38
240.26	66.38
240.494	63.38
240.728	84.38
240.961	83.38
241.195	67.38
241.429	60.38
241.662	68.38
241.896	74.38
242.13	78.38
242.363	72.38
242.597	63.38
242.83	70.38
243.064	71.38
243.298	79.38
243.531	78.38
243.765	78.38
243.998	67.38
244.232	71.38
244.465	79.38
244.699	82.38
244.932	60.38
245.166	68.38
245.399	80.38
245.633	86.38
245.866	66.38
246.099	79.38
246.333	66.38
246.566	78.38
246.8	63.38
247.033	70.38
247.266	80.38
247.5	69.38
247.733	85.38
247.966	63.38
248.2	82.38
248.433	78.38
248.666	68.38
248.899	66.38
249.133	76.38
249.366	82.38
249.599	80.38
249.832	73.38
250.066	78.38
250.299	76.38
250.532	83.38
250.765	84.38
250.998	84.38
251.231	73.38
251.465	86.38
251.698	81.38
251.931	72.38
252.164	74.38
252.397	76.38
252.63	75.38
252.863	78.38
253.096	81.38
253.329	71.38
253.562	67.38
253.795	77.38
254.028	72.38
254.261	82.38
254.494	68.38
254.727	68.38
254.96	67.38
255.193	76.38
255.426	62.38
255.659	79.38
255.892	79.38
256.124	75.38
256.357	73.38
256.59	88.38
256.823	65.38
257.056	62.38
257.289	71.38
257.521	66.38
257.754	68.38
257.987	69.38
258.22	77.38
258.452	70.38
258.685	83.38
258.918	80.38
259.151	70.38
259.383	78.38
259.616	75.38
259.849	75.38
260.081	86.38
260.314	82.38
260.547	75.38
260.779	71.38
261.012	79.38
261.244	75.38
261.477	72.38
261.71	80.38
261.942	71.38
262.175	80.38
262.407	77.38
262.64	80.38
262.872	74.38
263.105	76.38
263.337	83.38
263.57	80.38
263.802	68.38
264.035	75.38
264.267	78.38
264.499	81.38
264.732	73.38
264.964	70.38
265.197	78.38
265.429	73.38
265.661	66.38
265.894	81.38
266.126	88.38
266.358	84.38
266.591	73.38
266.823	67.38
267.055	80.38
267.287	68.38
267.52	80.38
267.752	84.38
267.984	88.38
268.216	87.38
268.448	80.38
268.681	80.38
268.913	77.38
269.145	73.38
269.377	83.38
269.609	67.38
269.841	72.38
270.073	80.38
270.306	65.38
270.538	71.38
270.77	82.38
271.002	82.38
271.234	80.38
271.466	84.38
271.698	64.38
271.93	78.38
272.162	85.38
272.394	87.38
272.626	75.38
272.858	81.38
273.09	81.38
273.322	75.38
273.553	79.38
273.785	83.38
274.017	86.38
274.249	82.38
274.481	98.38
274.713	94.38
274.945	79.38
275.176	83.38
275.408	72.38
275.64	84.38
275.872	73.38
276.104	82.38
276.335	86.38
276.567	67.38
276.799	84.38
277.031	99.38
277.262	83.38
277.494	83.38
277.726	67.38
277.957	82.38
278.189	87.38
278.421	69.38
278.652	74.38
278.884	75.38
279.115	76.38
279.347	87.38
279.579	80.38
279.81	76.38
280.042	75.38
280.273	81.38
280.505	90.38
280.736	82.38
280.968	95.38
281.199	85.38
281.431	90.38
281.662	76.38
281.894	85.38
282.125	84.38
282.356	82.38
282.588	71.38
282.819	80.38
283.051	75.38
283.282	71.38
283.513	94.38
283.745	80.38
283.976	79.38
284.207	73.38
284.439	79.38
284.67	70.38
284.901	71.38
285.132	97.38
285.364	81.38
285.595	84.38
285.826	86.38
286.057	97.38
286.288	73.38
286.52	82.38
286.751	79.38
286.982	90.38
287.213	68.38
287.444	86.38
287.675	88.38
287.906	82.38
288.138	94.38
288.369	82.38
288.6	78.38
288.831	80.38
289.062	80.38
289.293	66.38
289.524	74.38
289.755	63.38
289.986	74.38
290.217	84.38
290.448	81.38
290.679	73.38
290.91	76.38
291.141	76.38
291.371	88.38
291.602	83.38
291.833	89.38
292.064	84.38
292.295	87.38
292.526	80.38
292.757	71.38
292.987	57.38
293.218	80.38
293.449	72.38
293.68	89.38
293.91	74.38
294.141	88.38
294.372	75.38
294.603	77.38
294.833	80.38
295.064	81.38
295.295	76.38
295.525	79.38
295.756	70.38
295.987	90.38
296.217	74.38
296.448	88.38
296.679	86.38
296.909	85.38
297.14	74.38
297.37	80.38
297.601	82.38
297.831	87.38
298.062	70.38
298.292	72.38
298.523	78.38
298.753	82.38
298.984	81.38
299.214	79.38
299.445	79.38
299.675	87.38
299.905	80.38
300.136	78.38
300.366	78.38
300.597	91.38
300.827	88.38
301.057	84.38
301.288	71.38
301.518	79.38
301.748	67.38
301.979	102.38
302.209	82.38
302.439	85.38
302.669	75.38
302.9	82.38
303.13	75.38
303.36	83.38
303.59	83.38
303.82	77.38
304.051	82.38
304.281	70.38
304.511	81.38
304.741	96.38
304.971	80.38
305.201	73.38
305.431	71.38
305.661	100.38
305.891	83.38
306.121	83.38
306.352	75.38
306.582	80.38
306.812	81.38
307.042	95.38
307.272	88.38
307.502	79.38
307.731	72.38
307.961	79.38
308.191	85.38
308.421	85.38
308.651	81.38
308.881	85.38
309.111	91.38
309.341	88.38
309.571	77.38
309.8	80.38
310.03	72.38
310.26	82.38
310.49	79.38
310.72	76.38
310.949	76.38
311.179	67.38
311.409	62.38
311.639	63.38
311.868	86.38
312.098	86.38
312.328	86.38
312.557	86.38
312.787	87.38
313.017	77.38
313.246	87.38
313.476	85.38
313.706	85.38
313.935	88.38
314.165	90.38
314.394	88.38
314.624	91.38
314.853	87.38
315.083	80.38
315.312	78.38
315.542	92.38
315.771	72.38
316.001	84.38
316.23	91.38
316.46	79.38
316.689	82.38
316.919	79.38
317.148	86.38
317.377	101.38
317.607	88.38
317.836	96.38
318.065	87.38
318.295	93.38
318.524	86.38
318.753	86.38
318.983	80.38
319.212	80.38
319.441	97.38
319.67	90.38
319.9	86.38
320.129	90.38
320.358	66.38
320.587	72.38
320.816	79.38
321.046	80.38
321.275	84.38
321.504	86.38
321.733	91.38
321.962	76.38
322.191	87.38
322.42	75.38
322.649	78.38
322.878	66.38
323.108	90.38
323.337	80.38
323.566	88.38
323.795	83.38
324.024	73.38
324.253	79.38
324.482	85.38
324.71	73.38
324.939	78.38
325.168	83.38
325.397	82.38
325.626	78.38
325.855	82.38
326.084	94.38
326.313	61.38
326.542	78.38
326.77	68.38
326.999	90.38
327.228	76.38
327.457	67.38
327.686	62.38
327.914	90.38
328.143	79.38
328.372	88.38
328.6	78.38
328.829	85.38
329.058	78.38
329.287	70.38
329.515	84.38
329.744	74.38
329.972	73.38
330.201	86.38
330.43	82.38
330.658	84.38
330.887	74.38
331.115	73.38
331.344	80.38
331.572	83.38
331.801	78.38
332.03	66.38
332.258	76.38
332.486	69.38
332.715	69.38
332.943	85.38
333.172	82.38
333.4	83.38
333.629	80.38
333.857	77.38
334.085	86.38
334.314	84.38
334.542	77.38
334.771	79.38
334.999	90.38
335.227	89.38
335.455	73.38
335.684	78.38
335.912	87.38
336.14	84.38
336.369	99.38
336.597	82.38
336.825	77.38
337.053	81.38
337.281	82.38
337.51	81.38
337.738	93.38
337.966	85.38
338.194	71.38
338.422	94.38
338.65	84.38
338.878	86.38
339.106	80.38
339.334	86.38
339.562	70.38
339.79	86.38
340.018	78.38
340.246	82.38
340.474	65.38
340.702	90.38
340.93	92.38
341.158	81.38
341.386	68.38
341.614	80.38
341.842	71.38
342.07	72.38
342.298	72.38
342.526	83.38
342.754	78.38
342.981	85.38
343.209	70.38
343.437	96.38
343.665	83.38
343.893	87.38
344.12	83.38
344.348	81.38
344.576	81.38
344.804	83.38
345.031	81.38
345.259	84.38
345.487	82.38
345.714	77.38
345.942	76.38
346.17	78.38
346.397	81.38
346.625	83.38
346.853	76.38
347.08	72.38
347.308	79.38
347.535	87.38
347.763	75.38
347.99	87.38
348.218	73.38
348.445	80.38
348.673	92.38
348.9	81.38
349.128	86.38
349.355	72.38
349.583	78.38
349.81	91.38
350.037	84.38
350.265	97.38
350.492	73.38
350.72	90.38
350.947	93.38
351.174	71.38
351.402	60.38
351.629	78.38
351.856	81.38
352.083	76.38
352.311	80.38
352.538	81.38
352.765	90.38
352.992	87.38
353.22	92.38
353.447	82.38
353.674	82.38
353.901	80.38
354.128	73.38
354.355	74.38
354.583	66.38
354.81	76.38
355.037	79.38
355.264	78.38
355.491	87.38
355.718	86.38
355.945	89.38
356.172	78.38
356.399	78.38
356.626	89.38
356.853	70.38
357.08	78.38
357.307	87.38
357.534	84.38
357.761	72.38
357.988	81.38
358.215	83.38
358.441	79.38
358.668	87.38
358.895	79.38
359.122	84.38
359.349	80.38
359.576	84.38
359.802	76.38
360.029	84.38
360.256	87.38
360.483	75.38
360.709	71.38
360.936	83.38
361.163	86.38
361.39	79.38
361.616	82.38
361.843	76.38
362.07	84.38
362.296	80.38
362.523	72.38
362.749	77.38
362.976	80.38
363.203	94.38
363.429	80.38
363.656	91.38
363.882	74.38
364.109	82.38
364.335	86.38
364.562	101.38
364.788	86.38
365.015	69.38
365.241	78.38
365.468	78.38
365.694	91.38
365.92	62.38
366.147	82.38
366.373	89.38
366.599	91.38
366.826	91.38
367.052	81.38
367.278	87.38
367.505	80.38
367.731	87.38
367.957	66.38
368.184	71.38
368.41	82.38
368.636	88.38
368.862	76.38
369.089	83.38
369.315	73.38
369.541	75.38
369.767	82.38
369.993	88.38
370.219	92.38
370.445	86.38
370.672	82.38
370.898	84.38
371.124	84.38
371.35	75.38
371.576	81.38
371.802	77.38
372.028	87.38
372.254	78.38
372.48	89.38
372.706	100.38
372.932	78.38
373.158	83.38
373.384	82.38
373.61	94.38
373.835	86.38
374.061	81.38
374.287	76.38
374.513	72.38
374.739	84.38
374.965	99.38
375.191	95.38
375.416	86.38
375.642	85.38
375.868	84.38
376.094	74.38
376.319	88.38
376.545	86.38
376.771	90.38
376.997	80.38
377.222	96.38
377.448	87.38
377.674	71.38
377.899	78.38
378.125	96.38
378.35	78.38
378.576	70.38
378.802	69.38
379.027	71.38
379.253	82.38
379.478	101.38
379.704	79.38
379.929	77.38
380.155	70.38
380.38	78.38
380.606	78.38
380.831	79.38
381.057	80.38
381.282	82.38
381.507	75.38
381.733	84.38
381.958	90.38
382.184	80.38
382.409	73.38
382.634	77.38
382.86	79.38
383.085	81.38
383.31	70.38
383.535	80.38
383.761	83.38
383.986	80.38
384.211	79.38
384.436	82.38
384.662	94.38
384.887	89.38
385.112	78.38
385.337	70.38
385.562	92.38
385.787	77.38
386.013	90.38
386.238	84.38
386.463	86.38
386.688	88.38
386.913	77.38
387.138	82.38
387.363	72.38
387.588	72.38
387.813	100.38
388.038	65.38
388.263	84.38
388.488	80.38
388.713	94.38
388.938	83.38
389.163	66.38
389.387	79.38
389.612	78.38
389.837	82.38
390.062	77.38
390.287	78.38
390.512	84.38
390.736	80.38
390.961	79.38
391.186	87.38
391.411	85.38
391.636	91.38
391.86	90.38
392.085	82.38
392.31	90.38
392.534	89.38
392.759	89.38
392.984	117.38
393.208	177.38
393.433	257.38
393.658	191.38
393.882	104.38
394.107	101.38
394.331	93.38
394.556	69.38
394.78	96.38
395.005	83.38
395.229	69.38
395.454	89.38
395.678	73.38
395.903	87.38
396.127	104.38
396.352	98.38
396.576	119.38
396.801	169.38
397.025	207.38
397.249	120.38
397.474	87.38
397.698	75.38
397.922	85.38
398.147	86.38
398.371	88.38
398.595	76.38
398.82	68.38
399.044	84.38
399.268	68.38
399.492	81.38
399.717	80.38
399.941	79.38
400.165	76.38
400.389	80.38
400.613	79.38
400.837	87.38
401.062	70.38
401.286	78.38
401.51	91.38
401.734	68.38
401.958	81.38
402.182	79.38
402.406	78.38
402.63	66.38
402.854	75.38
403.078	92.38
403.302	89.38
403.526	76.38
403.75	85.38
403.974	84.38
404.198	90.38
404.422	78.38
404.645	86.38
404.869	74.38
405.093	77.38
405.317	83.38
405.541	82.38
405.765	90.38
405.988	83.38
406.212	86.38
406.436	69.38
406.66	91.38
406.883	86.38
407.107	85.38
407.331	86.38
407.555	83.38
407.778	100.38
408.002	91.38
408.226	79.38
408.449	73.38
408.673	86.38
408.896	68.38
409.12	69.38
409.344	80.38
409.567	72.38
409.791	88.38
410.014	85.38
410.238	86.38
410.461	82.38
410.685	80.38
410.908	71.38
411.132	82.38
411.355	90.38
411.578	79.38
411.802	83.38
412.025	70.38
412.249	86.38
412.472	88.38
412.695	83.38
412.919	71.38
413.142	84.38
413.365	71.38
413.589	71.38
413.812	69.38
414.035	66.38
414.258	74.38
414.482	78.38
414.705	80.38
414.928	79.38
415.151	73.38
415.374	71.38
415.597	76.38
415.821	76.38
416.044	77.38
416.267	78.38
416.49	90.38
416.713	82.38
416.936	83.38
417.159	75.38
417.382	82.38
417.605	85.38
417.828	84.38
418.051	76.38
418.274	69.38
418.497	86.38
418.72	78.38
418.943	79.38
419.166	73.38
419.389	74.38
419.611	69.38
419.834	80.38
420.057	68.38
420.28	79.38
420.503	78.38
420.726	90.38
420.948	78.38
421.171	87.38
421.394	83.38
421.617	90.38
421.839	98.38
422.062	99.38
422.285	98.38
422.507	128.38
422.73	172.38
422.953	134.38
423.175	98.38
423.398	85.38
423.621	87.38
423.843	91.38
424.066	82.38
424.288	80.38
424.511	60.38
424.733	88.38
424.956	79.38
425.178	70.38
425.401	62.38
425.623	80.38
425.846	75.38
426.068	82.38
426.291	80.38
426.513	78.38
426.735	74.38
426.958	76.38
427.18	73.38
427.402	80.38
427.625	78.38
427.847	100.38
428.069	68.38
428.292	96.38
428.514	93.38
428.736	74.38
428.958	80.38
429.181	94.38
429.403	83.38
429.625	72.38
429.847	83.38
430.069	118.38
430.292	115.38
430.514	104.38
430.736	107.38
430.958	100.38
431.18	93.38
431.402	87.38
431.624	83.38
431.846	86.38
432.068	83.38
432.29	82.38
432.512	83.38
432.734	89.38
432.956	83.38
433.178	91.38
433.4	68.38
433.622	78.38
433.844	78.38
434.066	80.38
434.287	76.38
434.509	61.38
434.731	74.38
434.953	74.38
435.175	62.38
435.397	79.38
435.618	85.38
435.84	85.38
436.062	63.38
436.284	90.38
436.505	91.38
436.727	97.38
436.949	73.38
437.17	64.38
437.392	60.38
437.614	77.38
437.835	64.38
438.057	70.38
438.278	78.38
438.5	71.38
438.721	86.38
438.943	73.38
439.165	78.38
439.386	88.38
439.608	74.38
439.829	78.38
440.05	82.38
440.272	87.38
440.493	78.38
440.715	78.38
440.936	92.38
441.158	70.38
441.379	80.38
441.6	68.38
441.822	68.38
442.043	64.38
442.264	71.38
442.486	81.38
442.707	97.38
442.928	90.38
443.149	78.38
443.371	87.38
443.592	115.38
443.813	114.38
444.034	63.38
444.255	79.38
444.476	81.38
444.698	80.38
444.919	80.38
445.14	146.38
445.361	109.38
445.582	126.38
445.803	110.38
446.024	85.38
446.245	92.38
446.466	94.38
446.687	81.38
446.908	79.38
447.129	83.38
447.35	76.38
447.571	78.38
447.792	76.38
448.013	81.38
448.234	82.38
448.455	72.38
448.675	90.38
448.896	82.38
449.117	65.38
449.338	77.38
449.559	87.38
449.779	77.38
450	73.38
450.221	81.38
450.442	69.38
450.662	80.38
450.883	68.38
451.104	68.38
451.324	70.38
451.545	74.38
451.766	76.38
451.986	83.38
452.207	74.38
452.428	66.38
452.648	90.38
452.869	72.38
453.089	81.38
453.31	85.38
453.53	92.38
453.751	73.38
453.971	84.38
454.192	77.38
454.412	75.38
454.633	74.38
454.853	86.38
455.073	69.38
455.294	65.38
455.514	87.38
455.734	68.38
455.955	76.38
456.175	78.38
456.395	85.38
456.616	78.38
456.836	94.38
457.056	72.38
457.276	67.38
457.497	67.38
457.717	77.38
457.937	74.38
458.157	78.38
458.377	87.38
458.598	83.38
458.818	90.38
459.038	71.38
459.258	77.38
459.478	82.38
459.698	55.38
459.918	83.38
460.138	71.38
460.358	78.38
460.578	78.38
460.798	100.38
461.018	88.38
461.238	88.38
461.458	77.38
461.678	86.38
461.898	84.38
462.118	85.38
462.338	74.38
462.558	82.38
462.777	74.38
462.997	64.38
463.217	56.38
463.437	72.38
463.657	51.38
463.876	88.38
464.096	58.38
464.316	78.38
464.536	67.38
464.755	82.38
464.975	76.38
465.195	91.38
465.414	91.38
465.634	84.38
465.854	77.38
466.073	79.38
466.293	82.38
466.512	82.38
466.732	70.38
466.951	81.38
467.171	92.38
467.391	81.38
467.61	78.38
467.829	70.38
468.049	77.38
468.268	82.38
468.488	78.38
468.707	79.38
468.927	90.38
469.146	84.38
469.365	79.38
469.585	84.38
469.804	70.38
470.023	88.38
470.243	74.38
470.462	87.38
470.681	84.38
470.901	82.38
471.12	81.38
471.339	82.38
471.558	77.38
471.777	67.38
471.997	67.38
472.216	80.38
472.435	80.38
472.654	91.38
472.873	77.38
473.092	76.38
473.311	77.38
473.53	72.38
473.749	82.38
473.968	94.38
474.187	76.38
474.406	85.38
474.625	83.38
474.844	78.38
475.063	62.38
475.282	81.38
475.501	98.38
475.72	83.38
475.939	72.38
476.158	66.38
476.377	85.38
476.596	71.38
476.814	81.38
477.033	69.38
477.252	72.38
477.471	75.38
477.69	74.38
477.908	83.38
478.127	85.38
478.346	82.38
478.564	83.38
478.783	86.38
479.002	62.38
479.22	78.38
479.439	79.38
479.658	82.38
479.876	87.38
480.095	76.38
480.313	86.38
480.532	79.38
480.751	78.38
480.969	72.38
481.188	84.38
481.406	93.38
481.624	84.38
481.843	88.38
482.061	72.38
482.28	82.38
482.498	82.38
482.717	81.38
482.935	86.38
483.153	66.38
483.372	74.38
483.59	88.38
483.808	67.38
484.027	75.38
484.245	82.38
484.463	85.38
484.681	87.38
484.9	72.38
485.118	65.38
485.336	74.38
485.554	72.38
485.772	66.38
485.99	71.38
486.209	63.38
486.427	83.38
486.645	76.38
486.863	88.38
487.081	94.38
487.299	77.38
487.517	78.38
487.735	78.38
487.953	89.38
488.171	96.38
488.389	84.38
488.607	77.38
488.825	78.38
489.043	81.38
489.261	73.38
489.479	71.38
489.696	62.38
489.914	73.38
490.132	74.38
490.35	89.38
490.568	87.38
490.786	92.38
491.003	80.38
491.221	76.38
491.439	86.38
491.657	81.38
491.874	86.38
492.092	85.38
492.31	62.38
492.527	83.38
492.745	80.38
492.963	80.38
493.18	83.38
493.398	75.38
493.615	92.38
493.833	72.38
494.05	91.38
494.268	81.38
494.485	84.38
494.703	96.38
494.92	86.38
495.138	76.38
495.355	81.38
495.573	70.38
495.79	82.38
496.008	86.38
496.225	92.38
496.442	86.38
496.66	71.38
496.877	79.38
497.094	77.38
497.312	90.38
497.529	68.38
497.746	94.38
497.963	93.38
498.181	66.38
498.398	81.38
498.615	82.38
498.832	82.38
499.049	79.38
499.267	91.38
499.484	82.38
499.701	83.38
499.918	69.38
500.135	80.38
500.352	99.38
500.569	79.38
500.786	81.38
501.003	84.38
501.22	80.38
501.437	84.38
501.654	80.38
501.871	79.38
502.088	88.38
502.305	98.38
502.522	86.38
502.739	78.38
502.956	78.38
503.172	70.38
503.389	87.38
503.606	89.38
503.823	86.38
504.04	98.38
504.256	86.38
504.473	88.38
504.69	82.38
504.907	79.38
505.123	87.38
505.34	81.38
505.557	68.38
505.773	84.38
505.99	85.38
506.207	69.38
506.423	79.38
506.64	71.38
506.856	86.38
507.073	94.38
507.289	85.38
507.506	93.38
507.722	82.38
507.939	80.38
508.155	81.38
508.372	78.38
508.588	66.38
508.805	80.38
509.021	76.38
509.238	82.38
509.454	82.38
509.67	74.38
509.887	75.38
510.103	83.38
510.319	77.38
510.536	89.38
510.752	67.38
510.968	78.38
511.184	78.38
511.401	89.38
511.617	82.38
511.833	82.38
512.049	71.38
512.265	83.38
512.481	97.38
512.698	82.38
512.914	67.38
513.13	102.38
513.346	77.38
513.562	86.38
513.778	81.38
513.994	84.38
514.21	83.38
514.426	86.38
514.642	80.38
514.858	88.38
515.074	79.38
515.29	79.38
515.506	49.38
515.721	80.38
515.937	74.38
516.153	84.38
516.369	77.38
516.585	86.38
516.801	75.38
517.016	86.38
517.232	70.38
517.448	81.38
517.664	84.38
517.879	82.38
518.095	99.38
518.311	92.38
518.527	81.38
518.742	97.38
518.958	85.38
519.173	94.38
519.389	78.38
519.605	90.38
519.82	86.38
