Data from 17600_2_HRD10591_00021.txt Node
Date: Mon Jan 19 14:08:33 EST 2026
User: Yrep
Spectrometer: HR+D1059
Trigger mode: 1
Integration Time (sec): 1.000000E-1
Scans to average: 1
Electric dark correction enabled: true
Nonlinearity correction enabled: false
Boxcar width: 0
XAxis mode: Wavelengths
Number of Pixels in Spectrum: 2048
>>>>>Begin Spectral Data<<<<<
223.165	-8.19
223.4	-8.19
223.635	-8.19
223.869	-27.19
224.104	-14.19
224.338	-20.19
224.573	-5.19
224.808	-7.19
225.042	-5.19
225.277	-3.19
225.511	-7.19
225.746	15.81
225.98	3.81
226.215	14.81
226.449	9.81
226.683	12.81
226.918	7.81
227.152	32.81
227.387	34.81
227.621	54.81
227.856	32.81
228.09	36.81
228.324	45.81
228.559	58.81
228.793	62.81
229.027	57.81
229.262	70.81
229.496	79.81
229.73	75.81
229.964	66.81
230.199	78.81
230.433	76.81
230.667	76.81
230.901	75.81
231.136	72.81
231.37	82.81
231.604	74.81
231.838	84.81
232.072	86.81
232.306	83.81
232.541	95.81
232.775	74.81
233.009	76.81
233.243	80.81
233.477	73.81
233.711	71.81
233.945	89.81
234.179	74.81
234.413	78.81
234.647	91.81
234.881	92.81
235.115	75.81
235.349	88.81
235.583	67.81
235.817	76.81
236.051	74.81
236.285	65.81
236.519	90.81
236.753	74.81
236.987	58.81
237.221	70.81
237.455	90.81
237.689	71.81
237.922	60.81
238.156	72.81
238.39	75.81
238.624	80.81
238.858	74.81
239.091	68.81
239.325	71.81
239.559	74.81
239.793	92.81
240.027	80.81
240.26	79.81
240.494	78.81
240.728	76.81
240.961	86.81
241.195	64.81
241.429	70.81
241.662	74.81
241.896	66.81
242.13	69.81
242.363	79.81
242.597	82.81
242.83	82.81
243.064	74.81
243.298	75.81
243.531	80.81
243.765	77.81
243.998	74.81
244.232	92.81
244.465	92.81
244.699	59.81
244.932	82.81
245.166	72.81
245.399	88.81
245.633	78.81
245.866	80.81
246.099	73.81
246.333	66.81
246.566	67.81
246.8	82.81
247.033	74.81
247.266	76.81
247.5	82.81
247.733	69.81
247.966	82.81
248.2	73.81
248.433	84.81
248.666	86.81
248.899	82.81
249.133	63.81
249.366	76.81
249.599	80.81
249.832	75.81
250.066	72.81
250.299	86.81
250.532	82.81
250.765	71.81
250.998	86.81
251.231	68.81
251.465	80.81
251.698	76.81
251.931	89.81
252.164	87.81
252.397	83.81
252.63	85.81
252.863	88.81
253.096	77.81
253.329	78.81
253.562	75.81
253.795	89.81
254.028	81.81
254.261	87.81
254.494	77.81
254.727	78.81
254.96	83.81
255.193	67.81
255.426	83.81
255.659	81.81
255.892	65.81
256.124	75.81
256.357	84.81
256.59	67.81
256.823	72.81
257.056	90.81
257.289	94.81
257.521	92.81
257.754	71.81
257.987	93.81
258.22	88.81
258.452	81.81
258.685	85.81
258.918	81.81
259.151	87.81
259.383	93.81
259.616	67.81
259.849	86.81
260.081	91.81
260.314	84.81
260.547	86.81
260.779	91.81
261.012	87.81
261.244	82.81
261.477	77.81
261.71	73.81
261.942	82.81
262.175	85.81
262.407	82.81
262.64	82.81
262.872	84.81
263.105	89.81
263.337	74.81
263.57	88.81
263.802	80.81
264.035	84.81
264.267	77.81
264.499	97.81
264.732	71.81
264.964	79.81
265.197	95.81
265.429	80.81
265.661	81.81
265.894	84.81
266.126	82.81
266.358	79.81
266.591	90.81
266.823	82.81
267.055	88.81
267.287	82.81
267.52	80.81
267.752	88.81
267.984	82.81
268.216	79.81
268.448	87.81
268.681	81.81
268.913	66.81
269.145	89.81
269.377	80.81
269.609	90.81
269.841	91.81
270.073	79.81
270.306	79.81
270.538	84.81
270.77	91.81
271.002	89.81
271.234	90.81
271.466	86.81
271.698	74.81
271.93	90.81
272.162	78.81
272.394	79.81
272.626	76.81
272.858	76.81
273.09	80.81
273.322	98.81
273.553	96.81
273.785	75.81
274.017	69.81
274.249	74.81
274.481	82.81
274.713	90.81
274.945	72.81
275.176	70.81
275.408	78.81
275.64	71.81
275.872	82.81
276.104	78.81
276.335	80.81
276.567	87.81
276.799	87.81
277.031	70.81
277.262	87.81
277.494	98.81
277.726	83.81
277.957	76.81
278.189	78.81
278.421	85.81
278.652	79.81
278.884	91.81
279.115	82.81
279.347	80.81
279.579	80.81
279.81	79.81
280.042	76.81
280.273	80.81
280.505	80.81
280.736	83.81
280.968	78.81
281.199	84.81
281.431	86.81
281.662	88.81
281.894	78.81
282.125	95.81
282.356	84.81
282.588	99.81
282.819	82.81
283.051	87.81
283.282	80.81
283.513	83.81
283.745	95.81
283.976	92.81
284.207	75.81
284.439	77.81
284.67	82.81
284.901	79.81
285.132	81.81
285.364	85.81
285.595	83.81
285.826	68.81
286.057	67.81
286.288	89.81
286.52	84.81
286.751	86.81
286.982	86.81
287.213	77.81
287.444	80.81
287.675	80.81
287.906	84.81
288.138	77.81
288.369	82.81
288.6	94.81
288.831	83.81
289.062	89.81
289.293	78.81
289.524	90.81
289.755	74.81
289.986	82.81
290.217	81.81
290.448	82.81
290.679	93.81
290.91	92.81
291.141	84.81
291.371	80.81
291.602	89.81
291.833	88.81
292.064	89.81
292.295	87.81
292.526	74.81
292.757	76.81
292.987	103.81
293.218	84.81
293.449	88.81
293.68	91.81
293.91	90.81
294.141	96.81
294.372	84.81
294.603	91.81
294.833	79.81
295.064	81.81
295.295	72.81
295.525	85.81
295.756	87.81
295.987	82.81
296.217	89.81
296.448	86.81
296.679	81.81
296.909	86.81
297.14	86.81
297.37	81.81
297.601	91.81
297.831	80.81
298.062	75.81
298.292	86.81
298.523	90.81
298.753	83.81
298.984	84.81
299.214	84.81
299.445	94.81
299.675	88.81
299.905	96.81
300.136	82.81
300.366	83.81
300.597	86.81
300.827	85.81
301.057	82.81
301.288	81.81
301.518	68.81
301.748	82.81
301.979	83.81
302.209	68.81
302.439	66.81
302.669	83.81
302.9	86.81
303.13	88.81
303.36	78.81
303.59	83.81
303.82	86.81
304.051	90.81
304.281	94.81
304.511	90.81
304.741	80.81
304.971	73.81
305.201	76.81
305.431	78.81
305.661	79.81
305.891	83.81
306.121	85.81
306.352	88.81
306.582	91.81
306.812	84.81
307.042	82.81
307.272	77.81
307.502	78.81
307.731	82.81
307.961	75.81
308.191	82.81
308.421	102.81
308.651	94.81
308.881	97.81
309.111	90.81
309.341	87.81
309.571	76.81
309.8	73.81
310.03	94.81
310.26	73.81
310.49	82.81
310.72	89.81
310.949	81.81
311.179	87.81
311.409	87.81
311.639	84.81
311.868	81.81
312.098	96.81
312.328	97.81
312.557	81.81
312.787	90.81
313.017	86.81
313.246	90.81
313.476	79.81
313.706	87.81
313.935	87.81
314.165	83.81
314.394	76.81
314.624	87.81
314.853	86.81
315.083	93.81
315.312	74.81
315.542	98.81
315.771	83.81
316.001	89.81
316.23	77.81
316.46	86.81
316.689	83.81
316.919	75.81
317.148	88.81
317.377	83.81
317.607	74.81
317.836	72.81
318.065	85.81
318.295	86.81
318.524	79.81
318.753	82.81
318.983	80.81
319.212	79.81
319.441	91.81
319.67	81.81
319.9	84.81
320.129	88.81
320.358	91.81
320.587	84.81
320.816	79.81
321.046	83.81
321.275	78.81
321.504	82.81
321.733	90.81
321.962	75.81
322.191	78.81
322.42	83.81
322.649	94.81
322.878	98.81
323.108	75.81
323.337	85.81
323.566	86.81
323.795	86.81
324.024	81.81
324.253	90.81
324.482	101.81
324.71	88.81
324.939	94.81
325.168	82.81
325.397	82.81
325.626	92.81
325.855	73.81
326.084	75.81
326.313	87.81
326.542	81.81
326.77	85.81
326.999	89.81
327.228	99.81
327.457	84.81
327.686	84.81
327.914	84.81
328.143	71.81
328.372	76.81
328.6	80.81
328.829	86.81
329.058	86.81
329.287	89.81
329.515	78.81
329.744	91.81
329.972	83.81
330.201	88.81
330.43	85.81
330.658	88.81
330.887	89.81
331.115	90.81
331.344	91.81
331.572	88.81
331.801	74.81
332.03	84.81
332.258	81.81
332.486	73.81
332.715	76.81
332.943	86.81
333.172	93.81
333.4	77.81
333.629	81.81
333.857	80.81
334.085	87.81
334.314	77.81
334.542	90.81
334.771	82.81
334.999	91.81
335.227	82.81
335.455	85.81
335.684	102.81
335.912	95.81
336.14	82.81
336.369	101.81
336.597	90.81
336.825	94.81
337.053	84.81
337.281	89.81
337.51	86.81
337.738	100.81
337.966	83.81
338.194	82.81
338.422	85.81
338.65	85.81
338.878	73.81
339.106	92.81
339.334	76.81
339.562	76.81
339.79	99.81
340.018	87.81
340.246	71.81
340.474	89.81
340.702	70.81
340.93	86.81
341.158	87.81
341.386	95.81
341.614	63.81
341.842	92.81
342.07	72.81
342.298	79.81
342.526	77.81
342.754	87.81
342.981	89.81
343.209	90.81
343.437	104.81
343.665	86.81
343.893	98.81
344.12	86.81
344.348	83.81
344.576	82.81
344.804	64.81
345.031	82.81
345.259	95.81
345.487	83.81
345.714	82.81
345.942	86.81
346.17	81.81
346.397	78.81
346.625	78.81
346.853	83.81
347.08	90.81
347.308	79.81
347.535	92.81
347.763	86.81
347.99	87.81
348.218	76.81
348.445	81.81
348.673	70.81
348.9	83.81
349.128	82.81
349.355	94.81
349.583	89.81
349.81	92.81
350.037	83.81
350.265	80.81
350.492	95.81
350.72	92.81
350.947	80.81
351.174	88.81
351.402	75.81
351.629	71.81
351.856	79.81
352.083	89.81
352.311	71.81
352.538	82.81
352.765	92.81
352.992	92.81
353.22	84.81
353.447	82.81
353.674	87.81
353.901	84.81
354.128	93.81
354.355	84.81
354.583	86.81
354.81	94.81
355.037	85.81
355.264	94.81
355.491	84.81
355.718	69.81
355.945	81.81
356.172	74.81
356.399	83.81
356.626	89.81
356.853	70.81
357.08	88.81
357.307	82.81
357.534	85.81
357.761	92.81
357.988	96.81
358.215	82.81
358.441	86.81
358.668	92.81
358.895	99.81
359.122	77.81
359.349	84.81
359.576	81.81
359.802	77.81
360.029	76.81
360.256	90.81
360.483	87.81
360.709	86.81
360.936	82.81
361.163	90.81
361.39	90.81
361.616	77.81
361.843	87.81
362.07	102.81
362.296	94.81
362.523	90.81
362.749	83.81
362.976	95.81
363.203	104.81
363.429	94.81
363.656	88.81
363.882	90.81
364.109	86.81
364.335	106.81
364.562	107.81
364.788	89.81
365.015	85.81
365.241	95.81
365.468	76.81
365.694	90.81
365.92	89.81
366.147	85.81
366.373	92.81
366.599	87.81
366.826	89.81
367.052	88.81
367.278	84.81
367.505	70.81
367.731	87.81
367.957	70.81
368.184	90.81
368.41	88.81
368.636	91.81
368.862	97.81
369.089	91.81
369.315	103.81
369.541	90.81
369.767	85.81
369.993	90.81
370.219	87.81
370.445	84.81
370.672	91.81
370.898	74.81
371.124	91.81
371.35	76.81
371.576	82.81
371.802	81.81
372.028	75.81
372.254	101.81
372.48	91.81
372.706	85.81
372.932	98.81
373.158	91.81
373.384	105.81
373.61	87.81
373.835	84.81
374.061	90.81
374.287	71.81
374.513	79.81
374.739	80.81
374.965	83.81
375.191	100.81
375.416	77.81
375.642	86.81
375.868	84.81
376.094	79.81
376.319	82.81
376.545	80.81
376.771	81.81
376.997	75.81
377.222	72.81
377.448	78.81
377.674	74.81
377.899	80.81
378.125	82.81
378.35	68.81
378.576	82.81
378.802	88.81
379.027	92.81
379.253	81.81
379.478	77.81
379.704	85.81
379.929	78.81
380.155	80.81
380.38	89.81
380.606	86.81
380.831	87.81
381.057	92.81
381.282	87.81
381.507	74.81
381.733	78.81
381.958	85.81
382.184	86.81
382.409	88.81
382.634	87.81
382.86	85.81
383.085	102.81
383.31	96.81
383.535	102.81
383.761	100.81
383.986	91.81
384.211	96.81
384.436	86.81
384.662	92.81
384.887	77.81
385.112	86.81
385.337	74.81
385.562	90.81
385.787	92.81
386.013	91.81
386.238	91.81
386.463	79.81
386.688	99.81
386.913	83.81
387.138	86.81
387.363	92.81
387.588	79.81
387.813	85.81
388.038	79.81
388.263	75.81
388.488	91.81
388.713	95.81
388.938	83.81
389.163	76.81
389.387	85.81
389.612	86.81
389.837	97.81
390.062	86.81
390.287	79.81
390.512	66.81
390.736	94.81
390.961	86.81
391.186	89.81
391.411	72.81
391.636	78.81
391.86	91.81
392.085	62.81
392.31	96.81
392.534	89.81
392.759	96.81
392.984	95.81
393.208	131.81
393.433	159.81
393.658	144.81
393.882	94.81
394.107	94.81
394.331	105.81
394.556	111.81
394.78	84.81
395.005	88.81
395.229	82.81
395.454	97.81
395.678	86.81
395.903	114.81
396.127	100.81
396.352	87.81
396.576	107.81
396.801	133.81
397.025	150.81
397.249	112.81
397.474	92.81
397.698	82.81
397.922	91.81
398.147	64.81
398.371	80.81
398.595	91.81
398.82	78.81
399.044	94.81
399.268	93.81
399.492	82.81
399.717	72.81
399.941	80.81
400.165	86.81
400.389	92.81
400.613	87.81
400.837	79.81
401.062	88.81
401.286	88.81
401.51	77.81
401.734	82.81
401.958	83.81
402.182	73.81
402.406	88.81
402.63	84.81
402.854	80.81
403.078	74.81
403.302	86.81
403.526	96.81
403.75	83.81
403.974	98.81
404.198	80.81
404.422	83.81
404.645	81.81
404.869	93.81
405.093	94.81
405.317	73.81
405.541	72.81
405.765	90.81
405.988	75.81
406.212	75.81
406.436	83.81
406.66	77.81
406.883	81.81
407.107	90.81
407.331	82.81
407.555	88.81
407.778	112.81
408.002	94.81
408.226	80.81
408.449	77.81
408.673	94.81
408.896	80.81
409.12	89.81
409.344	84.81
409.567	82.81
409.791	96.81
410.014	92.81
410.238	85.81
410.461	84.81
410.685	90.81
410.908	85.81
411.132	90.81
411.355	88.81
411.578	85.81
411.802	84.81
412.025	69.81
412.249	89.81
412.472	80.81
412.695	88.81
412.919	83.81
413.142	97.81
413.365	89.81
413.589	81.81
413.812	94.81
414.035	98.81
414.258	83.81
414.482	83.81
414.705	87.81
414.928	91.81
415.151	96.81
415.374	80.81
415.597	82.81
415.821	98.81
416.044	87.81
416.267	85.81
416.49	100.81
416.713	87.81
416.936	83.81
417.159	80.81
417.382	76.81
417.605	88.81
417.828	86.81
418.051	86.81
418.274	82.81
418.497	83.81
418.72	66.81
418.943	92.81
419.166	90.81
419.389	86.81
419.611	88.81
419.834	89.81
420.057	82.81
420.28	80.81
420.503	93.81
420.726	89.81
420.948	98.81
421.171	98.81
421.394	90.81
421.617	102.81
421.839	104.81
422.062	104.81
422.285	139.81
422.507	168.81
422.73	235.81
422.953	199.81
423.175	139.81
423.398	111.81
423.621	95.81
423.843	106.81
424.066	87.81
424.288	77.81
424.511	82.81
424.733	88.81
424.956	89.81
425.178	88.81
425.401	86.81
425.623	75.81
425.846	75.81
426.068	85.81
426.291	76.81
426.513	91.81
426.735	85.81
426.958	80.81
427.18	81.81
427.402	83.81
427.625	83.81
427.847	89.81
428.069	88.81
428.292	105.81
428.514	98.81
428.736	89.81
428.958	97.81
429.181	105.81
429.403	90.81
429.625	89.81
429.847	97.81
430.069	113.81
430.292	115.81
430.514	123.81
430.736	111.81
430.958	105.81
431.18	94.81
431.402	96.81
431.624	88.81
431.846	99.81
432.068	96.81
432.29	89.81
432.512	79.81
432.734	79.81
432.956	86.81
433.178	90.81
433.4	80.81
433.622	77.81
433.844	85.81
434.066	74.81
434.287	85.81
434.509	93.81
434.731	96.81
434.953	85.81
435.175	80.81
435.397	86.81
435.618	98.81
435.84	99.81
436.062	90.81
436.284	82.81
436.505	86.81
436.727	77.81
436.949	70.81
437.17	81.81
437.392	77.81
437.614	79.81
437.835	71.81
438.057	81.81
438.278	86.81
438.5	87.81
438.721	88.81
438.943	76.81
439.165	87.81
439.386	86.81
439.608	88.81
439.829	81.81
440.05	81.81
440.272	72.81
440.493	92.81
440.715	73.81
440.936	95.81
441.158	80.81
441.379	84.81
441.6	103.81
441.822	96.81
442.043	78.81
442.264	80.81
442.486	106.81
442.707	112.81
442.928	102.81
443.149	94.81
443.371	112.81
443.592	154.81
443.813	144.81
444.034	102.81
444.255	81.81
444.476	93.81
444.698	94.81
444.919	79.81
445.14	159.81
445.361	139.81
445.582	163.81
445.803	156.81
446.024	106.81
446.245	86.81
446.466	98.81
446.687	94.81
446.908	86.81
447.129	98.81
447.35	90.81
447.571	72.81
447.792	79.81
448.013	96.81
448.234	84.81
448.455	91.81
448.675	83.81
448.896	86.81
449.117	79.81
449.338	96.81
449.559	79.81
449.779	84.81
450	89.81
450.221	91.81
450.442	94.81
450.662	88.81
450.883	90.81
451.104	83.81
451.324	88.81
451.545	87.81
451.766	89.81
451.986	81.81
452.207	92.81
452.428	71.81
452.648	85.81
452.869	90.81
453.089	71.81
453.31	62.81
453.53	78.81
453.751	86.81
453.971	74.81
454.192	89.81
454.412	76.81
454.633	80.81
454.853	94.81
455.073	96.81
455.294	95.81
455.514	88.81
455.734	74.81
455.955	86.81
456.175	79.81
456.395	74.81
456.616	80.81
456.836	84.81
457.056	73.81
457.276	98.81
457.497	81.81
457.717	99.81
457.937	98.81
458.157	86.81
458.377	98.81
458.598	114.81
458.818	110.81
459.038	71.81
459.258	95.81
459.478	82.81
459.698	82.81
459.918	83.81
460.138	85.81
460.358	83.81
460.578	106.81
460.798	114.81
461.018	98.81
461.238	77.81
461.458	93.81
461.678	82.81
461.898	89.81
462.118	93.81
462.338	80.81
462.558	83.81
462.777	75.81
462.997	78.81
463.217	71.81
463.437	78.81
463.657	88.81
463.876	91.81
464.096	94.81
464.316	70.81
464.536	76.81
464.755	91.81
464.975	86.81
465.195	98.81
465.414	72.81
465.634	94.81
465.854	83.81
466.073	87.81
466.293	78.81
466.512	78.81
466.732	77.81
466.951	73.81
467.171	83.81
467.391	83.81
467.61	84.81
467.829	77.81
468.049	88.81
468.268	87.81
468.488	92.81
468.707	91.81
468.927	82.81
469.146	92.81
469.365	84.81
469.585	88.81
469.804	88.81
470.023	85.81
470.243	92.81
470.462	78.81
470.681	89.81
470.901	82.81
471.12	83.81
471.339	90.81
471.558	88.81
471.777	91.81
471.997	83.81
472.216	84.81
472.435	89.81
472.654	82.81
472.873	85.81
473.092	96.81
473.311	92.81
473.53	83.81
473.749	82.81
473.968	82.81
474.187	84.81
474.406	71.81
474.625	77.81
474.844	84.81
475.063	86.81
475.282	86.81
475.501	76.81
475.72	87.81
475.939	66.81
476.158	86.81
476.377	82.81
476.596	87.81
476.814	84.81
477.033	87.81
477.252	84.81
477.471	87.81
477.69	72.81
477.908	81.81
478.127	106.81
478.346	85.81
478.564	94.81
478.783	77.81
479.002	76.81
479.22	90.81
479.439	82.81
479.658	83.81
479.876	86.81
480.095	85.81
480.313	93.81
480.532	75.81
480.751	82.81
480.969	94.81
481.188	80.81
481.406	84.81
481.624	76.81
481.843	79.81
482.061	86.81
482.28	82.81
482.498	88.81
482.717	90.81
482.935	86.81
483.153	89.81
483.372	88.81
483.59	85.81
483.808	83.81
484.027	78.81
484.245	91.81
484.463	91.81
484.681	102.81
484.9	88.81
485.118	90.81
485.336	79.81
485.554	90.81
485.772	88.81
485.99	87.81
486.209	82.81
486.427	88.81
486.645	92.81
486.863	98.81
487.081	86.81
487.299	81.81
487.517	118.81
487.735	100.81
487.953	122.81
488.171	105.81
488.389	102.81
488.607	86.81
488.825	103.81
489.043	89.81
489.261	86.81
489.479	89.81
489.696	93.81
489.914	91.81
490.132	87.81
490.35	82.81
490.568	68.81
490.786	75.81
491.003	86.81
491.221	74.81
491.439	90.81
491.657	82.81
491.874	84.81
492.092	89.81
492.31	91.81
492.527	92.81
492.745	94.81
492.963	86.81
493.18	88.81
493.398	91.81
493.615	87.81
493.833	82.81
494.05	87.81
494.268	82.81
494.485	87.81
494.703	96.81
494.92	71.81
495.138	84.81
495.355	88.81
495.573	80.81
495.79	91.81
496.008	100.81
496.225	86.81
496.442	74.81
496.66	82.81
496.877	75.81
497.094	103.81
497.312	78.81
497.529	90.81
497.746	88.81
497.963	91.81
498.181	97.81
498.398	90.81
498.615	90.81
498.832	91.81
499.049	86.81
499.267	97.81
499.484	75.81
499.701	88.81
499.918	82.81
500.135	78.81
500.352	80.81
500.569	96.81
500.786	71.81
501.003	88.81
501.22	74.81
501.437	85.81
501.654	89.81
501.871	92.81
502.088	75.81
502.305	102.81
502.522	92.81
502.739	99.81
502.956	103.81
503.172	81.81
503.389	92.81
503.606	82.81
503.823	95.81
504.04	85.81
504.256	97.81
504.473	100.81
504.69	75.81
504.907	92.81
505.123	88.81
505.34	91.81
505.557	92.81
505.773	92.81
505.99	86.81
506.207	93.81
506.423	84.81
506.64	82.81
506.856	90.81
507.073	95.81
507.289	94.81
507.506	93.81
507.722	96.81
507.939	90.81
508.155	88.81
508.372	89.81
508.588	86.81
508.805	89.81
509.021	91.81
509.238	99.81
509.454	95.81
509.67	76.81
509.887	77.81
510.103	86.81
510.319	99.81
510.536	88.81
510.752	90.81
510.968	88.81
511.184	87.81
511.401	89.81
511.617	91.81
511.833	84.81
512.049	77.81
512.265	77.81
512.481	79.81
512.698	81.81
512.914	76.81
513.13	86.81
513.346	76.81
513.562	81.81
513.778	82.81
513.994	94.81
514.21	99.81
514.426	108.81
514.642	83.81
514.858	78.81
515.074	98.81
515.29	96.81
515.506	104.81
515.721	84.81
515.937	88.81
516.153	92.81
516.369	87.81
516.585	75.81
516.801	82.81
517.016	88.81
517.232	92.81
517.448	88.81
517.664	90.81
517.879	86.81
518.095	84.81
518.311	88.81
518.527	93.81
518.742	94.81
518.958	123.81
519.173	124.81
