Data from 17600_2_HRD10591_00008.txt Node
Date: Mon Jan 19 14:08:26 EST 2026
User: Yrep
Spectrometer: HR+D1059
Trigger mode: 1
Integration Time (sec): 1.000000E-1
Scans to average: 1
Electric dark correction enabled: true
Nonlinearity correction enabled: false
Boxcar width: 0
XAxis mode: Wavelengths
Number of Pixels in Spectrum: 2048
>>>>>Begin Spectral Data<<<<<
223.165	-17.25
223.4	-17.25
223.635	-17.25
223.869	-28.25
224.104	-19.25
224.338	-15.25
224.573	-8.25
224.808	-0.25
225.042	-5.25
225.277	-3.25
225.511	-9.25
225.746	7.75
225.98	16.75
226.215	8.75
226.449	11.75
226.683	18.75
226.918	14.75
227.152	27.75
227.387	38.75
227.621	46.75
227.856	52.75
228.09	45.75
228.324	56.75
228.559	47.75
228.793	52.75
229.027	75.75
229.262	56.75
229.496	59.75
229.73	81.75
229.964	76.75
230.199	83.75
230.433	83.75
230.667	83.75
230.901	86.75
231.136	74.75
231.37	71.75
231.604	80.75
231.838	94.75
232.072	80.75
232.306	71.75
232.541	67.75
232.775	79.75
233.009	71.75
233.243	80.75
233.477	78.75
233.711	79.75
233.945	70.75
234.179	80.75
234.413	72.75
234.647	84.75
234.881	81.75
235.115	79.75
235.349	69.75
235.583	73.75
235.817	84.75
236.051	79.75
236.285	77.75
236.519	64.75
236.753	80.75
236.987	73.75
237.221	80.75
237.455	85.75
237.689	78.75
237.922	68.75
238.156	60.75
238.39	71.75
238.624	84.75
238.858	79.75
239.091	66.75
239.325	78.75
239.559	66.75
239.793	76.75
240.027	72.75
240.26	80.75
240.494	84.75
240.728	72.75
240.961	78.75
241.195	70.75
241.429	68.75
241.662	62.75
241.896	67.75
242.13	73.75
242.363	67.75
242.597	75.75
242.83	60.75
243.064	70.75
243.298	63.75
243.531	78.75
243.765	82.75
243.998	71.75
244.232	80.75
244.465	67.75
244.699	74.75
244.932	67.75
245.166	71.75
245.399	71.75
245.633	67.75
245.866	88.75
246.099	65.75
246.333	78.75
246.566	66.75
246.8	66.75
247.033	77.75
247.266	79.75
247.5	65.75
247.733	69.75
247.966	66.75
248.2	59.75
248.433	73.75
248.666	94.75
248.899	75.75
249.133	70.75
249.366	65.75
249.599	76.75
249.832	68.75
250.066	88.75
250.299	69.75
250.532	72.75
250.765	81.75
250.998	84.75
251.231	73.75
251.465	70.75
251.698	70.75
251.931	69.75
252.164	85.75
252.397	76.75
252.63	64.75
252.863	75.75
253.096	78.75
253.329	67.75
253.562	77.75
253.795	82.75
254.028	89.75
254.261	81.75
254.494	66.75
254.727	77.75
254.96	70.75
255.193	67.75
255.426	76.75
255.659	79.75
255.892	82.75
256.124	89.75
256.357	73.75
256.59	69.75
256.823	87.75
257.056	71.75
257.289	78.75
257.521	94.75
257.754	75.75
257.987	76.75
258.22	85.75
258.452	87.75
258.685	82.75
258.918	72.75
259.151	83.75
259.383	87.75
259.616	88.75
259.849	88.75
260.081	72.75
260.314	71.75
260.547	88.75
260.779	83.75
261.012	70.75
261.244	84.75
261.477	78.75
261.71	87.75
261.942	76.75
262.175	81.75
262.407	76.75
262.64	72.75
262.872	70.75
263.105	81.75
263.337	84.75
263.57	86.75
263.802	80.75
264.035	80.75
264.267	87.75
264.499	81.75
264.732	75.75
264.964	76.75
265.197	95.75
265.429	79.75
265.661	71.75
265.894	76.75
266.126	76.75
266.358	78.75
266.591	74.75
266.823	80.75
267.055	66.75
267.287	66.75
267.52	81.75
267.752	79.75
267.984	76.75
268.216	86.75
268.448	70.75
268.681	97.75
268.913	76.75
269.145	67.75
269.377	86.75
269.609	71.75
269.841	73.75
270.073	71.75
270.306	79.75
270.538	74.75
270.77	78.75
271.002	83.75
271.234	89.75
271.466	81.75
271.698	78.75
271.93	81.75
272.162	82.75
272.394	90.75
272.626	79.75
272.858	90.75
273.09	84.75
273.322	84.75
273.553	67.75
273.785	81.75
274.017	74.75
274.249	86.75
274.481	69.75
274.713	86.75
274.945	67.75
275.176	80.75
275.408	78.75
275.64	92.75
275.872	85.75
276.104	82.75
276.335	85.75
276.567	68.75
276.799	73.75
277.031	76.75
277.262	82.75
277.494	97.75
277.726	82.75
277.957	81.75
278.189	85.75
278.421	84.75
278.652	98.75
278.884	80.75
279.115	83.75
279.347	94.75
279.579	86.75
279.81	95.75
280.042	72.75
280.273	85.75
280.505	88.75
280.736	71.75
280.968	87.75
281.199	78.75
281.431	75.75
281.662	93.75
281.894	84.75
282.125	64.75
282.356	92.75
282.588	68.75
282.819	61.75
283.051	78.75
283.282	84.75
283.513	74.75
283.745	79.75
283.976	74.75
284.207	81.75
284.439	89.75
284.67	84.75
284.901	67.75
285.132	77.75
285.364	95.75
285.595	73.75
285.826	84.75
286.057	72.75
286.288	59.75
286.52	83.75
286.751	64.75
286.982	83.75
287.213	69.75
287.444	85.75
287.675	92.75
287.906	78.75
288.138	80.75
288.369	79.75
288.6	76.75
288.831	78.75
289.062	74.75
289.293	88.75
289.524	82.75
289.755	79.75
289.986	81.75
290.217	84.75
290.448	68.75
290.679	82.75
290.91	80.75
291.141	87.75
291.371	70.75
291.602	71.75
291.833	71.75
292.064	82.75
292.295	90.75
292.526	94.75
292.757	86.75
292.987	93.75
293.218	78.75
293.449	79.75
293.68	84.75
293.91	91.75
294.141	88.75
294.372	97.75
294.603	84.75
294.833	82.75
295.064	80.75
295.295	80.75
295.525	91.75
295.756	76.75
295.987	88.75
296.217	70.75
296.448	85.75
296.679	75.75
296.909	88.75
297.14	99.75
297.37	87.75
297.601	81.75
297.831	92.75
298.062	95.75
298.292	91.75
298.523	87.75
298.753	77.75
298.984	90.75
299.214	82.75
299.445	88.75
299.675	80.75
299.905	81.75
300.136	90.75
300.366	73.75
300.597	84.75
300.827	91.75
301.057	84.75
301.288	75.75
301.518	74.75
301.748	84.75
301.979	90.75
302.209	82.75
302.439	68.75
302.669	71.75
302.9	78.75
303.13	80.75
303.36	88.75
303.59	88.75
303.82	80.75
304.051	85.75
304.281	86.75
304.511	71.75
304.741	86.75
304.971	75.75
305.201	77.75
305.431	75.75
305.661	72.75
305.891	82.75
306.121	74.75
306.352	71.75
306.582	88.75
306.812	76.75
307.042	77.75
307.272	79.75
307.502	84.75
307.731	85.75
307.961	82.75
308.191	65.75
308.421	85.75
308.651	90.75
308.881	82.75
309.111	79.75
309.341	86.75
309.571	92.75
309.8	90.75
310.03	87.75
310.26	80.75
310.49	90.75
310.72	72.75
310.949	64.75
311.179	82.75
311.409	78.75
311.639	82.75
311.868	74.75
312.098	90.75
312.328	88.75
312.557	80.75
312.787	89.75
313.017	77.75
313.246	78.75
313.476	84.75
313.706	87.75
313.935	91.75
314.165	85.75
314.394	92.75
314.624	79.75
314.853	90.75
315.083	78.75
315.312	96.75
315.542	71.75
315.771	75.75
316.001	75.75
316.23	85.75
316.46	78.75
316.689	84.75
316.919	79.75
317.148	80.75
317.377	83.75
317.607	96.75
317.836	66.75
318.065	91.75
318.295	83.75
318.524	99.75
318.753	101.75
318.983	81.75
319.212	82.75
319.441	76.75
319.67	92.75
319.9	65.75
320.129	84.75
320.358	84.75
320.587	77.75
320.816	83.75
321.046	83.75
321.275	85.75
321.504	83.75
321.733	79.75
321.962	78.75
322.191	84.75
322.42	87.75
322.649	92.75
322.878	86.75
323.108	81.75
323.337	90.75
323.566	90.75
323.795	81.75
324.024	75.75
324.253	71.75
324.482	80.75
324.71	79.75
324.939	100.75
325.168	88.75
325.397	78.75
325.626	87.75
325.855	86.75
326.084	73.75
326.313	73.75
326.542	71.75
326.77	91.75
326.999	101.75
327.228	90.75
327.457	84.75
327.686	86.75
327.914	80.75
328.143	86.75
328.372	91.75
328.6	72.75
328.829	69.75
329.058	78.75
329.287	81.75
329.515	81.75
329.744	98.75
329.972	87.75
330.201	82.75
330.43	98.75
330.658	88.75
330.887	72.75
331.115	81.75
331.344	81.75
331.572	81.75
331.801	82.75
332.03	85.75
332.258	79.75
332.486	85.75
332.715	77.75
332.943	83.75
333.172	84.75
333.4	80.75
333.629	81.75
333.857	67.75
334.085	84.75
334.314	94.75
334.542	86.75
334.771	64.75
334.999	76.75
335.227	86.75
335.455	78.75
335.684	93.75
335.912	106.75
336.14	84.75
336.369	86.75
336.597	75.75
336.825	71.75
337.053	83.75
337.281	74.75
337.51	68.75
337.738	88.75
337.966	94.75
338.194	91.75
338.422	76.75
338.65	86.75
338.878	90.75
339.106	85.75
339.334	62.75
339.562	84.75
339.79	70.75
340.018	92.75
340.246	69.75
340.474	93.75
340.702	85.75
340.93	80.75
341.158	78.75
341.386	74.75
341.614	93.75
341.842	87.75
342.07	95.75
342.298	80.75
342.526	96.75
342.754	84.75
342.981	77.75
343.209	99.75
343.437	92.75
343.665	89.75
343.893	71.75
344.12	80.75
344.348	94.75
344.576	67.75
344.804	86.75
345.031	80.75
345.259	80.75
345.487	84.75
345.714	92.75
345.942	80.75
346.17	92.75
346.397	76.75
346.625	86.75
346.853	89.75
347.08	86.75
347.308	76.75
347.535	67.75
347.763	70.75
347.99	74.75
348.218	84.75
348.445	91.75
348.673	96.75
348.9	67.75
349.128	90.75
349.355	86.75
349.583	80.75
349.81	76.75
350.037	95.75
350.265	81.75
350.492	83.75
350.72	84.75
350.947	71.75
351.174	78.75
351.402	85.75
351.629	67.75
351.856	76.75
352.083	81.75
352.311	89.75
352.538	79.75
352.765	85.75
352.992	86.75
353.22	65.75
353.447	83.75
353.674	77.75
353.901	82.75
354.128	83.75
354.355	85.75
354.583	75.75
354.81	102.75
355.037	87.75
355.264	86.75
355.491	85.75
355.718	83.75
355.945	81.75
356.172	86.75
356.399	81.75
356.626	83.75
356.853	75.75
357.08	84.75
357.307	79.75
357.534	79.75
357.761	84.75
357.988	92.75
358.215	95.75
358.441	93.75
358.668	84.75
358.895	95.75
359.122	77.75
359.349	78.75
359.576	91.75
359.802	86.75
360.029	87.75
360.256	84.75
360.483	71.75
360.709	82.75
360.936	73.75
361.163	85.75
361.39	71.75
361.616	85.75
361.843	95.75
362.07	79.75
362.296	86.75
362.523	105.75
362.749	91.75
362.976	85.75
363.203	106.75
363.429	85.75
363.656	85.75
363.882	82.75
364.109	96.75
364.335	114.75
364.562	111.75
364.788	98.75
365.015	102.75
365.241	66.75
365.468	88.75
365.694	70.75
365.92	81.75
366.147	81.75
366.373	86.75
366.599	83.75
366.826	80.75
367.052	91.75
367.278	71.75
367.505	88.75
367.731	95.75
367.957	88.75
368.184	74.75
368.41	82.75
368.636	88.75
368.862	88.75
369.089	75.75
369.315	68.75
369.541	102.75
369.767	82.75
369.993	86.75
370.219	83.75
370.445	88.75
370.672	85.75
370.898	79.75
371.124	80.75
371.35	77.75
371.576	83.75
371.802	93.75
372.028	78.75
372.254	79.75
372.48	86.75
372.706	84.75
372.932	80.75
373.158	96.75
373.384	101.75
373.61	108.75
373.835	76.75
374.061	77.75
374.287	86.75
374.513	73.75
374.739	97.75
374.965	95.75
375.191	75.75
375.416	82.75
375.642	82.75
375.868	85.75
376.094	86.75
376.319	78.75
376.545	89.75
376.771	82.75
376.997	91.75
377.222	78.75
377.448	80.75
377.674	83.75
377.899	82.75
378.125	81.75
378.35	84.75
378.576	78.75
378.802	88.75
379.027	94.75
379.253	79.75
379.478	96.75
379.704	93.75
379.929	92.75
380.155	74.75
380.38	91.75
380.606	85.75
380.831	77.75
381.057	84.75
381.282	80.75
381.507	83.75
381.733	91.75
381.958	86.75
382.184	100.75
382.409	99.75
382.634	94.75
382.86	85.75
383.085	78.75
383.31	80.75
383.535	93.75
383.761	96.75
383.986	95.75
384.211	75.75
384.436	87.75
384.662	84.75
384.887	95.75
385.112	94.75
385.337	73.75
385.562	81.75
385.787	78.75
386.013	82.75
386.238	90.75
386.463	83.75
386.688	104.75
386.913	77.75
387.138	74.75
387.363	69.75
387.588	83.75
387.813	90.75
388.038	91.75
388.263	74.75
388.488	84.75
388.713	82.75
388.938	84.75
389.163	76.75
389.387	80.75
389.612	90.75
389.837	76.75
390.062	76.75
390.287	96.75
390.512	106.75
390.736	90.75
390.961	65.75
391.186	94.75
391.411	83.75
391.636	70.75
391.86	86.75
392.085	96.75
392.31	86.75
392.534	79.75
392.759	93.75
392.984	119.75
393.208	151.75
393.433	199.75
393.658	152.75
393.882	111.75
394.107	98.75
394.331	112.75
394.556	100.75
394.78	94.75
395.005	95.75
395.229	91.75
395.454	91.75
395.678	104.75
395.903	97.75
396.127	111.75
396.352	110.75
396.576	118.75
396.801	143.75
397.025	176.75
397.249	112.75
397.474	96.75
397.698	83.75
397.922	83.75
398.147	86.75
398.371	83.75
398.595	87.75
398.82	75.75
399.044	68.75
399.268	82.75
399.492	90.75
399.717	72.75
399.941	78.75
400.165	80.75
400.389	73.75
400.613	72.75
400.837	92.75
401.062	95.75
401.286	89.75
401.51	73.75
401.734	83.75
401.958	82.75
402.182	78.75
402.406	72.75
402.63	80.75
402.854	80.75
403.078	87.75
403.302	79.75
403.526	91.75
403.75	71.75
403.974	77.75
404.198	87.75
404.422	88.75
404.645	98.75
404.869	102.75
405.093	75.75
405.317	94.75
405.541	85.75
405.765	86.75
405.988	89.75
406.212	86.75
406.436	73.75
406.66	95.75
406.883	101.75
407.107	83.75
407.331	84.75
407.555	75.75
407.778	106.75
408.002	97.75
408.226	94.75
408.449	83.75
408.673	91.75
408.896	95.75
409.12	77.75
409.344	82.75
409.567	91.75
409.791	79.75
410.014	90.75
410.238	72.75
410.461	83.75
410.685	82.75
410.908	73.75
411.132	83.75
411.355	83.75
411.578	85.75
411.802	103.75
412.025	88.75
412.249	97.75
412.472	70.75
412.695	78.75
412.919	84.75
413.142	75.75
413.365	81.75
413.589	71.75
413.812	80.75
414.035	90.75
414.258	83.75
414.482	78.75
414.705	87.75
414.928	79.75
415.151	87.75
415.374	72.75
415.597	80.75
415.821	79.75
416.044	88.75
416.267	97.75
416.49	89.75
416.713	74.75
416.936	74.75
417.159	85.75
417.382	82.75
417.605	71.75
417.828	73.75
418.051	76.75
418.274	86.75
418.497	84.75
418.72	92.75
418.943	81.75
419.166	83.75
419.389	77.75
419.611	80.75
419.834	82.75
420.057	78.75
420.28	79.75
420.503	107.75
420.726	86.75
420.948	79.75
421.171	84.75
421.394	105.75
421.617	99.75
421.839	94.75
422.062	116.75
422.285	134.75
422.507	163.75
422.73	242.75
422.953	214.75
423.175	144.75
423.398	111.75
423.621	96.75
423.843	104.75
424.066	94.75
424.288	81.75
424.511	82.75
424.733	84.75
424.956	82.75
425.178	95.75
425.401	83.75
425.623	78.75
425.846	98.75
426.068	98.75
426.291	92.75
426.513	88.75
426.735	83.75
426.958	98.75
427.18	84.75
427.402	72.75
427.625	67.75
427.847	80.75
428.069	95.75
428.292	107.75
428.514	108.75
428.736	81.75
428.958	101.75
429.181	106.75
429.403	72.75
429.625	73.75
429.847	98.75
430.069	114.75
430.292	138.75
430.514	130.75
430.736	98.75
430.958	112.75
431.18	101.75
431.402	88.75
431.624	94.75
431.846	99.75
432.068	85.75
432.29	86.75
432.512	85.75
432.734	82.75
432.956	80.75
433.178	82.75
433.4	101.75
433.622	87.75
433.844	93.75
434.066	82.75
434.287	80.75
434.509	88.75
434.731	86.75
434.953	81.75
435.175	91.75
435.397	76.75
435.618	91.75
435.84	90.75
436.062	72.75
436.284	76.75
436.505	81.75
436.727	75.75
436.949	84.75
437.17	81.75
437.392	77.75
437.614	76.75
437.835	77.75
438.057	91.75
438.278	86.75
438.5	95.75
438.721	80.75
438.943	92.75
439.165	82.75
439.386	66.75
439.608	78.75
439.829	93.75
440.05	79.75
440.272	84.75
440.493	83.75
440.715	87.75
440.936	82.75
441.158	72.75
441.379	72.75
441.6	79.75
441.822	75.75
442.043	88.75
442.264	85.75
442.486	116.75
442.707	102.75
442.928	74.75
443.149	85.75
443.371	108.75
443.592	164.75
443.813	142.75
444.034	87.75
444.255	81.75
444.476	88.75
444.698	78.75
444.919	75.75
445.14	154.75
445.361	149.75
445.582	182.75
445.803	158.75
446.024	102.75
446.245	95.75
446.466	93.75
446.687	90.75
446.908	72.75
447.129	85.75
447.35	80.75
447.571	76.75
447.792	68.75
448.013	72.75
448.234	89.75
448.455	89.75
448.675	83.75
448.896	76.75
449.117	86.75
449.338	84.75
449.559	70.75
449.779	101.75
450	75.75
450.221	75.75
450.442	82.75
450.662	82.75
450.883	75.75
451.104	83.75
451.324	88.75
451.545	78.75
451.766	85.75
451.986	88.75
452.207	92.75
452.428	78.75
452.648	95.75
452.869	93.75
453.089	92.75
453.31	95.75
453.53	93.75
453.751	85.75
453.971	74.75
454.192	92.75
454.412	81.75
454.633	80.75
454.853	76.75
455.073	76.75
455.294	80.75
455.514	71.75
455.734	88.75
455.955	83.75
456.175	78.75
456.395	94.75
456.616	94.75
456.836	94.75
457.056	78.75
457.276	73.75
457.497	87.75
457.717	87.75
457.937	103.75
458.157	101.75
458.377	98.75
458.598	98.75
458.818	107.75
459.038	79.75
459.258	84.75
459.478	81.75
459.698	91.75
459.918	91.75
460.138	82.75
460.358	89.75
460.578	88.75
460.798	101.75
461.018	102.75
461.238	78.75
461.458	84.75
461.678	77.75
461.898	77.75
462.118	84.75
462.338	87.75
462.558	82.75
462.777	88.75
462.997	83.75
463.217	90.75
463.437	82.75
463.657	81.75
463.876	86.75
464.096	87.75
464.316	88.75
464.536	66.75
464.755	94.75
464.975	78.75
465.195	71.75
465.414	72.75
465.634	82.75
465.854	90.75
466.073	87.75
466.293	85.75
466.512	81.75
466.732	83.75
466.951	80.75
467.171	94.75
467.391	80.75
467.61	78.75
467.829	82.75
468.049	76.75
468.268	86.75
468.488	96.75
468.707	92.75
468.927	83.75
469.146	74.75
469.365	79.75
469.585	83.75
469.804	89.75
470.023	78.75
470.243	63.75
470.462	86.75
470.681	98.75
470.901	81.75
471.12	73.75
471.339	85.75
471.558	84.75
471.777	83.75
471.997	84.75
472.216	91.75
472.435	86.75
472.654	96.75
472.873	83.75
473.092	82.75
473.311	82.75
473.53	80.75
473.749	81.75
473.968	90.75
474.187	86.75
474.406	78.75
474.625	92.75
474.844	87.75
475.063	92.75
475.282	79.75
475.501	73.75
475.72	90.75
475.939	72.75
476.158	89.75
476.377	92.75
476.596	90.75
476.814	77.75
477.033	81.75
477.252	76.75
477.471	89.75
477.69	87.75
477.908	79.75
478.127	86.75
478.346	76.75
478.564	90.75
478.783	88.75
479.002	75.75
479.22	77.75
479.439	89.75
479.658	88.75
479.876	60.75
480.095	86.75
480.313	89.75
480.532	82.75
480.751	77.75
480.969	81.75
481.188	100.75
481.406	82.75
481.624	83.75
481.843	86.75
482.061	78.75
482.28	72.75
482.498	84.75
482.717	91.75
482.935	90.75
483.153	85.75
483.372	80.75
483.59	80.75
483.808	91.75
484.027	88.75
484.245	84.75
484.463	83.75
484.681	83.75
484.9	90.75
485.118	103.75
485.336	99.75
485.554	89.75
485.772	90.75
485.99	87.75
486.209	85.75
486.427	98.75
486.645	94.75
486.863	94.75
487.081	95.75
487.299	82.75
487.517	98.75
487.735	107.75
487.953	136.75
488.171	115.75
488.389	114.75
488.607	97.75
488.825	93.75
489.043	102.75
489.261	90.75
489.479	99.75
489.696	90.75
489.914	85.75
490.132	89.75
490.35	87.75
490.568	99.75
490.786	99.75
491.003	98.75
491.221	82.75
491.439	90.75
491.657	75.75
491.874	98.75
492.092	91.75
492.31	84.75
492.527	98.75
492.745	68.75
492.963	85.75
493.18	78.75
493.398	75.75
493.615	91.75
493.833	78.75
494.05	102.75
494.268	90.75
494.485	91.75
494.703	74.75
494.92	78.75
495.138	81.75
495.355	86.75
495.573	83.75
495.79	85.75
496.008	85.75
496.225	99.75
496.442	85.75
496.66	86.75
496.877	104.75
497.094	93.75
497.312	93.75
497.529	80.75
497.746	88.75
497.963	86.75
498.181	88.75
498.398	78.75
498.615	90.75
498.832	94.75
499.049	87.75
499.267	103.75
499.484	68.75
499.701	75.75
499.918	90.75
500.135	97.75
500.352	78.75
500.569	80.75
500.786	88.75
501.003	73.75
501.22	98.75
501.437	92.75
501.654	100.75
501.871	93.75
502.088	92.75
502.305	111.75
502.522	106.75
502.739	81.75
502.956	87.75
503.172	79.75
503.389	85.75
503.606	84.75
503.823	87.75
504.04	100.75
504.256	113.75
504.473	112.75
504.69	104.75
504.907	98.75
505.123	81.75
505.34	92.75
505.557	98.75
505.773	84.75
505.99	88.75
506.207	80.75
506.423	97.75
506.64	76.75
506.856	80.75
507.073	82.75
507.289	86.75
507.506	106.75
507.722	86.75
507.939	91.75
508.155	108.75
508.372	94.75
508.588	90.75
508.805	89.75
509.021	68.75
509.238	103.75
509.454	89.75
509.67	74.75
509.887	80.75
510.103	71.75
510.319	95.75
510.536	77.75
510.752	87.75
510.968	76.75
511.184	96.75
511.401	81.75
511.617	85.75
511.833	91.75
512.049	90.75
512.265	91.75
512.481	97.75
512.698	86.75
512.914	82.75
513.13	92.75
513.346	78.75
513.562	83.75
513.778	99.75
513.994	95.75
514.21	89.75
514.426	92.75
514.642	84.75
514.858	87.75
515.074	72.75
515.29	76.75
515.506	85.75
515.721	73.75
515.937	91.75
516.153	103.75
516.369	81.75
516.585	82.75
516.801	78.75
517.016	66.75
517.232	90.75
517.448	83.75
517.664	102.75
517.879	93.75
518.095	97.75
518.311	98.75
518.527	95.75
518.742	96.75
518.958	127.75
