Data from 17600_2_HRD10591_00030.txt Node
Date: Mon Jan 19 14:08:37 EST 2026
User: Yrep
Spectrometer: HR+D1059
Trigger mode: 1
Integration Time (sec): 1.000000E-1
Scans to average: 1
Electric dark correction enabled: true
Nonlinearity correction enabled: false
Boxcar width: 0
XAxis mode: Wavelengths
Number of Pixels in Spectrum: 2048
>>>>>Begin Spectral Data<<<<<
223.165	-18
223.4	-18
223.635	-18
223.869	-16
224.104	-24
224.338	-18
224.573	-17
224.808	-12
225.042	-10
225.277	1
225.511	-3
225.746	-3
225.98	17
226.215	17
226.449	5
226.683	18
226.918	26
227.152	37
227.387	51
227.621	40
227.856	41
228.09	50
228.324	46
228.559	60
228.793	56
229.027	66
229.262	66
229.496	64
229.73	71
229.964	73
230.199	71
230.433	72
230.667	80
230.901	78
231.136	70
231.37	76
231.604	83
231.838	90
232.072	77
232.306	82
232.541	83
232.775	77
233.009	85
233.243	72
233.477	84
233.711	82
233.945	71
234.179	85
234.413	81
234.647	72
234.881	86
235.115	72
235.349	73
235.583	85
235.817	91
236.051	69
236.285	90
236.519	80
236.753	66
236.987	76
237.221	77
237.455	83
237.689	86
237.922	69
238.156	65
238.39	70
238.624	79
238.858	92
239.091	84
239.325	76
239.559	72
239.793	60
240.027	73
240.26	87
240.494	67
240.728	68
240.961	66
241.195	77
241.429	97
241.662	81
241.896	82
242.13	86
242.363	84
242.597	68
242.83	89
243.064	59
243.298	66
243.531	62
243.765	65
243.998	72
244.232	90
244.465	62
244.699	77
244.932	62
245.166	66
245.399	81
245.633	74
245.866	64
246.099	86
246.333	82
246.566	75
246.8	73
247.033	74
247.266	84
247.5	73
247.733	68
247.966	82
248.2	81
248.433	84
248.666	83
248.899	84
249.133	83
249.366	91
249.599	80
249.832	80
250.066	79
250.299	91
250.532	86
250.765	73
250.998	88
251.231	89
251.465	75
251.698	85
251.931	72
252.164	83
252.397	79
252.63	88
252.863	76
253.096	83
253.329	81
253.562	76
253.795	83
254.028	82
254.261	83
254.494	76
254.727	72
254.96	75
255.193	75
255.426	84
255.659	85
255.892	79
256.124	83
256.357	85
256.59	83
256.823	70
257.056	94
257.289	100
257.521	88
257.754	88
257.987	83
258.22	77
258.452	74
258.685	84
258.918	52
259.151	66
259.383	82
259.616	70
259.849	83
260.081	78
260.314	83
260.547	79
260.779	102
261.012	66
261.244	87
261.477	92
261.71	70
261.942	76
262.175	84
262.407	83
262.64	90
262.872	82
263.105	77
263.337	75
263.57	66
263.802	83
264.035	90
264.267	89
264.499	99
264.732	88
264.964	86
265.197	100
265.429	75
265.661	95
265.894	82
266.126	85
266.358	82
266.591	72
266.823	82
267.055	77
267.287	85
267.52	88
267.752	82
267.984	88
268.216	82
268.448	90
268.681	79
268.913	100
269.145	64
269.377	79
269.609	77
269.841	77
270.073	79
270.306	80
270.538	87
270.77	77
271.002	95
271.234	84
271.466	88
271.698	83
271.93	71
272.162	83
272.394	85
272.626	80
272.858	79
273.09	87
273.322	80
273.553	80
273.785	67
274.017	86
274.249	80
274.481	67
274.713	75
274.945	85
275.176	81
275.408	80
275.64	76
275.872	84
276.104	86
276.335	80
276.567	77
276.799	80
277.031	103
277.262	91
277.494	83
277.726	83
277.957	81
278.189	76
278.421	74
278.652	74
278.884	88
279.115	85
279.347	77
279.579	85
279.81	72
280.042	88
280.273	73
280.505	101
280.736	94
280.968	78
281.199	66
281.431	71
281.662	80
281.894	68
282.125	77
282.356	77
282.588	81
282.819	97
283.051	76
283.282	76
283.513	91
283.745	79
283.976	92
284.207	78
284.439	78
284.67	98
284.901	89
285.132	105
285.364	79
285.595	86
285.826	86
286.057	85
286.288	95
286.52	60
286.751	76
286.982	67
287.213	82
287.444	70
287.675	68
287.906	79
288.138	78
288.369	89
288.6	92
288.831	83
289.062	91
289.293	92
289.524	85
289.755	64
289.986	91
290.217	85
290.448	91
290.679	70
290.91	90
291.141	86
291.371	107
291.602	88
291.833	81
292.064	82
292.295	89
292.526	82
292.757	76
292.987	74
293.218	70
293.449	91
293.68	84
293.91	88
294.141	86
294.372	94
294.603	80
294.833	98
295.064	92
295.295	80
295.525	61
295.756	80
295.987	81
296.217	83
296.448	76
296.679	92
296.909	79
297.14	76
297.37	77
297.601	92
297.831	83
298.062	88
298.292	84
298.523	86
298.753	85
298.984	79
299.214	78
299.445	95
299.675	91
299.905	74
300.136	73
300.366	89
300.597	78
300.827	89
301.057	82
301.288	84
301.518	83
301.748	80
301.979	90
302.209	83
302.439	91
302.669	81
302.9	79
303.13	75
303.36	83
303.59	82
303.82	79
304.051	82
304.281	87
304.511	84
304.741	83
304.971	94
305.201	75
305.431	81
305.661	78
305.891	79
306.121	80
306.352	68
306.582	65
306.812	76
307.042	85
307.272	74
307.502	88
307.731	97
307.961	97
308.191	89
308.421	91
308.651	102
308.881	78
309.111	91
309.341	86
309.571	87
309.8	94
310.03	81
310.26	80
310.49	69
310.72	79
310.949	83
311.179	71
311.409	77
311.639	85
311.868	83
312.098	88
312.328	82
312.557	84
312.787	89
313.017	105
313.246	83
313.476	68
313.706	87
313.935	77
314.165	75
314.394	76
314.624	83
314.853	96
315.083	86
315.312	91
315.542	90
315.771	91
316.001	89
316.23	99
316.46	92
316.689	85
316.919	80
317.148	92
317.377	87
317.607	86
317.836	94
318.065	89
318.295	92
318.524	81
318.753	88
318.983	89
319.212	97
319.441	82
319.67	92
319.9	86
320.129	89
320.358	84
320.587	76
320.816	85
321.046	84
321.275	78
321.504	87
321.733	85
321.962	82
322.191	74
322.42	82
322.649	86
322.878	86
323.108	96
323.337	90
323.566	96
323.795	86
324.024	88
324.253	79
324.482	82
324.71	85
324.939	89
325.168	87
325.397	76
325.626	96
325.855	86
326.084	94
326.313	72
326.542	76
326.77	82
326.999	86
327.228	98
327.457	83
327.686	94
327.914	87
328.143	85
328.372	74
328.6	74
328.829	72
329.058	82
329.287	88
329.515	94
329.744	94
329.972	86
330.201	88
330.43	86
330.658	83
330.887	77
331.115	79
331.344	87
331.572	87
331.801	77
332.03	89
332.258	87
332.486	73
332.715	87
332.943	89
333.172	77
333.4	70
333.629	74
333.857	92
334.085	89
334.314	83
334.542	87
334.771	95
334.999	82
335.227	79
335.455	84
335.684	90
335.912	87
336.14	100
336.369	94
336.597	89
336.825	84
337.053	73
337.281	82
337.51	99
337.738	106
337.966	82
338.194	94
338.422	85
338.65	73
338.878	99
339.106	98
339.334	91
339.562	86
339.79	72
340.018	79
340.246	83
340.474	84
340.702	82
340.93	80
341.158	74
341.386	88
341.614	88
341.842	101
342.07	83
342.298	86
342.526	80
342.754	75
342.981	88
343.209	89
343.437	89
343.665	88
343.893	72
344.12	76
344.348	79
344.576	75
344.804	80
345.031	70
345.259	83
345.487	80
345.714	84
345.942	84
346.17	84
346.397	86
346.625	88
346.853	93
347.08	84
347.308	94
347.535	96
347.763	91
347.99	82
348.218	70
348.445	90
348.673	94
348.9	87
349.128	86
349.355	85
349.583	85
349.81	69
350.037	81
350.265	86
350.492	81
350.72	86
350.947	70
351.174	81
351.402	80
351.629	78
351.856	82
352.083	89
352.311	81
352.538	93
352.765	79
352.992	82
353.22	94
353.447	77
353.674	92
353.901	95
354.128	79
354.355	82
354.583	77
354.81	81
355.037	90
355.264	79
355.491	90
355.718	73
355.945	79
356.172	66
356.399	82
356.626	82
356.853	89
357.08	77
357.307	83
357.534	73
357.761	72
357.988	103
358.215	97
358.441	79
358.668	80
358.895	77
359.122	76
359.349	76
359.576	79
359.802	80
360.029	77
360.256	86
360.483	104
360.709	86
360.936	98
361.163	84
361.39	75
361.616	86
361.843	90
362.07	89
362.296	77
362.523	88
362.749	80
362.976	76
363.203	99
363.429	98
363.656	95
363.882	89
364.109	92
364.335	89
364.562	110
364.788	82
365.015	96
365.241	83
365.468	78
365.694	77
365.92	83
366.147	88
366.373	95
366.599	91
366.826	98
367.052	83
367.278	74
367.505	80
367.731	95
367.957	99
368.184	74
368.41	76
368.636	83
368.862	71
369.089	84
369.315	90
369.541	84
369.767	89
369.993	76
370.219	94
370.445	82
370.672	78
370.898	94
371.124	83
371.35	97
371.576	89
371.802	76
372.028	88
372.254	92
372.48	89
372.706	87
372.932	77
373.158	75
373.384	97
373.61	89
373.835	96
374.061	84
374.287	89
374.513	86
374.739	82
374.965	88
375.191	81
375.416	90
375.642	85
375.868	82
376.094	81
376.319	69
376.545	88
376.771	85
376.997	97
377.222	82
377.448	85
377.674	83
377.899	96
378.125	83
378.35	83
378.576	89
378.802	80
379.027	71
379.253	77
379.478	82
379.704	95
379.929	86
380.155	82
380.38	84
380.606	83
380.831	77
381.057	103
381.282	89
381.507	79
381.733	89
381.958	80
382.184	79
382.409	80
382.634	80
382.86	90
383.085	82
383.31	83
383.535	85
383.761	83
383.986	74
384.211	80
384.436	77
384.662	91
384.887	86
385.112	80
385.337	79
385.562	85
385.787	103
386.013	88
386.238	98
386.463	81
386.688	90
386.913	76
387.138	86
387.363	96
387.588	84
387.813	90
388.038	94
388.263	98
388.488	73
388.713	75
388.938	80
389.163	73
389.387	80
389.612	80
389.837	88
390.062	82
390.287	74
390.512	79
390.736	82
390.961	80
391.186	79
391.411	82
391.636	84
391.86	83
392.085	95
392.31	90
392.534	70
392.759	87
392.984	99
393.208	167
393.433	251
393.658	211
393.882	112
394.107	88
394.331	91
394.556	91
394.78	89
395.005	82
395.229	82
395.454	97
395.678	98
395.903	109
396.127	103
396.352	103
396.576	120
396.801	170
397.025	189
397.249	119
397.474	99
397.698	90
397.922	83
398.147	87
398.371	81
398.595	80
398.82	78
399.044	96
399.268	77
399.492	92
399.717	79
399.941	75
400.165	76
400.389	76
400.613	79
400.837	79
401.062	72
401.286	80
401.51	94
401.734	86
401.958	91
402.182	88
402.406	88
402.63	79
402.854	72
403.078	80
403.302	80
403.526	97
403.75	68
403.974	92
404.198	85
404.422	86
404.645	75
404.869	71
405.093	76
405.317	79
405.541	84
405.765	74
405.988	68
406.212	87
406.436	82
406.66	80
406.883	77
407.107	98
407.331	80
407.555	86
407.778	94
408.002	95
408.226	91
408.449	79
408.673	88
408.896	86
409.12	69
409.344	84
409.567	85
409.791	83
410.014	87
410.238	74
410.461	87
410.685	68
410.908	84
411.132	95
411.355	93
411.578	75
411.802	84
412.025	84
412.249	90
412.472	78
412.695	64
412.919	70
413.142	85
413.365	89
413.589	67
413.812	66
414.035	98
414.258	88
414.482	73
414.705	70
414.928	76
415.151	83
415.374	73
415.597	78
415.821	74
416.044	83
416.267	98
416.49	70
416.713	70
416.936	85
417.159	81
417.382	81
417.605	79
417.828	82
418.051	88
418.274	87
418.497	84
418.72	77
418.943	91
419.166	69
419.389	86
419.611	70
419.834	83
420.057	90
420.28	87
420.503	84
420.726	90
420.948	85
421.171	86
421.394	95
421.617	95
421.839	101
422.062	98
422.285	101
422.507	136
422.73	215
422.953	180
423.175	106
423.398	86
423.621	84
423.843	95
424.066	95
424.288	85
424.511	93
424.733	85
424.956	95
425.178	87
425.401	87
425.623	92
425.846	101
426.068	70
426.291	76
426.513	83
426.735	93
426.958	75
427.18	82
427.402	76
427.625	82
427.847	82
428.069	90
428.292	96
428.514	91
428.736	90
428.958	106
429.181	103
429.403	85
429.625	90
429.847	94
430.069	99
430.292	110
430.514	116
430.736	99
430.958	106
431.18	82
431.402	86
431.624	76
431.846	94
432.068	84
432.29	87
432.512	89
432.734	99
432.956	79
433.178	76
433.4	65
433.622	82
433.844	71
434.066	84
434.287	87
434.509	82
434.731	86
434.953	85
435.175	90
435.397	83
435.618	88
435.84	75
436.062	76
436.284	82
436.505	84
436.727	95
436.949	86
437.17	80
437.392	75
437.614	94
437.835	83
438.057	90
438.278	82
438.5	83
438.721	76
438.943	90
439.165	90
439.386	82
439.608	84
439.829	89
440.05	67
440.272	84
440.493	93
440.715	94
440.936	79
441.158	69
441.379	92
441.6	77
441.822	95
442.043	80
442.264	100
442.486	92
442.707	110
442.928	83
443.149	74
443.371	106
443.592	132
443.813	118
444.034	94
444.255	89
444.476	68
444.698	83
444.919	88
445.14	152
445.361	128
445.582	155
445.803	117
446.024	96
446.245	86
446.466	72
446.687	90
446.908	78
447.129	75
447.35	90
447.571	73
447.792	84
448.013	76
448.234	82
448.455	82
448.675	73
448.896	86
449.117	89
449.338	79
449.559	75
449.779	75
450	83
450.221	80
450.442	80
450.662	85
450.883	96
451.104	94
451.324	81
451.545	60
451.766	98
451.986	83
452.207	84
452.428	67
452.648	88
452.869	58
453.089	88
453.31	74
453.53	62
453.751	71
453.971	90
454.192	86
454.412	75
454.633	82
454.853	82
455.073	83
455.294	76
455.514	73
455.734	74
455.955	81
456.175	89
456.395	89
456.616	83
456.836	94
457.056	80
457.276	71
457.497	82
457.717	80
457.937	87
458.157	83
458.377	94
458.598	93
458.818	104
459.038	93
459.258	73
459.478	85
459.698	79
459.918	94
460.138	86
460.358	86
460.578	96
460.798	87
461.018	82
461.238	88
461.458	80
461.678	79
461.898	87
462.118	79
462.338	76
462.558	76
462.777	87
462.997	89
463.217	82
463.437	71
463.657	68
463.876	83
464.096	76
464.316	91
464.536	87
464.755	83
464.975	81
465.195	69
465.414	87
465.634	83
465.854	78
466.073	89
466.293	86
466.512	89
466.732	72
466.951	87
467.171	91
467.391	82
467.61	82
467.829	85
468.049	95
468.268	70
468.488	73
468.707	95
468.927	77
469.146	86
469.365	81
469.585	77
469.804	77
470.023	83
470.243	78
470.462	82
470.681	94
470.901	95
471.12	67
471.339	77
471.558	76
471.777	74
471.997	89
472.216	86
472.435	83
472.654	71
472.873	82
473.092	84
473.311	80
473.53	70
473.749	75
473.968	82
474.187	85
474.406	74
474.625	81
474.844	76
475.063	84
475.282	71
475.501	78
475.72	80
475.939	88
476.158	70
476.377	72
476.596	86
476.814	85
477.033	76
477.252	94
477.471	83
477.69	95
477.908	72
478.127	93
478.346	80
478.564	90
478.783	80
479.002	81
479.22	73
479.439	76
479.658	90
479.876	90
480.095	82
480.313	84
480.532	65
480.751	83
480.969	75
481.188	82
481.406	78
481.624	83
481.843	101
482.061	73
482.28	94
482.498	83
482.717	84
482.935	82
483.153	88
483.372	94
483.59	80
483.808	87
484.027	82
484.245	67
484.463	85
484.681	97
484.9	87
485.118	88
485.336	80
485.554	77
485.772	94
485.99	91
486.209	75
486.427	82
486.645	80
486.863	91
487.081	77
487.299	85
487.517	70
487.735	86
487.953	101
488.171	93
488.389	85
488.607	78
488.825	82
489.043	73
489.261	80
489.479	67
489.696	74
489.914	82
490.132	78
490.35	76
490.568	90
490.786	87
491.003	89
491.221	83
491.439	73
491.657	80
491.874	82
492.092	85
492.31	84
492.527	87
492.745	72
492.963	88
493.18	90
493.398	86
493.615	99
493.833	89
494.05	82
494.268	96
494.485	88
494.703	94
494.92	91
495.138	84
495.355	70
495.573	73
495.79	79
496.008	87
496.225	91
496.442	83
496.66	72
496.877	77
497.094	77
497.312	79
497.529	91
497.746	88
497.963	73
498.181	86
498.398	77
498.615	81
498.832	85
499.049	73
499.267	78
499.484	90
499.701	74
499.918	86
500.135	89
500.352	82
500.569	86
500.786	91
501.003	96
501.22	89
501.437	83
501.654	99
501.871	89
502.088	89
502.305	80
502.522	85
502.739	91
502.956	90
503.172	74
503.389	82
503.606	84
503.823	82
504.04	95
504.256	106
504.473	84
504.69	88
504.907	98
505.123	90
505.34	88
505.557	72
505.773	79
505.99	84
506.207	97
506.423	79
506.64	98
506.856	75
507.073	73
507.289	71
507.506	83
507.722	63
507.939	81
508.155	94
508.372	97
508.588	87
508.805	90
509.021	86
509.238	94
509.454	96
509.67	79
509.887	80
510.103	98
510.319	86
510.536	87
510.752	72
510.968	79
511.184	76
511.401	79
511.617	91
511.833	83
512.049	79
512.265	90
512.481	81
512.698	92
512.914	97
513.13	81
513.346	67
513.562	70
513.778	76
513.994	74
514.21	97
514.426	94
514.642	83
514.858	80
515.074	85
515.29	83
515.506	90
515.721	88
515.937	87
516.153	90
516.369	94
516.585	92
516.801	75
517.016	95
517.232	83
517.448	98
517.664	90
517.879	87
518.095	83
518.311	88
518.527	96
518.742	90
518.958	99
519.173	94
519.389	99
519.605	89
519.82	94
520.036	74
520.251	85
520.467	83
520.682	83
520.898	87
521.113	93
521.329	91
521.544	77
521.76	87
521.975	95
522.19	94
522.406	86
522.621	80
522.836	92
523.052	88
523.267	94
523.482	83
523.698	83
523.913	76
524.128	91
524.343	72
524.559	93
524.774	70
524.989	78
525.204	85
525.419	73
525.634	86
525.849	90
526.064	93
526.28	132
526.495	141
526.71	148
526.925	118
527.14	135
527.355	122
527.57	80
527.785	92
527.999	81
528.214	75
528.429	85
528.644	87
528.859	91
529.074	85
529.289	88
529.503	92
529.718	86
529.933	85
530.148	88
530.363	100
530.577	90
530.792	82
531.007	75
531.221	84
531.436	95
531.651	76
531.865	87
532.08	83
532.295	82
532.509	78
532.724	101
532.938	78
533.153	82
533.367	81
533.582	84
533.796	85
534.011	92
534.225	95
534.44	90
534.654	89
534.868	102
535.083	103
535.297	90
535.511	88
535.726	89
535.94	88
536.154	86
536.369	92
536.583	79
536.797	86
537.011	94
537.225	93
537.44	88
537.654	87
537.868	83
538.082	82
538.296	105
538.51	79
538.724	94
538.938	74
539.153	98
539.367	87
539.581	77
539.795	86
540.009	87
540.222	89
540.436	80
540.65	80
540.864	90
541.078	84
541.292	95
541.506	80
541.72	80
541.934	97
542.147	88
542.361	89
542.575	86
542.789	82
543.002	92
543.216	88
543.43	73
543.644	107
543.857	88
544.071	87
544.285	98
544.498	94
544.712	90
544.925	82
545.139	80
545.352	76
545.566	96
545.779	100
545.993	91
546.206	88
546.42	94
546.633	82
546.847	93
547.06	95
547.274	112
547.487	109
547.7	103
547.914	115
548.127	113
548.34	119
548.554	122
548.767	120
548.98	122
549.193	111
549.407	108
549.62	105
549.833	133
550.046	129
550.259	130
550.473	116
550.686	138
550.899	140
551.112	149
551.325	160
551.538	154
551.751	150
551.964	150
552.177	145
552.39	136
552.603	148
552.816	153
553.029	139
553.242	150
553.455	150
553.667	161
553.88	158
554.093	167
554.306	151
554.519	159
554.732	155
554.944	160
555.157	158
555.37	152
555.583	149
555.795	135
556.008	132
556.221	133
556.433	119
556.646	124
556.859	132
557.071	121
557.284	103
557.496	123
557.709	110
557.921	115
558.134	99
558.346	129
558.559	115
558.771	128
558.984	154
559.196	179
559.409	113
559.621	154
559.833	130
560.046	136
560.258	124
560.47	138
560.683	116
560.895	93
561.107	91
561.32	86
561.532	96
561.744	86
561.956	98
562.168	102
562.381	85
562.593	98
562.805	79
563.017	95
563.229	89
563.441	89
563.653	97
563.865	95
564.077	88
564.289	90
564.501	92
564.713	90
564.925	88
565.137	100
565.349	78
565.561	78
565.773	99
565.985	97
566.197	97
566.408	91
566.62	93
566.832	75
567.044	94
567.255	97
567.467	85
567.679	82
567.891	100
568.102	86
568.314	84
568.526	91
568.737	107
568.949	88
569.161	106
569.372	93
569.584	88
569.795	92
570.007	83
570.218	89
570.43	84
570.641	90
570.853	113
571.064	100
571.276	99
571.487	80
571.698	71
571.91	73
572.121	82
572.333	83
572.544	95
572.755	98
572.966	82
573.178	91
573.389	96
573.6	87
573.811	84
574.023	90
574.234	94
574.445	86
574.656	87
574.867	83
575.078	94
575.289	83
575.501	86
575.712	87
575.923	87
576.134	85
576.345	76
576.556	83
576.767	96
576.978	102
577.188	88
577.399	87
577.61	84
577.821	93
578.032	76
578.243	76
578.454	89
578.665	88
578.875	96
579.086	92
579.297	100
579.508	84
579.718	98
579.929	86
580.14	77
580.35	82
580.561	83
580.772	91
580.982	95
581.193	99
581.403	100
581.614	91
581.825	89
582.035	101
582.246	88
582.456	83
582.667	79
582.877	76
583.087	75
583.298	79
583.508	105
583.719	89
583.929	107
584.139	92
584.35	89
584.56	86
584.77	95
584.981	98
585.191	70
585.401	94
585.611	89
585.821	113
586.032	128
586.242	117
586.452	94
586.662	92
586.872	101
587.082	84
587.292	79
587.502	89
587.713	86
587.923	86
588.133	75
588.343	91
588.553	95
