Data from 17600_2_HRD10591_00016.txt Node
Date: Mon Jan 19 14:08:30 EST 2026
User: Yrep
Spectrometer: HR+D1059
Trigger mode: 1
Integration Time (sec): 1.000000E-1
Scans to average: 1
Electric dark correction enabled: true
Nonlinearity correction enabled: false
Boxcar width: 0
XAxis mode: Wavelengths
Number of Pixels in Spectrum: 2048
>>>>>Begin Spectral Data<<<<<
223.165	-7.56
223.4	-7.56
223.635	-7.56
223.869	-19.56
224.104	-14.56
224.338	-17.56
224.573	-21.56
224.808	-2.56
225.042	-4.56
225.277	-11.56
225.511	-2.56
225.746	-2.56
225.98	8.44
226.215	18.44
226.449	20.44
226.683	15.44
226.918	21.44
227.152	20.44
227.387	35.44
227.621	47.44
227.856	57.44
228.09	35.44
228.324	59.44
228.559	67.44
228.793	68.44
229.027	63.44
229.262	71.44
229.496	63.44
229.73	71.44
229.964	83.44
230.199	77.44
230.433	86.44
230.667	69.44
230.901	85.44
231.136	67.44
231.37	79.44
231.604	70.44
231.838	89.44
232.072	71.44
232.306	85.44
232.541	67.44
232.775	90.44
233.009	95.44
233.243	69.44
233.477	83.44
233.711	85.44
233.945	87.44
234.179	86.44
234.413	89.44
234.647	81.44
234.881	72.44
235.115	71.44
235.349	85.44
235.583	85.44
235.817	76.44
236.051	73.44
236.285	65.44
236.519	76.44
236.753	95.44
236.987	75.44
237.221	72.44
237.455	92.44
237.689	81.44
237.922	70.44
238.156	77.44
238.39	83.44
238.624	77.44
238.858	72.44
239.091	81.44
239.325	81.44
239.559	85.44
239.793	84.44
240.027	76.44
240.26	85.44
240.494	80.44
240.728	90.44
240.961	74.44
241.195	73.44
241.429	85.44
241.662	89.44
241.896	69.44
242.13	81.44
242.363	71.44
242.597	85.44
242.83	87.44
243.064	72.44
243.298	67.44
243.531	78.44
243.765	81.44
243.998	67.44
244.232	72.44
244.465	75.44
244.699	79.44
244.932	86.44
245.166	81.44
245.399	73.44
245.633	86.44
245.866	86.44
246.099	76.44
246.333	92.44
246.566	73.44
246.8	79.44
247.033	85.44
247.266	90.44
247.5	90.44
247.733	79.44
247.966	81.44
248.2	84.44
248.433	85.44
248.666	75.44
248.899	80.44
249.133	73.44
249.366	81.44
249.599	76.44
249.832	71.44
250.066	79.44
250.299	82.44
250.532	86.44
250.765	87.44
250.998	88.44
251.231	83.44
251.465	84.44
251.698	77.44
251.931	89.44
252.164	99.44
252.397	82.44
252.63	89.44
252.863	85.44
253.096	81.44
253.329	92.44
253.562	86.44
253.795	82.44
254.028	82.44
254.261	94.44
254.494	80.44
254.727	79.44
254.96	89.44
255.193	85.44
255.426	93.44
255.659	93.44
255.892	82.44
256.124	75.44
256.357	74.44
256.59	81.44
256.823	75.44
257.056	77.44
257.289	91.44
257.521	85.44
257.754	81.44
257.987	97.44
258.22	82.44
258.452	88.44
258.685	84.44
258.918	83.44
259.151	77.44
259.383	83.44
259.616	87.44
259.849	83.44
260.081	84.44
260.314	82.44
260.547	76.44
260.779	93.44
261.012	83.44
261.244	95.44
261.477	88.44
261.71	93.44
261.942	83.44
262.175	91.44
262.407	77.44
262.64	79.44
262.872	72.44
263.105	99.44
263.337	95.44
263.57	98.44
263.802	90.44
264.035	87.44
264.267	70.44
264.499	81.44
264.732	78.44
264.964	91.44
265.197	67.44
265.429	80.44
265.661	79.44
265.894	90.44
266.126	90.44
266.358	102.44
266.591	86.44
266.823	69.44
267.055	96.44
267.287	100.44
267.52	76.44
267.752	86.44
267.984	93.44
268.216	98.44
268.448	89.44
268.681	97.44
268.913	88.44
269.145	85.44
269.377	89.44
269.609	88.44
269.841	89.44
270.073	87.44
270.306	79.44
270.538	85.44
270.77	83.44
271.002	57.44
271.234	85.44
271.466	87.44
271.698	87.44
271.93	78.44
272.162	80.44
272.394	86.44
272.626	83.44
272.858	94.44
273.09	76.44
273.322	81.44
273.553	79.44
273.785	90.44
274.017	105.44
274.249	78.44
274.481	104.44
274.713	96.44
274.945	96.44
275.176	82.44
275.408	91.44
275.64	84.44
275.872	82.44
276.104	98.44
276.335	87.44
276.567	85.44
276.799	76.44
277.031	84.44
277.262	73.44
277.494	91.44
277.726	93.44
277.957	80.44
278.189	87.44
278.421	82.44
278.652	89.44
278.884	88.44
279.115	88.44
279.347	92.44
279.579	88.44
279.81	94.44
280.042	86.44
280.273	80.44
280.505	77.44
280.736	97.44
280.968	100.44
281.199	86.44
281.431	97.44
281.662	87.44
281.894	91.44
282.125	101.44
282.356	82.44
282.588	80.44
282.819	86.44
283.051	85.44
283.282	94.44
283.513	90.44
283.745	89.44
283.976	76.44
284.207	78.44
284.439	98.44
284.67	90.44
284.901	76.44
285.132	91.44
285.364	77.44
285.595	82.44
285.826	72.44
286.057	83.44
286.288	89.44
286.52	83.44
286.751	81.44
286.982	98.44
287.213	82.44
287.444	86.44
287.675	81.44
287.906	88.44
288.138	91.44
288.369	91.44
288.6	99.44
288.831	85.44
289.062	84.44
289.293	91.44
289.524	92.44
289.755	82.44
289.986	80.44
290.217	86.44
290.448	86.44
290.679	85.44
290.91	98.44
291.141	89.44
291.371	93.44
291.602	71.44
291.833	87.44
292.064	83.44
292.295	95.44
292.526	91.44
292.757	87.44
292.987	85.44
293.218	84.44
293.449	85.44
293.68	79.44
293.91	76.44
294.141	102.44
294.372	84.44
294.603	78.44
294.833	104.44
295.064	98.44
295.295	106.44
295.525	88.44
295.756	89.44
295.987	82.44
296.217	85.44
296.448	97.44
296.679	98.44
296.909	99.44
297.14	98.44
297.37	77.44
297.601	93.44
297.831	90.44
298.062	87.44
298.292	74.44
298.523	89.44
298.753	79.44
298.984	87.44
299.214	90.44
299.445	94.44
299.675	84.44
299.905	98.44
300.136	97.44
300.366	89.44
300.597	84.44
300.827	99.44
301.057	89.44
301.288	89.44
301.518	85.44
301.748	90.44
301.979	104.44
302.209	89.44
302.439	80.44
302.669	65.44
302.9	79.44
303.13	95.44
303.36	88.44
303.59	84.44
303.82	90.44
304.051	75.44
304.281	86.44
304.511	87.44
304.741	93.44
304.971	83.44
305.201	85.44
305.431	100.44
305.661	89.44
305.891	84.44
306.121	81.44
306.352	94.44
306.582	98.44
306.812	73.44
307.042	83.44
307.272	77.44
307.502	90.44
307.731	83.44
307.961	91.44
308.191	99.44
308.421	105.44
308.651	99.44
308.881	88.44
309.111	101.44
309.341	97.44
309.571	103.44
309.8	113.44
310.03	78.44
310.26	81.44
310.49	86.44
310.72	89.44
310.949	97.44
311.179	75.44
311.409	75.44
311.639	88.44
311.868	91.44
312.098	90.44
312.328	102.44
312.557	89.44
312.787	84.44
313.017	90.44
313.246	93.44
313.476	79.44
313.706	84.44
313.935	96.44
314.165	98.44
314.394	100.44
314.624	97.44
314.853	74.44
315.083	92.44
315.312	95.44
315.542	92.44
315.771	93.44
316.001	89.44
316.23	93.44
316.46	79.44
316.689	86.44
316.919	95.44
317.148	90.44
317.377	101.44
317.607	97.44
317.836	93.44
318.065	103.44
318.295	103.44
318.524	82.44
318.753	97.44
318.983	84.44
319.212	92.44
319.441	105.44
319.67	75.44
319.9	84.44
320.129	95.44
320.358	89.44
320.587	97.44
320.816	94.44
321.046	89.44
321.275	91.44
321.504	102.44
321.733	86.44
321.962	82.44
322.191	103.44
322.42	89.44
322.649	102.44
322.878	101.44
323.108	111.44
323.337	103.44
323.566	83.44
323.795	83.44
324.024	99.44
324.253	94.44
324.482	88.44
324.71	82.44
324.939	92.44
325.168	93.44
325.397	85.44
325.626	93.44
325.855	85.44
326.084	91.44
326.313	94.44
326.542	81.44
326.77	95.44
326.999	80.44
327.228	96.44
327.457	69.44
327.686	78.44
327.914	79.44
328.143	85.44
328.372	96.44
328.6	101.44
328.829	80.44
329.058	86.44
329.287	85.44
329.515	88.44
329.744	92.44
329.972	92.44
330.201	89.44
330.43	102.44
330.658	78.44
330.887	91.44
331.115	93.44
331.344	79.44
331.572	78.44
331.801	97.44
332.03	97.44
332.258	93.44
332.486	90.44
332.715	86.44
332.943	87.44
333.172	98.44
333.4	103.44
333.629	93.44
333.857	83.44
334.085	94.44
334.314	95.44
334.542	93.44
334.771	100.44
334.999	102.44
335.227	111.44
335.455	99.44
335.684	86.44
335.912	91.44
336.14	108.44
336.369	103.44
336.597	89.44
336.825	97.44
337.053	74.44
337.281	90.44
337.51	79.44
337.738	90.44
337.966	87.44
338.194	93.44
338.422	86.44
338.65	92.44
338.878	80.44
339.106	80.44
339.334	84.44
339.562	106.44
339.79	79.44
340.018	78.44
340.246	82.44
340.474	93.44
340.702	94.44
340.93	87.44
341.158	90.44
341.386	82.44
341.614	87.44
341.842	96.44
342.07	71.44
342.298	90.44
342.526	85.44
342.754	78.44
342.981	75.44
343.209	74.44
343.437	88.44
343.665	85.44
343.893	91.44
344.12	90.44
344.348	95.44
344.576	100.44
344.804	86.44
345.031	82.44
345.259	97.44
345.487	83.44
345.714	93.44
345.942	88.44
346.17	101.44
346.397	85.44
346.625	103.44
346.853	85.44
347.08	99.44
347.308	94.44
347.535	85.44
347.763	85.44
347.99	82.44
348.218	88.44
348.445	91.44
348.673	84.44
348.9	104.44
349.128	99.44
349.355	93.44
349.583	89.44
349.81	93.44
350.037	96.44
350.265	92.44
350.492	78.44
350.72	83.44
350.947	85.44
351.174	73.44
351.402	87.44
351.629	80.44
351.856	84.44
352.083	90.44
352.311	101.44
352.538	83.44
352.765	100.44
352.992	88.44
353.22	87.44
353.447	87.44
353.674	98.44
353.901	82.44
354.128	90.44
354.355	90.44
354.583	85.44
354.81	81.44
355.037	83.44
355.264	76.44
355.491	89.44
355.718	94.44
355.945	71.44
356.172	79.44
356.399	82.44
356.626	90.44
356.853	79.44
357.08	93.44
357.307	82.44
357.534	78.44
357.761	101.44
357.988	96.44
358.215	89.44
358.441	98.44
358.668	100.44
358.895	83.44
359.122	93.44
359.349	77.44
359.576	89.44
359.802	87.44
360.029	85.44
360.256	90.44
360.483	83.44
360.709	91.44
360.936	89.44
361.163	87.44
361.39	87.44
361.616	95.44
361.843	90.44
362.07	105.44
362.296	103.44
362.523	102.44
362.749	106.44
362.976	123.44
363.203	120.44
363.429	114.44
363.656	116.44
363.882	99.44
364.109	121.44
364.335	126.44
364.562	125.44
364.788	77.44
365.015	90.44
365.241	87.44
365.468	92.44
365.694	92.44
365.92	98.44
366.147	89.44
366.373	95.44
366.599	72.44
366.826	97.44
367.052	89.44
367.278	86.44
367.505	87.44
367.731	104.44
367.957	95.44
368.184	86.44
368.41	86.44
368.636	87.44
368.862	97.44
369.089	85.44
369.315	91.44
369.541	83.44
369.767	89.44
369.993	81.44
370.219	89.44
370.445	87.44
370.672	96.44
370.898	102.44
371.124	91.44
371.35	95.44
371.576	88.44
371.802	85.44
372.028	98.44
372.254	106.44
372.48	86.44
372.706	89.44
372.932	89.44
373.158	98.44
373.384	104.44
373.61	115.44
373.835	87.44
374.061	97.44
374.287	99.44
374.513	104.44
374.739	90.44
374.965	97.44
375.191	92.44
375.416	99.44
375.642	99.44
375.868	91.44
376.094	87.44
376.319	99.44
376.545	94.44
376.771	93.44
376.997	88.44
377.222	66.44
377.448	86.44
377.674	89.44
377.899	89.44
378.125	97.44
378.35	97.44
378.576	105.44
378.802	87.44
379.027	98.44
379.253	93.44
379.478	86.44
379.704	94.44
379.929	94.44
380.155	94.44
380.38	92.44
380.606	87.44
380.831	72.44
381.057	91.44
381.282	94.44
381.507	84.44
381.733	98.44
381.958	101.44
382.184	98.44
382.409	102.44
382.634	105.44
382.86	98.44
383.085	93.44
383.31	89.44
383.535	102.44
383.761	99.44
383.986	106.44
384.211	87.44
384.436	89.44
384.662	92.44
384.887	98.44
385.112	94.44
385.337	94.44
385.562	104.44
385.787	104.44
386.013	95.44
386.238	93.44
386.463	86.44
386.688	105.44
386.913	79.44
387.138	106.44
387.363	104.44
387.588	89.44
387.813	100.44
388.038	103.44
388.263	94.44
388.488	88.44
388.713	109.44
388.938	101.44
389.163	98.44
389.387	86.44
389.612	90.44
389.837	92.44
390.062	97.44
390.287	84.44
390.512	86.44
390.736	91.44
390.961	84.44
391.186	97.44
391.411	90.44
391.636	101.44
391.86	100.44
392.085	97.44
392.31	99.44
392.534	103.44
392.759	129.44
392.984	148.44
393.208	252.44
393.433	364.44
393.658	271.44
393.882	139.44
394.107	118.44
394.331	115.44
394.556	111.44
394.78	112.44
395.005	99.44
395.229	89.44
395.454	114.44
395.678	121.44
395.903	123.44
396.127	152.44
396.352	163.44
396.576	170.44
396.801	241.44
397.025	278.44
397.249	163.44
397.474	124.44
397.698	103.44
397.922	94.44
398.147	88.44
398.371	104.44
398.595	80.44
398.82	86.44
399.044	73.44
399.268	90.44
399.492	97.44
399.717	101.44
399.941	90.44
400.165	76.44
400.389	101.44
400.613	85.44
400.837	91.44
401.062	90.44
401.286	95.44
401.51	86.44
401.734	77.44
401.958	95.44
402.182	85.44
402.406	87.44
402.63	87.44
402.854	88.44
403.078	90.44
403.302	95.44
403.526	94.44
403.75	85.44
403.974	87.44
404.198	88.44
404.422	97.44
404.645	102.44
404.869	91.44
405.093	86.44
405.317	83.44
405.541	86.44
405.765	97.44
405.988	89.44
406.212	80.44
406.436	94.44
406.66	91.44
406.883	82.44
407.107	81.44
407.331	92.44
407.555	103.44
407.778	125.44
408.002	136.44
408.226	120.44
408.449	92.44
408.673	93.44
408.896	88.44
409.12	90.44
409.344	106.44
409.567	97.44
409.791	95.44
410.014	101.44
410.238	108.44
410.461	94.44
410.685	82.44
410.908	89.44
411.132	104.44
411.355	107.44
411.578	89.44
411.802	81.44
412.025	100.44
412.249	93.44
412.472	83.44
412.695	104.44
412.919	97.44
413.142	91.44
413.365	83.44
413.589	83.44
413.812	98.44
414.035	96.44
414.258	105.44
414.482	103.44
414.705	89.44
414.928	87.44
415.151	104.44
415.374	92.44
415.597	68.44
415.821	93.44
416.044	80.44
416.267	88.44
416.49	100.44
416.713	78.44
416.936	89.44
417.159	87.44
417.382	91.44
417.605	91.44
417.828	98.44
418.051	93.44
418.274	92.44
418.497	91.44
418.72	95.44
418.943	99.44
419.166	95.44
419.389	86.44
419.611	84.44
419.834	115.44
420.057	83.44
420.28	88.44
420.503	95.44
420.726	89.44
420.948	91.44
421.171	95.44
421.394	107.44
421.617	122.44
421.839	124.44
422.062	141.44
422.285	171.44
422.507	311.44
422.73	488.44
422.953	437.44
423.175	222.44
423.398	121.44
423.621	127.44
423.843	119.44
424.066	109.44
424.288	107.44
424.511	82.44
424.733	88.44
424.956	98.44
425.178	106.44
425.401	92.44
425.623	90.44
425.846	87.44
426.068	90.44
426.291	91.44
426.513	100.44
426.735	90.44
426.958	88.44
427.18	107.44
427.402	95.44
427.625	92.44
427.847	88.44
428.069	105.44
428.292	139.44
428.514	141.44
428.736	115.44
428.958	141.44
429.181	153.44
429.403	97.44
429.625	92.44
429.847	117.44
430.069	165.44
430.292	183.44
430.514	190.44
430.736	152.44
430.958	157.44
431.18	111.44
431.402	100.44
431.624	108.44
431.846	124.44
432.068	147.44
432.29	109.44
432.512	87.44
432.734	85.44
432.956	80.44
433.178	96.44
433.4	92.44
433.622	83.44
433.844	89.44
434.066	77.44
434.287	67.44
434.509	96.44
434.731	80.44
434.953	101.44
435.175	86.44
435.397	102.44
435.618	115.44
435.84	95.44
436.062	86.44
436.284	76.44
436.505	77.44
436.727	83.44
436.949	90.44
437.17	92.44
437.392	87.44
437.614	89.44
437.835	85.44
438.057	103.44
438.278	90.44
438.5	87.44
438.721	91.44
438.943	98.44
439.165	85.44
439.386	90.44
439.608	88.44
439.829	82.44
440.05	103.44
440.272	86.44
440.493	96.44
440.715	88.44
440.936	92.44
441.158	80.44
441.379	98.44
441.6	88.44
441.822	76.44
442.043	100.44
442.264	110.44
442.486	127.44
442.707	172.44
442.928	137.44
443.149	118.44
443.371	164.44
443.592	256.44
443.813	241.44
444.034	103.44
444.255	95.44
444.476	85.44
444.698	86.44
444.919	121.44
445.14	203.44
445.361	189.44
445.582	318.44
445.803	269.44
446.024	115.44
446.245	91.44
446.466	94.44
446.687	93.44
446.908	87.44
447.129	85.44
447.35	93.44
447.571	99.44
447.792	89.44
448.013	97.44
448.234	87.44
448.455	83.44
448.675	89.44
448.896	92.44
449.117	84.44
449.338	99.44
449.559	94.44
449.779	78.44
450	86.44
450.221	97.44
450.442	83.44
450.662	92.44
450.883	91.44
451.104	92.44
451.324	86.44
451.545	95.44
451.766	95.44
451.986	95.44
452.207	91.44
452.428	86.44
452.648	97.44
452.869	89.44
453.089	104.44
453.31	92.44
453.53	93.44
453.751	97.44
453.971	103.44
454.192	103.44
454.412	82.44
454.633	91.44
454.853	97.44
455.073	78.44
455.294	90.44
455.514	89.44
455.734	83.44
455.955	91.44
456.175	97.44
456.395	88.44
456.616	89.44
456.836	94.44
457.056	82.44
457.276	93.44
457.497	84.44
457.717	87.44
457.937	99.44
458.157	110.44
458.377	134.44
458.598	126.44
458.818	140.44
459.038	114.44
459.258	78.44
459.478	78.44
459.698	89.44
459.918	70.44
460.138	94.44
460.358	90.44
460.578	106.44
460.798	145.44
461.018	152.44
461.238	110.44
461.458	88.44
461.678	101.44
461.898	102.44
462.118	91.44
462.338	85.44
462.558	81.44
462.777	87.44
462.997	80.44
463.217	91.44
463.437	82.44
463.657	73.44
463.876	83.44
464.096	83.44
464.316	81.44
464.536	94.44
464.755	98.44
464.975	92.44
465.195	97.44
465.414	81.44
465.634	87.44
465.854	87.44
466.073	84.44
466.293	90.44
466.512	89.44
466.732	77.44
466.951	98.44
467.171	87.44
467.391	86.44
467.61	68.44
467.829	93.44
468.049	94.44
468.268	91.44
468.488	99.44
468.707	88.44
468.927	85.44
469.146	87.44
469.365	93.44
469.585	87.44
469.804	100.44
470.023	86.44
470.243	87.44
470.462	84.44
470.681	97.44
470.901	93.44
471.12	75.44
471.339	79.44
471.558	86.44
471.777	77.44
471.997	84.44
472.216	83.44
472.435	99.44
472.654	88.44
472.873	85.44
473.092	98.44
473.311	85.44
473.53	85.44
473.749	83.44
473.968	100.44
474.187	97.44
474.406	101.44
474.625	88.44
474.844	73.44
475.063	74.44
475.282	77.44
475.501	100.44
475.72	93.44
475.939	92.44
476.158	94.44
476.377	95.44
476.596	78.44
476.814	109.44
477.033	95.44
477.252	101.44
477.471	77.44
477.69	82.44
477.908	87.44
478.127	90.44
478.346	91.44
478.564	98.44
478.783	77.44
479.002	97.44
479.22	100.44
479.439	95.44
479.658	93.44
479.876	95.44
480.095	83.44
480.313	99.44
480.532	102.44
480.751	84.44
480.969	85.44
481.188	78.44
481.406	93.44
481.624	103.44
481.843	89.44
482.061	85.44
482.28	96.44
482.498	87.44
482.717	94.44
482.935	85.44
483.153	91.44
483.372	107.44
483.59	92.44
483.808	97.44
484.027	95.44
484.245	101.44
484.463	81.44
484.681	91.44
484.9	89.44
485.118	95.44
485.336	90.44
485.554	93.44
485.772	93.44
485.99	93.44
486.209	90.44
486.427	92.44
486.645	82.44
486.863	92.44
487.081	93.44
487.299	84.44
487.517	129.44
487.735	120.44
487.953	174.44
488.171	142.44
488.389	99.44
488.607	98.44
488.825	92.44
489.043	94.44
489.261	103.44
489.479	98.44
489.696	92.44
489.914	88.44
490.132	85.44
490.35	89.44
490.568	95.44
490.786	96.44
491.003	87.44
491.221	97.44
491.439	89.44
491.657	86.44
491.874	87.44
492.092	88.44
492.31	94.44
492.527	88.44
492.745	92.44
492.963	88.44
493.18	98.44
493.398	86.44
493.615	82.44
493.833	80.44
494.05	82.44
494.268	87.44
494.485	84.44
494.703	109.44
494.92	85.44
495.138	98.44
495.355	95.44
495.573	94.44
495.79	80.44
496.008	95.44
496.225	89.44
496.442	100.44
496.66	113.44
496.877	96.44
497.094	99.44
497.312	76.44
497.529	79.44
497.746	82.44
497.963	102.44
498.181	100.44
498.398	99.44
498.615	92.44
498.832	79.44
499.049	94.44
499.267	96.44
499.484	91.44
499.701	97.44
499.918	94.44
500.135	93.44
500.352	92.44
500.569	69.44
500.786	85.44
501.003	104.44
501.22	89.44
501.437	92.44
501.654	107.44
501.871	83.44
502.088	85.44
502.305	98.44
502.522	86.44
502.739	93.44
502.956	107.44
503.172	86.44
503.389	110.44
503.606	97.44
503.823	91.44
504.04	113.44
504.256	124.44
504.473	141.44
504.69	87.44
504.907	99.44
505.123	101.44
505.34	91.44
505.557	106.44
505.773	90.44
505.99	93.44
506.207	94.44
506.423	79.44
506.64	103.44
506.856	92.44
507.073	92.44
507.289	97.44
507.506	97.44
507.722	84.44
507.939	77.44
508.155	87.44
508.372	87.44
508.588	91.44
508.805	82.44
509.021	88.44
509.238	93.44
509.454	89.44
509.67	97.44
509.887	87.44
510.103	101.44
510.319	94.44
510.536	95.44
510.752	86.44
510.968	94.44
511.184	106.44
511.401	94.44
511.617	87.44
511.833	84.44
512.049	103.44
512.265	83.44
512.481	73.44
512.698	103.44
512.914	104.44
513.13	89.44
513.346	105.44
513.562	94.44
513.778	85.44
513.994	93.44
514.21	91.44
514.426	86.44
514.642	96.44
514.858	100.44
515.074	115.44
515.29	116.44
515.506	93.44
515.721	86.44
515.937	92.44
516.153	106.44
516.369	105.44
516.585	88.44
516.801	77.44
517.016	97.44
