Data from 17600_2_HRD10591_00034.txt Node
Date: Mon Jan 19 14:08:39 EST 2026
User: Yrep
Spectrometer: HR+D1059
Trigger mode: 1
Integration Time (sec): 1.000000E-1
Scans to average: 1
Electric dark correction enabled: true
Nonlinearity correction enabled: false
Boxcar width: 0
XAxis mode: Wavelengths
Number of Pixels in Spectrum: 2048
>>>>>Begin Spectral Data<<<<<
223.165	-20.75
223.4	-20.75
223.635	-20.75
223.869	-25.75
224.104	-13.75
224.338	-9.75
224.573	-25.75
224.808	-11.75
225.042	-2.75
225.277	-1.75
225.511	-2.75
225.746	-5.75
225.98	2.25
226.215	1.25
226.449	19.25
226.683	30.25
226.918	31.25
227.152	36.25
227.387	33.25
227.621	35.25
227.856	59.25
228.09	58.25
228.324	58.25
228.559	72.25
228.793	66.25
229.027	76.25
229.262	72.25
229.496	63.25
229.73	75.25
229.964	76.25
230.199	75.25
230.433	80.25
230.667	77.25
230.901	68.25
231.136	89.25
231.37	83.25
231.604	67.25
231.838	75.25
232.072	88.25
232.306	86.25
232.541	82.25
232.775	88.25
233.009	94.25
233.243	98.25
233.477	79.25
233.711	83.25
233.945	86.25
234.179	80.25
234.413	80.25
234.647	85.25
234.881	65.25
235.115	85.25
235.349	83.25
235.583	67.25
235.817	71.25
236.051	82.25
236.285	87.25
236.519	81.25
236.753	65.25
236.987	90.25
237.221	66.25
237.455	81.25
237.689	78.25
237.922	82.25
238.156	80.25
238.39	81.25
238.624	68.25
238.858	93.25
239.091	75.25
239.325	77.25
239.559	82.25
239.793	77.25
240.027	79.25
240.26	81.25
240.494	73.25
240.728	67.25
240.961	86.25
241.195	62.25
241.429	79.25
241.662	72.25
241.896	78.25
242.13	83.25
242.363	79.25
242.597	67.25
242.83	79.25
243.064	73.25
243.298	78.25
243.531	82.25
243.765	71.25
243.998	75.25
244.232	79.25
244.465	79.25
244.699	76.25
244.932	94.25
245.166	82.25
245.399	94.25
245.633	82.25
245.866	68.25
246.099	69.25
246.333	85.25
246.566	76.25
246.8	69.25
247.033	82.25
247.266	72.25
247.5	69.25
247.733	76.25
247.966	75.25
248.2	76.25
248.433	79.25
248.666	77.25
248.899	104.25
249.133	82.25
249.366	78.25
249.599	79.25
249.832	67.25
250.066	85.25
250.299	74.25
250.532	82.25
250.765	75.25
250.998	87.25
251.231	75.25
251.465	73.25
251.698	80.25
251.931	83.25
252.164	79.25
252.397	71.25
252.63	95.25
252.863	83.25
253.096	81.25
253.329	69.25
253.562	82.25
253.795	66.25
254.028	64.25
254.261	66.25
254.494	88.25
254.727	80.25
254.96	88.25
255.193	74.25
255.426	71.25
255.659	76.25
255.892	93.25
256.124	86.25
256.357	72.25
256.59	84.25
256.823	70.25
257.056	62.25
257.289	79.25
257.521	78.25
257.754	72.25
257.987	81.25
258.22	72.25
258.452	80.25
258.685	82.25
258.918	81.25
259.151	70.25
259.383	74.25
259.616	80.25
259.849	76.25
260.081	82.25
260.314	77.25
260.547	78.25
260.779	74.25
261.012	85.25
261.244	71.25
261.477	85.25
261.71	80.25
261.942	80.25
262.175	88.25
262.407	69.25
262.64	82.25
262.872	102.25
263.105	86.25
263.337	80.25
263.57	71.25
263.802	81.25
264.035	86.25
264.267	96.25
264.499	75.25
264.732	80.25
264.964	82.25
265.197	83.25
265.429	83.25
265.661	80.25
265.894	103.25
266.126	84.25
266.358	81.25
266.591	79.25
266.823	74.25
267.055	80.25
267.287	91.25
267.52	86.25
267.752	80.25
267.984	88.25
268.216	98.25
268.448	81.25
268.681	86.25
268.913	98.25
269.145	91.25
269.377	80.25
269.609	74.25
269.841	82.25
270.073	90.25
270.306	87.25
270.538	88.25
270.77	82.25
271.002	78.25
271.234	83.25
271.466	66.25
271.698	75.25
271.93	76.25
272.162	80.25
272.394	81.25
272.626	84.25
272.858	85.25
273.09	88.25
273.322	79.25
273.553	78.25
273.785	73.25
274.017	76.25
274.249	88.25
274.481	91.25
274.713	83.25
274.945	96.25
275.176	80.25
275.408	82.25
275.64	92.25
275.872	91.25
276.104	79.25
276.335	90.25
276.567	81.25
276.799	75.25
277.031	84.25
277.262	92.25
277.494	89.25
277.726	88.25
277.957	84.25
278.189	92.25
278.421	88.25
278.652	94.25
278.884	80.25
279.115	77.25
279.347	75.25
279.579	82.25
279.81	75.25
280.042	82.25
280.273	77.25
280.505	88.25
280.736	84.25
280.968	91.25
281.199	89.25
281.431	69.25
281.662	93.25
281.894	79.25
282.125	74.25
282.356	99.25
282.588	84.25
282.819	95.25
283.051	82.25
283.282	82.25
283.513	84.25
283.745	83.25
283.976	77.25
284.207	83.25
284.439	82.25
284.67	78.25
284.901	88.25
285.132	84.25
285.364	96.25
285.595	93.25
285.826	63.25
286.057	83.25
286.288	72.25
286.52	76.25
286.751	76.25
286.982	81.25
287.213	93.25
287.444	70.25
287.675	83.25
287.906	74.25
288.138	74.25
288.369	78.25
288.6	79.25
288.831	79.25
289.062	102.25
289.293	76.25
289.524	71.25
289.755	82.25
289.986	72.25
290.217	96.25
290.448	91.25
290.679	83.25
290.91	86.25
291.141	90.25
291.371	85.25
291.602	86.25
291.833	88.25
292.064	89.25
292.295	82.25
292.526	83.25
292.757	84.25
292.987	97.25
293.218	75.25
293.449	74.25
293.68	88.25
293.91	89.25
294.141	86.25
294.372	87.25
294.603	80.25
294.833	80.25
295.064	87.25
295.295	87.25
295.525	79.25
295.756	79.25
295.987	82.25
296.217	82.25
296.448	98.25
296.679	92.25
296.909	81.25
297.14	94.25
297.37	90.25
297.601	90.25
297.831	89.25
298.062	77.25
298.292	70.25
298.523	87.25
298.753	85.25
298.984	92.25
299.214	91.25
299.445	74.25
299.675	79.25
299.905	99.25
300.136	88.25
300.366	84.25
300.597	80.25
300.827	87.25
301.057	89.25
301.288	77.25
301.518	89.25
301.748	88.25
301.979	107.25
302.209	91.25
302.439	81.25
302.669	76.25
302.9	72.25
303.13	92.25
303.36	82.25
303.59	78.25
303.82	91.25
304.051	107.25
304.281	88.25
304.511	77.25
304.741	75.25
304.971	84.25
305.201	81.25
305.431	77.25
305.661	73.25
305.891	85.25
306.121	89.25
306.352	86.25
306.582	86.25
306.812	84.25
307.042	82.25
307.272	82.25
307.502	75.25
307.731	91.25
307.961	82.25
308.191	92.25
308.421	86.25
308.651	81.25
308.881	92.25
309.111	76.25
309.341	77.25
309.571	70.25
309.8	80.25
310.03	80.25
310.26	81.25
310.49	80.25
310.72	82.25
310.949	83.25
311.179	82.25
311.409	87.25
311.639	79.25
311.868	103.25
312.098	75.25
312.328	76.25
312.557	86.25
312.787	70.25
313.017	92.25
313.246	99.25
313.476	86.25
313.706	80.25
313.935	110.25
314.165	85.25
314.394	98.25
314.624	99.25
314.853	89.25
315.083	88.25
315.312	90.25
315.542	86.25
315.771	82.25
316.001	88.25
316.23	84.25
316.46	88.25
316.689	83.25
316.919	76.25
317.148	97.25
317.377	98.25
317.607	72.25
317.836	82.25
318.065	82.25
318.295	79.25
318.524	84.25
318.753	88.25
318.983	86.25
319.212	90.25
319.441	71.25
319.67	91.25
319.9	65.25
320.129	102.25
320.358	72.25
320.587	93.25
320.816	85.25
321.046	84.25
321.275	86.25
321.504	66.25
321.733	96.25
321.962	78.25
322.191	92.25
322.42	86.25
322.649	89.25
322.878	83.25
323.108	81.25
323.337	92.25
323.566	81.25
323.795	84.25
324.024	90.25
324.253	91.25
324.482	82.25
324.71	96.25
324.939	91.25
325.168	81.25
325.397	82.25
325.626	90.25
325.855	75.25
326.084	80.25
326.313	83.25
326.542	91.25
326.77	87.25
326.999	84.25
327.228	80.25
327.457	83.25
327.686	86.25
327.914	82.25
328.143	87.25
328.372	70.25
328.6	95.25
328.829	90.25
329.058	77.25
329.287	101.25
329.515	88.25
329.744	92.25
329.972	91.25
330.201	96.25
330.43	88.25
330.658	84.25
330.887	84.25
331.115	67.25
331.344	85.25
331.572	86.25
331.801	77.25
332.03	75.25
332.258	77.25
332.486	73.25
332.715	102.25
332.943	78.25
333.172	86.25
333.4	89.25
333.629	90.25
333.857	80.25
334.085	94.25
334.314	93.25
334.542	81.25
334.771	90.25
334.999	82.25
335.227	72.25
335.455	83.25
335.684	96.25
335.912	80.25
336.14	80.25
336.369	85.25
336.597	89.25
336.825	83.25
337.053	80.25
337.281	92.25
337.51	79.25
337.738	89.25
337.966	92.25
338.194	88.25
338.422	94.25
338.65	90.25
338.878	79.25
339.106	91.25
339.334	90.25
339.562	85.25
339.79	89.25
340.018	70.25
340.246	91.25
340.474	79.25
340.702	74.25
340.93	83.25
341.158	80.25
341.386	88.25
341.614	92.25
341.842	87.25
342.07	99.25
342.298	90.25
342.526	88.25
342.754	85.25
342.981	82.25
343.209	75.25
343.437	94.25
343.665	82.25
343.893	91.25
344.12	91.25
344.348	97.25
344.576	76.25
344.804	87.25
345.031	88.25
345.259	86.25
345.487	85.25
345.714	91.25
345.942	79.25
346.17	92.25
346.397	78.25
346.625	80.25
346.853	89.25
347.08	92.25
347.308	92.25
347.535	79.25
347.763	94.25
347.99	74.25
348.218	76.25
348.445	85.25
348.673	91.25
348.9	94.25
349.128	76.25
349.355	69.25
349.583	73.25
349.81	70.25
350.037	77.25
350.265	84.25
350.492	83.25
350.72	72.25
350.947	82.25
351.174	84.25
351.402	86.25
351.629	77.25
351.856	85.25
352.083	99.25
352.311	96.25
352.538	79.25
352.765	85.25
352.992	86.25
353.22	86.25
353.447	77.25
353.674	94.25
353.901	92.25
354.128	90.25
354.355	71.25
354.583	82.25
354.81	74.25
355.037	70.25
355.264	84.25
355.491	88.25
355.718	75.25
355.945	82.25
356.172	88.25
356.399	79.25
356.626	81.25
356.853	78.25
357.08	95.25
357.307	88.25
357.534	88.25
357.761	84.25
357.988	98.25
358.215	82.25
358.441	88.25
358.668	101.25
358.895	78.25
359.122	75.25
359.349	91.25
359.576	91.25
359.802	87.25
360.029	78.25
360.256	87.25
360.483	94.25
360.709	74.25
360.936	79.25
361.163	75.25
361.39	101.25
361.616	86.25
361.843	75.25
362.07	81.25
362.296	81.25
362.523	80.25
362.749	104.25
362.976	92.25
363.203	105.25
363.429	74.25
363.656	93.25
363.882	82.25
364.109	88.25
364.335	90.25
364.562	99.25
364.788	80.25
365.015	84.25
365.241	78.25
365.468	90.25
365.694	83.25
365.92	90.25
366.147	90.25
366.373	75.25
366.599	80.25
366.826	78.25
367.052	87.25
367.278	88.25
367.505	94.25
367.731	91.25
367.957	101.25
368.184	90.25
368.41	96.25
368.636	82.25
368.862	75.25
369.089	88.25
369.315	87.25
369.541	91.25
369.767	98.25
369.993	76.25
370.219	78.25
370.445	84.25
370.672	92.25
370.898	99.25
371.124	82.25
371.35	91.25
371.576	73.25
371.802	84.25
372.028	91.25
372.254	96.25
372.48	96.25
372.706	78.25
372.932	75.25
373.158	88.25
373.384	90.25
373.61	81.25
373.835	86.25
374.061	93.25
374.287	97.25
374.513	85.25
374.739	91.25
374.965	95.25
375.191	87.25
375.416	73.25
375.642	89.25
375.868	84.25
376.094	78.25
376.319	86.25
376.545	77.25
376.771	86.25
376.997	95.25
377.222	74.25
377.448	91.25
377.674	91.25
377.899	83.25
378.125	91.25
378.35	88.25
378.576	89.25
378.802	82.25
379.027	75.25
379.253	79.25
379.478	91.25
379.704	87.25
379.929	82.25
380.155	81.25
380.38	90.25
380.606	84.25
380.831	89.25
381.057	93.25
381.282	97.25
381.507	84.25
381.733	73.25
381.958	96.25
382.184	85.25
382.409	79.25
382.634	83.25
382.86	75.25
383.085	77.25
383.31	80.25
383.535	83.25
383.761	73.25
383.986	83.25
384.211	88.25
384.436	88.25
384.662	92.25
384.887	74.25
385.112	75.25
385.337	77.25
385.562	96.25
385.787	85.25
386.013	83.25
386.238	89.25
386.463	89.25
386.688	95.25
386.913	86.25
387.138	79.25
387.363	71.25
387.588	96.25
387.813	99.25
388.038	89.25
388.263	90.25
388.488	75.25
388.713	103.25
388.938	98.25
389.163	114.25
389.387	83.25
389.612	86.25
389.837	66.25
390.062	74.25
390.287	77.25
390.512	81.25
390.736	89.25
390.961	89.25
391.186	88.25
391.411	84.25
391.636	94.25
391.86	68.25
392.085	76.25
392.31	86.25
392.534	87.25
392.759	86.25
392.984	95.25
393.208	105.25
393.433	132.25
393.658	117.25
393.882	91.25
394.107	94.25
394.331	91.25
394.556	97.25
394.78	88.25
395.005	89.25
395.229	79.25
395.454	95.25
395.678	83.25
395.903	85.25
396.127	92.25
396.352	86.25
396.576	98.25
396.801	131.25
397.025	119.25
397.249	99.25
397.474	102.25
397.698	94.25
397.922	70.25
398.147	74.25
398.371	77.25
398.595	85.25
398.82	95.25
399.044	96.25
399.268	84.25
399.492	82.25
399.717	72.25
399.941	77.25
400.165	82.25
400.389	82.25
400.613	72.25
400.837	76.25
401.062	92.25
401.286	92.25
401.51	90.25
401.734	85.25
401.958	82.25
402.182	76.25
402.406	79.25
402.63	85.25
402.854	78.25
403.078	79.25
403.302	92.25
403.526	99.25
403.75	89.25
403.974	89.25
404.198	81.25
404.422	89.25
404.645	100.25
404.869	98.25
405.093	86.25
405.317	89.25
405.541	89.25
405.765	73.25
405.988	75.25
406.212	84.25
406.436	77.25
406.66	82.25
406.883	88.25
407.107	90.25
407.331	83.25
407.555	94.25
407.778	94.25
408.002	97.25
408.226	86.25
408.449	91.25
408.673	80.25
408.896	100.25
409.12	83.25
409.344	86.25
409.567	89.25
409.791	83.25
410.014	72.25
410.238	77.25
410.461	79.25
410.685	72.25
410.908	75.25
411.132	79.25
411.355	86.25
411.578	71.25
411.802	82.25
412.025	75.25
412.249	84.25
412.472	92.25
412.695	79.25
412.919	82.25
413.142	75.25
413.365	86.25
413.589	77.25
413.812	89.25
414.035	91.25
414.258	92.25
414.482	89.25
414.705	88.25
414.928	79.25
415.151	70.25
415.374	86.25
415.597	81.25
415.821	79.25
416.044	78.25
416.267	81.25
416.49	82.25
416.713	88.25
416.936	73.25
417.159	89.25
417.382	68.25
417.605	73.25
417.828	78.25
418.051	82.25
418.274	83.25
418.497	85.25
418.72	85.25
418.943	66.25
419.166	75.25
419.389	95.25
419.611	82.25
419.834	86.25
420.057	101.25
420.28	74.25
420.503	97.25
420.726	78.25
420.948	97.25
421.171	77.25
421.394	80.25
421.617	83.25
421.839	79.25
422.062	91.25
422.285	91.25
422.507	106.25
422.73	134.25
422.953	126.25
423.175	94.25
423.398	87.25
423.621	86.25
423.843	80.25
424.066	90.25
424.288	104.25
424.511	76.25
424.733	88.25
424.956	84.25
425.178	84.25
425.401	88.25
425.623	59.25
425.846	70.25
426.068	90.25
426.291	78.25
426.513	71.25
426.735	90.25
426.958	96.25
427.18	93.25
427.402	91.25
427.625	77.25
427.847	87.25
428.069	94.25
428.292	77.25
428.514	94.25
428.736	92.25
428.958	76.25
429.181	77.25
429.403	86.25
429.625	80.25
429.847	102.25
430.069	90.25
430.292	107.25
430.514	88.25
430.736	103.25
430.958	79.25
431.18	82.25
431.402	82.25
431.624	82.25
431.846	87.25
432.068	94.25
432.29	83.25
432.512	86.25
432.734	80.25
432.956	70.25
433.178	91.25
433.4	78.25
433.622	85.25
433.844	82.25
434.066	86.25
434.287	79.25
434.509	86.25
434.731	83.25
434.953	96.25
435.175	94.25
435.397	89.25
435.618	88.25
435.84	77.25
436.062	75.25
436.284	87.25
436.505	81.25
436.727	83.25
436.949	101.25
437.17	84.25
437.392	70.25
437.614	77.25
437.835	83.25
438.057	90.25
438.278	89.25
438.5	90.25
438.721	93.25
438.943	84.25
439.165	75.25
439.386	82.25
439.608	82.25
439.829	64.25
440.05	76.25
440.272	75.25
440.493	71.25
440.715	84.25
440.936	83.25
441.158	72.25
441.379	80.25
441.6	91.25
441.822	76.25
442.043	90.25
442.264	73.25
442.486	105.25
442.707	91.25
442.928	82.25
443.149	89.25
443.371	98.25
443.592	110.25
443.813	98.25
444.034	95.25
444.255	86.25
444.476	88.25
444.698	78.25
444.919	80.25
445.14	120.25
445.361	119.25
445.582	105.25
445.803	95.25
446.024	92.25
446.245	87.25
446.466	80.25
446.687	85.25
446.908	86.25
447.129	63.25
447.35	88.25
447.571	68.25
447.792	82.25
448.013	84.25
448.234	86.25
448.455	90.25
448.675	76.25
448.896	101.25
449.117	74.25
449.338	75.25
449.559	87.25
449.779	82.25
450	78.25
450.221	96.25
450.442	96.25
450.662	80.25
450.883	72.25
451.104	67.25
451.324	91.25
451.545	78.25
451.766	82.25
451.986	92.25
452.207	79.25
452.428	78.25
452.648	68.25
452.869	86.25
453.089	82.25
453.31	74.25
453.53	70.25
453.751	98.25
453.971	84.25
454.192	82.25
454.412	101.25
454.633	85.25
454.853	86.25
455.073	83.25
455.294	91.25
455.514	75.25
455.734	80.25
455.955	86.25
456.175	69.25
456.395	83.25
456.616	77.25
456.836	76.25
457.056	81.25
457.276	77.25
457.497	79.25
457.717	91.25
457.937	95.25
458.157	84.25
458.377	90.25
458.598	88.25
458.818	100.25
459.038	84.25
459.258	88.25
459.478	77.25
459.698	78.25
459.918	84.25
460.138	86.25
460.358	86.25
460.578	86.25
460.798	100.25
461.018	94.25
461.238	82.25
461.458	82.25
461.678	92.25
461.898	91.25
462.118	80.25
462.338	88.25
462.558	104.25
462.777	67.25
462.997	85.25
463.217	90.25
463.437	82.25
463.657	76.25
463.876	90.25
464.096	69.25
464.316	79.25
464.536	76.25
464.755	75.25
464.975	91.25
465.195	80.25
465.414	99.25
465.634	98.25
465.854	80.25
466.073	83.25
466.293	83.25
466.512	87.25
466.732	76.25
466.951	83.25
467.171	87.25
467.391	64.25
467.61	73.25
467.829	87.25
468.049	90.25
468.268	69.25
468.488	76.25
468.707	77.25
468.927	88.25
469.146	88.25
469.365	103.25
469.585	84.25
469.804	71.25
470.023	75.25
470.243	77.25
470.462	70.25
470.681	86.25
470.901	87.25
471.12	88.25
471.339	91.25
471.558	81.25
471.777	80.25
471.997	94.25
472.216	79.25
472.435	98.25
472.654	84.25
472.873	70.25
473.092	75.25
473.311	84.25
473.53	89.25
473.749	94.25
473.968	92.25
474.187	89.25
474.406	73.25
474.625	100.25
474.844	88.25
475.063	74.25
475.282	72.25
475.501	67.25
475.72	86.25
475.939	93.25
476.158	103.25
476.377	93.25
476.596	74.25
476.814	75.25
477.033	79.25
477.252	72.25
477.471	97.25
477.69	78.25
477.908	96.25
478.127	87.25
478.346	86.25
478.564	84.25
478.783	82.25
479.002	99.25
479.22	76.25
479.439	73.25
479.658	96.25
479.876	76.25
480.095	85.25
480.313	90.25
480.532	77.25
480.751	83.25
480.969	74.25
481.188	94.25
481.406	75.25
481.624	76.25
481.843	89.25
482.061	68.25
482.28	94.25
482.498	82.25
482.717	82.25
482.935	79.25
483.153	72.25
483.372	87.25
483.59	70.25
483.808	76.25
484.027	84.25
484.245	84.25
484.463	88.25
484.681	89.25
484.9	84.25
485.118	82.25
485.336	81.25
485.554	93.25
485.772	73.25
485.99	76.25
486.209	72.25
486.427	79.25
486.645	84.25
486.863	77.25
487.081	79.25
487.299	70.25
487.517	92.25
487.735	91.25
487.953	106.25
488.171	85.25
488.389	90.25
488.607	82.25
488.825	74.25
489.043	78.25
489.261	95.25
489.479	76.25
489.696	90.25
489.914	81.25
490.132	80.25
490.35	90.25
490.568	91.25
490.786	78.25
491.003	73.25
491.221	70.25
491.439	94.25
491.657	71.25
491.874	90.25
492.092	91.25
492.31	86.25
492.527	77.25
492.745	95.25
492.963	85.25
493.18	94.25
493.398	88.25
493.615	94.25
493.833	74.25
494.05	84.25
494.268	84.25
494.485	80.25
494.703	71.25
494.92	76.25
495.138	88.25
495.355	82.25
495.573	85.25
495.79	88.25
496.008	88.25
496.225	83.25
496.442	92.25
496.66	90.25
496.877	82.25
497.094	97.25
497.312	88.25
497.529	98.25
497.746	80.25
497.963	79.25
498.181	93.25
498.398	83.25
498.615	79.25
498.832	76.25
499.049	90.25
499.267	90.25
499.484	94.25
499.701	84.25
499.918	95.25
500.135	82.25
500.352	88.25
500.569	93.25
500.786	88.25
501.003	80.25
501.22	80.25
501.437	81.25
501.654	91.25
501.871	80.25
502.088	79.25
502.305	89.25
502.522	88.25
502.739	91.25
502.956	90.25
503.172	76.25
503.389	90.25
503.606	70.25
503.823	88.25
504.04	101.25
504.256	102.25
504.473	97.25
504.69	73.25
504.907	83.25
505.123	86.25
505.34	86.25
505.557	86.25
505.773	75.25
505.99	87.25
506.207	84.25
506.423	74.25
506.64	88.25
506.856	74.25
507.073	93.25
507.289	67.25
507.506	72.25
507.722	81.25
507.939	91.25
508.155	89.25
508.372	73.25
508.588	88.25
508.805	97.25
509.021	84.25
509.238	79.25
509.454	74.25
509.67	101.25
509.887	74.25
510.103	85.25
510.319	94.25
510.536	84.25
510.752	85.25
510.968	87.25
511.184	80.25
511.401	86.25
511.617	90.25
511.833	88.25
512.049	71.25
512.265	80.25
512.481	89.25
512.698	85.25
512.914	76.25
513.13	87.25
513.346	91.25
513.562	86.25
513.778	85.25
513.994	86.25
514.21	81.25
514.426	86.25
514.642	81.25
514.858	80.25
515.074	78.25
515.29	102.25
515.506	91.25
515.721	91.25
515.937	95.25
516.153	87.25
516.369	106.25
516.585	84.25
516.801	88.25
517.016	84.25
517.232	78.25
517.448	89.25
517.664	88.25
517.879	83.25
518.095	82.25
518.311	91.25
518.527	95.25
518.742	89.25
518.958	104.25
519.173	112.25
519.389	86.25
519.605	86.25
