Data from 17600_2_HRD10591_00009.txt Node
Date: Mon Jan 19 14:08:27 EST 2026
User: Yrep
Spectrometer: HR+D1059
Trigger mode: 1
Integration Time (sec): 1.000000E-1
Scans to average: 1
Electric dark correction enabled: true
Nonlinearity correction enabled: false
Boxcar width: 0
XAxis mode: Wavelengths
Number of Pixels in Spectrum: 2048
>>>>>Begin Spectral Data<<<<<
223.165	-13.62
223.4	-13.62
223.635	-13.62
223.869	-20.62
224.104	-10.62
224.338	-7.62
224.573	-22.62
224.808	-23.62
225.042	-7.62
225.277	-3.62
225.511	2.38
225.746	10.38
225.98	-2.62
226.215	12.38
226.449	13.38
226.683	25.38
226.918	18.38
227.152	30.38
227.387	48.38
227.621	48.38
227.856	48.38
228.09	43.38
228.324	63.38
228.559	48.38
228.793	65.38
229.027	75.38
229.262	63.38
229.496	60.38
229.73	53.38
229.964	75.38
230.199	58.38
230.433	82.38
230.667	88.38
230.901	84.38
231.136	74.38
231.37	82.38
231.604	82.38
231.838	76.38
232.072	83.38
232.306	74.38
232.541	79.38
232.775	82.38
233.009	87.38
233.243	83.38
233.477	92.38
233.711	85.38
233.945	81.38
234.179	93.38
234.413	77.38
234.647	85.38
234.881	89.38
235.115	76.38
235.349	84.38
235.583	80.38
235.817	81.38
236.051	66.38
236.285	75.38
236.519	84.38
236.753	75.38
236.987	77.38
237.221	70.38
237.455	75.38
237.689	81.38
237.922	78.38
238.156	74.38
238.39	69.38
238.624	73.38
238.858	77.38
239.091	77.38
239.325	75.38
239.559	65.38
239.793	83.38
240.027	91.38
240.26	67.38
240.494	72.38
240.728	73.38
240.961	75.38
241.195	75.38
241.429	75.38
241.662	82.38
241.896	87.38
242.13	61.38
242.363	73.38
242.597	76.38
242.83	68.38
243.064	81.38
243.298	72.38
243.531	71.38
243.765	79.38
243.998	68.38
244.232	87.38
244.465	84.38
244.699	73.38
244.932	83.38
245.166	70.38
245.399	75.38
245.633	70.38
245.866	71.38
246.099	76.38
246.333	90.38
246.566	85.38
246.8	78.38
247.033	68.38
247.266	80.38
247.5	76.38
247.733	76.38
247.966	77.38
248.2	78.38
248.433	76.38
248.666	73.38
248.899	67.38
249.133	73.38
249.366	89.38
249.599	71.38
249.832	76.38
250.066	76.38
250.299	71.38
250.532	79.38
250.765	79.38
250.998	71.38
251.231	73.38
251.465	74.38
251.698	85.38
251.931	83.38
252.164	64.38
252.397	81.38
252.63	77.38
252.863	78.38
253.096	95.38
253.329	85.38
253.562	88.38
253.795	71.38
254.028	85.38
254.261	79.38
254.494	89.38
254.727	80.38
254.96	88.38
255.193	93.38
255.426	75.38
255.659	85.38
255.892	89.38
256.124	79.38
256.357	78.38
256.59	94.38
256.823	72.38
257.056	70.38
257.289	87.38
257.521	72.38
257.754	83.38
257.987	81.38
258.22	66.38
258.452	87.38
258.685	81.38
258.918	80.38
259.151	82.38
259.383	81.38
259.616	75.38
259.849	84.38
260.081	81.38
260.314	82.38
260.547	90.38
260.779	86.38
261.012	87.38
261.244	80.38
261.477	86.38
261.71	73.38
261.942	76.38
262.175	75.38
262.407	79.38
262.64	85.38
262.872	88.38
263.105	84.38
263.337	78.38
263.57	68.38
263.802	86.38
264.035	88.38
264.267	84.38
264.499	73.38
264.732	80.38
264.964	93.38
265.197	75.38
265.429	99.38
265.661	80.38
265.894	81.38
266.126	97.38
266.358	78.38
266.591	89.38
266.823	90.38
267.055	81.38
267.287	81.38
267.52	78.38
267.752	70.38
267.984	66.38
268.216	84.38
268.448	71.38
268.681	83.38
268.913	78.38
269.145	69.38
269.377	81.38
269.609	73.38
269.841	100.38
270.073	72.38
270.306	65.38
270.538	90.38
270.77	77.38
271.002	96.38
271.234	85.38
271.466	90.38
271.698	88.38
271.93	88.38
272.162	86.38
272.394	86.38
272.626	81.38
272.858	82.38
273.09	75.38
273.322	81.38
273.553	87.38
273.785	86.38
274.017	72.38
274.249	85.38
274.481	71.38
274.713	70.38
274.945	92.38
275.176	84.38
275.408	90.38
275.64	90.38
275.872	81.38
276.104	96.38
276.335	67.38
276.567	83.38
276.799	81.38
277.031	81.38
277.262	86.38
277.494	84.38
277.726	84.38
277.957	82.38
278.189	90.38
278.421	93.38
278.652	80.38
278.884	95.38
279.115	90.38
279.347	94.38
279.579	97.38
279.81	84.38
280.042	74.38
280.273	89.38
280.505	75.38
280.736	75.38
280.968	67.38
281.199	81.38
281.431	97.38
281.662	89.38
281.894	89.38
282.125	82.38
282.356	91.38
282.588	90.38
282.819	77.38
283.051	87.38
283.282	80.38
283.513	85.38
283.745	86.38
283.976	84.38
284.207	81.38
284.439	76.38
284.67	91.38
284.901	76.38
285.132	72.38
285.364	81.38
285.595	89.38
285.826	84.38
286.057	88.38
286.288	81.38
286.52	75.38
286.751	94.38
286.982	95.38
287.213	83.38
287.444	86.38
287.675	91.38
287.906	77.38
288.138	85.38
288.369	75.38
288.6	85.38
288.831	86.38
289.062	86.38
289.293	87.38
289.524	95.38
289.755	71.38
289.986	88.38
290.217	95.38
290.448	93.38
290.679	90.38
290.91	90.38
291.141	88.38
291.371	85.38
291.602	84.38
291.833	86.38
292.064	83.38
292.295	84.38
292.526	84.38
292.757	85.38
292.987	84.38
293.218	87.38
293.449	71.38
293.68	90.38
293.91	87.38
294.141	78.38
294.372	88.38
294.603	92.38
294.833	84.38
295.064	85.38
295.295	86.38
295.525	72.38
295.756	75.38
295.987	81.38
296.217	83.38
296.448	90.38
296.679	86.38
296.909	91.38
297.14	89.38
297.37	80.38
297.601	93.38
297.831	70.38
298.062	81.38
298.292	87.38
298.523	82.38
298.753	79.38
298.984	79.38
299.214	86.38
299.445	92.38
299.675	78.38
299.905	82.38
300.136	86.38
300.366	84.38
300.597	83.38
300.827	103.38
301.057	90.38
301.288	81.38
301.518	74.38
301.748	81.38
301.979	87.38
302.209	81.38
302.439	90.38
302.669	81.38
302.9	64.38
303.13	79.38
303.36	87.38
303.59	83.38
303.82	83.38
304.051	92.38
304.281	85.38
304.511	98.38
304.741	85.38
304.971	88.38
305.201	93.38
305.431	92.38
305.661	99.38
305.891	83.38
306.121	86.38
306.352	80.38
306.582	93.38
306.812	89.38
307.042	91.38
307.272	77.38
307.502	86.38
307.731	78.38
307.961	83.38
308.191	74.38
308.421	82.38
308.651	79.38
308.881	78.38
309.111	94.38
309.341	75.38
309.571	92.38
309.8	93.38
310.03	84.38
310.26	85.38
310.49	71.38
310.72	87.38
310.949	73.38
311.179	73.38
311.409	84.38
311.639	97.38
311.868	84.38
312.098	92.38
312.328	103.38
312.557	81.38
312.787	77.38
313.017	85.38
313.246	93.38
313.476	91.38
313.706	85.38
313.935	94.38
314.165	93.38
314.394	85.38
314.624	85.38
314.853	90.38
315.083	92.38
315.312	82.38
315.542	96.38
315.771	76.38
316.001	100.38
316.23	100.38
316.46	81.38
316.689	83.38
316.919	85.38
317.148	79.38
317.377	94.38
317.607	101.38
317.836	94.38
318.065	90.38
318.295	81.38
318.524	101.38
318.753	81.38
318.983	93.38
319.212	86.38
319.441	85.38
319.67	82.38
319.9	91.38
320.129	97.38
320.358	90.38
320.587	92.38
320.816	95.38
321.046	92.38
321.275	87.38
321.504	85.38
321.733	80.38
321.962	76.38
322.191	71.38
322.42	100.38
322.649	91.38
322.878	88.38
323.108	88.38
323.337	85.38
323.566	86.38
323.795	96.38
324.024	91.38
324.253	92.38
324.482	70.38
324.71	97.38
324.939	85.38
325.168	91.38
325.397	73.38
325.626	91.38
325.855	89.38
326.084	86.38
326.313	85.38
326.542	78.38
326.77	84.38
326.999	89.38
327.228	91.38
327.457	91.38
327.686	88.38
327.914	87.38
328.143	84.38
328.372	102.38
328.6	91.38
328.829	91.38
329.058	83.38
329.287	90.38
329.515	90.38
329.744	89.38
329.972	81.38
330.201	92.38
330.43	85.38
330.658	92.38
330.887	96.38
331.115	96.38
331.344	88.38
331.572	69.38
331.801	97.38
332.03	81.38
332.258	82.38
332.486	83.38
332.715	88.38
332.943	83.38
333.172	70.38
333.4	84.38
333.629	86.38
333.857	88.38
334.085	86.38
334.314	84.38
334.542	87.38
334.771	88.38
334.999	95.38
335.227	84.38
335.455	91.38
335.684	82.38
335.912	83.38
336.14	98.38
336.369	86.38
336.597	91.38
336.825	93.38
337.053	77.38
337.281	76.38
337.51	96.38
337.738	81.38
337.966	81.38
338.194	96.38
338.422	90.38
338.65	81.38
338.878	84.38
339.106	87.38
339.334	95.38
339.562	84.38
339.79	82.38
340.018	86.38
340.246	95.38
340.474	88.38
340.702	89.38
340.93	90.38
341.158	88.38
341.386	85.38
341.614	76.38
341.842	84.38
342.07	81.38
342.298	85.38
342.526	91.38
342.754	72.38
342.981	96.38
343.209	83.38
343.437	89.38
343.665	96.38
343.893	84.38
344.12	97.38
344.348	98.38
344.576	100.38
344.804	89.38
345.031	82.38
345.259	83.38
345.487	93.38
345.714	88.38
345.942	86.38
346.17	82.38
346.397	95.38
346.625	90.38
346.853	82.38
347.08	96.38
347.308	86.38
347.535	100.38
347.763	84.38
347.99	85.38
348.218	87.38
348.445	89.38
348.673	82.38
348.9	90.38
349.128	96.38
349.355	82.38
349.583	80.38
349.81	90.38
350.037	91.38
350.265	99.38
350.492	98.38
350.72	82.38
350.947	84.38
351.174	88.38
351.402	84.38
351.629	72.38
351.856	95.38
352.083	69.38
352.311	96.38
352.538	90.38
352.765	101.38
352.992	93.38
353.22	92.38
353.447	88.38
353.674	84.38
353.901	86.38
354.128	86.38
354.355	78.38
354.583	80.38
354.81	83.38
355.037	81.38
355.264	85.38
355.491	88.38
355.718	77.38
355.945	100.38
356.172	75.38
356.399	87.38
356.626	74.38
356.853	75.38
357.08	100.38
357.307	78.38
357.534	69.38
357.761	85.38
357.988	87.38
358.215	81.38
358.441	90.38
358.668	87.38
358.895	76.38
359.122	95.38
359.349	89.38
359.576	80.38
359.802	84.38
360.029	75.38
360.256	96.38
360.483	83.38
360.709	74.38
360.936	85.38
361.163	97.38
361.39	87.38
361.616	83.38
361.843	97.38
362.07	88.38
362.296	87.38
362.523	86.38
362.749	95.38
362.976	95.38
363.203	122.38
363.429	87.38
363.656	97.38
363.882	88.38
364.109	92.38
364.335	121.38
364.562	95.38
364.788	83.38
365.015	119.38
365.241	84.38
365.468	87.38
365.694	84.38
365.92	85.38
366.147	77.38
366.373	91.38
366.599	94.38
366.826	88.38
367.052	94.38
367.278	91.38
367.505	80.38
367.731	89.38
367.957	92.38
368.184	86.38
368.41	99.38
368.636	85.38
368.862	83.38
369.089	90.38
369.315	83.38
369.541	80.38
369.767	63.38
369.993	88.38
370.219	95.38
370.445	75.38
370.672	85.38
370.898	74.38
371.124	83.38
371.35	98.38
371.576	76.38
371.802	94.38
372.028	84.38
372.254	88.38
372.48	83.38
372.706	95.38
372.932	82.38
373.158	87.38
373.384	82.38
373.61	95.38
373.835	88.38
374.061	92.38
374.287	91.38
374.513	87.38
374.739	85.38
374.965	84.38
375.191	82.38
375.416	84.38
375.642	90.38
375.868	79.38
376.094	86.38
376.319	82.38
376.545	89.38
376.771	86.38
376.997	90.38
377.222	74.38
377.448	93.38
377.674	87.38
377.899	80.38
378.125	85.38
378.35	87.38
378.576	84.38
378.802	87.38
379.027	96.38
379.253	88.38
379.478	84.38
379.704	79.38
379.929	95.38
380.155	94.38
380.38	81.38
380.606	95.38
380.831	84.38
381.057	92.38
381.282	92.38
381.507	92.38
381.733	82.38
381.958	86.38
382.184	95.38
382.409	87.38
382.634	104.38
382.86	102.38
383.085	84.38
383.31	90.38
383.535	82.38
383.761	98.38
383.986	91.38
384.211	92.38
384.436	84.38
384.662	87.38
384.887	73.38
385.112	89.38
385.337	77.38
385.562	97.38
385.787	80.38
386.013	81.38
386.238	91.38
386.463	83.38
386.688	77.38
386.913	88.38
387.138	73.38
387.363	95.38
387.588	95.38
387.813	82.38
388.038	84.38
388.263	88.38
388.488	85.38
388.713	73.38
388.938	93.38
389.163	88.38
389.387	89.38
389.612	86.38
389.837	90.38
390.062	101.38
390.287	88.38
390.512	95.38
390.736	85.38
390.961	87.38
391.186	93.38
391.411	83.38
391.636	78.38
391.86	87.38
392.085	100.38
392.31	108.38
392.534	91.38
392.759	89.38
392.984	103.38
393.208	156.38
393.433	217.38
393.658	172.38
393.882	105.38
394.107	100.38
394.331	108.38
394.556	106.38
394.78	87.38
395.005	90.38
395.229	74.38
395.454	87.38
395.678	85.38
395.903	113.38
396.127	121.38
396.352	109.38
396.576	130.38
396.801	178.38
397.025	191.38
397.249	117.38
397.474	102.38
397.698	101.38
397.922	90.38
398.147	87.38
398.371	93.38
398.595	82.38
398.82	106.38
399.044	92.38
399.268	86.38
399.492	86.38
399.717	85.38
399.941	99.38
400.165	73.38
400.389	87.38
400.613	92.38
400.837	88.38
401.062	95.38
401.286	73.38
401.51	65.38
401.734	84.38
401.958	88.38
402.182	87.38
402.406	104.38
402.63	88.38
402.854	82.38
403.078	88.38
403.302	84.38
403.526	87.38
403.75	83.38
403.974	87.38
404.198	85.38
404.422	93.38
404.645	98.38
404.869	90.38
405.093	88.38
405.317	76.38
405.541	89.38
405.765	71.38
405.988	81.38
406.212	88.38
406.436	97.38
406.66	94.38
406.883	104.38
407.107	82.38
407.331	100.38
407.555	87.38
407.778	98.38
408.002	83.38
408.226	81.38
408.449	87.38
408.673	75.38
408.896	91.38
409.12	82.38
409.344	99.38
409.567	85.38
409.791	104.38
410.014	81.38
410.238	81.38
410.461	91.38
410.685	92.38
410.908	85.38
411.132	74.38
411.355	87.38
411.578	93.38
411.802	76.38
412.025	88.38
412.249	91.38
412.472	77.38
412.695	88.38
412.919	94.38
413.142	85.38
413.365	92.38
413.589	93.38
413.812	91.38
414.035	84.38
414.258	84.38
414.482	82.38
414.705	102.38
414.928	94.38
415.151	95.38
415.374	89.38
415.597	74.38
415.821	93.38
416.044	74.38
416.267	91.38
416.49	81.38
416.713	89.38
416.936	100.38
417.159	84.38
417.382	77.38
417.605	92.38
417.828	77.38
418.051	74.38
418.274	100.38
418.497	79.38
418.72	93.38
418.943	81.38
419.166	78.38
419.389	85.38
419.611	83.38
419.834	84.38
420.057	97.38
420.28	104.38
420.503	89.38
420.726	71.38
420.948	91.38
421.171	74.38
421.394	96.38
421.617	117.38
421.839	92.38
422.062	118.38
422.285	130.38
422.507	189.38
422.73	255.38
422.953	255.38
423.175	156.38
423.398	116.38
423.621	94.38
423.843	106.38
424.066	101.38
424.288	87.38
424.511	90.38
424.733	96.38
424.956	85.38
425.178	95.38
425.401	97.38
425.623	90.38
425.846	92.38
426.068	86.38
426.291	79.38
426.513	89.38
426.735	97.38
426.958	73.38
427.18	83.38
427.402	87.38
427.625	86.38
427.847	77.38
428.069	85.38
428.292	105.38
428.514	115.38
428.736	89.38
428.958	117.38
429.181	112.38
429.403	82.38
429.625	95.38
429.847	100.38
430.069	128.38
430.292	137.38
430.514	139.38
430.736	98.38
430.958	127.38
431.18	78.38
431.402	90.38
431.624	87.38
431.846	99.38
432.068	110.38
432.29	100.38
432.512	86.38
432.734	95.38
432.956	82.38
433.178	84.38
433.4	94.38
433.622	91.38
433.844	68.38
434.066	90.38
434.287	91.38
434.509	80.38
434.731	75.38
434.953	93.38
435.175	85.38
435.397	97.38
435.618	88.38
435.84	75.38
436.062	84.38
436.284	90.38
436.505	85.38
436.727	85.38
436.949	100.38
437.17	70.38
437.392	97.38
437.614	74.38
437.835	76.38
438.057	84.38
438.278	96.38
438.5	81.38
438.721	93.38
438.943	103.38
439.165	82.38
439.386	92.38
439.608	85.38
439.829	90.38
440.05	95.38
440.272	84.38
440.493	94.38
440.715	77.38
440.936	77.38
441.158	90.38
441.379	78.38
441.6	88.38
441.822	86.38
442.043	87.38
442.264	89.38
442.486	93.38
442.707	133.38
442.928	95.38
443.149	101.38
443.371	109.38
443.592	160.38
443.813	140.38
444.034	99.38
444.255	72.38
444.476	90.38
444.698	89.38
444.919	80.38
445.14	165.38
445.361	157.38
445.582	180.38
445.803	153.38
446.024	103.38
446.245	104.38
446.466	93.38
446.687	91.38
446.908	84.38
447.129	90.38
447.35	71.38
447.571	84.38
447.792	73.38
448.013	86.38
448.234	87.38
448.455	85.38
448.675	92.38
448.896	77.38
449.117	88.38
449.338	89.38
449.559	79.38
449.779	93.38
450	89.38
450.221	80.38
450.442	101.38
450.662	81.38
450.883	91.38
451.104	91.38
451.324	93.38
451.545	88.38
451.766	94.38
451.986	87.38
452.207	80.38
452.428	80.38
452.648	88.38
452.869	99.38
453.089	85.38
453.31	92.38
453.53	92.38
453.751	95.38
453.971	86.38
454.192	83.38
454.412	96.38
454.633	89.38
454.853	90.38
455.073	71.38
455.294	85.38
455.514	83.38
455.734	89.38
455.955	87.38
456.175	68.38
456.395	89.38
456.616	87.38
456.836	95.38
457.056	83.38
457.276	79.38
457.497	96.38
457.717	95.38
457.937	94.38
458.157	96.38
458.377	83.38
458.598	88.38
458.818	108.38
459.038	99.38
459.258	85.38
459.478	88.38
459.698	97.38
459.918	82.38
460.138	67.38
460.358	95.38
460.578	97.38
460.798	117.38
461.018	111.38
461.238	92.38
461.458	77.38
461.678	87.38
461.898	82.38
462.118	85.38
462.338	83.38
462.558	80.38
462.777	83.38
462.997	88.38
463.217	82.38
463.437	74.38
463.657	90.38
463.876	96.38
464.096	91.38
464.316	73.38
464.536	88.38
464.755	83.38
464.975	85.38
465.195	70.38
465.414	85.38
465.634	100.38
465.854	84.38
466.073	84.38
466.293	72.38
466.512	85.38
466.732	86.38
466.951	92.38
467.171	89.38
467.391	95.38
467.61	96.38
467.829	91.38
468.049	83.38
468.268	83.38
468.488	89.38
468.707	81.38
468.927	95.38
469.146	80.38
469.365	82.38
469.585	107.38
469.804	98.38
470.023	77.38
470.243	91.38
470.462	78.38
470.681	89.38
470.901	82.38
471.12	72.38
471.339	86.38
471.558	72.38
471.777	95.38
471.997	83.38
472.216	80.38
472.435	99.38
472.654	91.38
472.873	102.38
473.092	84.38
473.311	86.38
473.53	75.38
473.749	83.38
473.968	81.38
474.187	78.38
474.406	87.38
474.625	83.38
474.844	77.38
475.063	82.38
475.282	87.38
475.501	81.38
475.72	98.38
475.939	87.38
476.158	81.38
476.377	88.38
476.596	92.38
476.814	95.38
477.033	91.38
477.252	82.38
477.471	78.38
477.69	88.38
477.908	85.38
478.127	87.38
478.346	82.38
478.564	87.38
478.783	74.38
479.002	81.38
479.22	80.38
479.439	90.38
479.658	101.38
479.876	80.38
480.095	87.38
480.313	84.38
480.532	90.38
480.751	87.38
480.969	95.38
481.188	90.38
481.406	106.38
481.624	101.38
481.843	89.38
482.061	87.38
482.28	77.38
482.498	94.38
482.717	91.38
482.935	81.38
483.153	85.38
483.372	93.38
483.59	91.38
483.808	79.38
484.027	92.38
484.245	85.38
484.463	94.38
484.681	106.38
484.9	94.38
485.118	92.38
485.336	94.38
485.554	95.38
485.772	98.38
485.99	91.38
486.209	76.38
486.427	79.38
486.645	89.38
486.863	89.38
487.081	95.38
487.299	90.38
487.517	96.38
487.735	89.38
487.953	128.38
488.171	104.38
488.389	83.38
488.607	81.38
488.825	81.38
489.043	72.38
489.261	74.38
489.479	70.38
489.696	99.38
489.914	99.38
490.132	77.38
490.35	83.38
490.568	90.38
490.786	85.38
491.003	93.38
491.221	91.38
491.439	70.38
491.657	81.38
491.874	91.38
492.092	81.38
492.31	93.38
492.527	78.38
492.745	79.38
492.963	91.38
493.18	81.38
493.398	88.38
493.615	81.38
493.833	71.38
494.05	88.38
494.268	80.38
494.485	96.38
494.703	88.38
494.92	81.38
495.138	96.38
495.355	88.38
495.573	98.38
495.79	83.38
496.008	106.38
496.225	83.38
496.442	83.38
496.66	94.38
496.877	105.38
497.094	82.38
497.312	93.38
497.529	93.38
497.746	101.38
497.963	77.38
498.181	81.38
498.398	85.38
498.615	92.38
498.832	82.38
499.049	85.38
499.267	95.38
499.484	84.38
499.701	83.38
499.918	74.38
500.135	89.38
500.352	85.38
500.569	81.38
500.786	104.38
501.003	114.38
501.22	90.38
501.437	83.38
501.654	86.38
501.871	93.38
502.088	86.38
502.305	81.38
502.522	83.38
502.739	77.38
502.956	96.38
503.172	92.38
503.389	87.38
503.606	88.38
503.823	97.38
504.04	89.38
504.256	117.38
504.473	101.38
504.69	84.38
504.907	102.38
505.123	77.38
505.34	85.38
505.557	83.38
505.773	87.38
505.99	83.38
506.207	91.38
506.423	92.38
506.64	77.38
506.856	84.38
507.073	86.38
507.289	90.38
507.506	93.38
507.722	93.38
507.939	84.38
508.155	89.38
508.372	75.38
508.588	79.38
508.805	99.38
509.021	92.38
509.238	92.38
509.454	98.38
509.67	84.38
509.887	80.38
510.103	77.38
510.319	81.38
510.536	93.38
510.752	86.38
510.968	77.38
511.184	95.38
511.401	103.38
511.617	103.38
511.833	95.38
512.049	89.38
512.265	99.38
512.481	77.38
512.698	96.38
512.914	99.38
513.13	95.38
513.346	78.38
513.562	73.38
513.778	91.38
513.994	82.38
514.21	84.38
514.426	90.38
514.642	83.38
514.858	102.38
515.074	99.38
515.29	77.38
515.506	82.38
515.721	77.38
515.937	84.38
516.153	106.38
516.369	97.38
516.585	87.38
516.801	92.38
517.016	88.38
517.232	84.38
517.448	98.38
517.664	86.38
517.879	85.38
518.095	90.38
518.311	101.38
518.527	90.38
518.742	91.38
