Data from 17600_2_HRD10591_00017.txt Node
Date: Mon Jan 19 14:08:31 EST 2026
User: Yrep
Spectrometer: HR+D1059
Trigger mode: 1
Integration Time (sec): 1.000000E-1
Scans to average: 1
Electric dark correction enabled: true
Nonlinearity correction enabled: false
Boxcar width: 0
XAxis mode: Wavelengths
Number of Pixels in Spectrum: 2048
>>>>>Begin Spectral Data<<<<<
223.165	-12.56
223.4	-12.56
223.635	-12.56
223.869	-23.56
224.104	-27.56
224.338	-12.56
224.573	-33.56
224.808	-1.56
225.042	-7.56
225.277	-3.56
225.511	-2.56
225.746	15.44
225.98	3.44
226.215	19.44
226.449	11.44
226.683	15.44
226.918	20.44
227.152	39.44
227.387	25.44
227.621	48.44
227.856	41.44
228.09	53.44
228.324	53.44
228.559	55.44
228.793	60.44
229.027	57.44
229.262	59.44
229.496	78.44
229.73	69.44
229.964	69.44
230.199	79.44
230.433	89.44
230.667	73.44
230.901	75.44
231.136	78.44
231.37	93.44
231.604	77.44
231.838	67.44
232.072	90.44
232.306	100.44
232.541	87.44
232.775	79.44
233.009	88.44
233.243	74.44
233.477	85.44
233.711	86.44
233.945	75.44
234.179	74.44
234.413	84.44
234.647	86.44
234.881	74.44
235.115	90.44
235.349	76.44
235.583	74.44
235.817	77.44
236.051	86.44
236.285	84.44
236.519	86.44
236.753	77.44
236.987	73.44
237.221	84.44
237.455	84.44
237.689	80.44
237.922	89.44
238.156	69.44
238.39	81.44
238.624	83.44
238.858	82.44
239.091	74.44
239.325	79.44
239.559	69.44
239.793	74.44
240.027	75.44
240.26	70.44
240.494	86.44
240.728	81.44
240.961	92.44
241.195	86.44
241.429	70.44
241.662	68.44
241.896	64.44
242.13	72.44
242.363	87.44
242.597	75.44
242.83	81.44
243.064	74.44
243.298	70.44
243.531	66.44
243.765	70.44
243.998	70.44
244.232	86.44
244.465	88.44
244.699	71.44
244.932	74.44
245.166	71.44
245.399	67.44
245.633	85.44
245.866	86.44
246.099	71.44
246.333	84.44
246.566	90.44
246.8	74.44
247.033	64.44
247.266	81.44
247.5	72.44
247.733	77.44
247.966	79.44
248.2	84.44
248.433	74.44
248.666	83.44
248.899	86.44
249.133	96.44
249.366	92.44
249.599	79.44
249.832	79.44
250.066	76.44
250.299	84.44
250.532	81.44
250.765	90.44
250.998	77.44
251.231	84.44
251.465	83.44
251.698	78.44
251.931	81.44
252.164	75.44
252.397	71.44
252.63	83.44
252.863	80.44
253.096	77.44
253.329	82.44
253.562	84.44
253.795	82.44
254.028	79.44
254.261	78.44
254.494	77.44
254.727	78.44
254.96	70.44
255.193	79.44
255.426	80.44
255.659	70.44
255.892	86.44
256.124	80.44
256.357	82.44
256.59	74.44
256.823	92.44
257.056	85.44
257.289	93.44
257.521	86.44
257.754	86.44
257.987	91.44
258.22	89.44
258.452	96.44
258.685	77.44
258.918	72.44
259.151	81.44
259.383	100.44
259.616	84.44
259.849	81.44
260.081	90.44
260.314	77.44
260.547	88.44
260.779	76.44
261.012	77.44
261.244	83.44
261.477	74.44
261.71	80.44
261.942	61.44
262.175	77.44
262.407	91.44
262.64	89.44
262.872	78.44
263.105	83.44
263.337	101.44
263.57	76.44
263.802	89.44
264.035	93.44
264.267	82.44
264.499	85.44
264.732	90.44
264.964	70.44
265.197	86.44
265.429	81.44
265.661	90.44
265.894	82.44
266.126	78.44
266.358	95.44
266.591	92.44
266.823	77.44
267.055	90.44
267.287	79.44
267.52	87.44
267.752	87.44
267.984	87.44
268.216	76.44
268.448	82.44
268.681	89.44
268.913	73.44
269.145	88.44
269.377	84.44
269.609	92.44
269.841	81.44
270.073	79.44
270.306	74.44
270.538	84.44
270.77	88.44
271.002	95.44
271.234	80.44
271.466	96.44
271.698	79.44
271.93	72.44
272.162	79.44
272.394	88.44
272.626	85.44
272.858	81.44
273.09	97.44
273.322	94.44
273.553	85.44
273.785	83.44
274.017	78.44
274.249	84.44
274.481	76.44
274.713	101.44
274.945	101.44
275.176	90.44
275.408	82.44
275.64	86.44
275.872	90.44
276.104	81.44
276.335	77.44
276.567	65.44
276.799	89.44
277.031	73.44
277.262	96.44
277.494	98.44
277.726	91.44
277.957	80.44
278.189	69.44
278.421	84.44
278.652	91.44
278.884	85.44
279.115	81.44
279.347	82.44
279.579	85.44
279.81	88.44
280.042	68.44
280.273	83.44
280.505	91.44
280.736	77.44
280.968	82.44
281.199	92.44
281.431	90.44
281.662	88.44
281.894	99.44
282.125	90.44
282.356	80.44
282.588	78.44
282.819	84.44
283.051	74.44
283.282	81.44
283.513	88.44
283.745	87.44
283.976	101.44
284.207	84.44
284.439	88.44
284.67	72.44
284.901	86.44
285.132	83.44
285.364	68.44
285.595	86.44
285.826	94.44
286.057	78.44
286.288	83.44
286.52	86.44
286.751	83.44
286.982	85.44
287.213	76.44
287.444	90.44
287.675	92.44
287.906	83.44
288.138	82.44
288.369	86.44
288.6	82.44
288.831	105.44
289.062	76.44
289.293	98.44
289.524	71.44
289.755	88.44
289.986	88.44
290.217	88.44
290.448	89.44
290.679	93.44
290.91	95.44
291.141	80.44
291.371	98.44
291.602	92.44
291.833	90.44
292.064	98.44
292.295	87.44
292.526	96.44
292.757	91.44
292.987	107.44
293.218	84.44
293.449	80.44
293.68	92.44
293.91	81.44
294.141	88.44
294.372	98.44
294.603	90.44
294.833	85.44
295.064	69.44
295.295	75.44
295.525	93.44
295.756	85.44
295.987	84.44
296.217	88.44
296.448	103.44
296.679	94.44
296.909	100.44
297.14	83.44
297.37	91.44
297.601	79.44
297.831	85.44
298.062	98.44
298.292	95.44
298.523	88.44
298.753	85.44
298.984	77.44
299.214	91.44
299.445	106.44
299.675	89.44
299.905	89.44
300.136	105.44
300.366	87.44
300.597	78.44
300.827	84.44
301.057	86.44
301.288	73.44
301.518	85.44
301.748	92.44
301.979	96.44
302.209	93.44
302.439	104.44
302.669	94.44
302.9	86.44
303.13	98.44
303.36	89.44
303.59	93.44
303.82	100.44
304.051	88.44
304.281	82.44
304.511	78.44
304.741	84.44
304.971	86.44
305.201	106.44
305.431	96.44
305.661	92.44
305.891	89.44
306.121	84.44
306.352	88.44
306.582	84.44
306.812	78.44
307.042	79.44
307.272	84.44
307.502	79.44
307.731	80.44
307.961	108.44
308.191	106.44
308.421	105.44
308.651	93.44
308.881	96.44
309.111	101.44
309.341	103.44
309.571	98.44
309.8	100.44
310.03	84.44
310.26	86.44
310.49	95.44
310.72	100.44
310.949	90.44
311.179	85.44
311.409	85.44
311.639	85.44
311.868	89.44
312.098	92.44
312.328	92.44
312.557	92.44
312.787	85.44
313.017	95.44
313.246	86.44
313.476	83.44
313.706	97.44
313.935	83.44
314.165	97.44
314.394	104.44
314.624	87.44
314.853	88.44
315.083	82.44
315.312	89.44
315.542	77.44
315.771	69.44
316.001	98.44
316.23	86.44
316.46	91.44
316.689	89.44
316.919	83.44
317.148	79.44
317.377	87.44
317.607	98.44
317.836	88.44
318.065	104.44
318.295	84.44
318.524	89.44
318.753	90.44
318.983	93.44
319.212	108.44
319.441	84.44
319.67	93.44
319.9	84.44
320.129	88.44
320.358	97.44
320.587	88.44
320.816	98.44
321.046	98.44
321.275	90.44
321.504	83.44
321.733	103.44
321.962	96.44
322.191	96.44
322.42	92.44
322.649	99.44
322.878	91.44
323.108	94.44
323.337	95.44
323.566	92.44
323.795	103.44
324.024	90.44
324.253	83.44
324.482	89.44
324.71	90.44
324.939	88.44
325.168	76.44
325.397	76.44
325.626	99.44
325.855	70.44
326.084	83.44
326.313	99.44
326.542	87.44
326.77	80.44
326.999	94.44
327.228	87.44
327.457	82.44
327.686	83.44
327.914	76.44
328.143	89.44
328.372	70.44
328.6	80.44
328.829	77.44
329.058	79.44
329.287	88.44
329.515	90.44
329.744	92.44
329.972	100.44
330.201	90.44
330.43	86.44
330.658	90.44
330.887	92.44
331.115	79.44
331.344	96.44
331.572	91.44
331.801	96.44
332.03	91.44
332.258	95.44
332.486	84.44
332.715	99.44
332.943	89.44
333.172	84.44
333.4	85.44
333.629	96.44
333.857	92.44
334.085	101.44
334.314	90.44
334.542	80.44
334.771	90.44
334.999	104.44
335.227	82.44
335.455	88.44
335.684	106.44
335.912	93.44
336.14	96.44
336.369	112.44
336.597	84.44
336.825	97.44
337.053	86.44
337.281	90.44
337.51	89.44
337.738	102.44
337.966	88.44
338.194	89.44
338.422	89.44
338.65	84.44
338.878	84.44
339.106	100.44
339.334	91.44
339.562	83.44
339.79	90.44
340.018	90.44
340.246	67.44
340.474	89.44
340.702	94.44
340.93	80.44
341.158	100.44
341.386	86.44
341.614	90.44
341.842	86.44
342.07	79.44
342.298	94.44
342.526	88.44
342.754	88.44
342.981	86.44
343.209	79.44
343.437	114.44
343.665	98.44
343.893	89.44
344.12	96.44
344.348	96.44
344.576	97.44
344.804	89.44
345.031	96.44
345.259	83.44
345.487	88.44
345.714	102.44
345.942	77.44
346.17	85.44
346.397	84.44
346.625	82.44
346.853	93.44
347.08	80.44
347.308	93.44
347.535	96.44
347.763	83.44
347.99	93.44
348.218	96.44
348.445	96.44
348.673	86.44
348.9	102.44
349.128	98.44
349.355	101.44
349.583	95.44
349.81	96.44
350.037	88.44
350.265	83.44
350.492	104.44
350.72	98.44
350.947	84.44
351.174	85.44
351.402	80.44
351.629	96.44
351.856	87.44
352.083	91.44
352.311	88.44
352.538	94.44
352.765	85.44
352.992	101.44
353.22	100.44
353.447	86.44
353.674	95.44
353.901	92.44
354.128	76.44
354.355	80.44
354.583	93.44
354.81	89.44
355.037	98.44
355.264	81.44
355.491	86.44
355.718	92.44
355.945	90.44
356.172	87.44
356.399	91.44
356.626	87.44
356.853	97.44
357.08	86.44
357.307	82.44
357.534	92.44
357.761	95.44
357.988	89.44
358.215	108.44
358.441	100.44
358.668	97.44
358.895	91.44
359.122	88.44
359.349	79.44
359.576	91.44
359.802	96.44
360.029	105.44
360.256	93.44
360.483	106.44
360.709	97.44
360.936	126.44
361.163	87.44
361.39	90.44
361.616	98.44
361.843	90.44
362.07	94.44
362.296	117.44
362.523	117.44
362.749	131.44
362.976	115.44
363.203	140.44
363.429	122.44
363.656	96.44
363.882	100.44
364.109	108.44
364.335	133.44
364.562	165.44
364.788	131.44
365.015	110.44
365.241	87.44
365.468	89.44
365.694	91.44
365.92	97.44
366.147	85.44
366.373	81.44
366.599	88.44
366.826	87.44
367.052	98.44
367.278	82.44
367.505	83.44
367.731	88.44
367.957	80.44
368.184	87.44
368.41	92.44
368.636	98.44
368.862	94.44
369.089	89.44
369.315	103.44
369.541	76.44
369.767	76.44
369.993	90.44
370.219	84.44
370.445	79.44
370.672	97.44
370.898	97.44
371.124	92.44
371.35	98.44
371.576	91.44
371.802	91.44
372.028	96.44
372.254	100.44
372.48	95.44
372.706	82.44
372.932	90.44
373.158	96.44
373.384	110.44
373.61	103.44
373.835	105.44
374.061	85.44
374.287	97.44
374.513	87.44
374.739	103.44
374.965	108.44
375.191	107.44
375.416	92.44
375.642	108.44
375.868	102.44
376.094	95.44
376.319	94.44
376.545	103.44
376.771	98.44
376.997	93.44
377.222	99.44
377.448	108.44
377.674	82.44
377.899	90.44
378.125	75.44
378.35	94.44
378.576	90.44
378.802	85.44
379.027	93.44
379.253	100.44
379.478	95.44
379.704	92.44
379.929	78.44
380.155	90.44
380.38	102.44
380.606	101.44
380.831	90.44
381.057	90.44
381.282	104.44
381.507	95.44
381.733	102.44
381.958	99.44
382.184	92.44
382.409	92.44
382.634	98.44
382.86	88.44
383.085	110.44
383.31	100.44
383.535	109.44
383.761	113.44
383.986	92.44
384.211	99.44
384.436	74.44
384.662	76.44
384.887	80.44
385.112	76.44
385.337	86.44
385.562	103.44
385.787	104.44
386.013	98.44
386.238	101.44
386.463	96.44
386.688	100.44
386.913	94.44
387.138	97.44
387.363	95.44
387.588	101.44
387.813	93.44
388.038	97.44
388.263	86.44
388.488	101.44
388.713	93.44
388.938	99.44
389.163	104.44
389.387	87.44
389.612	94.44
389.837	103.44
390.062	100.44
390.287	104.44
390.512	101.44
390.736	90.44
390.961	102.44
391.186	92.44
391.411	98.44
391.636	79.44
391.86	89.44
392.085	83.44
392.31	98.44
392.534	108.44
392.759	124.44
392.984	158.44
393.208	247.44
393.433	332.44
393.658	278.44
393.882	133.44
394.107	120.44
394.331	118.44
394.556	117.44
394.78	109.44
395.005	98.44
395.229	107.44
395.454	98.44
395.678	117.44
395.903	122.44
396.127	164.44
396.352	162.44
396.576	168.44
396.801	254.44
397.025	287.44
397.249	196.44
397.474	135.44
397.698	108.44
397.922	106.44
398.147	83.44
398.371	87.44
398.595	85.44
398.82	85.44
399.044	96.44
399.268	77.44
399.492	82.44
399.717	98.44
399.941	92.44
400.165	96.44
400.389	98.44
400.613	89.44
400.837	88.44
401.062	96.44
401.286	92.44
401.51	92.44
401.734	87.44
401.958	92.44
402.182	80.44
402.406	94.44
402.63	90.44
402.854	89.44
403.078	93.44
403.302	100.44
403.526	98.44
403.75	92.44
403.974	88.44
404.198	108.44
404.422	105.44
404.645	105.44
404.869	98.44
405.093	102.44
405.317	91.44
405.541	78.44
405.765	82.44
405.988	89.44
406.212	76.44
406.436	95.44
406.66	95.44
406.883	85.44
407.107	77.44
407.331	96.44
407.555	106.44
407.778	133.44
408.002	124.44
408.226	94.44
408.449	97.44
408.673	75.44
408.896	81.44
409.12	72.44
409.344	100.44
409.567	107.44
409.791	106.44
410.014	104.44
410.238	100.44
410.461	85.44
410.685	87.44
410.908	81.44
411.132	86.44
411.355	87.44
411.578	81.44
411.802	94.44
412.025	94.44
412.249	100.44
412.472	78.44
412.695	99.44
412.919	70.44
413.142	84.44
413.365	86.44
413.589	84.44
413.812	88.44
414.035	82.44
414.258	77.44
414.482	98.44
414.705	83.44
414.928	98.44
415.151	91.44
415.374	97.44
415.597	90.44
415.821	82.44
416.044	91.44
416.267	78.44
416.49	96.44
416.713	93.44
416.936	78.44
417.159	94.44
417.382	84.44
417.605	90.44
417.828	75.44
418.051	97.44
418.274	98.44
418.497	71.44
418.72	85.44
418.943	91.44
419.166	84.44
419.389	90.44
419.611	91.44
419.834	102.44
420.057	84.44
420.28	94.44
420.503	100.44
420.726	96.44
420.948	91.44
421.171	111.44
421.394	115.44
421.617	122.44
421.839	152.44
422.062	143.44
422.285	163.44
422.507	312.44
422.73	424.44
422.953	383.44
423.175	240.44
423.398	146.44
423.621	118.44
423.843	107.44
424.066	107.44
424.288	105.44
424.511	96.44
424.733	100.44
424.956	82.44
425.178	105.44
425.401	96.44
425.623	98.44
425.846	101.44
426.068	85.44
426.291	89.44
426.513	107.44
426.735	85.44
426.958	81.44
427.18	87.44
427.402	92.44
427.625	90.44
427.847	89.44
428.069	98.44
428.292	135.44
428.514	132.44
428.736	113.44
428.958	124.44
429.181	140.44
429.403	103.44
429.625	109.44
429.847	132.44
430.069	170.44
430.292	210.44
430.514	189.44
430.736	141.44
430.958	156.44
431.18	110.44
431.402	85.44
431.624	96.44
431.846	138.44
432.068	133.44
432.29	112.44
432.512	91.44
432.734	99.44
432.956	100.44
433.178	85.44
433.4	83.44
433.622	86.44
433.844	100.44
434.066	92.44
434.287	82.44
434.509	84.44
434.731	81.44
434.953	88.44
435.175	86.44
435.397	105.44
435.618	96.44
435.84	92.44
436.062	102.44
436.284	89.44
436.505	83.44
436.727	74.44
436.949	92.44
437.17	85.44
437.392	96.44
437.614	93.44
437.835	105.44
438.057	90.44
438.278	81.44
438.5	102.44
438.721	83.44
438.943	86.44
439.165	83.44
439.386	85.44
439.608	89.44
439.829	85.44
440.05	101.44
440.272	84.44
440.493	82.44
440.715	85.44
440.936	99.44
441.158	86.44
441.379	89.44
441.6	90.44
441.822	83.44
442.043	84.44
442.264	103.44
442.486	147.44
442.707	186.44
442.928	124.44
443.149	100.44
443.371	163.44
443.592	286.44
443.813	239.44
444.034	109.44
444.255	103.44
444.476	99.44
444.698	88.44
444.919	94.44
445.14	189.44
445.361	216.44
445.582	332.44
445.803	290.44
446.024	133.44
446.245	109.44
446.466	93.44
446.687	101.44
446.908	79.44
447.129	90.44
447.35	74.44
447.571	85.44
447.792	92.44
448.013	76.44
448.234	81.44
448.455	82.44
448.675	94.44
448.896	84.44
449.117	97.44
449.338	98.44
449.559	92.44
449.779	83.44
450	91.44
450.221	86.44
450.442	85.44
450.662	84.44
450.883	86.44
451.104	76.44
451.324	76.44
451.545	78.44
451.766	90.44
451.986	86.44
452.207	89.44
452.428	83.44
452.648	113.44
452.869	119.44
453.089	89.44
453.31	87.44
453.53	98.44
453.751	98.44
453.971	85.44
454.192	89.44
454.412	90.44
454.633	91.44
454.853	89.44
455.073	91.44
455.294	79.44
455.514	84.44
455.734	70.44
455.955	92.44
456.175	88.44
456.395	98.44
456.616	80.44
456.836	86.44
457.056	96.44
457.276	86.44
457.497	75.44
457.717	92.44
457.937	116.44
458.157	137.44
458.377	142.44
458.598	132.44
458.818	134.44
459.038	111.44
459.258	95.44
459.478	90.44
459.698	99.44
459.918	69.44
460.138	93.44
460.358	91.44
460.578	95.44
460.798	132.44
461.018	141.44
461.238	104.44
461.458	94.44
461.678	105.44
461.898	94.44
462.118	75.44
462.338	101.44
462.558	86.44
462.777	80.44
462.997	84.44
463.217	95.44
463.437	93.44
463.657	96.44
463.876	76.44
464.096	87.44
464.316	78.44
464.536	86.44
464.755	87.44
464.975	94.44
465.195	84.44
465.414	84.44
465.634	88.44
465.854	86.44
466.073	82.44
466.293	83.44
466.512	85.44
466.732	89.44
466.951	83.44
467.171	87.44
467.391	77.44
467.61	75.44
467.829	84.44
468.049	91.44
468.268	94.44
468.488	92.44
468.707	92.44
468.927	94.44
469.146	68.44
469.365	98.44
469.585	90.44
469.804	82.44
470.023	89.44
470.243	96.44
470.462	80.44
470.681	79.44
470.901	93.44
471.12	76.44
471.339	80.44
471.558	86.44
471.777	92.44
471.997	75.44
472.216	76.44
472.435	97.44
472.654	84.44
472.873	82.44
473.092	81.44
473.311	85.44
473.53	83.44
473.749	85.44
473.968	93.44
474.187	84.44
474.406	97.44
474.625	88.44
474.844	96.44
475.063	102.44
475.282	88.44
475.501	98.44
475.72	80.44
475.939	81.44
476.158	84.44
476.377	100.44
476.596	89.44
476.814	83.44
477.033	88.44
477.252	89.44
477.471	86.44
477.69	102.44
477.908	92.44
478.127	77.44
478.346	92.44
478.564	98.44
478.783	90.44
479.002	101.44
479.22	80.44
479.439	94.44
479.658	96.44
479.876	81.44
480.095	97.44
480.313	87.44
480.532	86.44
480.751	88.44
480.969	87.44
481.188	87.44
481.406	94.44
481.624	92.44
481.843	97.44
482.061	78.44
482.28	93.44
482.498	92.44
482.717	81.44
482.935	80.44
483.153	93.44
483.372	96.44
483.59	82.44
483.808	103.44
484.027	95.44
484.245	87.44
484.463	90.44
484.681	109.44
484.9	101.44
485.118	97.44
485.336	84.44
485.554	96.44
485.772	106.44
485.99	79.44
486.209	85.44
486.427	84.44
486.645	95.44
486.863	93.44
487.081	98.44
487.299	89.44
487.517	104.44
487.735	137.44
487.953	213.44
488.171	166.44
488.389	105.44
488.607	85.44
488.825	87.44
489.043	72.44
489.261	75.44
489.479	88.44
489.696	97.44
489.914	98.44
490.132	74.44
490.35	93.44
490.568	81.44
490.786	91.44
491.003	96.44
491.221	92.44
491.439	92.44
491.657	85.44
491.874	83.44
492.092	102.44
492.31	100.44
492.527	78.44
492.745	92.44
492.963	103.44
493.18	100.44
493.398	94.44
493.615	99.44
493.833	86.44
494.05	95.44
494.268	87.44
494.485	87.44
494.703	106.44
494.92	94.44
495.138	89.44
495.355	84.44
495.573	81.44
495.79	92.44
496.008	85.44
496.225	100.44
496.442	113.44
496.66	92.44
496.877	88.44
497.094	83.44
497.312	98.44
497.529	86.44
497.746	77.44
497.963	99.44
498.181	92.44
498.398	93.44
498.615	98.44
498.832	80.44
499.049	87.44
499.267	99.44
499.484	87.44
499.701	66.44
499.918	92.44
500.135	97.44
500.352	104.44
500.569	90.44
500.786	97.44
501.003	96.44
501.22	80.44
501.437	95.44
501.654	91.44
501.871	76.44
502.088	93.44
502.305	82.44
502.522	84.44
502.739	100.44
502.956	89.44
503.172	81.44
503.389	85.44
503.606	93.44
503.823	89.44
504.04	109.44
504.256	148.44
504.473	153.44
504.69	109.44
504.907	103.44
505.123	102.44
505.34	85.44
505.557	105.44
505.773	87.44
505.99	71.44
506.207	96.44
506.423	101.44
506.64	91.44
506.856	85.44
507.073	77.44
507.289	78.44
507.506	104.44
507.722	85.44
507.939	84.44
508.155	93.44
508.372	96.44
508.588	88.44
508.805	94.44
509.021	97.44
509.238	79.44
509.454	73.44
509.67	88.44
509.887	90.44
510.103	89.44
510.319	85.44
510.536	90.44
510.752	81.44
510.968	86.44
511.184	92.44
511.401	97.44
511.617	100.44
511.833	79.44
512.049	85.44
512.265	86.44
512.481	94.44
512.698	94.44
512.914	76.44
513.13	92.44
513.346	88.44
513.562	90.44
513.778	86.44
513.994	90.44
514.21	93.44
514.426	105.44
514.642	94.44
514.858	83.44
515.074	99.44
515.29	100.44
515.506	85.44
515.721	85.44
515.937	82.44
516.153	102.44
516.369	84.44
516.585	89.44
516.801	95.44
