Data from 17600_2_HRD10591_00006.txt Node
Date: Mon Jan 19 14:08:25 EST 2026
User: Yrep
Spectrometer: HR+D1059
Trigger mode: 1
Integration Time (sec): 1.000000E-1
Scans to average: 1
Electric dark correction enabled: true
Nonlinearity correction enabled: false
Boxcar width: 0
XAxis mode: Wavelengths
Number of Pixels in Spectrum: 2048
>>>>>Begin Spectral Data<<<<<
223.165	-27.38
223.4	-27.38
223.635	-27.38
223.869	-15.38
224.104	-15.38
224.338	-12.38
224.573	-21.38
224.808	-12.38
225.042	-11.38
225.277	-3.38
225.511	17.62
225.746	6.62
225.98	18.62
226.215	12.62
226.449	2.62
226.683	4.62
226.918	30.62
227.152	25.62
227.387	39.62
227.621	44.62
227.856	38.62
228.09	56.62
228.324	61.62
228.559	59.62
228.793	58.62
229.027	60.62
229.262	78.62
229.496	64.62
229.73	64.62
229.964	78.62
230.199	73.62
230.433	65.62
230.667	85.62
230.901	92.62
231.136	78.62
231.37	79.62
231.604	74.62
231.838	76.62
232.072	90.62
232.306	63.62
232.541	81.62
232.775	76.62
233.009	88.62
233.243	80.62
233.477	77.62
233.711	75.62
233.945	76.62
234.179	77.62
234.413	82.62
234.647	81.62
234.881	74.62
235.115	76.62
235.349	56.62
235.583	67.62
235.817	77.62
236.051	76.62
236.285	85.62
236.519	76.62
236.753	69.62
236.987	77.62
237.221	82.62
237.455	85.62
237.689	69.62
237.922	73.62
238.156	64.62
238.39	77.62
238.624	75.62
238.858	66.62
239.091	70.62
239.325	60.62
239.559	70.62
239.793	63.62
240.027	78.62
240.26	71.62
240.494	80.62
240.728	58.62
240.961	71.62
241.195	80.62
241.429	67.62
241.662	83.62
241.896	80.62
242.13	72.62
242.363	73.62
242.597	57.62
242.83	77.62
243.064	78.62
243.298	69.62
243.531	64.62
243.765	69.62
243.998	75.62
244.232	77.62
244.465	61.62
244.699	73.62
244.932	79.62
245.166	70.62
245.399	79.62
245.633	85.62
245.866	73.62
246.099	58.62
246.333	73.62
246.566	70.62
246.8	59.62
247.033	73.62
247.266	84.62
247.5	67.62
247.733	86.62
247.966	74.62
248.2	68.62
248.433	68.62
248.666	72.62
248.899	86.62
249.133	68.62
249.366	85.62
249.599	88.62
249.832	59.62
250.066	75.62
250.299	68.62
250.532	87.62
250.765	63.62
250.998	68.62
251.231	65.62
251.465	74.62
251.698	77.62
251.931	72.62
252.164	76.62
252.397	68.62
252.63	70.62
252.863	80.62
253.096	83.62
253.329	62.62
253.562	77.62
253.795	81.62
254.028	74.62
254.261	72.62
254.494	75.62
254.727	77.62
254.96	71.62
255.193	82.62
255.426	68.62
255.659	64.62
255.892	79.62
256.124	90.62
256.357	62.62
256.59	84.62
256.823	79.62
257.056	86.62
257.289	88.62
257.521	89.62
257.754	72.62
257.987	87.62
258.22	73.62
258.452	82.62
258.685	71.62
258.918	67.62
259.151	79.62
259.383	87.62
259.616	74.62
259.849	79.62
260.081	68.62
260.314	71.62
260.547	78.62
260.779	78.62
261.012	69.62
261.244	72.62
261.477	87.62
261.71	74.62
261.942	68.62
262.175	77.62
262.407	82.62
262.64	75.62
262.872	71.62
263.105	79.62
263.337	80.62
263.57	78.62
263.802	83.62
264.035	74.62
264.267	77.62
264.499	73.62
264.732	79.62
264.964	83.62
265.197	73.62
265.429	83.62
265.661	81.62
265.894	78.62
266.126	79.62
266.358	78.62
266.591	87.62
266.823	84.62
267.055	84.62
267.287	87.62
267.52	83.62
267.752	84.62
267.984	77.62
268.216	70.62
268.448	79.62
268.681	67.62
268.913	87.62
269.145	87.62
269.377	71.62
269.609	77.62
269.841	88.62
270.073	69.62
270.306	75.62
270.538	84.62
270.77	73.62
271.002	85.62
271.234	94.62
271.466	78.62
271.698	81.62
271.93	66.62
272.162	81.62
272.394	71.62
272.626	91.62
272.858	79.62
273.09	81.62
273.322	87.62
273.553	77.62
273.785	80.62
274.017	84.62
274.249	79.62
274.481	72.62
274.713	86.62
274.945	81.62
275.176	82.62
275.408	79.62
275.64	71.62
275.872	81.62
276.104	79.62
276.335	85.62
276.567	70.62
276.799	72.62
277.031	70.62
277.262	64.62
277.494	92.62
277.726	91.62
277.957	79.62
278.189	68.62
278.421	73.62
278.652	83.62
278.884	70.62
279.115	63.62
279.347	83.62
279.579	79.62
279.81	74.62
280.042	81.62
280.273	93.62
280.505	74.62
280.736	79.62
280.968	76.62
281.199	71.62
281.431	69.62
281.662	86.62
281.894	85.62
282.125	83.62
282.356	74.62
282.588	68.62
282.819	80.62
283.051	67.62
283.282	58.62
283.513	87.62
283.745	93.62
283.976	83.62
284.207	83.62
284.439	87.62
284.67	84.62
284.901	76.62
285.132	90.62
285.364	77.62
285.595	93.62
285.826	88.62
286.057	74.62
286.288	81.62
286.52	88.62
286.751	71.62
286.982	85.62
287.213	77.62
287.444	72.62
287.675	74.62
287.906	99.62
288.138	79.62
288.369	76.62
288.6	75.62
288.831	71.62
289.062	72.62
289.293	73.62
289.524	83.62
289.755	87.62
289.986	79.62
290.217	82.62
290.448	91.62
290.679	79.62
290.91	72.62
291.141	89.62
291.371	88.62
291.602	77.62
291.833	89.62
292.064	75.62
292.295	89.62
292.526	83.62
292.757	88.62
292.987	77.62
293.218	84.62
293.449	93.62
293.68	80.62
293.91	91.62
294.141	81.62
294.372	91.62
294.603	87.62
294.833	74.62
295.064	71.62
295.295	76.62
295.525	99.62
295.756	78.62
295.987	97.62
296.217	84.62
296.448	87.62
296.679	87.62
296.909	80.62
297.14	83.62
297.37	81.62
297.601	79.62
297.831	83.62
298.062	72.62
298.292	89.62
298.523	62.62
298.753	95.62
298.984	78.62
299.214	81.62
299.445	78.62
299.675	81.62
299.905	90.62
300.136	79.62
300.366	84.62
300.597	79.62
300.827	85.62
301.057	86.62
301.288	76.62
301.518	80.62
301.748	77.62
301.979	96.62
302.209	77.62
302.439	87.62
302.669	70.62
302.9	74.62
303.13	88.62
303.36	83.62
303.59	86.62
303.82	87.62
304.051	86.62
304.281	85.62
304.511	93.62
304.741	80.62
304.971	87.62
305.201	89.62
305.431	76.62
305.661	81.62
305.891	81.62
306.121	81.62
306.352	75.62
306.582	92.62
306.812	78.62
307.042	90.62
307.272	76.62
307.502	80.62
307.731	82.62
307.961	101.62
308.191	84.62
308.421	82.62
308.651	76.62
308.881	81.62
309.111	95.62
309.341	92.62
309.571	80.62
309.8	89.62
310.03	98.62
310.26	71.62
310.49	75.62
310.72	83.62
310.949	88.62
311.179	81.62
311.409	81.62
311.639	77.62
311.868	60.62
312.098	80.62
312.328	79.62
312.557	93.62
312.787	78.62
313.017	83.62
313.246	85.62
313.476	85.62
313.706	89.62
313.935	97.62
314.165	86.62
314.394	75.62
314.624	73.62
314.853	81.62
315.083	87.62
315.312	79.62
315.542	74.62
315.771	83.62
316.001	88.62
316.23	76.62
316.46	81.62
316.689	96.62
316.919	78.62
317.148	84.62
317.377	99.62
317.607	83.62
317.836	80.62
318.065	104.62
318.295	91.62
318.524	79.62
318.753	89.62
318.983	82.62
319.212	98.62
319.441	85.62
319.67	79.62
319.9	87.62
320.129	74.62
320.358	78.62
320.587	88.62
320.816	87.62
321.046	87.62
321.275	83.62
321.504	88.62
321.733	80.62
321.962	79.62
322.191	84.62
322.42	77.62
322.649	85.62
322.878	86.62
323.108	95.62
323.337	89.62
323.566	96.62
323.795	85.62
324.024	85.62
324.253	83.62
324.482	79.62
324.71	74.62
324.939	83.62
325.168	94.62
325.397	91.62
325.626	85.62
325.855	86.62
326.084	88.62
326.313	78.62
326.542	73.62
326.77	87.62
326.999	80.62
327.228	88.62
327.457	70.62
327.686	76.62
327.914	81.62
328.143	102.62
328.372	74.62
328.6	83.62
328.829	84.62
329.058	84.62
329.287	72.62
329.515	89.62
329.744	80.62
329.972	97.62
330.201	91.62
330.43	84.62
330.658	91.62
330.887	77.62
331.115	69.62
331.344	83.62
331.572	93.62
331.801	68.62
332.03	95.62
332.258	85.62
332.486	98.62
332.715	88.62
332.943	84.62
333.172	71.62
333.4	91.62
333.629	82.62
333.857	69.62
334.085	87.62
334.314	75.62
334.542	87.62
334.771	95.62
334.999	88.62
335.227	84.62
335.455	88.62
335.684	93.62
335.912	85.62
336.14	95.62
336.369	105.62
336.597	79.62
336.825	87.62
337.053	89.62
337.281	83.62
337.51	72.62
337.738	85.62
337.966	67.62
338.194	88.62
338.422	82.62
338.65	93.62
338.878	83.62
339.106	87.62
339.334	82.62
339.562	91.62
339.79	78.62
340.018	83.62
340.246	79.62
340.474	89.62
340.702	79.62
340.93	61.62
341.158	75.62
341.386	88.62
341.614	71.62
341.842	80.62
342.07	72.62
342.298	94.62
342.526	89.62
342.754	95.62
342.981	83.62
343.209	88.62
343.437	105.62
343.665	94.62
343.893	86.62
344.12	107.62
344.348	91.62
344.576	84.62
344.804	91.62
345.031	96.62
345.259	73.62
345.487	73.62
345.714	64.62
345.942	72.62
346.17	80.62
346.397	84.62
346.625	95.62
346.853	82.62
347.08	79.62
347.308	81.62
347.535	72.62
347.763	78.62
347.99	87.62
348.218	84.62
348.445	68.62
348.673	83.62
348.9	78.62
349.128	91.62
349.355	86.62
349.583	73.62
349.81	84.62
350.037	92.62
350.265	75.62
350.492	73.62
350.72	77.62
350.947	87.62
351.174	92.62
351.402	88.62
351.629	95.62
351.856	89.62
352.083	88.62
352.311	90.62
352.538	73.62
352.765	73.62
352.992	97.62
353.22	78.62
353.447	77.62
353.674	76.62
353.901	100.62
354.128	81.62
354.355	77.62
354.583	73.62
354.81	85.62
355.037	84.62
355.264	84.62
355.491	87.62
355.718	86.62
355.945	85.62
356.172	84.62
356.399	92.62
356.626	85.62
356.853	92.62
357.08	81.62
357.307	86.62
357.534	85.62
357.761	80.62
357.988	83.62
358.215	91.62
358.441	80.62
358.668	103.62
358.895	93.62
359.122	72.62
359.349	91.62
359.576	83.62
359.802	76.62
360.029	81.62
360.256	77.62
360.483	86.62
360.709	87.62
360.936	86.62
361.163	84.62
361.39	87.62
361.616	87.62
361.843	80.62
362.07	92.62
362.296	87.62
362.523	105.62
362.749	88.62
362.976	108.62
363.203	113.62
363.429	82.62
363.656	84.62
363.882	91.62
364.109	97.62
364.335	106.62
364.562	119.62
364.788	104.62
365.015	82.62
365.241	71.62
365.468	87.62
365.694	94.62
365.92	83.62
366.147	77.62
366.373	79.62
366.599	71.62
366.826	79.62
367.052	83.62
367.278	85.62
367.505	74.62
367.731	96.62
367.957	83.62
368.184	99.62
368.41	92.62
368.636	87.62
368.862	89.62
369.089	78.62
369.315	86.62
369.541	80.62
369.767	84.62
369.993	86.62
370.219	88.62
370.445	83.62
370.672	78.62
370.898	89.62
371.124	83.62
371.35	91.62
371.576	95.62
371.802	70.62
372.028	83.62
372.254	85.62
372.48	79.62
372.706	85.62
372.932	109.62
373.158	97.62
373.384	107.62
373.61	81.62
373.835	103.62
374.061	77.62
374.287	75.62
374.513	74.62
374.739	99.62
374.965	92.62
375.191	81.62
375.416	74.62
375.642	98.62
375.868	73.62
376.094	83.62
376.319	81.62
376.545	83.62
376.771	75.62
376.997	73.62
377.222	82.62
377.448	85.62
377.674	82.62
377.899	69.62
378.125	90.62
378.35	91.62
378.576	78.62
378.802	80.62
379.027	86.62
379.253	91.62
379.478	80.62
379.704	95.62
379.929	72.62
380.155	83.62
380.38	95.62
380.606	83.62
380.831	86.62
381.057	82.62
381.282	81.62
381.507	100.62
381.733	89.62
381.958	94.62
382.184	84.62
382.409	88.62
382.634	87.62
382.86	79.62
383.085	91.62
383.31	73.62
383.535	94.62
383.761	91.62
383.986	91.62
384.211	93.62
384.436	83.62
384.662	77.62
384.887	94.62
385.112	99.62
385.337	83.62
385.562	90.62
385.787	95.62
386.013	82.62
386.238	97.62
386.463	82.62
386.688	88.62
386.913	74.62
387.138	92.62
387.363	84.62
387.588	91.62
387.813	94.62
388.038	70.62
388.263	79.62
388.488	82.62
388.713	67.62
388.938	94.62
389.163	81.62
389.387	84.62
389.612	83.62
389.837	84.62
390.062	78.62
390.287	83.62
390.512	81.62
390.736	90.62
390.961	84.62
391.186	81.62
391.411	86.62
391.636	87.62
391.86	97.62
392.085	89.62
392.31	82.62
392.534	84.62
392.759	108.62
392.984	113.62
393.208	181.62
393.433	247.62
393.658	201.62
393.882	113.62
394.107	98.62
394.331	125.62
394.556	102.62
394.78	100.62
395.005	85.62
395.229	85.62
395.454	101.62
395.678	108.62
395.903	111.62
396.127	127.62
396.352	141.62
396.576	135.62
396.801	184.62
397.025	191.62
397.249	134.62
397.474	100.62
397.698	96.62
397.922	84.62
398.147	79.62
398.371	86.62
398.595	88.62
398.82	82.62
399.044	86.62
399.268	73.62
399.492	79.62
399.717	81.62
399.941	93.62
400.165	89.62
400.389	93.62
400.613	81.62
400.837	72.62
401.062	76.62
401.286	73.62
401.51	95.62
401.734	92.62
401.958	83.62
402.182	85.62
402.406	80.62
402.63	79.62
402.854	84.62
403.078	95.62
403.302	91.62
403.526	96.62
403.75	100.62
403.974	86.62
404.198	96.62
404.422	85.62
404.645	106.62
404.869	110.62
405.093	86.62
405.317	84.62
405.541	81.62
405.765	103.62
405.988	96.62
406.212	82.62
406.436	85.62
406.66	86.62
406.883	77.62
407.107	82.62
407.331	89.62
407.555	75.62
407.778	92.62
408.002	109.62
408.226	80.62
408.449	73.62
408.673	85.62
408.896	85.62
409.12	92.62
409.344	93.62
409.567	86.62
409.791	91.62
410.014	93.62
410.238	94.62
410.461	84.62
410.685	83.62
410.908	74.62
411.132	91.62
411.355	85.62
411.578	83.62
411.802	68.62
412.025	86.62
412.249	83.62
412.472	80.62
412.695	81.62
412.919	87.62
413.142	83.62
413.365	78.62
413.589	80.62
413.812	83.62
414.035	91.62
414.258	81.62
414.482	92.62
414.705	76.62
414.928	87.62
415.151	84.62
415.374	85.62
415.597	83.62
415.821	72.62
416.044	81.62
416.267	86.62
416.49	91.62
416.713	81.62
416.936	89.62
417.159	81.62
417.382	72.62
417.605	77.62
417.828	95.62
418.051	78.62
418.274	79.62
418.497	91.62
418.72	73.62
418.943	83.62
419.166	82.62
419.389	71.62
419.611	89.62
419.834	79.62
420.057	104.62
420.28	77.62
420.503	92.62
420.726	89.62
420.948	84.62
421.171	88.62
421.394	96.62
421.617	121.62
421.839	108.62
422.062	109.62
422.285	142.62
422.507	209.62
422.73	283.62
422.953	269.62
423.175	169.62
423.398	131.62
423.621	107.62
423.843	86.62
424.066	92.62
424.288	93.62
424.511	93.62
424.733	89.62
424.956	88.62
425.178	93.62
425.401	91.62
425.623	91.62
425.846	86.62
426.068	87.62
426.291	95.62
426.513	77.62
426.735	76.62
426.958	88.62
427.18	88.62
427.402	83.62
427.625	79.62
427.847	72.62
428.069	96.62
428.292	115.62
428.514	118.62
428.736	94.62
428.958	120.62
429.181	123.62
429.403	95.62
429.625	96.62
429.847	104.62
430.069	125.62
430.292	146.62
430.514	152.62
430.736	102.62
430.958	113.62
431.18	101.62
431.402	75.62
431.624	103.62
431.846	111.62
432.068	110.62
432.29	82.62
432.512	91.62
432.734	87.62
432.956	92.62
433.178	83.62
433.4	85.62
433.622	87.62
433.844	83.62
434.066	80.62
434.287	83.62
434.509	87.62
434.731	76.62
434.953	89.62
435.175	83.62
435.397	80.62
435.618	92.62
435.84	80.62
436.062	79.62
436.284	83.62
436.505	80.62
436.727	93.62
436.949	85.62
437.17	92.62
437.392	90.62
437.614	78.62
437.835	101.62
438.057	78.62
438.278	98.62
438.5	86.62
438.721	86.62
438.943	87.62
439.165	80.62
439.386	78.62
439.608	80.62
439.829	76.62
440.05	77.62
440.272	86.62
440.493	99.62
440.715	85.62
440.936	80.62
441.158	91.62
441.379	77.62
441.6	69.62
441.822	87.62
442.043	79.62
442.264	101.62
442.486	112.62
442.707	152.62
442.928	119.62
443.149	102.62
443.371	127.62
443.592	190.62
443.813	189.62
444.034	109.62
444.255	85.62
444.476	83.62
444.698	76.62
444.919	100.62
445.14	184.62
445.361	145.62
445.582	221.62
445.803	192.62
446.024	114.62
446.245	95.62
446.466	91.62
446.687	98.62
446.908	93.62
447.129	76.62
447.35	81.62
447.571	83.62
447.792	81.62
448.013	73.62
448.234	99.62
448.455	86.62
448.675	83.62
448.896	88.62
449.117	89.62
449.338	91.62
449.559	95.62
449.779	68.62
450	77.62
450.221	70.62
450.442	76.62
450.662	85.62
450.883	87.62
451.104	93.62
451.324	79.62
451.545	78.62
451.766	83.62
451.986	91.62
452.207	79.62
452.428	85.62
452.648	95.62
452.869	100.62
453.089	84.62
453.31	77.62
453.53	92.62
453.751	83.62
453.971	87.62
454.192	71.62
454.412	76.62
454.633	78.62
454.853	82.62
455.073	72.62
455.294	82.62
455.514	80.62
455.734	84.62
455.955	84.62
456.175	94.62
456.395	79.62
456.616	93.62
456.836	97.62
457.056	91.62
457.276	85.62
457.497	81.62
457.717	79.62
457.937	98.62
458.157	102.62
458.377	109.62
458.598	113.62
458.818	115.62
459.038	89.62
459.258	81.62
459.478	87.62
459.698	93.62
459.918	89.62
460.138	75.62
460.358	80.62
460.578	81.62
460.798	116.62
461.018	108.62
461.238	90.62
461.458	82.62
461.678	85.62
461.898	74.62
462.118	80.62
462.338	85.62
462.558	85.62
462.777	87.62
462.997	83.62
463.217	71.62
463.437	84.62
463.657	71.62
463.876	92.62
464.096	86.62
464.316	74.62
464.536	84.62
464.755	87.62
464.975	76.62
465.195	70.62
465.414	89.62
465.634	87.62
465.854	79.62
466.073	89.62
466.293	90.62
466.512	95.62
466.732	74.62
466.951	73.62
467.171	83.62
467.391	89.62
467.61	84.62
467.829	89.62
468.049	77.62
468.268	82.62
468.488	94.62
468.707	93.62
468.927	67.62
469.146	93.62
469.365	93.62
469.585	78.62
469.804	97.62
470.023	87.62
470.243	80.62
470.462	79.62
470.681	79.62
470.901	81.62
471.12	68.62
471.339	89.62
471.558	90.62
471.777	87.62
471.997	103.62
472.216	79.62
472.435	92.62
472.654	83.62
472.873	86.62
473.092	87.62
473.311	77.62
473.53	89.62
473.749	101.62
473.968	89.62
474.187	98.62
474.406	82.62
474.625	91.62
474.844	71.62
475.063	91.62
475.282	85.62
475.501	83.62
475.72	92.62
475.939	97.62
476.158	79.62
476.377	68.62
476.596	78.62
476.814	77.62
477.033	96.62
477.252	83.62
477.471	77.62
477.69	87.62
477.908	86.62
478.127	84.62
478.346	80.62
478.564	83.62
478.783	82.62
479.002	82.62
479.22	89.62
479.439	87.62
479.658	94.62
479.876	64.62
480.095	62.62
480.313	93.62
480.532	101.62
480.751	87.62
480.969	75.62
481.188	86.62
481.406	86.62
481.624	75.62
481.843	88.62
482.061	74.62
482.28	98.62
482.498	95.62
482.717	85.62
482.935	94.62
483.153	81.62
483.372	102.62
483.59	91.62
483.808	85.62
484.027	96.62
484.245	82.62
484.463	85.62
484.681	90.62
484.9	118.62
485.118	80.62
485.336	84.62
485.554	78.62
485.772	92.62
485.99	77.62
486.209	92.62
486.427	96.62
486.645	104.62
486.863	96.62
487.081	94.62
487.299	98.62
487.517	86.62
487.735	105.62
487.953	157.62
488.171	130.62
488.389	83.62
488.607	68.62
488.825	93.62
489.043	79.62
489.261	89.62
489.479	93.62
489.696	86.62
489.914	100.62
490.132	86.62
490.35	108.62
490.568	89.62
490.786	80.62
491.003	70.62
491.221	97.62
491.439	73.62
491.657	85.62
491.874	100.62
492.092	73.62
492.31	90.62
492.527	93.62
492.745	83.62
492.963	91.62
493.18	91.62
493.398	92.62
493.615	105.62
493.833	92.62
494.05	91.62
494.268	81.62
494.485	90.62
494.703	78.62
494.92	93.62
495.138	74.62
495.355	99.62
495.573	99.62
495.79	89.62
496.008	112.62
496.225	79.62
496.442	95.62
496.66	91.62
496.877	94.62
497.094	76.62
497.312	100.62
497.529	93.62
497.746	94.62
497.963	85.62
498.181	96.62
498.398	102.62
498.615	102.62
498.832	84.62
499.049	74.62
499.267	98.62
499.484	92.62
499.701	88.62
499.918	84.62
500.135	88.62
500.352	82.62
500.569	77.62
500.786	79.62
501.003	92.62
501.22	94.62
501.437	91.62
501.654	100.62
501.871	89.62
502.088	81.62
502.305	103.62
502.522	89.62
502.739	72.62
502.956	88.62
503.172	92.62
503.389	99.62
503.606	87.62
503.823	87.62
504.04	95.62
504.256	129.62
504.473	131.62
504.69	108.62
504.907	100.62
505.123	84.62
505.34	89.62
505.557	97.62
505.773	93.62
505.99	96.62
506.207	94.62
506.423	100.62
506.64	85.62
506.856	85.62
507.073	80.62
507.289	81.62
507.506	100.62
507.722	84.62
507.939	77.62
508.155	91.62
508.372	79.62
508.588	81.62
508.805	92.62
509.021	87.62
509.238	91.62
509.454	84.62
509.67	87.62
509.887	80.62
510.103	76.62
510.319	92.62
510.536	83.62
510.752	95.62
510.968	65.62
511.184	87.62
511.401	91.62
511.617	101.62
511.833	90.62
512.049	105.62
512.265	95.62
512.481	79.62
512.698	84.62
512.914	93.62
513.13	89.62
513.346	83.62
513.562	70.62
513.778	81.62
513.994	77.62
514.21	76.62
514.426	81.62
514.642	81.62
514.858	87.62
515.074	80.62
515.29	72.62
515.506	91.62
515.721	89.62
515.937	82.62
516.153	93.62
516.369	92.62
516.585	82.62
516.801	95.62
517.016	98.62
517.232	88.62
517.448	91.62
517.664	99.62
517.879	91.62
518.095	94.62
518.311	89.62
518.527	95.62
