Data from 17600_2_HRD10591_00041.txt Node
Date: Mon Jan 19 14:08:43 EST 2026
User: Yrep
Spectrometer: HR+D1059
Trigger mode: 1
Integration Time (sec): 1.000000E-1
Scans to average: 1
Electric dark correction enabled: true
Nonlinearity correction enabled: false
Boxcar width: 0
XAxis mode: Wavelengths
Number of Pixels in Spectrum: 2048
>>>>>Begin Spectral Data<<<<<
223.165	-15.94
223.4	-15.94
223.635	-15.94
223.869	-26.94
224.104	-3.94
224.338	-16.94
224.573	-24.94
224.808	-11.94
225.042	0.06
225.277	6.06
225.511	-4.94
225.746	5.06
225.98	10.06
226.215	1.06
226.449	16.06
226.683	12.06
226.918	16.06
227.152	39.06
227.387	31.06
227.621	45.06
227.856	40.06
228.09	48.06
228.324	53.06
228.559	74.06
228.793	67.06
229.027	58.06
229.262	64.06
229.496	51.06
229.73	63.06
229.964	67.06
230.199	73.06
230.433	80.06
230.667	88.06
230.901	81.06
231.136	73.06
231.37	71.06
231.604	72.06
231.838	90.06
232.072	101.06
232.306	86.06
232.541	72.06
232.775	69.06
233.009	100.06
233.243	91.06
233.477	75.06
233.711	85.06
233.945	76.06
234.179	73.06
234.413	71.06
234.647	81.06
234.881	82.06
235.115	91.06
235.349	93.06
235.583	86.06
235.817	79.06
236.051	82.06
236.285	71.06
236.519	62.06
236.753	72.06
236.987	81.06
237.221	69.06
237.455	79.06
237.689	75.06
237.922	72.06
238.156	67.06
238.39	84.06
238.624	74.06
238.858	74.06
239.091	71.06
239.325	66.06
239.559	64.06
239.793	76.06
240.027	72.06
240.26	82.06
240.494	82.06
240.728	64.06
240.961	67.06
241.195	87.06
241.429	77.06
241.662	64.06
241.896	71.06
242.13	81.06
242.363	84.06
242.597	69.06
242.83	85.06
243.064	68.06
243.298	76.06
243.531	85.06
243.765	82.06
243.998	86.06
244.232	72.06
244.465	68.06
244.699	70.06
244.932	79.06
245.166	90.06
245.399	86.06
245.633	71.06
245.866	60.06
246.099	81.06
246.333	70.06
246.566	72.06
246.8	76.06
247.033	67.06
247.266	82.06
247.5	77.06
247.733	63.06
247.966	71.06
248.2	82.06
248.433	89.06
248.666	76.06
248.899	75.06
249.133	77.06
249.366	65.06
249.599	81.06
249.832	60.06
250.066	86.06
250.299	85.06
250.532	88.06
250.765	72.06
250.998	72.06
251.231	65.06
251.465	83.06
251.698	74.06
251.931	90.06
252.164	72.06
252.397	78.06
252.63	79.06
252.863	63.06
253.096	83.06
253.329	87.06
253.562	62.06
253.795	82.06
254.028	90.06
254.261	91.06
254.494	70.06
254.727	77.06
254.96	78.06
255.193	87.06
255.426	82.06
255.659	76.06
255.892	89.06
256.124	82.06
256.357	74.06
256.59	90.06
256.823	67.06
257.056	75.06
257.289	71.06
257.521	76.06
257.754	74.06
257.987	81.06
258.22	83.06
258.452	79.06
258.685	80.06
258.918	91.06
259.151	66.06
259.383	85.06
259.616	80.06
259.849	73.06
260.081	84.06
260.314	78.06
260.547	69.06
260.779	86.06
261.012	83.06
261.244	78.06
261.477	85.06
261.71	74.06
261.942	84.06
262.175	70.06
262.407	77.06
262.64	90.06
262.872	91.06
263.105	94.06
263.337	100.06
263.57	76.06
263.802	76.06
264.035	86.06
264.267	85.06
264.499	82.06
264.732	70.06
264.964	93.06
265.197	83.06
265.429	72.06
265.661	66.06
265.894	91.06
266.126	83.06
266.358	96.06
266.591	76.06
266.823	82.06
267.055	80.06
267.287	76.06
267.52	84.06
267.752	73.06
267.984	88.06
268.216	70.06
268.448	74.06
268.681	103.06
268.913	89.06
269.145	78.06
269.377	82.06
269.609	87.06
269.841	78.06
270.073	96.06
270.306	79.06
270.538	77.06
270.77	69.06
271.002	77.06
271.234	98.06
271.466	73.06
271.698	69.06
271.93	74.06
272.162	78.06
272.394	78.06
272.626	71.06
272.858	80.06
273.09	94.06
273.322	85.06
273.553	87.06
273.785	92.06
274.017	70.06
274.249	88.06
274.481	78.06
274.713	86.06
274.945	80.06
275.176	84.06
275.408	80.06
275.64	76.06
275.872	82.06
276.104	87.06
276.335	77.06
276.567	85.06
276.799	76.06
277.031	82.06
277.262	75.06
277.494	83.06
277.726	80.06
277.957	88.06
278.189	77.06
278.421	84.06
278.652	89.06
278.884	87.06
279.115	86.06
279.347	88.06
279.579	82.06
279.81	74.06
280.042	91.06
280.273	74.06
280.505	89.06
280.736	91.06
280.968	101.06
281.199	81.06
281.431	87.06
281.662	78.06
281.894	79.06
282.125	101.06
282.356	93.06
282.588	80.06
282.819	80.06
283.051	88.06
283.282	90.06
283.513	88.06
283.745	78.06
283.976	92.06
284.207	95.06
284.439	86.06
284.67	71.06
284.901	87.06
285.132	85.06
285.364	68.06
285.595	78.06
285.826	89.06
286.057	83.06
286.288	77.06
286.52	82.06
286.751	83.06
286.982	92.06
287.213	74.06
287.444	95.06
287.675	94.06
287.906	94.06
288.138	87.06
288.369	88.06
288.6	88.06
288.831	82.06
289.062	88.06
289.293	86.06
289.524	83.06
289.755	82.06
289.986	70.06
290.217	73.06
290.448	75.06
290.679	71.06
290.91	71.06
291.141	88.06
291.371	77.06
291.602	80.06
291.833	76.06
292.064	80.06
292.295	90.06
292.526	74.06
292.757	87.06
292.987	89.06
293.218	85.06
293.449	76.06
293.68	76.06
293.91	80.06
294.141	83.06
294.372	92.06
294.603	87.06
294.833	87.06
295.064	82.06
295.295	81.06
295.525	88.06
295.756	76.06
295.987	90.06
296.217	87.06
296.448	90.06
296.679	86.06
296.909	97.06
297.14	78.06
297.37	78.06
297.601	79.06
297.831	82.06
298.062	86.06
298.292	82.06
298.523	93.06
298.753	96.06
298.984	79.06
299.214	77.06
299.445	85.06
299.675	91.06
299.905	73.06
300.136	93.06
300.366	81.06
300.597	74.06
300.827	97.06
301.057	80.06
301.288	88.06
301.518	92.06
301.748	84.06
301.979	104.06
302.209	82.06
302.439	72.06
302.669	72.06
302.9	70.06
303.13	94.06
303.36	87.06
303.59	86.06
303.82	93.06
304.051	80.06
304.281	101.06
304.511	80.06
304.741	87.06
304.971	86.06
305.201	78.06
305.431	85.06
305.661	82.06
305.891	79.06
306.121	100.06
306.352	89.06
306.582	86.06
306.812	82.06
307.042	88.06
307.272	77.06
307.502	83.06
307.731	88.06
307.961	90.06
308.191	89.06
308.421	85.06
308.651	83.06
308.881	90.06
309.111	82.06
309.341	90.06
309.571	101.06
309.8	98.06
310.03	82.06
310.26	84.06
310.49	94.06
310.72	76.06
310.949	92.06
311.179	93.06
311.409	75.06
311.639	86.06
311.868	82.06
312.098	88.06
312.328	86.06
312.557	88.06
312.787	93.06
313.017	100.06
313.246	96.06
313.476	87.06
313.706	86.06
313.935	72.06
314.165	75.06
314.394	97.06
314.624	81.06
314.853	84.06
315.083	87.06
315.312	88.06
315.542	82.06
315.771	84.06
316.001	86.06
316.23	88.06
316.46	77.06
316.689	71.06
316.919	83.06
317.148	74.06
317.377	86.06
317.607	108.06
317.836	95.06
318.065	75.06
318.295	89.06
318.524	85.06
318.753	83.06
318.983	80.06
319.212	80.06
319.441	63.06
319.67	84.06
319.9	88.06
320.129	90.06
320.358	93.06
320.587	91.06
320.816	66.06
321.046	76.06
321.275	88.06
321.504	98.06
321.733	80.06
321.962	93.06
322.191	90.06
322.42	88.06
322.649	87.06
322.878	86.06
323.108	74.06
323.337	82.06
323.566	78.06
323.795	84.06
324.024	78.06
324.253	72.06
324.482	70.06
324.71	85.06
324.939	86.06
325.168	84.06
325.397	76.06
325.626	81.06
325.855	85.06
326.084	90.06
326.313	87.06
326.542	91.06
326.77	87.06
326.999	95.06
327.228	80.06
327.457	88.06
327.686	82.06
327.914	81.06
328.143	95.06
328.372	78.06
328.6	82.06
328.829	95.06
329.058	86.06
329.287	98.06
329.515	91.06
329.744	75.06
329.972	88.06
330.201	83.06
330.43	91.06
330.658	76.06
330.887	82.06
331.115	73.06
331.344	86.06
331.572	94.06
331.801	76.06
332.03	87.06
332.258	93.06
332.486	90.06
332.715	98.06
332.943	105.06
333.172	85.06
333.4	87.06
333.629	90.06
333.857	71.06
334.085	87.06
334.314	97.06
334.542	86.06
334.771	93.06
334.999	84.06
335.227	95.06
335.455	76.06
335.684	88.06
335.912	98.06
336.14	79.06
336.369	77.06
336.597	101.06
336.825	91.06
337.053	74.06
337.281	95.06
337.51	91.06
337.738	76.06
337.966	70.06
338.194	85.06
338.422	82.06
338.65	80.06
338.878	83.06
339.106	88.06
339.334	94.06
339.562	85.06
339.79	79.06
340.018	89.06
340.246	89.06
340.474	84.06
340.702	95.06
340.93	76.06
341.158	92.06
341.386	74.06
341.614	79.06
341.842	76.06
342.07	95.06
342.298	87.06
342.526	94.06
342.754	77.06
342.981	86.06
343.209	76.06
343.437	100.06
343.665	90.06
343.893	93.06
344.12	77.06
344.348	97.06
344.576	90.06
344.804	85.06
345.031	110.06
345.259	76.06
345.487	87.06
345.714	87.06
345.942	93.06
346.17	82.06
346.397	70.06
346.625	84.06
346.853	75.06
347.08	76.06
347.308	94.06
347.535	74.06
347.763	76.06
347.99	95.06
348.218	91.06
348.445	90.06
348.673	68.06
348.9	68.06
349.128	82.06
349.355	90.06
349.583	83.06
349.81	79.06
350.037	75.06
350.265	88.06
350.492	81.06
350.72	96.06
350.947	78.06
351.174	87.06
351.402	81.06
351.629	98.06
351.856	99.06
352.083	94.06
352.311	94.06
352.538	76.06
352.765	89.06
352.992	83.06
353.22	75.06
353.447	87.06
353.674	88.06
353.901	89.06
354.128	80.06
354.355	88.06
354.583	79.06
354.81	84.06
355.037	97.06
355.264	95.06
355.491	74.06
355.718	79.06
355.945	92.06
356.172	71.06
356.399	77.06
356.626	91.06
356.853	80.06
357.08	91.06
357.307	96.06
357.534	82.06
357.761	82.06
357.988	88.06
358.215	84.06
358.441	92.06
358.668	83.06
358.895	75.06
359.122	96.06
359.349	86.06
359.576	85.06
359.802	72.06
360.029	91.06
360.256	86.06
360.483	84.06
360.709	83.06
360.936	93.06
361.163	85.06
361.39	89.06
361.616	82.06
361.843	84.06
362.07	90.06
362.296	76.06
362.523	89.06
362.749	85.06
362.976	106.06
363.203	100.06
363.429	77.06
363.656	86.06
363.882	89.06
364.109	96.06
364.335	90.06
364.562	87.06
364.788	94.06
365.015	81.06
365.241	94.06
365.468	85.06
365.694	85.06
365.92	93.06
366.147	84.06
366.373	85.06
366.599	83.06
366.826	71.06
367.052	79.06
367.278	80.06
367.505	93.06
367.731	85.06
367.957	100.06
368.184	97.06
368.41	75.06
368.636	70.06
368.862	83.06
369.089	83.06
369.315	83.06
369.541	85.06
369.767	74.06
369.993	98.06
370.219	77.06
370.445	80.06
370.672	83.06
370.898	88.06
371.124	91.06
371.35	96.06
371.576	94.06
371.802	81.06
372.028	82.06
372.254	82.06
372.48	84.06
372.706	80.06
372.932	84.06
373.158	87.06
373.384	94.06
373.61	91.06
373.835	110.06
374.061	96.06
374.287	94.06
374.513	80.06
374.739	79.06
374.965	95.06
375.191	89.06
375.416	76.06
375.642	84.06
375.868	84.06
376.094	85.06
376.319	80.06
376.545	64.06
376.771	82.06
376.997	91.06
377.222	83.06
377.448	76.06
377.674	83.06
377.899	76.06
378.125	81.06
378.35	84.06
378.576	97.06
378.802	80.06
379.027	93.06
379.253	80.06
379.478	84.06
379.704	94.06
379.929	75.06
380.155	87.06
380.38	83.06
380.606	77.06
380.831	97.06
381.057	82.06
381.282	72.06
381.507	80.06
381.733	90.06
381.958	88.06
382.184	88.06
382.409	86.06
382.634	81.06
382.86	71.06
383.085	89.06
383.31	87.06
383.535	94.06
383.761	97.06
383.986	98.06
384.211	90.06
384.436	58.06
384.662	80.06
384.887	91.06
385.112	67.06
385.337	77.06
385.562	84.06
385.787	77.06
386.013	73.06
386.238	93.06
386.463	80.06
386.688	95.06
386.913	85.06
387.138	63.06
387.363	73.06
387.588	103.06
387.813	86.06
388.038	80.06
388.263	100.06
388.488	98.06
388.713	81.06
388.938	83.06
389.163	73.06
389.387	86.06
389.612	69.06
389.837	100.06
390.062	84.06
390.287	83.06
390.512	86.06
390.736	84.06
390.961	83.06
391.186	90.06
391.411	80.06
391.636	83.06
391.86	81.06
392.085	73.06
392.31	81.06
392.534	87.06
392.759	94.06
392.984	120.06
393.208	204.06
393.433	283.06
393.658	221.06
393.882	108.06
394.107	81.06
394.331	112.06
394.556	92.06
394.78	75.06
395.005	77.06
395.229	79.06
395.454	91.06
395.678	87.06
395.903	90.06
396.127	107.06
396.352	117.06
396.576	131.06
396.801	188.06
397.025	212.06
397.249	120.06
397.474	95.06
397.698	94.06
397.922	73.06
398.147	77.06
398.371	77.06
398.595	92.06
398.82	78.06
399.044	74.06
399.268	75.06
399.492	86.06
399.717	68.06
399.941	86.06
400.165	88.06
400.389	78.06
400.613	84.06
400.837	90.06
401.062	72.06
401.286	80.06
401.51	76.06
401.734	80.06
401.958	82.06
402.182	80.06
402.406	69.06
402.63	84.06
402.854	82.06
403.078	66.06
403.302	93.06
403.526	81.06
403.75	98.06
403.974	72.06
404.198	80.06
404.422	93.06
404.645	80.06
404.869	72.06
405.093	92.06
405.317	92.06
405.541	97.06
405.765	96.06
405.988	69.06
406.212	68.06
406.436	71.06
406.66	81.06
406.883	64.06
407.107	67.06
407.331	78.06
407.555	99.06
407.778	106.06
408.002	108.06
408.226	76.06
408.449	71.06
408.673	81.06
408.896	80.06
409.12	90.06
409.344	86.06
409.567	99.06
409.791	94.06
410.014	80.06
410.238	76.06
410.461	62.06
410.685	82.06
410.908	80.06
411.132	99.06
411.355	80.06
411.578	85.06
411.802	63.06
412.025	84.06
412.249	92.06
412.472	84.06
412.695	71.06
412.919	77.06
413.142	84.06
413.365	85.06
413.589	80.06
413.812	96.06
414.035	89.06
414.258	90.06
414.482	85.06
414.705	88.06
414.928	81.06
415.151	92.06
415.374	70.06
415.597	68.06
415.821	82.06
416.044	83.06
416.267	92.06
416.49	90.06
416.713	86.06
416.936	89.06
417.159	82.06
417.382	81.06
417.605	64.06
417.828	70.06
418.051	92.06
418.274	83.06
418.497	90.06
418.72	75.06
418.943	90.06
419.166	68.06
419.389	88.06
419.611	80.06
419.834	87.06
420.057	95.06
420.28	76.06
420.503	89.06
420.726	95.06
420.948	74.06
421.171	88.06
421.394	102.06
421.617	113.06
421.839	106.06
422.062	77.06
422.285	95.06
422.507	120.06
422.73	204.06
422.953	188.06
423.175	87.06
423.398	69.06
423.621	103.06
423.843	79.06
424.066	87.06
424.288	83.06
424.511	84.06
424.733	71.06
424.956	78.06
425.178	69.06
425.401	77.06
425.623	88.06
425.846	83.06
426.068	69.06
426.291	74.06
426.513	69.06
426.735	85.06
426.958	93.06
427.18	79.06
427.402	95.06
427.625	77.06
427.847	93.06
428.069	82.06
428.292	76.06
428.514	95.06
428.736	88.06
428.958	107.06
429.181	90.06
429.403	73.06
429.625	91.06
429.847	88.06
430.069	102.06
430.292	109.06
430.514	114.06
430.736	101.06
430.958	100.06
431.18	80.06
431.402	88.06
431.624	102.06
431.846	90.06
432.068	86.06
432.29	86.06
432.512	96.06
432.734	65.06
432.956	76.06
433.178	70.06
433.4	69.06
433.622	88.06
433.844	83.06
434.066	86.06
434.287	67.06
434.509	78.06
434.731	86.06
434.953	84.06
435.175	82.06
435.397	83.06
435.618	78.06
435.84	82.06
436.062	81.06
436.284	69.06
436.505	73.06
436.727	84.06
436.949	77.06
437.17	77.06
437.392	73.06
437.614	75.06
437.835	89.06
438.057	72.06
438.278	77.06
438.5	78.06
438.721	89.06
438.943	83.06
439.165	74.06
439.386	84.06
439.608	73.06
439.829	80.06
440.05	81.06
440.272	56.06
440.493	83.06
440.715	82.06
440.936	110.06
441.158	81.06
441.379	83.06
441.6	74.06
441.822	71.06
442.043	77.06
442.264	92.06
442.486	97.06
442.707	110.06
442.928	94.06
443.149	90.06
443.371	107.06
443.592	134.06
443.813	96.06
444.034	86.06
444.255	107.06
444.476	65.06
444.698	86.06
444.919	73.06
445.14	140.06
445.361	126.06
445.582	127.06
445.803	115.06
446.024	80.06
446.245	70.06
446.466	79.06
446.687	83.06
446.908	86.06
447.129	67.06
447.35	72.06
447.571	76.06
447.792	70.06
448.013	87.06
448.234	76.06
448.455	85.06
448.675	87.06
448.896	82.06
449.117	73.06
449.338	84.06
449.559	80.06
449.779	74.06
450	71.06
450.221	86.06
450.442	67.06
450.662	86.06
450.883	87.06
451.104	83.06
451.324	63.06
451.545	67.06
451.766	77.06
451.986	82.06
452.207	82.06
452.428	76.06
452.648	87.06
452.869	82.06
453.089	76.06
453.31	88.06
453.53	73.06
453.751	82.06
453.971	80.06
454.192	66.06
454.412	84.06
454.633	84.06
454.853	94.06
455.073	64.06
455.294	84.06
455.514	80.06
455.734	83.06
455.955	90.06
456.175	79.06
456.395	89.06
456.616	74.06
456.836	84.06
457.056	86.06
457.276	77.06
457.497	82.06
457.717	73.06
457.937	75.06
458.157	91.06
458.377	89.06
458.598	89.06
458.818	81.06
459.038	76.06
459.258	80.06
459.478	76.06
459.698	82.06
459.918	80.06
460.138	76.06
460.358	74.06
460.578	85.06
460.798	106.06
461.018	98.06
461.238	81.06
461.458	82.06
461.678	67.06
461.898	91.06
462.118	76.06
462.338	69.06
462.558	75.06
462.777	83.06
462.997	84.06
463.217	84.06
463.437	71.06
463.657	78.06
463.876	82.06
464.096	84.06
464.316	86.06
464.536	80.06
464.755	75.06
464.975	83.06
465.195	86.06
465.414	84.06
465.634	74.06
465.854	80.06
466.073	80.06
466.293	84.06
466.512	76.06
466.732	90.06
466.951	74.06
467.171	88.06
467.391	74.06
467.61	73.06
467.829	86.06
468.049	88.06
468.268	81.06
468.488	75.06
468.707	72.06
468.927	78.06
469.146	86.06
469.365	80.06
469.585	85.06
469.804	83.06
470.023	75.06
470.243	79.06
470.462	79.06
470.681	87.06
470.901	85.06
471.12	76.06
471.339	97.06
471.558	70.06
471.777	84.06
471.997	76.06
472.216	84.06
472.435	67.06
472.654	71.06
472.873	70.06
473.092	70.06
473.311	87.06
473.53	83.06
473.749	82.06
473.968	90.06
474.187	76.06
474.406	80.06
474.625	80.06
474.844	76.06
475.063	81.06
475.282	77.06
475.501	89.06
475.72	74.06
475.939	75.06
476.158	80.06
476.377	80.06
476.596	98.06
476.814	88.06
477.033	85.06
477.252	86.06
477.471	82.06
477.69	85.06
477.908	84.06
478.127	81.06
478.346	81.06
478.564	85.06
478.783	97.06
479.002	78.06
479.22	95.06
479.439	82.06
479.658	78.06
479.876	80.06
480.095	80.06
480.313	81.06
480.532	81.06
480.751	68.06
480.969	93.06
481.188	95.06
481.406	87.06
481.624	74.06
481.843	85.06
482.061	77.06
482.28	77.06
482.498	74.06
482.717	73.06
482.935	87.06
483.153	86.06
483.372	81.06
483.59	73.06
483.808	85.06
484.027	78.06
484.245	94.06
484.463	96.06
484.681	89.06
484.9	80.06
485.118	88.06
485.336	81.06
485.554	72.06
485.772	77.06
485.99	76.06
486.209	89.06
486.427	78.06
486.645	80.06
486.863	79.06
487.081	75.06
487.299	80.06
487.517	87.06
487.735	73.06
487.953	80.06
488.171	90.06
488.389	82.06
488.607	81.06
488.825	66.06
489.043	81.06
489.261	85.06
489.479	77.06
489.696	100.06
489.914	88.06
490.132	73.06
490.35	80.06
490.568	64.06
490.786	84.06
491.003	83.06
491.221	77.06
491.439	79.06
491.657	79.06
491.874	72.06
492.092	88.06
492.31	79.06
492.527	86.06
492.745	74.06
492.963	77.06
493.18	81.06
493.398	76.06
493.615	66.06
493.833	80.06
494.05	74.06
494.268	70.06
494.485	87.06
494.703	94.06
494.92	75.06
495.138	94.06
495.355	88.06
495.573	80.06
495.79	86.06
496.008	96.06
496.225	84.06
496.442	77.06
496.66	87.06
496.877	76.06
497.094	88.06
497.312	86.06
497.529	81.06
497.746	76.06
497.963	72.06
498.181	87.06
498.398	94.06
498.615	83.06
498.832	94.06
499.049	86.06
499.267	85.06
499.484	88.06
499.701	100.06
499.918	84.06
500.135	87.06
500.352	84.06
500.569	94.06
500.786	81.06
501.003	90.06
501.22	78.06
501.437	79.06
501.654	82.06
501.871	78.06
502.088	86.06
502.305	87.06
502.522	68.06
502.739	82.06
502.956	83.06
503.172	89.06
503.389	74.06
503.606	85.06
503.823	81.06
504.04	87.06
504.256	97.06
504.473	89.06
504.69	86.06
504.907	73.06
505.123	97.06
505.34	84.06
505.557	92.06
505.773	80.06
505.99	75.06
506.207	93.06
506.423	84.06
506.64	74.06
506.856	90.06
507.073	81.06
507.289	67.06
507.506	92.06
507.722	85.06
507.939	81.06
508.155	93.06
508.372	76.06
508.588	85.06
508.805	87.06
509.021	89.06
509.238	80.06
509.454	76.06
509.67	91.06
509.887	103.06
510.103	80.06
510.319	78.06
510.536	91.06
510.752	88.06
510.968	85.06
511.184	85.06
511.401	81.06
511.617	88.06
511.833	89.06
512.049	69.06
512.265	83.06
512.481	88.06
512.698	83.06
512.914	82.06
513.13	98.06
513.346	87.06
513.562	80.06
513.778	78.06
513.994	95.06
514.21	86.06
514.426	84.06
514.642	87.06
514.858	77.06
515.074	82.06
515.29	93.06
515.506	77.06
515.721	89.06
515.937	81.06
516.153	81.06
516.369	87.06
516.585	82.06
516.801	74.06
517.016	88.06
517.232	72.06
517.448	81.06
517.664	90.06
517.879	81.06
518.095	69.06
518.311	90.06
518.527	81.06
518.742	79.06
518.958	83.06
519.173	93.06
519.389	75.06
