Data from 17600_2_HRD10591_00003.txt Node
Date: Mon Jan 19 14:08:24 EST 2026
User: Yrep
Spectrometer: HR+D1059
Trigger mode: 1
Integration Time (sec): 1.000000E-1
Scans to average: 1
Electric dark correction enabled: true
Nonlinearity correction enabled: false
Boxcar width: 0
XAxis mode: Wavelengths
Number of Pixels in Spectrum: 2048
>>>>>Begin Spectral Data<<<<<
223.165	-20.69
223.4	-20.69
223.635	-20.69
223.869	-25.69
224.104	-15.69
224.338	-10.69
224.573	-20.69
224.808	-13.69
225.042	-4.69
225.277	-1.69
225.511	-10.69
225.746	11.31
225.98	12.31
226.215	7.31
226.449	11.31
226.683	23.31
226.918	24.31
227.152	34.31
227.387	51.31
227.621	30.31
227.856	58.31
228.09	50.31
228.324	55.31
228.559	54.31
228.793	54.31
229.027	64.31
229.262	70.31
229.496	62.31
229.73	69.31
229.964	67.31
230.199	80.31
230.433	64.31
230.667	94.31
230.901	73.31
231.136	78.31
231.37	79.31
231.604	82.31
231.838	74.31
232.072	92.31
232.306	67.31
232.541	83.31
232.775	77.31
233.009	73.31
233.243	88.31
233.477	81.31
233.711	83.31
233.945	83.31
234.179	82.31
234.413	65.31
234.647	71.31
234.881	71.31
235.115	75.31
235.349	66.31
235.583	86.31
235.817	73.31
236.051	93.31
236.285	86.31
236.519	72.31
236.753	88.31
236.987	88.31
237.221	86.31
237.455	76.31
237.689	84.31
237.922	69.31
238.156	77.31
238.39	61.31
238.624	76.31
238.858	83.31
239.091	67.31
239.325	82.31
239.559	62.31
239.793	76.31
240.027	89.31
240.26	90.31
240.494	84.31
240.728	76.31
240.961	80.31
241.195	70.31
241.429	70.31
241.662	62.31
241.896	75.31
242.13	59.31
242.363	71.31
242.597	79.31
242.83	72.31
243.064	86.31
243.298	79.31
243.531	90.31
243.765	84.31
243.998	69.31
244.232	80.31
244.465	64.31
244.699	86.31
244.932	77.31
245.166	82.31
245.399	75.31
245.633	80.31
245.866	88.31
246.099	72.31
246.333	85.31
246.566	64.31
246.8	86.31
247.033	74.31
247.266	74.31
247.5	71.31
247.733	60.31
247.966	65.31
248.2	70.31
248.433	71.31
248.666	71.31
248.899	79.31
249.133	82.31
249.366	75.31
249.599	85.31
249.832	79.31
250.066	80.31
250.299	91.31
250.532	92.31
250.765	69.31
250.998	61.31
251.231	75.31
251.465	96.31
251.698	82.31
251.931	67.31
252.164	78.31
252.397	62.31
252.63	96.31
252.863	74.31
253.096	84.31
253.329	74.31
253.562	67.31
253.795	66.31
254.028	79.31
254.261	71.31
254.494	74.31
254.727	85.31
254.96	82.31
255.193	89.31
255.426	76.31
255.659	80.31
255.892	92.31
256.124	82.31
256.357	70.31
256.59	84.31
256.823	80.31
257.056	83.31
257.289	70.31
257.521	78.31
257.754	87.31
257.987	86.31
258.22	66.31
258.452	81.31
258.685	75.31
258.918	82.31
259.151	88.31
259.383	77.31
259.616	78.31
259.849	68.31
260.081	78.31
260.314	85.31
260.547	71.31
260.779	84.31
261.012	84.31
261.244	86.31
261.477	75.31
261.71	72.31
261.942	83.31
262.175	74.31
262.407	90.31
262.64	89.31
262.872	87.31
263.105	84.31
263.337	100.31
263.57	86.31
263.802	86.31
264.035	94.31
264.267	83.31
264.499	74.31
264.732	94.31
264.964	87.31
265.197	83.31
265.429	71.31
265.661	92.31
265.894	96.31
266.126	89.31
266.358	86.31
266.591	74.31
266.823	94.31
267.055	81.31
267.287	82.31
267.52	97.31
267.752	86.31
267.984	77.31
268.216	82.31
268.448	86.31
268.681	85.31
268.913	71.31
269.145	77.31
269.377	80.31
269.609	80.31
269.841	78.31
270.073	83.31
270.306	84.31
270.538	96.31
270.77	85.31
271.002	90.31
271.234	83.31
271.466	84.31
271.698	73.31
271.93	94.31
272.162	92.31
272.394	85.31
272.626	92.31
272.858	75.31
273.09	75.31
273.322	82.31
273.553	97.31
273.785	67.31
274.017	94.31
274.249	85.31
274.481	90.31
274.713	77.31
274.945	80.31
275.176	97.31
275.408	101.31
275.64	102.31
275.872	88.31
276.104	94.31
276.335	100.31
276.567	95.31
276.799	86.31
277.031	77.31
277.262	90.31
277.494	74.31
277.726	86.31
277.957	83.31
278.189	92.31
278.421	91.31
278.652	84.31
278.884	79.31
279.115	88.31
279.347	95.31
279.579	87.31
279.81	82.31
280.042	82.31
280.273	66.31
280.505	89.31
280.736	83.31
280.968	82.31
281.199	76.31
281.431	81.31
281.662	84.31
281.894	79.31
282.125	72.31
282.356	87.31
282.588	88.31
282.819	87.31
283.051	95.31
283.282	79.31
283.513	92.31
283.745	72.31
283.976	61.31
284.207	97.31
284.439	82.31
284.67	81.31
284.901	96.31
285.132	100.31
285.364	84.31
285.595	98.31
285.826	90.31
286.057	91.31
286.288	80.31
286.52	82.31
286.751	83.31
286.982	74.31
287.213	82.31
287.444	100.31
287.675	97.31
287.906	87.31
288.138	91.31
288.369	91.31
288.6	77.31
288.831	86.31
289.062	96.31
289.293	85.31
289.524	90.31
289.755	94.31
289.986	95.31
290.217	82.31
290.448	80.31
290.679	91.31
290.91	70.31
291.141	85.31
291.371	81.31
291.602	84.31
291.833	81.31
292.064	83.31
292.295	85.31
292.526	89.31
292.757	102.31
292.987	89.31
293.218	80.31
293.449	76.31
293.68	87.31
293.91	83.31
294.141	92.31
294.372	82.31
294.603	95.31
294.833	100.31
295.064	89.31
295.295	74.31
295.525	73.31
295.756	100.31
295.987	104.31
296.217	81.31
296.448	88.31
296.679	89.31
296.909	92.31
297.14	77.31
297.37	92.31
297.601	94.31
297.831	89.31
298.062	89.31
298.292	92.31
298.523	75.31
298.753	80.31
298.984	88.31
299.214	90.31
299.445	97.31
299.675	91.31
299.905	95.31
300.136	90.31
300.366	84.31
300.597	88.31
300.827	92.31
301.057	84.31
301.288	98.31
301.518	96.31
301.748	96.31
301.979	101.31
302.209	91.31
302.439	79.31
302.669	90.31
302.9	85.31
303.13	73.31
303.36	92.31
303.59	73.31
303.82	85.31
304.051	86.31
304.281	87.31
304.511	95.31
304.741	91.31
304.971	91.31
305.201	79.31
305.431	92.31
305.661	82.31
305.891	85.31
306.121	81.31
306.352	92.31
306.582	78.31
306.812	94.31
307.042	87.31
307.272	84.31
307.502	90.31
307.731	87.31
307.961	87.31
308.191	97.31
308.421	100.31
308.651	101.31
308.881	88.31
309.111	88.31
309.341	106.31
309.571	99.31
309.8	94.31
310.03	95.31
310.26	86.31
310.49	87.31
310.72	72.31
310.949	88.31
311.179	84.31
311.409	92.31
311.639	87.31
311.868	88.31
312.098	95.31
312.328	95.31
312.557	96.31
312.787	90.31
313.017	63.31
313.246	74.31
313.476	85.31
313.706	86.31
313.935	87.31
314.165	99.31
314.394	97.31
314.624	91.31
314.853	104.31
315.083	101.31
315.312	66.31
315.542	80.31
315.771	102.31
316.001	93.31
316.23	100.31
316.46	93.31
316.689	90.31
316.919	87.31
317.148	86.31
317.377	89.31
317.607	86.31
317.836	104.31
318.065	99.31
318.295	91.31
318.524	86.31
318.753	90.31
318.983	84.31
319.212	80.31
319.441	79.31
319.67	89.31
319.9	78.31
320.129	86.31
320.358	87.31
320.587	70.31
320.816	83.31
321.046	90.31
321.275	89.31
321.504	99.31
321.733	85.31
321.962	92.31
322.191	86.31
322.42	79.31
322.649	93.31
322.878	95.31
323.108	92.31
323.337	83.31
323.566	84.31
323.795	81.31
324.024	87.31
324.253	88.31
324.482	107.31
324.71	81.31
324.939	77.31
325.168	96.31
325.397	71.31
325.626	88.31
325.855	85.31
326.084	72.31
326.313	81.31
326.542	92.31
326.77	88.31
326.999	97.31
327.228	91.31
327.457	85.31
327.686	85.31
327.914	77.31
328.143	86.31
328.372	81.31
328.6	84.31
328.829	81.31
329.058	99.31
329.287	104.31
329.515	82.31
329.744	80.31
329.972	83.31
330.201	75.31
330.43	94.31
330.658	94.31
330.887	102.31
331.115	91.31
331.344	83.31
331.572	79.31
331.801	84.31
332.03	76.31
332.258	83.31
332.486	86.31
332.715	91.31
332.943	74.31
333.172	73.31
333.4	91.31
333.629	84.31
333.857	93.31
334.085	95.31
334.314	87.31
334.542	90.31
334.771	105.31
334.999	96.31
335.227	91.31
335.455	84.31
335.684	88.31
335.912	110.31
336.14	104.31
336.369	102.31
336.597	94.31
336.825	108.31
337.053	99.31
337.281	90.31
337.51	81.31
337.738	79.31
337.966	69.31
338.194	86.31
338.422	89.31
338.65	87.31
338.878	87.31
339.106	75.31
339.334	88.31
339.562	93.31
339.79	96.31
340.018	88.31
340.246	76.31
340.474	86.31
340.702	84.31
340.93	102.31
341.158	85.31
341.386	74.31
341.614	96.31
341.842	93.31
342.07	98.31
342.298	92.31
342.526	87.31
342.754	91.31
342.981	95.31
343.209	100.31
343.437	94.31
343.665	92.31
343.893	83.31
344.12	89.31
344.348	99.31
344.576	89.31
344.804	80.31
345.031	86.31
345.259	81.31
345.487	94.31
345.714	87.31
345.942	90.31
346.17	97.31
346.397	88.31
346.625	90.31
346.853	87.31
347.08	98.31
347.308	90.31
347.535	89.31
347.763	91.31
347.99	85.31
348.218	80.31
348.445	88.31
348.673	81.31
348.9	90.31
349.128	89.31
349.355	75.31
349.583	82.31
349.81	96.31
350.037	95.31
350.265	74.31
350.492	75.31
350.72	77.31
350.947	82.31
351.174	86.31
351.402	69.31
351.629	81.31
351.856	85.31
352.083	82.31
352.311	80.31
352.538	95.31
352.765	88.31
352.992	98.31
353.22	90.31
353.447	86.31
353.674	105.31
353.901	100.31
354.128	91.31
354.355	82.31
354.583	79.31
354.81	77.31
355.037	100.31
355.264	103.31
355.491	102.31
355.718	88.31
355.945	89.31
356.172	100.31
356.399	97.31
356.626	99.31
356.853	91.31
357.08	98.31
357.307	84.31
357.534	94.31
357.761	100.31
357.988	103.31
358.215	100.31
358.441	88.31
358.668	92.31
358.895	97.31
359.122	89.31
359.349	71.31
359.576	99.31
359.802	95.31
360.029	97.31
360.256	90.31
360.483	87.31
360.709	86.31
360.936	86.31
361.163	87.31
361.39	95.31
361.616	92.31
361.843	92.31
362.07	98.31
362.296	96.31
362.523	126.31
362.749	101.31
362.976	117.31
363.203	134.31
363.429	106.31
363.656	106.31
363.882	91.31
364.109	130.31
364.335	153.31
364.562	152.31
364.788	122.31
365.015	100.31
365.241	83.31
365.468	107.31
365.694	99.31
365.92	80.31
366.147	87.31
366.373	98.31
366.599	94.31
366.826	94.31
367.052	97.31
367.278	86.31
367.505	89.31
367.731	104.31
367.957	92.31
368.184	82.31
368.41	106.31
368.636	96.31
368.862	88.31
369.089	99.31
369.315	88.31
369.541	93.31
369.767	90.31
369.993	83.31
370.219	96.31
370.445	90.31
370.672	116.31
370.898	97.31
371.124	79.31
371.35	88.31
371.576	79.31
371.802	95.31
372.028	91.31
372.254	105.31
372.48	98.31
372.706	96.31
372.932	86.31
373.158	87.31
373.384	102.31
373.61	110.31
373.835	119.31
374.061	100.31
374.287	102.31
374.513	111.31
374.739	112.31
374.965	101.31
375.191	96.31
375.416	93.31
375.642	106.31
375.868	110.31
376.094	97.31
376.319	86.31
376.545	86.31
376.771	103.31
376.997	95.31
377.222	79.31
377.448	87.31
377.674	87.31
377.899	95.31
378.125	95.31
378.35	81.31
378.576	82.31
378.802	71.31
379.027	83.31
379.253	82.31
379.478	90.31
379.704	98.31
379.929	86.31
380.155	80.31
380.38	92.31
380.606	100.31
380.831	104.31
381.057	105.31
381.282	83.31
381.507	86.31
381.733	82.31
381.958	100.31
382.184	85.31
382.409	101.31
382.634	114.31
382.86	108.31
383.085	95.31
383.31	92.31
383.535	111.31
383.761	99.31
383.986	104.31
384.211	100.31
384.436	106.31
384.662	91.31
384.887	106.31
385.112	90.31
385.337	96.31
385.562	110.31
385.787	109.31
386.013	114.31
386.238	109.31
386.463	102.31
386.688	102.31
386.913	103.31
387.138	97.31
387.363	99.31
387.588	108.31
387.813	98.31
388.038	110.31
388.263	99.31
388.488	93.31
388.713	111.31
388.938	93.31
389.163	90.31
389.387	86.31
389.612	99.31
389.837	90.31
390.062	86.31
390.287	87.31
390.512	98.31
390.736	86.31
390.961	99.31
391.186	80.31
391.411	82.31
391.636	77.31
391.86	90.31
392.085	100.31
392.31	110.31
392.534	111.31
392.759	139.31
392.984	190.31
393.208	322.31
393.433	433.31
393.658	316.31
393.882	181.31
394.107	130.31
394.331	122.31
394.556	123.31
394.78	109.31
395.005	113.31
395.229	108.31
395.454	110.31
395.678	118.31
395.903	137.31
396.127	151.31
396.352	177.31
396.576	198.31
396.801	317.31
397.025	360.31
397.249	206.31
397.474	138.31
397.698	114.31
397.922	97.31
398.147	95.31
398.371	94.31
398.595	96.31
398.82	98.31
399.044	102.31
399.268	83.31
399.492	96.31
399.717	84.31
399.941	90.31
400.165	96.31
400.389	86.31
400.613	84.31
400.837	98.31
401.062	85.31
401.286	84.31
401.51	84.31
401.734	95.31
401.958	86.31
402.182	83.31
402.406	84.31
402.63	98.31
402.854	80.31
403.078	83.31
403.302	89.31
403.526	84.31
403.75	91.31
403.974	80.31
404.198	105.31
404.422	96.31
404.645	111.31
404.869	100.31
405.093	113.31
405.317	84.31
405.541	87.31
405.765	97.31
405.988	94.31
406.212	82.31
406.436	96.31
406.66	89.31
406.883	94.31
407.107	91.31
407.331	89.31
407.555	108.31
407.778	133.31
408.002	126.31
408.226	110.31
408.449	95.31
408.673	94.31
408.896	104.31
409.12	102.31
409.344	108.31
409.567	104.31
409.791	109.31
410.014	121.31
410.238	107.31
410.461	91.31
410.685	84.31
410.908	82.31
411.132	105.31
411.355	91.31
411.578	99.31
411.802	90.31
412.025	112.31
412.249	103.31
412.472	85.31
412.695	97.31
412.919	84.31
413.142	93.31
413.365	105.31
413.589	94.31
413.812	99.31
414.035	90.31
414.258	77.31
414.482	94.31
414.705	88.31
414.928	99.31
415.151	90.31
415.374	76.31
415.597	99.31
415.821	92.31
416.044	75.31
416.267	95.31
416.49	75.31
416.713	77.31
416.936	77.31
417.159	91.31
417.382	91.31
417.605	85.31
417.828	87.31
418.051	89.31
418.274	99.31
418.497	83.31
418.72	74.31
418.943	99.31
419.166	92.31
419.389	95.31
419.611	98.31
419.834	81.31
420.057	91.31
420.28	100.31
420.503	110.31
420.726	90.31
420.948	95.31
421.171	106.31
421.394	127.31
421.617	152.31
421.839	154.31
422.062	146.31
422.285	192.31
422.507	309.31
422.73	424.31
422.953	392.31
423.175	242.31
423.398	180.31
423.621	132.31
423.843	111.31
424.066	110.31
424.288	103.31
424.511	76.31
424.733	100.31
424.956	98.31
425.178	92.31
425.401	85.31
425.623	96.31
425.846	104.31
426.068	91.31
426.291	93.31
426.513	94.31
426.735	98.31
426.958	94.31
427.18	87.31
427.402	108.31
427.625	97.31
427.847	95.31
428.069	111.31
428.292	142.31
428.514	150.31
428.736	121.31
428.958	131.31
429.181	142.31
429.403	105.31
429.625	104.31
429.847	133.31
430.069	182.31
430.292	198.31
430.514	192.31
430.736	155.31
430.958	153.31
431.18	122.31
431.402	106.31
431.624	116.31
431.846	146.31
432.068	147.31
432.29	98.31
432.512	90.31
432.734	97.31
432.956	74.31
433.178	93.31
433.4	91.31
433.622	102.31
433.844	94.31
434.066	96.31
434.287	80.31
434.509	91.31
434.731	96.31
434.953	94.31
435.175	89.31
435.397	92.31
435.618	99.31
435.84	104.31
436.062	74.31
436.284	87.31
436.505	92.31
436.727	95.31
436.949	90.31
437.17	88.31
437.392	98.31
437.614	89.31
437.835	89.31
438.057	85.31
438.278	89.31
438.5	106.31
438.721	89.31
438.943	104.31
439.165	91.31
439.386	91.31
439.608	94.31
439.829	86.31
440.05	107.31
440.272	96.31
440.493	89.31
440.715	97.31
440.936	87.31
441.158	90.31
441.379	100.31
441.6	94.31
441.822	78.31
442.043	91.31
442.264	117.31
442.486	157.31
442.707	190.31
442.928	149.31
443.149	124.31
443.371	178.31
443.592	279.31
443.813	269.31
444.034	128.31
444.255	100.31
444.476	87.31
444.698	95.31
444.919	112.31
445.14	190.31
445.361	224.31
445.582	350.31
445.803	313.31
446.024	149.31
446.245	89.31
446.466	91.31
446.687	100.31
446.908	88.31
447.129	94.31
447.35	90.31
447.571	80.31
447.792	99.31
448.013	92.31
448.234	94.31
448.455	99.31
448.675	82.31
448.896	80.31
449.117	84.31
449.338	80.31
449.559	89.31
449.779	91.31
450	85.31
450.221	89.31
450.442	72.31
450.662	88.31
450.883	70.31
451.104	96.31
451.324	89.31
451.545	92.31
451.766	95.31
451.986	89.31
452.207	82.31
452.428	90.31
452.648	89.31
452.869	116.31
453.089	86.31
453.31	97.31
453.53	91.31
453.751	88.31
453.971	103.31
454.192	80.31
454.412	80.31
454.633	98.31
454.853	82.31
455.073	96.31
455.294	92.31
455.514	93.31
455.734	86.31
455.955	70.31
456.175	72.31
456.395	79.31
456.616	84.31
456.836	86.31
457.056	106.31
457.276	79.31
457.497	98.31
457.717	92.31
457.937	120.31
458.157	163.31
458.377	157.31
458.598	130.31
458.818	170.31
459.038	99.31
459.258	94.31
459.478	90.31
459.698	91.31
459.918	87.31
460.138	96.31
460.358	111.31
460.578	116.31
460.798	134.31
461.018	132.31
461.238	107.31
461.458	96.31
461.678	77.31
461.898	97.31
462.118	95.31
462.338	85.31
462.558	90.31
462.777	96.31
462.997	77.31
463.217	85.31
463.437	96.31
463.657	88.31
463.876	88.31
464.096	79.31
464.316	102.31
464.536	91.31
464.755	102.31
464.975	77.31
465.195	95.31
465.414	81.31
465.634	87.31
465.854	103.31
466.073	88.31
466.293	85.31
466.512	99.31
466.732	76.31
466.951	96.31
467.171	90.31
467.391	94.31
467.61	88.31
467.829	100.31
468.049	86.31
468.268	96.31
468.488	87.31
468.707	90.31
468.927	91.31
469.146	93.31
469.365	96.31
469.585	87.31
469.804	86.31
470.023	74.31
470.243	95.31
470.462	85.31
470.681	96.31
470.901	76.31
471.12	80.31
471.339	84.31
471.558	91.31
471.777	91.31
471.997	78.31
472.216	124.31
472.435	116.31
472.654	86.31
472.873	90.31
473.092	91.31
473.311	81.31
473.53	71.31
473.749	94.31
473.968	94.31
474.187	81.31
474.406	88.31
474.625	108.31
474.844	95.31
475.063	70.31
475.282	83.31
475.501	85.31
475.72	87.31
475.939	78.31
476.158	83.31
476.377	90.31
476.596	93.31
476.814	95.31
477.033	95.31
477.252	91.31
477.471	96.31
477.69	83.31
477.908	84.31
478.127	87.31
478.346	78.31
478.564	95.31
478.783	95.31
479.002	97.31
479.22	84.31
479.439	90.31
479.658	87.31
479.876	88.31
480.095	92.31
480.313	92.31
480.532	94.31
480.751	92.31
480.969	89.31
481.188	104.31
481.406	105.31
481.624	99.31
481.843	91.31
482.061	82.31
482.28	85.31
482.498	92.31
482.717	87.31
482.935	90.31
483.153	102.31
483.372	99.31
483.59	89.31
483.808	98.31
484.027	92.31
484.245	89.31
484.463	95.31
484.681	110.31
484.9	94.31
485.118	97.31
485.336	96.31
485.554	97.31
485.772	92.31
485.99	89.31
486.209	102.31
486.427	93.31
486.645	106.31
486.863	82.31
487.081	92.31
487.299	104.31
487.517	123.31
487.735	123.31
487.953	221.31
488.171	186.31
488.389	116.31
488.607	96.31
488.825	76.31
489.043	96.31
489.261	86.31
489.479	84.31
489.696	86.31
489.914	94.31
490.132	85.31
490.35	96.31
490.568	97.31
490.786	96.31
491.003	90.31
491.221	83.31
491.439	92.31
491.657	96.31
491.874	100.31
492.092	87.31
492.31	92.31
492.527	98.31
492.745	100.31
492.963	95.31
493.18	96.31
493.398	92.31
493.615	91.31
493.833	98.31
494.05	98.31
494.268	95.31
494.485	92.31
494.703	90.31
494.92	89.31
495.138	87.31
495.355	88.31
495.573	83.31
495.79	92.31
496.008	98.31
496.225	105.31
496.442	104.31
496.66	94.31
496.877	90.31
497.094	87.31
497.312	94.31
497.529	90.31
497.746	108.31
497.963	76.31
498.181	95.31
498.398	94.31
498.615	83.31
498.832	96.31
499.049	101.31
499.267	105.31
499.484	97.31
499.701	98.31
499.918	111.31
500.135	95.31
500.352	102.31
500.569	90.31
500.786	105.31
501.003	91.31
501.22	89.31
501.437	111.31
501.654	110.31
501.871	88.31
502.088	99.31
502.305	104.31
502.522	87.31
502.739	96.31
502.956	95.31
503.172	101.31
503.389	104.31
503.606	86.31
503.823	107.31
504.04	128.31
504.256	167.31
504.473	165.31
504.69	113.31
504.907	99.31
505.123	96.31
505.34	101.31
505.557	101.31
505.773	93.31
505.99	81.31
506.207	91.31
506.423	94.31
506.64	98.31
506.856	97.31
507.073	94.31
507.289	94.31
507.506	80.31
507.722	103.31
507.939	99.31
508.155	103.31
508.372	101.31
508.588	85.31
508.805	96.31
509.021	85.31
509.238	83.31
509.454	91.31
509.67	95.31
509.887	99.31
510.103	89.31
510.319	83.31
510.536	100.31
510.752	103.31
510.968	80.31
511.184	99.31
511.401	87.31
511.617	111.31
511.833	88.31
512.049	78.31
512.265	106.31
512.481	94.31
512.698	104.31
512.914	116.31
513.13	110.31
513.346	96.31
513.562	93.31
513.778	102.31
513.994	98.31
514.21	99.31
514.426	88.31
514.642	102.31
514.858	86.31
515.074	92.31
515.29	89.31
515.506	94.31
515.721	106.31
515.937	94.31
516.153	94.31
516.369	96.31
516.585	98.31
