Data from 17600_2_HRD10591_00007.txt Node
Date: Mon Jan 19 14:08:26 EST 2026
User: Yrep
Spectrometer: HR+D1059
Trigger mode: 1
Integration Time (sec): 1.000000E-1
Scans to average: 1
Electric dark correction enabled: true
Nonlinearity correction enabled: false
Boxcar width: 0
XAxis mode: Wavelengths
Number of Pixels in Spectrum: 2048
>>>>>Begin Spectral Data<<<<<
223.165	-10.06
223.4	-10.06
223.635	-10.06
223.869	-20.06
224.104	-8.06
224.338	-32.06
224.573	6.94
224.808	-32.06
225.042	-15.06
225.277	-2.06
225.511	-12.06
225.746	14.94
225.98	-0.06
226.215	15.94
226.449	9.94
226.683	27.94
226.918	33.94
227.152	21.94
227.387	11.94
227.621	33.94
227.856	45.94
228.09	49.94
228.324	55.94
228.559	55.94
228.793	44.94
229.027	53.94
229.262	62.94
229.496	61.94
229.73	55.94
229.964	75.94
230.199	71.94
230.433	60.94
230.667	70.94
230.901	67.94
231.136	72.94
231.37	87.94
231.604	75.94
231.838	79.94
232.072	78.94
232.306	80.94
232.541	87.94
232.775	71.94
233.009	68.94
233.243	63.94
233.477	86.94
233.711	76.94
233.945	83.94
234.179	79.94
234.413	79.94
234.647	81.94
234.881	60.94
235.115	81.94
235.349	79.94
235.583	77.94
235.817	76.94
236.051	55.94
236.285	71.94
236.519	78.94
236.753	77.94
236.987	85.94
237.221	56.94
237.455	77.94
237.689	72.94
237.922	60.94
238.156	74.94
238.39	67.94
238.624	53.94
238.858	68.94
239.091	66.94
239.325	71.94
239.559	74.94
239.793	69.94
240.027	61.94
240.26	65.94
240.494	81.94
240.728	61.94
240.961	61.94
241.195	67.94
241.429	67.94
241.662	82.94
241.896	78.94
242.13	77.94
242.363	92.94
242.597	61.94
242.83	69.94
243.064	77.94
243.298	71.94
243.531	68.94
243.765	75.94
243.998	77.94
244.232	53.94
244.465	76.94
244.699	67.94
244.932	71.94
245.166	75.94
245.399	67.94
245.633	82.94
245.866	81.94
246.099	59.94
246.333	59.94
246.566	62.94
246.8	77.94
247.033	83.94
247.266	75.94
247.5	62.94
247.733	81.94
247.966	80.94
248.2	65.94
248.433	78.94
248.666	80.94
248.899	77.94
249.133	70.94
249.366	75.94
249.599	67.94
249.832	78.94
250.066	82.94
250.299	80.94
250.532	83.94
250.765	69.94
250.998	85.94
251.231	66.94
251.465	77.94
251.698	76.94
251.931	85.94
252.164	79.94
252.397	81.94
252.63	77.94
252.863	82.94
253.096	69.94
253.329	82.94
253.562	82.94
253.795	85.94
254.028	65.94
254.261	81.94
254.494	80.94
254.727	83.94
254.96	73.94
255.193	80.94
255.426	74.94
255.659	75.94
255.892	82.94
256.124	73.94
256.357	70.94
256.59	77.94
256.823	81.94
257.056	79.94
257.289	69.94
257.521	81.94
257.754	79.94
257.987	76.94
258.22	68.94
258.452	84.94
258.685	72.94
258.918	83.94
259.151	82.94
259.383	90.94
259.616	86.94
259.849	85.94
260.081	73.94
260.314	81.94
260.547	73.94
260.779	74.94
261.012	70.94
261.244	72.94
261.477	63.94
261.71	75.94
261.942	75.94
262.175	75.94
262.407	70.94
262.64	83.94
262.872	77.94
263.105	86.94
263.337	77.94
263.57	80.94
263.802	95.94
264.035	79.94
264.267	80.94
264.499	78.94
264.732	91.94
264.964	81.94
265.197	85.94
265.429	62.94
265.661	77.94
265.894	71.94
266.126	81.94
266.358	79.94
266.591	77.94
266.823	74.94
267.055	76.94
267.287	80.94
267.52	85.94
267.752	84.94
267.984	75.94
268.216	82.94
268.448	77.94
268.681	73.94
268.913	75.94
269.145	77.94
269.377	82.94
269.609	79.94
269.841	64.94
270.073	77.94
270.306	72.94
270.538	78.94
270.77	77.94
271.002	75.94
271.234	87.94
271.466	91.94
271.698	85.94
271.93	68.94
272.162	86.94
272.394	74.94
272.626	79.94
272.858	77.94
273.09	71.94
273.322	72.94
273.553	80.94
273.785	91.94
274.017	83.94
274.249	72.94
274.481	81.94
274.713	73.94
274.945	75.94
275.176	93.94
275.408	76.94
275.64	76.94
275.872	74.94
276.104	61.94
276.335	93.94
276.567	89.94
276.799	90.94
277.031	72.94
277.262	79.94
277.494	78.94
277.726	82.94
277.957	89.94
278.189	70.94
278.421	90.94
278.652	80.94
278.884	79.94
279.115	88.94
279.347	83.94
279.579	90.94
279.81	71.94
280.042	90.94
280.273	84.94
280.505	80.94
280.736	75.94
280.968	88.94
281.199	95.94
281.431	81.94
281.662	91.94
281.894	84.94
282.125	77.94
282.356	67.94
282.588	71.94
282.819	87.94
283.051	81.94
283.282	85.94
283.513	77.94
283.745	88.94
283.976	80.94
284.207	81.94
284.439	61.94
284.67	77.94
284.901	91.94
285.132	71.94
285.364	81.94
285.595	79.94
285.826	72.94
286.057	83.94
286.288	81.94
286.52	69.94
286.751	61.94
286.982	80.94
287.213	73.94
287.444	85.94
287.675	77.94
287.906	81.94
288.138	71.94
288.369	89.94
288.6	81.94
288.831	89.94
289.062	82.94
289.293	89.94
289.524	74.94
289.755	76.94
289.986	66.94
290.217	80.94
290.448	68.94
290.679	72.94
290.91	70.94
291.141	71.94
291.371	84.94
291.602	95.94
291.833	79.94
292.064	79.94
292.295	86.94
292.526	77.94
292.757	90.94
292.987	80.94
293.218	78.94
293.449	90.94
293.68	77.94
293.91	97.94
294.141	77.94
294.372	75.94
294.603	82.94
294.833	78.94
295.064	77.94
295.295	80.94
295.525	93.94
295.756	82.94
295.987	68.94
296.217	91.94
296.448	75.94
296.679	80.94
296.909	85.94
297.14	84.94
297.37	94.94
297.601	77.94
297.831	78.94
298.062	82.94
298.292	72.94
298.523	89.94
298.753	88.94
298.984	85.94
299.214	79.94
299.445	83.94
299.675	81.94
299.905	100.94
300.136	79.94
300.366	94.94
300.597	89.94
300.827	92.94
301.057	76.94
301.288	76.94
301.518	90.94
301.748	97.94
301.979	93.94
302.209	87.94
302.439	73.94
302.669	93.94
302.9	75.94
303.13	78.94
303.36	97.94
303.59	77.94
303.82	83.94
304.051	88.94
304.281	71.94
304.511	70.94
304.741	94.94
304.971	77.94
305.201	75.94
305.431	76.94
305.661	78.94
305.891	87.94
306.121	93.94
306.352	85.94
306.582	93.94
306.812	102.94
307.042	85.94
307.272	90.94
307.502	86.94
307.731	86.94
307.961	93.94
308.191	94.94
308.421	71.94
308.651	91.94
308.881	86.94
309.111	85.94
309.341	106.94
309.571	89.94
309.8	91.94
310.03	85.94
310.26	76.94
310.49	79.94
310.72	78.94
310.949	83.94
311.179	89.94
311.409	75.94
311.639	81.94
311.868	75.94
312.098	93.94
312.328	84.94
312.557	75.94
312.787	83.94
313.017	92.94
313.246	83.94
313.476	87.94
313.706	93.94
313.935	84.94
314.165	80.94
314.394	87.94
314.624	89.94
314.853	78.94
315.083	90.94
315.312	86.94
315.542	96.94
315.771	99.94
316.001	77.94
316.23	98.94
316.46	75.94
316.689	88.94
316.919	91.94
317.148	85.94
317.377	97.94
317.607	97.94
317.836	95.94
318.065	78.94
318.295	80.94
318.524	77.94
318.753	75.94
318.983	87.94
319.212	90.94
319.441	85.94
319.67	77.94
319.9	82.94
320.129	80.94
320.358	75.94
320.587	98.94
320.816	77.94
321.046	90.94
321.275	66.94
321.504	76.94
321.733	89.94
321.962	87.94
322.191	91.94
322.42	90.94
322.649	94.94
322.878	83.94
323.108	85.94
323.337	88.94
323.566	100.94
323.795	88.94
324.024	81.94
324.253	75.94
324.482	83.94
324.71	79.94
324.939	70.94
325.168	86.94
325.397	87.94
325.626	86.94
325.855	76.94
326.084	85.94
326.313	89.94
326.542	76.94
326.77	81.94
326.999	90.94
327.228	92.94
327.457	70.94
327.686	89.94
327.914	90.94
328.143	92.94
328.372	81.94
328.6	78.94
328.829	93.94
329.058	78.94
329.287	79.94
329.515	80.94
329.744	71.94
329.972	85.94
330.201	93.94
330.43	93.94
330.658	93.94
330.887	77.94
331.115	87.94
331.344	97.94
331.572	93.94
331.801	84.94
332.03	89.94
332.258	94.94
332.486	81.94
332.715	84.94
332.943	83.94
333.172	90.94
333.4	103.94
333.629	74.94
333.857	91.94
334.085	83.94
334.314	93.94
334.542	89.94
334.771	82.94
334.999	77.94
335.227	107.94
335.455	92.94
335.684	84.94
335.912	100.94
336.14	92.94
336.369	89.94
336.597	91.94
336.825	85.94
337.053	73.94
337.281	79.94
337.51	74.94
337.738	78.94
337.966	94.94
338.194	92.94
338.422	75.94
338.65	82.94
338.878	85.94
339.106	77.94
339.334	86.94
339.562	94.94
339.79	95.94
340.018	72.94
340.246	77.94
340.474	82.94
340.702	86.94
340.93	86.94
341.158	63.94
341.386	81.94
341.614	84.94
341.842	82.94
342.07	74.94
342.298	86.94
342.526	79.94
342.754	98.94
342.981	81.94
343.209	81.94
343.437	89.94
343.665	65.94
343.893	91.94
344.12	93.94
344.348	86.94
344.576	91.94
344.804	83.94
345.031	93.94
345.259	88.94
345.487	98.94
345.714	81.94
345.942	87.94
346.17	91.94
346.397	91.94
346.625	89.94
346.853	76.94
347.08	92.94
347.308	78.94
347.535	75.94
347.763	59.94
347.99	86.94
348.218	89.94
348.445	80.94
348.673	91.94
348.9	97.94
349.128	93.94
349.355	97.94
349.583	88.94
349.81	89.94
350.037	74.94
350.265	91.94
350.492	82.94
350.72	80.94
350.947	90.94
351.174	95.94
351.402	77.94
351.629	83.94
351.856	85.94
352.083	81.94
352.311	98.94
352.538	100.94
352.765	88.94
352.992	90.94
353.22	101.94
353.447	75.94
353.674	89.94
353.901	82.94
354.128	94.94
354.355	76.94
354.583	76.94
354.81	79.94
355.037	79.94
355.264	76.94
355.491	74.94
355.718	77.94
355.945	92.94
356.172	86.94
356.399	86.94
356.626	73.94
356.853	86.94
357.08	83.94
357.307	78.94
357.534	81.94
357.761	99.94
357.988	97.94
358.215	104.94
358.441	94.94
358.668	85.94
358.895	90.94
359.122	85.94
359.349	74.94
359.576	89.94
359.802	83.94
360.029	77.94
360.256	82.94
360.483	84.94
360.709	75.94
360.936	89.94
361.163	90.94
361.39	70.94
361.616	92.94
361.843	99.94
362.07	91.94
362.296	101.94
362.523	102.94
362.749	116.94
362.976	130.94
363.203	142.94
363.429	92.94
363.656	82.94
363.882	79.94
364.109	114.94
364.335	132.94
364.562	154.94
364.788	103.94
365.015	97.94
365.241	86.94
365.468	81.94
365.694	91.94
365.92	76.94
366.147	92.94
366.373	84.94
366.599	87.94
366.826	91.94
367.052	81.94
367.278	97.94
367.505	97.94
367.731	95.94
367.957	83.94
368.184	83.94
368.41	66.94
368.636	90.94
368.862	85.94
369.089	73.94
369.315	81.94
369.541	71.94
369.767	91.94
369.993	89.94
370.219	93.94
370.445	87.94
370.672	85.94
370.898	94.94
371.124	90.94
371.35	87.94
371.576	81.94
371.802	95.94
372.028	89.94
372.254	90.94
372.48	82.94
372.706	98.94
372.932	67.94
373.158	88.94
373.384	102.94
373.61	102.94
373.835	110.94
374.061	93.94
374.287	94.94
374.513	96.94
374.739	91.94
374.965	103.94
375.191	86.94
375.416	102.94
375.642	95.94
375.868	91.94
376.094	94.94
376.319	70.94
376.545	85.94
376.771	88.94
376.997	84.94
377.222	74.94
377.448	87.94
377.674	79.94
377.899	86.94
378.125	93.94
378.35	95.94
378.576	93.94
378.802	89.94
379.027	89.94
379.253	102.94
379.478	93.94
379.704	79.94
379.929	102.94
380.155	106.94
380.38	95.94
380.606	97.94
380.831	78.94
381.057	85.94
381.282	85.94
381.507	98.94
381.733	98.94
381.958	79.94
382.184	101.94
382.409	79.94
382.634	97.94
382.86	106.94
383.085	102.94
383.31	102.94
383.535	91.94
383.761	97.94
383.986	94.94
384.211	109.94
384.436	97.94
384.662	99.94
384.887	86.94
385.112	87.94
385.337	96.94
385.562	86.94
385.787	91.94
386.013	100.94
386.238	107.94
386.463	91.94
386.688	101.94
386.913	105.94
387.138	101.94
387.363	92.94
387.588	105.94
387.813	100.94
388.038	111.94
388.263	100.94
388.488	102.94
388.713	100.94
388.938	95.94
389.163	86.94
389.387	90.94
389.612	96.94
389.837	87.94
390.062	91.94
390.287	89.94
390.512	109.94
390.736	83.94
390.961	101.94
391.186	92.94
391.411	87.94
391.636	86.94
391.86	103.94
392.085	110.94
392.31	115.94
392.534	102.94
392.759	120.94
392.984	161.94
393.208	243.94
393.433	363.94
393.658	276.94
393.882	141.94
394.107	121.94
394.331	130.94
394.556	132.94
394.78	95.94
395.005	96.94
395.229	96.94
395.454	106.94
395.678	115.94
395.903	118.94
396.127	143.94
396.352	157.94
396.576	176.94
396.801	273.94
397.025	293.94
397.249	185.94
397.474	143.94
397.698	109.94
397.922	95.94
398.147	84.94
398.371	105.94
398.595	91.94
398.82	89.94
399.044	81.94
399.268	87.94
399.492	92.94
399.717	104.94
399.941	103.94
400.165	100.94
400.389	96.94
400.613	80.94
400.837	81.94
401.062	87.94
401.286	86.94
401.51	86.94
401.734	86.94
401.958	100.94
402.182	100.94
402.406	84.94
402.63	86.94
402.854	80.94
403.078	97.94
403.302	90.94
403.526	89.94
403.75	79.94
403.974	79.94
404.198	98.94
404.422	102.94
404.645	118.94
404.869	105.94
405.093	85.94
405.317	90.94
405.541	87.94
405.765	92.94
405.988	99.94
406.212	103.94
406.436	102.94
406.66	89.94
406.883	107.94
407.107	96.94
407.331	95.94
407.555	100.94
407.778	111.94
408.002	135.94
408.226	98.94
408.449	102.94
408.673	89.94
408.896	90.94
409.12	89.94
409.344	105.94
409.567	101.94
409.791	113.94
410.014	102.94
410.238	103.94
410.461	88.94
410.685	94.94
410.908	86.94
411.132	86.94
411.355	86.94
411.578	100.94
411.802	96.94
412.025	109.94
412.249	105.94
412.472	82.94
412.695	78.94
412.919	92.94
413.142	67.94
413.365	101.94
413.589	83.94
413.812	76.94
414.035	106.94
414.258	97.94
414.482	103.94
414.705	79.94
414.928	78.94
415.151	81.94
415.374	81.94
415.597	78.94
415.821	85.94
416.044	79.94
416.267	96.94
416.49	81.94
416.713	94.94
416.936	96.94
417.159	73.94
417.382	82.94
417.605	87.94
417.828	81.94
418.051	82.94
418.274	86.94
418.497	80.94
418.72	86.94
418.943	83.94
419.166	71.94
419.389	81.94
419.611	97.94
419.834	74.94
420.057	91.94
420.28	99.94
420.503	118.94
420.726	91.94
420.948	105.94
421.171	101.94
421.394	108.94
421.617	135.94
421.839	147.94
422.062	147.94
422.285	209.94
422.507	328.94
422.73	416.94
422.953	396.94
423.175	274.94
423.398	189.94
423.621	128.94
423.843	131.94
424.066	131.94
424.288	126.94
424.511	92.94
424.733	105.94
424.956	96.94
425.178	101.94
425.401	93.94
425.623	99.94
425.846	91.94
426.068	106.94
426.291	94.94
426.513	93.94
426.735	97.94
426.958	82.94
427.18	95.94
427.402	103.94
427.625	90.94
427.847	87.94
428.069	95.94
428.292	127.94
428.514	138.94
428.736	131.94
428.958	142.94
429.181	133.94
429.403	93.94
429.625	97.94
429.847	119.94
430.069	172.94
430.292	189.94
430.514	184.94
430.736	136.94
430.958	153.94
431.18	101.94
431.402	82.94
431.624	98.94
431.846	117.94
432.068	148.94
432.29	96.94
432.512	78.94
432.734	91.94
432.956	92.94
433.178	81.94
433.4	80.94
433.622	94.94
433.844	96.94
434.066	97.94
434.287	95.94
434.509	96.94
434.731	94.94
434.953	86.94
435.175	87.94
435.397	92.94
435.618	93.94
435.84	81.94
436.062	96.94
436.284	85.94
436.505	77.94
436.727	96.94
436.949	72.94
437.17	85.94
437.392	72.94
437.614	84.94
437.835	101.94
438.057	84.94
438.278	91.94
438.5	87.94
438.721	91.94
438.943	94.94
439.165	90.94
439.386	79.94
439.608	89.94
439.829	102.94
440.05	82.94
440.272	90.94
440.493	90.94
440.715	106.94
440.936	82.94
441.158	83.94
441.379	90.94
441.6	95.94
441.822	88.94
442.043	85.94
442.264	105.94
442.486	156.94
442.707	190.94
442.928	128.94
443.149	117.94
443.371	161.94
443.592	274.94
443.813	240.94
444.034	118.94
444.255	82.94
444.476	104.94
444.698	103.94
444.919	102.94
445.14	185.94
445.361	219.94
445.582	327.94
445.803	281.94
446.024	136.94
446.245	96.94
446.466	83.94
446.687	106.94
446.908	85.94
447.129	100.94
447.35	87.94
447.571	97.94
447.792	87.94
448.013	75.94
448.234	89.94
448.455	86.94
448.675	78.94
448.896	85.94
449.117	91.94
449.338	97.94
449.559	88.94
449.779	82.94
450	101.94
450.221	95.94
450.442	85.94
450.662	77.94
450.883	95.94
451.104	76.94
451.324	80.94
451.545	67.94
451.766	90.94
451.986	94.94
452.207	97.94
452.428	90.94
452.648	94.94
452.869	110.94
453.089	100.94
453.31	95.94
453.53	83.94
453.751	79.94
453.971	87.94
454.192	101.94
454.412	93.94
454.633	95.94
454.853	89.94
455.073	100.94
455.294	97.94
455.514	88.94
455.734	93.94
455.955	90.94
456.175	76.94
456.395	101.94
456.616	75.94
456.836	90.94
457.056	101.94
457.276	81.94
457.497	82.94
457.717	101.94
457.937	122.94
458.157	153.94
458.377	148.94
458.598	153.94
458.818	151.94
459.038	96.94
459.258	89.94
459.478	83.94
459.698	85.94
459.918	81.94
460.138	88.94
460.358	96.94
460.578	106.94
460.798	134.94
461.018	153.94
461.238	83.94
461.458	101.94
461.678	68.94
461.898	93.94
462.118	91.94
462.338	98.94
462.558	83.94
462.777	89.94
462.997	85.94
463.217	85.94
463.437	83.94
463.657	87.94
463.876	85.94
464.096	80.94
464.316	93.94
464.536	78.94
464.755	88.94
464.975	91.94
465.195	90.94
465.414	75.94
465.634	81.94
465.854	95.94
466.073	94.94
466.293	90.94
466.512	85.94
466.732	83.94
466.951	91.94
467.171	99.94
467.391	79.94
467.61	76.94
467.829	88.94
468.049	90.94
468.268	94.94
468.488	88.94
468.707	93.94
468.927	91.94
469.146	89.94
469.365	93.94
469.585	89.94
469.804	84.94
470.023	85.94
470.243	83.94
470.462	73.94
470.681	89.94
470.901	84.94
471.12	69.94
471.339	92.94
471.558	78.94
471.777	78.94
471.997	100.94
472.216	107.94
472.435	81.94
472.654	89.94
472.873	78.94
473.092	103.94
473.311	93.94
473.53	97.94
473.749	90.94
473.968	89.94
474.187	77.94
474.406	98.94
474.625	98.94
474.844	84.94
475.063	71.94
475.282	87.94
475.501	89.94
475.72	99.94
475.939	80.94
476.158	81.94
476.377	75.94
476.596	82.94
476.814	91.94
477.033	96.94
477.252	85.94
477.471	92.94
477.69	82.94
477.908	87.94
478.127	90.94
478.346	94.94
478.564	87.94
478.783	78.94
479.002	79.94
479.22	83.94
479.439	81.94
479.658	99.94
479.876	88.94
480.095	91.94
480.313	80.94
480.532	88.94
480.751	85.94
480.969	102.94
481.188	101.94
481.406	110.94
481.624	83.94
481.843	85.94
482.061	83.94
482.28	94.94
482.498	100.94
482.717	74.94
482.935	88.94
483.153	101.94
483.372	107.94
483.59	87.94
483.808	99.94
484.027	108.94
484.245	90.94
484.463	86.94
484.681	93.94
484.9	101.94
485.118	107.94
485.336	96.94
485.554	104.94
485.772	103.94
485.99	97.94
486.209	81.94
486.427	98.94
486.645	90.94
486.863	92.94
487.081	96.94
487.299	91.94
487.517	112.94
487.735	145.94
487.953	236.94
488.171	185.94
488.389	107.94
488.607	86.94
488.825	86.94
489.043	74.94
489.261	91.94
489.479	92.94
489.696	107.94
489.914	89.94
490.132	95.94
490.35	98.94
490.568	102.94
490.786	99.94
491.003	86.94
491.221	91.94
491.439	91.94
491.657	97.94
491.874	107.94
492.092	108.94
492.31	101.94
492.527	97.94
492.745	90.94
492.963	100.94
493.18	101.94
493.398	89.94
493.615	92.94
493.833	103.94
494.05	89.94
494.268	102.94
494.485	89.94
494.703	93.94
494.92	92.94
495.138	108.94
495.355	95.94
495.573	88.94
495.79	97.94
496.008	105.94
496.225	98.94
496.442	101.94
496.66	107.94
496.877	98.94
497.094	98.94
497.312	106.94
497.529	95.94
497.746	88.94
497.963	83.94
498.181	97.94
498.398	107.94
498.615	94.94
498.832	108.94
499.049	100.94
499.267	92.94
499.484	95.94
499.701	99.94
499.918	111.94
500.135	101.94
500.352	90.94
500.569	99.94
500.786	107.94
501.003	86.94
501.22	89.94
501.437	92.94
501.654	75.94
501.871	100.94
502.088	90.94
502.305	90.94
502.522	107.94
502.739	84.94
502.956	107.94
503.172	93.94
503.389	87.94
503.606	89.94
503.823	110.94
504.04	121.94
504.256	164.94
504.473	175.94
504.69	107.94
504.907	99.94
505.123	100.94
505.34	109.94
505.557	79.94
505.773	98.94
505.99	77.94
506.207	93.94
506.423	93.94
506.64	107.94
506.856	95.94
507.073	96.94
507.289	106.94
507.506	97.94
507.722	99.94
507.939	93.94
508.155	89.94
508.372	97.94
508.588	92.94
508.805	100.94
509.021	94.94
509.238	92.94
509.454	88.94
509.67	91.94
509.887	103.94
510.103	80.94
510.319	96.94
510.536	92.94
510.752	96.94
510.968	87.94
511.184	84.94
511.401	92.94
511.617	92.94
511.833	83.94
512.049	85.94
512.265	91.94
512.481	91.94
512.698	86.94
512.914	92.94
513.13	93.94
513.346	97.94
513.562	94.94
513.778	94.94
513.994	98.94
514.21	97.94
514.426	84.94
514.642	89.94
514.858	83.94
515.074	89.94
515.29	97.94
515.506	101.94
515.721	93.94
515.937	97.94
516.153	95.94
516.369	118.94
516.585	93.94
516.801	79.94
517.016	111.94
