Data from 17600_2_HRD10591_00038.txt Node
Date: Mon Jan 19 14:08:41 EST 2026
User: Yrep
Spectrometer: HR+D1059
Trigger mode: 1
Integration Time (sec): 1.000000E-1
Scans to average: 1
Electric dark correction enabled: true
Nonlinearity correction enabled: false
Boxcar width: 0
XAxis mode: Wavelengths
Number of Pixels in Spectrum: 2048
>>>>>Begin Spectral Data<<<<<
223.165	-12.44
223.4	-12.44
223.635	-12.44
223.869	-15.44
224.104	-8.44
224.338	-19.44
224.573	-19.44
224.808	-13.44
225.042	-5.44
225.277	0.56
225.511	1.56
225.746	3.56
225.98	1.56
226.215	9.56
226.449	30.56
226.683	12.56
226.918	17.56
227.152	16.56
227.387	32.56
227.621	37.56
227.856	56.56
228.09	36.56
228.324	46.56
228.559	60.56
228.793	61.56
229.027	71.56
229.262	65.56
229.496	71.56
229.73	69.56
229.964	82.56
230.199	76.56
230.433	75.56
230.667	82.56
230.901	69.56
231.136	93.56
231.37	60.56
231.604	84.56
231.838	90.56
232.072	83.56
232.306	80.56
232.541	85.56
232.775	73.56
233.009	78.56
233.243	87.56
233.477	90.56
233.711	67.56
233.945	88.56
234.179	96.56
234.413	82.56
234.647	99.56
234.881	93.56
235.115	69.56
235.349	79.56
235.583	74.56
235.817	73.56
236.051	74.56
236.285	61.56
236.519	85.56
236.753	85.56
236.987	85.56
237.221	67.56
237.455	82.56
237.689	72.56
237.922	66.56
238.156	84.56
238.39	79.56
238.624	87.56
238.858	79.56
239.091	66.56
239.325	71.56
239.559	84.56
239.793	75.56
240.027	84.56
240.26	67.56
240.494	70.56
240.728	69.56
240.961	85.56
241.195	89.56
241.429	82.56
241.662	75.56
241.896	74.56
242.13	77.56
242.363	82.56
242.597	78.56
242.83	82.56
243.064	75.56
243.298	85.56
243.531	76.56
243.765	77.56
243.998	88.56
244.232	88.56
244.465	82.56
244.699	77.56
244.932	69.56
245.166	87.56
245.399	84.56
245.633	85.56
245.866	86.56
246.099	62.56
246.333	84.56
246.566	64.56
246.8	78.56
247.033	75.56
247.266	77.56
247.5	87.56
247.733	87.56
247.966	77.56
248.2	73.56
248.433	76.56
248.666	84.56
248.899	90.56
249.133	66.56
249.366	87.56
249.599	76.56
249.832	75.56
250.066	74.56
250.299	75.56
250.532	82.56
250.765	66.56
250.998	76.56
251.231	82.56
251.465	89.56
251.698	79.56
251.931	90.56
252.164	89.56
252.397	81.56
252.63	79.56
252.863	91.56
253.096	81.56
253.329	70.56
253.562	92.56
253.795	85.56
254.028	99.56
254.261	86.56
254.494	78.56
254.727	84.56
254.96	79.56
255.193	86.56
255.426	74.56
255.659	78.56
255.892	82.56
256.124	84.56
256.357	77.56
256.59	86.56
256.823	77.56
257.056	79.56
257.289	82.56
257.521	85.56
257.754	80.56
257.987	90.56
258.22	82.56
258.452	88.56
258.685	84.56
258.918	78.56
259.151	97.56
259.383	92.56
259.616	74.56
259.849	76.56
260.081	73.56
260.314	82.56
260.547	77.56
260.779	77.56
261.012	81.56
261.244	69.56
261.477	85.56
261.71	88.56
261.942	74.56
262.175	92.56
262.407	75.56
262.64	91.56
262.872	74.56
263.105	79.56
263.337	81.56
263.57	64.56
263.802	80.56
264.035	94.56
264.267	78.56
264.499	99.56
264.732	96.56
264.964	86.56
265.197	71.56
265.429	87.56
265.661	90.56
265.894	79.56
266.126	93.56
266.358	79.56
266.591	91.56
266.823	85.56
267.055	71.56
267.287	86.56
267.52	73.56
267.752	92.56
267.984	99.56
268.216	88.56
268.448	74.56
268.681	87.56
268.913	81.56
269.145	93.56
269.377	83.56
269.609	93.56
269.841	76.56
270.073	80.56
270.306	88.56
270.538	76.56
270.77	87.56
271.002	78.56
271.234	91.56
271.466	86.56
271.698	96.56
271.93	88.56
272.162	85.56
272.394	93.56
272.626	80.56
272.858	96.56
273.09	90.56
273.322	100.56
273.553	87.56
273.785	91.56
274.017	88.56
274.249	92.56
274.481	91.56
274.713	83.56
274.945	83.56
275.176	78.56
275.408	78.56
275.64	90.56
275.872	85.56
276.104	89.56
276.335	83.56
276.567	87.56
276.799	85.56
277.031	87.56
277.262	83.56
277.494	89.56
277.726	70.56
277.957	81.56
278.189	73.56
278.421	82.56
278.652	72.56
278.884	86.56
279.115	90.56
279.347	88.56
279.579	99.56
279.81	87.56
280.042	91.56
280.273	81.56
280.505	73.56
280.736	79.56
280.968	73.56
281.199	79.56
281.431	84.56
281.662	109.56
281.894	90.56
282.125	71.56
282.356	82.56
282.588	86.56
282.819	72.56
283.051	78.56
283.282	79.56
283.513	84.56
283.745	85.56
283.976	78.56
284.207	73.56
284.439	92.56
284.67	87.56
284.901	85.56
285.132	90.56
285.364	92.56
285.595	92.56
285.826	73.56
286.057	101.56
286.288	83.56
286.52	93.56
286.751	94.56
286.982	80.56
287.213	86.56
287.444	73.56
287.675	78.56
287.906	89.56
288.138	91.56
288.369	77.56
288.6	89.56
288.831	84.56
289.062	90.56
289.293	92.56
289.524	68.56
289.755	87.56
289.986	93.56
290.217	92.56
290.448	84.56
290.679	81.56
290.91	76.56
291.141	78.56
291.371	78.56
291.602	85.56
291.833	85.56
292.064	85.56
292.295	78.56
292.526	84.56
292.757	83.56
292.987	96.56
293.218	94.56
293.449	78.56
293.68	94.56
293.91	86.56
294.141	81.56
294.372	98.56
294.603	92.56
294.833	80.56
295.064	78.56
295.295	82.56
295.525	86.56
295.756	98.56
295.987	84.56
296.217	72.56
296.448	81.56
296.679	86.56
296.909	84.56
297.14	84.56
297.37	90.56
297.601	96.56
297.831	82.56
298.062	100.56
298.292	83.56
298.523	83.56
298.753	65.56
298.984	79.56
299.214	84.56
299.445	101.56
299.675	70.56
299.905	85.56
300.136	86.56
300.366	86.56
300.597	90.56
300.827	84.56
301.057	82.56
301.288	83.56
301.518	70.56
301.748	72.56
301.979	91.56
302.209	91.56
302.439	81.56
302.669	76.56
302.9	84.56
303.13	71.56
303.36	84.56
303.59	94.56
303.82	92.56
304.051	90.56
304.281	97.56
304.511	90.56
304.741	96.56
304.971	89.56
305.201	72.56
305.431	104.56
305.661	86.56
305.891	96.56
306.121	96.56
306.352	92.56
306.582	78.56
306.812	97.56
307.042	79.56
307.272	82.56
307.502	86.56
307.731	79.56
307.961	91.56
308.191	69.56
308.421	86.56
308.651	81.56
308.881	92.56
309.111	98.56
309.341	90.56
309.571	83.56
309.8	83.56
310.03	85.56
310.26	82.56
310.49	86.56
310.72	83.56
310.949	90.56
311.179	90.56
311.409	92.56
311.639	90.56
311.868	88.56
312.098	88.56
312.328	77.56
312.557	103.56
312.787	87.56
313.017	92.56
313.246	86.56
313.476	89.56
313.706	83.56
313.935	73.56
314.165	68.56
314.394	92.56
314.624	86.56
314.853	89.56
315.083	86.56
315.312	101.56
315.542	103.56
315.771	81.56
316.001	96.56
316.23	96.56
316.46	89.56
316.689	79.56
316.919	85.56
317.148	96.56
317.377	84.56
317.607	95.56
317.836	97.56
318.065	87.56
318.295	83.56
318.524	94.56
318.753	93.56
318.983	78.56
319.212	79.56
319.441	89.56
319.67	89.56
319.9	93.56
320.129	82.56
320.358	76.56
320.587	100.56
320.816	84.56
321.046	90.56
321.275	85.56
321.504	96.56
321.733	79.56
321.962	82.56
322.191	76.56
322.42	97.56
322.649	95.56
322.878	76.56
323.108	90.56
323.337	79.56
323.566	89.56
323.795	81.56
324.024	79.56
324.253	75.56
324.482	75.56
324.71	87.56
324.939	93.56
325.168	83.56
325.397	83.56
325.626	77.56
325.855	86.56
326.084	89.56
326.313	89.56
326.542	81.56
326.77	96.56
326.999	86.56
327.228	90.56
327.457	92.56
327.686	102.56
327.914	76.56
328.143	83.56
328.372	83.56
328.6	84.56
328.829	65.56
329.058	84.56
329.287	83.56
329.515	85.56
329.744	79.56
329.972	85.56
330.201	80.56
330.43	85.56
330.658	75.56
330.887	76.56
331.115	86.56
331.344	89.56
331.572	100.56
331.801	86.56
332.03	99.56
332.258	90.56
332.486	78.56
332.715	85.56
332.943	88.56
333.172	81.56
333.4	69.56
333.629	77.56
333.857	86.56
334.085	78.56
334.314	76.56
334.542	85.56
334.771	96.56
334.999	99.56
335.227	75.56
335.455	94.56
335.684	89.56
335.912	90.56
336.14	87.56
336.369	79.56
336.597	83.56
336.825	76.56
337.053	74.56
337.281	97.56
337.51	83.56
337.738	97.56
337.966	91.56
338.194	79.56
338.422	86.56
338.65	87.56
338.878	86.56
339.106	82.56
339.334	75.56
339.562	84.56
339.79	85.56
340.018	88.56
340.246	89.56
340.474	86.56
340.702	86.56
340.93	74.56
341.158	90.56
341.386	82.56
341.614	79.56
341.842	89.56
342.07	76.56
342.298	92.56
342.526	79.56
342.754	85.56
342.981	85.56
343.209	96.56
343.437	101.56
343.665	100.56
343.893	88.56
344.12	96.56
344.348	81.56
344.576	86.56
344.804	84.56
345.031	99.56
345.259	81.56
345.487	83.56
345.714	86.56
345.942	89.56
346.17	92.56
346.397	97.56
346.625	91.56
346.853	93.56
347.08	88.56
347.308	76.56
347.535	86.56
347.763	88.56
347.99	89.56
348.218	78.56
348.445	92.56
348.673	107.56
348.9	85.56
349.128	85.56
349.355	91.56
349.583	71.56
349.81	79.56
350.037	87.56
350.265	96.56
350.492	90.56
350.72	76.56
350.947	83.56
351.174	74.56
351.402	76.56
351.629	80.56
351.856	84.56
352.083	73.56
352.311	88.56
352.538	81.56
352.765	81.56
352.992	85.56
353.22	90.56
353.447	94.56
353.674	93.56
353.901	89.56
354.128	92.56
354.355	77.56
354.583	92.56
354.81	88.56
355.037	77.56
355.264	83.56
355.491	96.56
355.718	88.56
355.945	80.56
356.172	90.56
356.399	80.56
356.626	83.56
356.853	90.56
357.08	91.56
357.307	86.56
357.534	84.56
357.761	71.56
357.988	86.56
358.215	82.56
358.441	75.56
358.668	96.56
358.895	84.56
359.122	87.56
359.349	89.56
359.576	95.56
359.802	78.56
360.029	92.56
360.256	84.56
360.483	74.56
360.709	84.56
360.936	92.56
361.163	79.56
361.39	80.56
361.616	86.56
361.843	77.56
362.07	90.56
362.296	88.56
362.523	92.56
362.749	99.56
362.976	106.56
363.203	107.56
363.429	91.56
363.656	78.56
363.882	79.56
364.109	93.56
364.335	93.56
364.562	96.56
364.788	93.56
365.015	79.56
365.241	80.56
365.468	84.56
365.694	87.56
365.92	86.56
366.147	84.56
366.373	78.56
366.599	89.56
366.826	84.56
367.052	76.56
367.278	90.56
367.505	83.56
367.731	92.56
367.957	77.56
368.184	77.56
368.41	89.56
368.636	95.56
368.862	80.56
369.089	81.56
369.315	78.56
369.541	79.56
369.767	79.56
369.993	88.56
370.219	86.56
370.445	85.56
370.672	85.56
370.898	89.56
371.124	78.56
371.35	90.56
371.576	86.56
371.802	82.56
372.028	96.56
372.254	93.56
372.48	73.56
372.706	88.56
372.932	72.56
373.158	97.56
373.384	98.56
373.61	106.56
373.835	102.56
374.061	97.56
374.287	84.56
374.513	105.56
374.739	88.56
374.965	97.56
375.191	88.56
375.416	85.56
375.642	87.56
375.868	78.56
376.094	79.56
376.319	84.56
376.545	90.56
376.771	94.56
376.997	93.56
377.222	79.56
377.448	82.56
377.674	94.56
377.899	82.56
378.125	85.56
378.35	93.56
378.576	78.56
378.802	99.56
379.027	93.56
379.253	88.56
379.478	70.56
379.704	82.56
379.929	83.56
380.155	86.56
380.38	86.56
380.606	75.56
380.831	90.56
381.057	92.56
381.282	81.56
381.507	75.56
381.733	86.56
381.958	79.56
382.184	84.56
382.409	92.56
382.634	92.56
382.86	84.56
383.085	86.56
383.31	96.56
383.535	88.56
383.761	84.56
383.986	78.56
384.211	88.56
384.436	83.56
384.662	84.56
384.887	86.56
385.112	89.56
385.337	73.56
385.562	85.56
385.787	84.56
386.013	100.56
386.238	83.56
386.463	83.56
386.688	98.56
386.913	74.56
387.138	84.56
387.363	90.56
387.588	84.56
387.813	86.56
388.038	81.56
388.263	78.56
388.488	79.56
388.713	82.56
388.938	78.56
389.163	80.56
389.387	81.56
389.612	89.56
389.837	83.56
390.062	105.56
390.287	85.56
390.512	95.56
390.736	76.56
390.961	91.56
391.186	84.56
391.411	84.56
391.636	91.56
391.86	93.56
392.085	102.56
392.31	81.56
392.534	94.56
392.759	97.56
392.984	120.56
393.208	197.56
393.433	298.56
393.658	237.56
393.882	114.56
394.107	89.56
394.331	75.56
394.556	87.56
394.78	107.56
395.005	89.56
395.229	88.56
395.454	97.56
395.678	98.56
395.903	100.56
396.127	101.56
396.352	116.56
396.576	143.56
396.801	198.56
397.025	239.56
397.249	132.56
397.474	97.56
397.698	100.56
397.922	73.56
398.147	84.56
398.371	84.56
398.595	89.56
398.82	100.56
399.044	84.56
399.268	84.56
399.492	85.56
399.717	86.56
399.941	82.56
400.165	97.56
400.389	69.56
400.613	89.56
400.837	83.56
401.062	97.56
401.286	89.56
401.51	107.56
401.734	86.56
401.958	72.56
402.182	80.56
402.406	82.56
402.63	74.56
402.854	84.56
403.078	84.56
403.302	100.56
403.526	93.56
403.75	84.56
403.974	80.56
404.198	75.56
404.422	94.56
404.645	77.56
404.869	94.56
405.093	74.56
405.317	92.56
405.541	73.56
405.765	88.56
405.988	81.56
406.212	81.56
406.436	84.56
406.66	76.56
406.883	83.56
407.107	92.56
407.331	87.56
407.555	86.56
407.778	120.56
408.002	132.56
408.226	81.56
408.449	94.56
408.673	98.56
408.896	79.56
409.12	77.56
409.344	89.56
409.567	73.56
409.791	88.56
410.014	85.56
410.238	84.56
410.461	83.56
410.685	93.56
410.908	84.56
411.132	84.56
411.355	93.56
411.578	94.56
411.802	84.56
412.025	89.56
412.249	82.56
412.472	72.56
412.695	90.56
412.919	73.56
413.142	102.56
413.365	76.56
413.589	85.56
413.812	88.56
414.035	97.56
414.258	74.56
414.482	82.56
414.705	81.56
414.928	81.56
415.151	88.56
415.374	91.56
415.597	75.56
415.821	79.56
416.044	88.56
416.267	87.56
416.49	92.56
416.713	85.56
416.936	94.56
417.159	78.56
417.382	82.56
417.605	82.56
417.828	76.56
418.051	93.56
418.274	71.56
418.497	79.56
418.72	76.56
418.943	76.56
419.166	90.56
419.389	94.56
419.611	78.56
419.834	87.56
420.057	90.56
420.28	87.56
420.503	82.56
420.726	76.56
420.948	67.56
421.171	90.56
421.394	100.56
421.617	112.56
421.839	111.56
422.062	93.56
422.285	104.56
422.507	138.56
422.73	213.56
422.953	200.56
423.175	112.56
423.398	92.56
423.621	102.56
423.843	86.56
424.066	100.56
424.288	86.56
424.511	74.56
424.733	88.56
424.956	84.56
425.178	93.56
425.401	79.56
425.623	87.56
425.846	81.56
426.068	92.56
426.291	82.56
426.513	87.56
426.735	85.56
426.958	69.56
427.18	75.56
427.402	90.56
427.625	85.56
427.847	88.56
428.069	112.56
428.292	104.56
428.514	95.56
428.736	87.56
428.958	104.56
429.181	93.56
429.403	82.56
429.625	83.56
429.847	98.56
430.069	101.56
430.292	130.56
430.514	115.56
430.736	98.56
430.958	98.56
431.18	78.56
431.402	88.56
431.624	83.56
431.846	99.56
432.068	98.56
432.29	88.56
432.512	82.56
432.734	78.56
432.956	85.56
433.178	92.56
433.4	76.56
433.622	71.56
433.844	91.56
434.066	82.56
434.287	97.56
434.509	88.56
434.731	78.56
434.953	97.56
435.175	70.56
435.397	79.56
435.618	75.56
435.84	89.56
436.062	93.56
436.284	90.56
436.505	90.56
436.727	86.56
436.949	72.56
437.17	80.56
437.392	85.56
437.614	75.56
437.835	92.56
438.057	87.56
438.278	83.56
438.5	80.56
438.721	75.56
438.943	80.56
439.165	90.56
439.386	88.56
439.608	92.56
439.829	89.56
440.05	78.56
440.272	73.56
440.493	76.56
440.715	91.56
440.936	102.56
441.158	93.56
441.379	82.56
441.6	82.56
441.822	84.56
442.043	95.56
442.264	84.56
442.486	82.56
442.707	90.56
442.928	75.56
443.149	84.56
443.371	102.56
443.592	121.56
443.813	108.56
444.034	84.56
444.255	95.56
444.476	84.56
444.698	84.56
444.919	78.56
445.14	149.56
445.361	138.56
445.582	139.56
445.803	131.56
446.024	85.56
446.245	80.56
446.466	85.56
446.687	77.56
446.908	79.56
447.129	86.56
447.35	90.56
447.571	100.56
447.792	77.56
448.013	76.56
448.234	76.56
448.455	83.56
448.675	77.56
448.896	83.56
449.117	75.56
449.338	75.56
449.559	81.56
449.779	82.56
450	82.56
450.221	93.56
450.442	88.56
450.662	87.56
450.883	64.56
451.104	93.56
451.324	84.56
451.545	64.56
451.766	82.56
451.986	88.56
452.207	76.56
452.428	84.56
452.648	90.56
452.869	91.56
453.089	88.56
453.31	91.56
453.53	88.56
453.751	84.56
453.971	86.56
454.192	85.56
454.412	78.56
454.633	84.56
454.853	90.56
455.073	82.56
455.294	68.56
455.514	73.56
455.734	84.56
455.955	82.56
456.175	84.56
456.395	68.56
456.616	78.56
456.836	70.56
457.056	84.56
457.276	92.56
457.497	82.56
457.717	93.56
457.937	84.56
458.157	78.56
458.377	88.56
458.598	89.56
458.818	84.56
459.038	73.56
459.258	73.56
459.478	84.56
459.698	90.56
459.918	80.56
460.138	76.56
460.358	88.56
460.578	92.56
460.798	102.56
461.018	98.56
461.238	81.56
461.458	80.56
461.678	82.56
461.898	103.56
462.118	88.56
462.338	96.56
462.558	73.56
462.777	87.56
462.997	79.56
463.217	68.56
463.437	78.56
463.657	93.56
463.876	94.56
464.096	85.56
464.316	82.56
464.536	84.56
464.755	80.56
464.975	77.56
465.195	80.56
465.414	77.56
465.634	87.56
465.854	76.56
466.073	82.56
466.293	76.56
466.512	74.56
466.732	92.56
466.951	85.56
467.171	84.56
467.391	92.56
467.61	80.56
467.829	84.56
468.049	82.56
468.268	76.56
468.488	74.56
468.707	105.56
468.927	76.56
469.146	69.56
469.365	90.56
469.585	82.56
469.804	89.56
470.023	87.56
470.243	92.56
470.462	94.56
470.681	95.56
470.901	80.56
471.12	76.56
471.339	94.56
471.558	86.56
471.777	84.56
471.997	80.56
472.216	74.56
472.435	78.56
472.654	87.56
472.873	92.56
473.092	87.56
473.311	69.56
473.53	76.56
473.749	85.56
473.968	87.56
474.187	87.56
474.406	83.56
474.625	85.56
474.844	77.56
475.063	78.56
475.282	91.56
475.501	84.56
475.72	85.56
475.939	90.56
476.158	92.56
476.377	82.56
476.596	85.56
476.814	84.56
477.033	73.56
477.252	98.56
477.471	72.56
477.69	80.56
477.908	88.56
478.127	76.56
478.346	79.56
478.564	84.56
478.783	79.56
479.002	75.56
479.22	93.56
479.439	86.56
479.658	80.56
479.876	79.56
480.095	87.56
480.313	95.56
480.532	89.56
480.751	88.56
480.969	88.56
481.188	91.56
481.406	92.56
481.624	82.56
481.843	72.56
482.061	81.56
482.28	86.56
482.498	84.56
482.717	80.56
482.935	86.56
483.153	67.56
483.372	82.56
483.59	82.56
483.808	82.56
484.027	98.56
484.245	94.56
484.463	87.56
484.681	89.56
484.9	81.56
485.118	89.56
485.336	98.56
485.554	88.56
485.772	93.56
485.99	79.56
486.209	107.56
486.427	81.56
486.645	74.56
486.863	98.56
487.081	98.56
487.299	91.56
487.517	90.56
487.735	84.56
487.953	101.56
488.171	106.56
488.389	83.56
488.607	82.56
488.825	71.56
489.043	86.56
489.261	85.56
489.479	98.56
489.696	97.56
489.914	77.56
490.132	84.56
490.35	76.56
490.568	82.56
490.786	83.56
491.003	86.56
491.221	87.56
491.439	84.56
491.657	84.56
491.874	86.56
492.092	82.56
492.31	87.56
492.527	75.56
492.745	88.56
492.963	89.56
493.18	87.56
493.398	76.56
493.615	102.56
493.833	84.56
494.05	77.56
494.268	72.56
494.485	87.56
494.703	107.56
494.92	82.56
495.138	89.56
495.355	90.56
495.573	92.56
495.79	80.56
496.008	85.56
496.225	83.56
496.442	69.56
496.66	93.56
496.877	96.56
497.094	82.56
497.312	84.56
497.529	88.56
497.746	91.56
497.963	83.56
498.181	96.56
498.398	81.56
498.615	92.56
498.832	93.56
499.049	85.56
499.267	84.56
499.484	97.56
499.701	70.56
499.918	81.56
500.135	90.56
500.352	79.56
500.569	95.56
500.786	94.56
501.003	98.56
501.22	100.56
501.437	70.56
501.654	102.56
501.871	91.56
502.088	88.56
502.305	87.56
502.522	91.56
502.739	84.56
502.956	72.56
503.172	82.56
503.389	93.56
503.606	88.56
503.823	93.56
504.04	85.56
504.256	102.56
504.473	79.56
504.69	82.56
504.907	83.56
505.123	87.56
505.34	91.56
505.557	86.56
505.773	84.56
505.99	93.56
506.207	85.56
506.423	81.56
506.64	84.56
506.856	84.56
507.073	75.56
507.289	84.56
507.506	90.56
507.722	76.56
507.939	73.56
508.155	93.56
508.372	77.56
508.588	69.56
508.805	81.56
509.021	96.56
509.238	86.56
509.454	91.56
509.67	84.56
509.887	84.56
510.103	91.56
510.319	95.56
510.536	87.56
510.752	75.56
510.968	82.56
511.184	84.56
511.401	74.56
511.617	94.56
511.833	72.56
512.049	84.56
512.265	76.56
512.481	83.56
512.698	105.56
512.914	90.56
513.13	86.56
513.346	88.56
513.562	90.56
513.778	88.56
513.994	94.56
514.21	82.56
514.426	100.56
514.642	88.56
514.858	78.56
515.074	90.56
515.29	93.56
515.506	89.56
515.721	80.56
515.937	91.56
516.153	88.56
516.369	87.56
516.585	87.56
516.801	76.56
517.016	91.56
517.232	67.56
517.448	90.56
517.664	86.56
517.879	76.56
518.095	86.56
518.311	93.56
518.527	89.56
518.742	88.56
518.958	87.56
519.173	98.56
