Data from 17600_2_HRD10591_00048.txt Node
Date: Mon Jan 19 14:08:46 EST 2026
User: Yrep
Spectrometer: HR+D1059
Trigger mode: 1
Integration Time (sec): 1.000000E-1
Scans to average: 1
Electric dark correction enabled: true
Nonlinearity correction enabled: false
Boxcar width: 0
XAxis mode: Wavelengths
Number of Pixels in Spectrum: 2048
>>>>>Begin Spectral Data<<<<<
223.165	-14.88
223.4	-14.88
223.635	-14.88
223.869	-21.88
224.104	-15.88
224.338	-26.88
224.573	-15.88
224.808	-6.88
225.042	-6.88
225.277	-4.88
225.511	-4.88
225.746	8.12
225.98	15.12
226.215	6.12
226.449	27.12
226.683	16.12
226.918	24.12
227.152	22.12
227.387	30.12
227.621	42.12
227.856	58.12
228.09	31.12
228.324	54.12
228.559	69.12
228.793	66.12
229.027	55.12
229.262	64.12
229.496	54.12
229.73	74.12
229.964	73.12
230.199	80.12
230.433	66.12
230.667	74.12
230.901	79.12
231.136	83.12
231.37	75.12
231.604	70.12
231.838	80.12
232.072	100.12
232.306	72.12
232.541	73.12
232.775	84.12
233.009	68.12
233.243	94.12
233.477	97.12
233.711	79.12
233.945	79.12
234.179	78.12
234.413	71.12
234.647	84.12
234.881	82.12
235.115	85.12
235.349	77.12
235.583	79.12
235.817	87.12
236.051	85.12
236.285	87.12
236.519	76.12
236.753	67.12
236.987	92.12
237.221	77.12
237.455	86.12
237.689	88.12
237.922	83.12
238.156	68.12
238.39	76.12
238.624	73.12
238.858	72.12
239.091	64.12
239.325	73.12
239.559	86.12
239.793	74.12
240.027	74.12
240.26	81.12
240.494	83.12
240.728	76.12
240.961	65.12
241.195	91.12
241.429	78.12
241.662	81.12
241.896	70.12
242.13	73.12
242.363	61.12
242.597	83.12
242.83	73.12
243.064	80.12
243.298	86.12
243.531	69.12
243.765	98.12
243.998	80.12
244.232	67.12
244.465	75.12
244.699	66.12
244.932	64.12
245.166	70.12
245.399	90.12
245.633	77.12
245.866	64.12
246.099	87.12
246.333	72.12
246.566	78.12
246.8	77.12
247.033	77.12
247.266	82.12
247.5	70.12
247.733	75.12
247.966	63.12
248.2	62.12
248.433	71.12
248.666	73.12
248.899	80.12
249.133	79.12
249.366	84.12
249.599	73.12
249.832	73.12
250.066	84.12
250.299	81.12
250.532	74.12
250.765	74.12
250.998	73.12
251.231	75.12
251.465	79.12
251.698	69.12
251.931	80.12
252.164	66.12
252.397	88.12
252.63	89.12
252.863	82.12
253.096	76.12
253.329	74.12
253.562	89.12
253.795	91.12
254.028	76.12
254.261	84.12
254.494	75.12
254.727	86.12
254.96	79.12
255.193	81.12
255.426	80.12
255.659	75.12
255.892	89.12
256.124	86.12
256.357	84.12
256.59	75.12
256.823	82.12
257.056	83.12
257.289	79.12
257.521	83.12
257.754	85.12
257.987	84.12
258.22	88.12
258.452	83.12
258.685	82.12
258.918	80.12
259.151	82.12
259.383	80.12
259.616	69.12
259.849	73.12
260.081	75.12
260.314	74.12
260.547	74.12
260.779	88.12
261.012	80.12
261.244	87.12
261.477	82.12
261.71	89.12
261.942	78.12
262.175	81.12
262.407	91.12
262.64	77.12
262.872	83.12
263.105	76.12
263.337	87.12
263.57	88.12
263.802	91.12
264.035	96.12
264.267	75.12
264.499	70.12
264.732	81.12
264.964	84.12
265.197	81.12
265.429	82.12
265.661	82.12
265.894	78.12
266.126	65.12
266.358	80.12
266.591	85.12
266.823	86.12
267.055	81.12
267.287	71.12
267.52	82.12
267.752	71.12
267.984	78.12
268.216	83.12
268.448	77.12
268.681	78.12
268.913	86.12
269.145	98.12
269.377	85.12
269.609	79.12
269.841	63.12
270.073	76.12
270.306	103.12
270.538	65.12
270.77	96.12
271.002	90.12
271.234	81.12
271.466	74.12
271.698	79.12
271.93	95.12
272.162	62.12
272.394	71.12
272.626	79.12
272.858	84.12
273.09	79.12
273.322	83.12
273.553	95.12
273.785	95.12
274.017	72.12
274.249	75.12
274.481	83.12
274.713	82.12
274.945	102.12
275.176	87.12
275.408	87.12
275.64	76.12
275.872	91.12
276.104	88.12
276.335	94.12
276.567	80.12
276.799	80.12
277.031	81.12
277.262	76.12
277.494	82.12
277.726	89.12
277.957	72.12
278.189	76.12
278.421	66.12
278.652	83.12
278.884	71.12
279.115	72.12
279.347	89.12
279.579	78.12
279.81	92.12
280.042	89.12
280.273	87.12
280.505	83.12
280.736	76.12
280.968	84.12
281.199	95.12
281.431	91.12
281.662	85.12
281.894	81.12
282.125	89.12
282.356	69.12
282.588	76.12
282.819	79.12
283.051	82.12
283.282	90.12
283.513	90.12
283.745	58.12
283.976	91.12
284.207	82.12
284.439	83.12
284.67	80.12
284.901	90.12
285.132	78.12
285.364	89.12
285.595	95.12
285.826	83.12
286.057	82.12
286.288	87.12
286.52	80.12
286.751	80.12
286.982	86.12
287.213	83.12
287.444	88.12
287.675	73.12
287.906	84.12
288.138	98.12
288.369	84.12
288.6	80.12
288.831	104.12
289.062	84.12
289.293	81.12
289.524	95.12
289.755	89.12
289.986	76.12
290.217	82.12
290.448	74.12
290.679	95.12
290.91	88.12
291.141	72.12
291.371	77.12
291.602	92.12
291.833	92.12
292.064	66.12
292.295	62.12
292.526	84.12
292.757	83.12
292.987	71.12
293.218	79.12
293.449	74.12
293.68	88.12
293.91	85.12
294.141	78.12
294.372	90.12
294.603	101.12
294.833	80.12
295.064	72.12
295.295	82.12
295.525	80.12
295.756	97.12
295.987	82.12
296.217	84.12
296.448	82.12
296.679	91.12
296.909	83.12
297.14	79.12
297.37	95.12
297.601	83.12
297.831	83.12
298.062	74.12
298.292	81.12
298.523	68.12
298.753	94.12
298.984	87.12
299.214	80.12
299.445	79.12
299.675	80.12
299.905	78.12
300.136	80.12
300.366	76.12
300.597	92.12
300.827	70.12
301.057	86.12
301.288	80.12
301.518	70.12
301.748	81.12
301.979	96.12
302.209	97.12
302.439	77.12
302.669	90.12
302.9	78.12
303.13	85.12
303.36	88.12
303.59	91.12
303.82	91.12
304.051	94.12
304.281	72.12
304.511	96.12
304.741	89.12
304.971	68.12
305.201	80.12
305.431	75.12
305.661	68.12
305.891	87.12
306.121	84.12
306.352	86.12
306.582	84.12
306.812	83.12
307.042	91.12
307.272	91.12
307.502	82.12
307.731	94.12
307.961	95.12
308.191	89.12
308.421	87.12
308.651	90.12
308.881	89.12
309.111	86.12
309.341	75.12
309.571	75.12
309.8	100.12
310.03	84.12
310.26	99.12
310.49	91.12
310.72	88.12
310.949	83.12
311.179	95.12
311.409	82.12
311.639	79.12
311.868	96.12
312.098	98.12
312.328	90.12
312.557	81.12
312.787	77.12
313.017	82.12
313.246	82.12
313.476	84.12
313.706	83.12
313.935	75.12
314.165	88.12
314.394	76.12
314.624	82.12
314.853	88.12
315.083	82.12
315.312	64.12
315.542	89.12
315.771	92.12
316.001	89.12
316.23	100.12
316.46	75.12
316.689	85.12
316.919	92.12
317.148	95.12
317.377	75.12
317.607	83.12
317.836	83.12
318.065	67.12
318.295	92.12
318.524	74.12
318.753	82.12
318.983	100.12
319.212	76.12
319.441	86.12
319.67	76.12
319.9	89.12
320.129	96.12
320.358	90.12
320.587	78.12
320.816	91.12
321.046	89.12
321.275	85.12
321.504	76.12
321.733	80.12
321.962	77.12
322.191	86.12
322.42	75.12
322.649	95.12
322.878	80.12
323.108	94.12
323.337	90.12
323.566	80.12
323.795	74.12
324.024	90.12
324.253	83.12
324.482	73.12
324.71	96.12
324.939	86.12
325.168	89.12
325.397	90.12
325.626	79.12
325.855	76.12
326.084	75.12
326.313	82.12
326.542	88.12
326.77	87.12
326.999	90.12
327.228	76.12
327.457	88.12
327.686	76.12
327.914	95.12
328.143	82.12
328.372	86.12
328.6	77.12
328.829	95.12
329.058	87.12
329.287	86.12
329.515	82.12
329.744	74.12
329.972	84.12
330.201	78.12
330.43	99.12
330.658	93.12
330.887	90.12
331.115	91.12
331.344	99.12
331.572	89.12
331.801	101.12
332.03	91.12
332.258	83.12
332.486	90.12
332.715	84.12
332.943	83.12
333.172	80.12
333.4	72.12
333.629	85.12
333.857	95.12
334.085	74.12
334.314	84.12
334.542	85.12
334.771	78.12
334.999	101.12
335.227	76.12
335.455	92.12
335.684	83.12
335.912	90.12
336.14	81.12
336.369	75.12
336.597	86.12
336.825	72.12
337.053	84.12
337.281	76.12
337.51	101.12
337.738	104.12
337.966	74.12
338.194	80.12
338.422	82.12
338.65	95.12
338.878	70.12
339.106	86.12
339.334	85.12
339.562	89.12
339.79	90.12
340.018	88.12
340.246	79.12
340.474	73.12
340.702	96.12
340.93	58.12
341.158	86.12
341.386	84.12
341.614	79.12
341.842	93.12
342.07	66.12
342.298	87.12
342.526	77.12
342.754	76.12
342.981	86.12
343.209	72.12
343.437	103.12
343.665	90.12
343.893	82.12
344.12	86.12
344.348	90.12
344.576	90.12
344.804	83.12
345.031	75.12
345.259	80.12
345.487	90.12
345.714	80.12
345.942	80.12
346.17	82.12
346.397	75.12
346.625	80.12
346.853	89.12
347.08	80.12
347.308	82.12
347.535	82.12
347.763	83.12
347.99	77.12
348.218	75.12
348.445	82.12
348.673	76.12
348.9	90.12
349.128	89.12
349.355	84.12
349.583	92.12
349.81	77.12
350.037	80.12
350.265	91.12
350.492	84.12
350.72	89.12
350.947	86.12
351.174	89.12
351.402	86.12
351.629	82.12
351.856	75.12
352.083	71.12
352.311	75.12
352.538	87.12
352.765	94.12
352.992	94.12
353.22	81.12
353.447	80.12
353.674	84.12
353.901	89.12
354.128	83.12
354.355	89.12
354.583	83.12
354.81	72.12
355.037	80.12
355.264	74.12
355.491	81.12
355.718	78.12
355.945	77.12
356.172	82.12
356.399	76.12
356.626	92.12
356.853	70.12
357.08	92.12
357.307	87.12
357.534	80.12
357.761	83.12
357.988	91.12
358.215	83.12
358.441	83.12
358.668	86.12
358.895	70.12
359.122	89.12
359.349	76.12
359.576	102.12
359.802	85.12
360.029	80.12
360.256	82.12
360.483	66.12
360.709	90.12
360.936	85.12
361.163	83.12
361.39	88.12
361.616	76.12
361.843	88.12
362.07	77.12
362.296	91.12
362.523	87.12
362.749	95.12
362.976	97.12
363.203	96.12
363.429	81.12
363.656	80.12
363.882	93.12
364.109	101.12
364.335	73.12
364.562	81.12
364.788	85.12
365.015	88.12
365.241	88.12
365.468	91.12
365.694	85.12
365.92	82.12
366.147	79.12
366.373	83.12
366.599	80.12
366.826	70.12
367.052	90.12
367.278	93.12
367.505	78.12
367.731	83.12
367.957	86.12
368.184	73.12
368.41	72.12
368.636	97.12
368.862	85.12
369.089	79.12
369.315	94.12
369.541	82.12
369.767	78.12
369.993	86.12
370.219	81.12
370.445	83.12
370.672	88.12
370.898	81.12
371.124	81.12
371.35	81.12
371.576	83.12
371.802	71.12
372.028	85.12
372.254	86.12
372.48	84.12
372.706	71.12
372.932	62.12
373.158	84.12
373.384	93.12
373.61	78.12
373.835	87.12
374.061	83.12
374.287	88.12
374.513	88.12
374.739	75.12
374.965	91.12
375.191	95.12
375.416	82.12
375.642	88.12
375.868	80.12
376.094	89.12
376.319	81.12
376.545	76.12
376.771	82.12
376.997	82.12
377.222	74.12
377.448	80.12
377.674	82.12
377.899	84.12
378.125	82.12
378.35	66.12
378.576	75.12
378.802	96.12
379.027	84.12
379.253	92.12
379.478	91.12
379.704	86.12
379.929	77.12
380.155	95.12
380.38	82.12
380.606	83.12
380.831	81.12
381.057	88.12
381.282	82.12
381.507	85.12
381.733	83.12
381.958	88.12
382.184	72.12
382.409	94.12
382.634	84.12
382.86	75.12
383.085	86.12
383.31	72.12
383.535	84.12
383.761	80.12
383.986	91.12
384.211	70.12
384.436	83.12
384.662	82.12
384.887	75.12
385.112	88.12
385.337	87.12
385.562	86.12
385.787	73.12
386.013	85.12
386.238	84.12
386.463	91.12
386.688	81.12
386.913	77.12
387.138	82.12
387.363	80.12
387.588	83.12
387.813	71.12
388.038	91.12
388.263	90.12
388.488	82.12
388.713	76.12
388.938	76.12
389.163	67.12
389.387	81.12
389.612	80.12
389.837	82.12
390.062	80.12
390.287	92.12
390.512	90.12
390.736	80.12
390.961	82.12
391.186	82.12
391.411	80.12
391.636	88.12
391.86	89.12
392.085	70.12
392.31	90.12
392.534	77.12
392.759	94.12
392.984	104.12
393.208	143.12
393.433	190.12
393.658	147.12
393.882	84.12
394.107	83.12
394.331	79.12
394.556	86.12
394.78	80.12
395.005	97.12
395.229	78.12
395.454	83.12
395.678	99.12
395.903	95.12
396.127	100.12
396.352	100.12
396.576	124.12
396.801	155.12
397.025	167.12
397.249	90.12
397.474	89.12
397.698	73.12
397.922	93.12
398.147	88.12
398.371	76.12
398.595	88.12
398.82	86.12
399.044	75.12
399.268	96.12
399.492	90.12
399.717	82.12
399.941	88.12
400.165	84.12
400.389	81.12
400.613	87.12
400.837	70.12
401.062	83.12
401.286	94.12
401.51	92.12
401.734	83.12
401.958	74.12
402.182	81.12
402.406	94.12
402.63	64.12
402.854	91.12
403.078	68.12
403.302	78.12
403.526	84.12
403.75	90.12
403.974	96.12
404.198	79.12
404.422	82.12
404.645	98.12
404.869	90.12
405.093	90.12
405.317	86.12
405.541	84.12
405.765	83.12
405.988	78.12
406.212	98.12
406.436	73.12
406.66	90.12
406.883	86.12
407.107	91.12
407.331	81.12
407.555	82.12
407.778	92.12
408.002	96.12
408.226	79.12
408.449	66.12
408.673	85.12
408.896	84.12
409.12	57.12
409.344	75.12
409.567	83.12
409.791	81.12
410.014	87.12
410.238	94.12
410.461	78.12
410.685	72.12
410.908	82.12
411.132	76.12
411.355	80.12
411.578	86.12
411.802	90.12
412.025	79.12
412.249	86.12
412.472	86.12
412.695	83.12
412.919	94.12
413.142	85.12
413.365	91.12
413.589	83.12
413.812	77.12
414.035	73.12
414.258	78.12
414.482	66.12
414.705	74.12
414.928	84.12
415.151	82.12
415.374	82.12
415.597	84.12
415.821	88.12
416.044	83.12
416.267	80.12
416.49	77.12
416.713	73.12
416.936	80.12
417.159	78.12
417.382	67.12
417.605	77.12
417.828	81.12
418.051	75.12
418.274	79.12
418.497	92.12
418.72	75.12
418.943	74.12
419.166	76.12
419.389	82.12
419.611	74.12
419.834	71.12
420.057	85.12
420.28	86.12
420.503	65.12
420.726	78.12
420.948	91.12
421.171	91.12
421.394	96.12
421.617	95.12
421.839	92.12
422.062	89.12
422.285	103.12
422.507	107.12
422.73	151.12
422.953	142.12
423.175	96.12
423.398	84.12
423.621	88.12
423.843	90.12
424.066	84.12
424.288	90.12
424.511	65.12
424.733	78.12
424.956	84.12
425.178	75.12
425.401	82.12
425.623	74.12
425.846	75.12
426.068	85.12
426.291	74.12
426.513	83.12
426.735	72.12
426.958	78.12
427.18	78.12
427.402	82.12
427.625	76.12
427.847	87.12
428.069	83.12
428.292	76.12
428.514	96.12
428.736	80.12
428.958	98.12
429.181	97.12
429.403	81.12
429.625	81.12
429.847	98.12
430.069	94.12
430.292	103.12
430.514	98.12
430.736	105.12
430.958	106.12
431.18	75.12
431.402	90.12
431.624	82.12
431.846	101.12
432.068	98.12
432.29	91.12
432.512	82.12
432.734	83.12
432.956	83.12
433.178	93.12
433.4	99.12
433.622	89.12
433.844	76.12
434.066	77.12
434.287	90.12
434.509	68.12
434.731	87.12
434.953	71.12
435.175	79.12
435.397	73.12
435.618	88.12
435.84	82.12
436.062	83.12
436.284	75.12
436.505	86.12
436.727	66.12
436.949	77.12
437.17	90.12
437.392	79.12
437.614	87.12
437.835	79.12
438.057	79.12
438.278	79.12
438.5	76.12
438.721	84.12
438.943	91.12
439.165	86.12
439.386	80.12
439.608	82.12
439.829	65.12
440.05	78.12
440.272	80.12
440.493	82.12
440.715	74.12
440.936	78.12
441.158	73.12
441.379	77.12
441.6	72.12
441.822	94.12
442.043	96.12
442.264	87.12
442.486	85.12
442.707	96.12
442.928	86.12
443.149	74.12
443.371	80.12
443.592	99.12
443.813	95.12
444.034	90.12
444.255	82.12
444.476	80.12
444.698	89.12
444.919	87.12
445.14	144.12
445.361	125.12
445.582	118.12
445.803	103.12
446.024	98.12
446.245	76.12
446.466	71.12
446.687	82.12
446.908	86.12
447.129	81.12
447.35	85.12
447.571	86.12
447.792	89.12
448.013	74.12
448.234	89.12
448.455	80.12
448.675	65.12
448.896	89.12
449.117	84.12
449.338	75.12
449.559	100.12
449.779	85.12
450	64.12
450.221	80.12
450.442	65.12
450.662	76.12
450.883	74.12
451.104	86.12
451.324	87.12
451.545	75.12
451.766	70.12
451.986	72.12
452.207	76.12
452.428	83.12
452.648	74.12
452.869	84.12
453.089	92.12
453.31	74.12
453.53	85.12
453.751	88.12
453.971	80.12
454.192	77.12
454.412	78.12
454.633	84.12
454.853	57.12
455.073	66.12
455.294	73.12
455.514	72.12
455.734	90.12
455.955	73.12
456.175	84.12
456.395	75.12
456.616	76.12
456.836	79.12
457.056	70.12
457.276	84.12
457.497	80.12
457.717	83.12
457.937	80.12
458.157	86.12
458.377	90.12
458.598	76.12
458.818	80.12
459.038	77.12
459.258	76.12
459.478	90.12
459.698	86.12
459.918	86.12
460.138	84.12
460.358	84.12
460.578	75.12
460.798	104.12
461.018	89.12
461.238	70.12
461.458	73.12
461.678	100.12
461.898	89.12
462.118	84.12
462.338	89.12
462.558	89.12
462.777	86.12
462.997	84.12
463.217	75.12
463.437	86.12
463.657	81.12
463.876	88.12
464.096	88.12
464.316	82.12
464.536	79.12
464.755	87.12
464.975	84.12
465.195	78.12
465.414	94.12
465.634	80.12
465.854	78.12
466.073	84.12
466.293	96.12
466.512	89.12
466.732	80.12
466.951	83.12
467.171	83.12
467.391	73.12
467.61	85.12
467.829	80.12
468.049	94.12
468.268	86.12
468.488	75.12
468.707	74.12
468.927	67.12
469.146	67.12
469.365	87.12
469.585	85.12
469.804	77.12
470.023	75.12
470.243	74.12
470.462	70.12
470.681	75.12
470.901	86.12
471.12	82.12
471.339	74.12
471.558	87.12
471.777	74.12
471.997	90.12
472.216	88.12
472.435	97.12
472.654	85.12
472.873	82.12
473.092	83.12
473.311	80.12
473.53	80.12
473.749	88.12
473.968	88.12
474.187	86.12
474.406	87.12
474.625	77.12
474.844	87.12
475.063	76.12
475.282	80.12
475.501	78.12
475.72	95.12
475.939	76.12
476.158	89.12
476.377	80.12
476.596	86.12
476.814	76.12
477.033	90.12
477.252	80.12
477.471	68.12
477.69	80.12
477.908	88.12
478.127	102.12
478.346	78.12
478.564	82.12
478.783	78.12
479.002	79.12
479.22	72.12
479.439	74.12
479.658	67.12
479.876	87.12
480.095	86.12
480.313	89.12
480.532	80.12
480.751	84.12
480.969	97.12
481.188	83.12
481.406	95.12
481.624	88.12
481.843	85.12
482.061	85.12
482.28	83.12
482.498	79.12
482.717	67.12
482.935	77.12
483.153	78.12
483.372	82.12
483.59	77.12
483.808	81.12
484.027	74.12
484.245	80.12
484.463	84.12
484.681	94.12
484.9	78.12
485.118	77.12
485.336	87.12
485.554	81.12
485.772	79.12
485.99	82.12
486.209	84.12
486.427	92.12
486.645	74.12
486.863	68.12
487.081	84.12
487.299	75.12
487.517	84.12
487.735	89.12
487.953	87.12
488.171	86.12
488.389	79.12
488.607	78.12
488.825	82.12
489.043	80.12
489.261	76.12
489.479	89.12
489.696	77.12
489.914	80.12
490.132	86.12
490.35	74.12
490.568	91.12
490.786	97.12
491.003	78.12
491.221	84.12
491.439	85.12
491.657	76.12
491.874	82.12
492.092	96.12
492.31	86.12
492.527	86.12
492.745	85.12
492.963	90.12
493.18	98.12
493.398	91.12
493.615	84.12
493.833	76.12
494.05	75.12
494.268	79.12
494.485	87.12
494.703	76.12
494.92	85.12
495.138	94.12
495.355	77.12
495.573	83.12
495.79	72.12
496.008	87.12
496.225	92.12
496.442	82.12
496.66	76.12
496.877	91.12
497.094	90.12
497.312	81.12
497.529	80.12
497.746	86.12
497.963	77.12
498.181	90.12
498.398	62.12
498.615	84.12
498.832	90.12
499.049	89.12
499.267	84.12
499.484	87.12
499.701	96.12
499.918	80.12
500.135	76.12
500.352	88.12
500.569	83.12
500.786	76.12
501.003	70.12
501.22	73.12
501.437	81.12
501.654	75.12
501.871	88.12
502.088	71.12
502.305	79.12
502.522	90.12
502.739	73.12
502.956	72.12
503.172	75.12
503.389	83.12
503.606	79.12
503.823	83.12
504.04	91.12
504.256	87.12
504.473	90.12
504.69	69.12
504.907	91.12
505.123	81.12
505.34	88.12
505.557	89.12
505.773	87.12
505.99	91.12
506.207	88.12
506.423	84.12
506.64	80.12
506.856	78.12
507.073	86.12
507.289	80.12
507.506	91.12
507.722	99.12
507.939	89.12
508.155	84.12
508.372	70.12
508.588	76.12
508.805	90.12
509.021	67.12
509.238	88.12
509.454	98.12
509.67	82.12
509.887	84.12
510.103	75.12
510.319	90.12
510.536	80.12
510.752	90.12
510.968	71.12
511.184	81.12
511.401	82.12
511.617	78.12
511.833	79.12
512.049	89.12
512.265	105.12
512.481	85.12
512.698	77.12
512.914	75.12
513.13	86.12
513.346	83.12
513.562	87.12
513.778	88.12
513.994	90.12
514.21	84.12
514.426	92.12
514.642	73.12
514.858	75.12
515.074	77.12
515.29	86.12
515.506	80.12
515.721	86.12
515.937	84.12
516.153	90.12
516.369	92.12
516.585	84.12
516.801	99.12
517.016	94.12
517.232	74.12
517.448	86.12
517.664	86.12
517.879	73.12
518.095	90.12
518.311	84.12
518.527	92.12
518.742	88.12
518.958	92.12
519.173	95.12
519.389	87.12
519.605	88.12
519.82	75.12
