Data from 17600_2_HRD10591_00002.txt Node
Date: Mon Jan 19 14:08:23 EST 2026
User: Yrep
Spectrometer: HR+D1059
Trigger mode: 1
Integration Time (sec): 1.000000E-1
Scans to average: 1
Electric dark correction enabled: true
Nonlinearity correction enabled: false
Boxcar width: 0
XAxis mode: Wavelengths
Number of Pixels in Spectrum: 2048
>>>>>Begin Spectral Data<<<<<
223.165	-29.31
223.4	-29.31
223.635	-29.31
223.869	-19.31
224.104	-22.31
224.338	-29.31
224.573	-15.31
224.808	-9.31
225.042	-0.31
225.277	4.69
225.511	-1.31
225.746	-3.31
225.98	1.69
226.215	12.69
226.449	39.69
226.683	20.69
226.918	32.69
227.152	17.69
227.387	34.69
227.621	36.69
227.856	30.69
228.09	48.69
228.324	35.69
228.559	66.69
228.793	58.69
229.027	63.69
229.262	64.69
229.496	54.69
229.73	52.69
229.964	58.69
230.199	75.69
230.433	61.69
230.667	82.69
230.901	67.69
231.136	78.69
231.37	83.69
231.604	67.69
231.838	69.69
232.072	82.69
232.306	67.69
232.541	73.69
232.775	73.69
233.009	68.69
233.243	84.69
233.477	85.69
233.711	76.69
233.945	74.69
234.179	89.69
234.413	70.69
234.647	77.69
234.881	75.69
235.115	79.69
235.349	76.69
235.583	92.69
235.817	71.69
236.051	64.69
236.285	74.69
236.519	73.69
236.753	67.69
236.987	68.69
237.221	65.69
237.455	68.69
237.689	70.69
237.922	79.69
238.156	75.69
238.39	65.69
238.624	76.69
238.858	64.69
239.091	64.69
239.325	73.69
239.559	71.69
239.793	57.69
240.027	84.69
240.26	67.69
240.494	65.69
240.728	70.69
240.961	89.69
241.195	92.69
241.429	71.69
241.662	86.69
241.896	66.69
242.13	68.69
242.363	67.69
242.597	60.69
242.83	62.69
243.064	75.69
243.298	78.69
243.531	74.69
243.765	75.69
243.998	73.69
244.232	76.69
244.465	83.69
244.699	74.69
244.932	80.69
245.166	81.69
245.399	77.69
245.633	77.69
245.866	81.69
246.099	70.69
246.333	85.69
246.566	61.69
246.8	62.69
247.033	83.69
247.266	80.69
247.5	74.69
247.733	80.69
247.966	79.69
248.2	72.69
248.433	78.69
248.666	80.69
248.899	80.69
249.133	77.69
249.366	76.69
249.599	72.69
249.832	73.69
250.066	75.69
250.299	77.69
250.532	72.69
250.765	67.69
250.998	61.69
251.231	70.69
251.465	66.69
251.698	65.69
251.931	82.69
252.164	72.69
252.397	72.69
252.63	92.69
252.863	74.69
253.096	84.69
253.329	78.69
253.562	72.69
253.795	80.69
254.028	80.69
254.261	69.69
254.494	65.69
254.727	60.69
254.96	72.69
255.193	71.69
255.426	72.69
255.659	67.69
255.892	73.69
256.124	69.69
256.357	56.69
256.59	86.69
256.823	79.69
257.056	72.69
257.289	84.69
257.521	80.69
257.754	75.69
257.987	74.69
258.22	80.69
258.452	65.69
258.685	83.69
258.918	72.69
259.151	79.69
259.383	87.69
259.616	75.69
259.849	92.69
260.081	74.69
260.314	78.69
260.547	78.69
260.779	86.69
261.012	78.69
261.244	88.69
261.477	67.69
261.71	66.69
261.942	83.69
262.175	92.69
262.407	86.69
262.64	101.69
262.872	66.69
263.105	74.69
263.337	77.69
263.57	78.69
263.802	64.69
264.035	74.69
264.267	70.69
264.499	72.69
264.732	80.69
264.964	70.69
265.197	66.69
265.429	86.69
265.661	77.69
265.894	78.69
266.126	78.69
266.358	79.69
266.591	87.69
266.823	81.69
267.055	84.69
267.287	77.69
267.52	82.69
267.752	82.69
267.984	76.69
268.216	65.69
268.448	97.69
268.681	80.69
268.913	88.69
269.145	88.69
269.377	88.69
269.609	70.69
269.841	84.69
270.073	66.69
270.306	91.69
270.538	88.69
270.77	66.69
271.002	74.69
271.234	78.69
271.466	90.69
271.698	73.69
271.93	68.69
272.162	77.69
272.394	84.69
272.626	78.69
272.858	79.69
273.09	77.69
273.322	84.69
273.553	74.69
273.785	70.69
274.017	72.69
274.249	84.69
274.481	80.69
274.713	58.69
274.945	93.69
275.176	91.69
275.408	79.69
275.64	81.69
275.872	84.69
276.104	81.69
276.335	64.69
276.567	81.69
276.799	78.69
277.031	80.69
277.262	81.69
277.494	77.69
277.726	72.69
277.957	80.69
278.189	75.69
278.421	74.69
278.652	64.69
278.884	62.69
279.115	94.69
279.347	77.69
279.579	81.69
279.81	91.69
280.042	95.69
280.273	80.69
280.505	81.69
280.736	81.69
280.968	89.69
281.199	86.69
281.431	81.69
281.662	75.69
281.894	68.69
282.125	85.69
282.356	85.69
282.588	81.69
282.819	77.69
283.051	75.69
283.282	74.69
283.513	92.69
283.745	77.69
283.976	77.69
284.207	79.69
284.439	65.69
284.67	68.69
284.901	80.69
285.132	85.69
285.364	86.69
285.595	74.69
285.826	73.69
286.057	85.69
286.288	70.69
286.52	90.69
286.751	61.69
286.982	82.69
287.213	93.69
287.444	92.69
287.675	78.69
287.906	85.69
288.138	73.69
288.369	84.69
288.6	82.69
288.831	81.69
289.062	74.69
289.293	75.69
289.524	82.69
289.755	69.69
289.986	75.69
290.217	72.69
290.448	84.69
290.679	76.69
290.91	86.69
291.141	69.69
291.371	83.69
291.602	77.69
291.833	70.69
292.064	76.69
292.295	65.69
292.526	74.69
292.757	82.69
292.987	81.69
293.218	67.69
293.449	87.69
293.68	75.69
293.91	80.69
294.141	87.69
294.372	93.69
294.603	78.69
294.833	81.69
295.064	81.69
295.295	82.69
295.525	86.69
295.756	85.69
295.987	73.69
296.217	88.69
296.448	92.69
296.679	95.69
296.909	84.69
297.14	81.69
297.37	80.69
297.601	84.69
297.831	80.69
298.062	66.69
298.292	88.69
298.523	80.69
298.753	88.69
298.984	84.69
299.214	82.69
299.445	88.69
299.675	85.69
299.905	86.69
300.136	84.69
300.366	86.69
300.597	85.69
300.827	93.69
301.057	94.69
301.288	82.69
301.518	92.69
301.748	73.69
301.979	92.69
302.209	92.69
302.439	88.69
302.669	86.69
302.9	91.69
303.13	80.69
303.36	105.69
303.59	87.69
303.82	72.69
304.051	92.69
304.281	73.69
304.511	90.69
304.741	86.69
304.971	79.69
305.201	73.69
305.431	75.69
305.661	102.69
305.891	65.69
306.121	70.69
306.352	87.69
306.582	95.69
306.812	78.69
307.042	82.69
307.272	83.69
307.502	83.69
307.731	89.69
307.961	93.69
308.191	81.69
308.421	83.69
308.651	93.69
308.881	94.69
309.111	93.69
309.341	90.69
309.571	99.69
309.8	70.69
310.03	72.69
310.26	76.69
310.49	70.69
310.72	79.69
310.949	74.69
311.179	72.69
311.409	81.69
311.639	94.69
311.868	63.69
312.098	86.69
312.328	73.69
312.557	82.69
312.787	76.69
313.017	88.69
313.246	79.69
313.476	86.69
313.706	69.69
313.935	78.69
314.165	70.69
314.394	77.69
314.624	72.69
314.853	77.69
315.083	94.69
315.312	89.69
315.542	87.69
315.771	95.69
316.001	102.69
316.23	74.69
316.46	75.69
316.689	87.69
316.919	78.69
317.148	74.69
317.377	92.69
317.607	73.69
317.836	105.69
318.065	75.69
318.295	92.69
318.524	86.69
318.753	80.69
318.983	90.69
319.212	95.69
319.441	88.69
319.67	83.69
319.9	88.69
320.129	94.69
320.358	80.69
320.587	87.69
320.816	69.69
321.046	79.69
321.275	86.69
321.504	86.69
321.733	94.69
321.962	89.69
322.191	97.69
322.42	80.69
322.649	95.69
322.878	75.69
323.108	85.69
323.337	85.69
323.566	97.69
323.795	98.69
324.024	88.69
324.253	80.69
324.482	80.69
324.71	85.69
324.939	90.69
325.168	82.69
325.397	74.69
325.626	91.69
325.855	74.69
326.084	71.69
326.313	87.69
326.542	78.69
326.77	79.69
326.999	88.69
327.228	84.69
327.457	69.69
327.686	80.69
327.914	69.69
328.143	92.69
328.372	95.69
328.6	89.69
328.829	90.69
329.058	79.69
329.287	54.69
329.515	88.69
329.744	90.69
329.972	80.69
330.201	90.69
330.43	82.69
330.658	87.69
330.887	86.69
331.115	84.69
331.344	87.69
331.572	86.69
331.801	70.69
332.03	65.69
332.258	84.69
332.486	82.69
332.715	78.69
332.943	82.69
333.172	72.69
333.4	88.69
333.629	82.69
333.857	75.69
334.085	99.69
334.314	98.69
334.542	81.69
334.771	88.69
334.999	82.69
335.227	105.69
335.455	94.69
335.684	89.69
335.912	78.69
336.14	84.69
336.369	104.69
336.597	73.69
336.825	90.69
337.053	87.69
337.281	82.69
337.51	85.69
337.738	96.69
337.966	87.69
338.194	101.69
338.422	90.69
338.65	76.69
338.878	77.69
339.106	75.69
339.334	81.69
339.562	82.69
339.79	80.69
340.018	82.69
340.246	91.69
340.474	96.69
340.702	86.69
340.93	92.69
341.158	72.69
341.386	88.69
341.614	75.69
341.842	84.69
342.07	77.69
342.298	87.69
342.526	80.69
342.754	74.69
342.981	88.69
343.209	83.69
343.437	99.69
343.665	82.69
343.893	91.69
344.12	89.69
344.348	92.69
344.576	82.69
344.804	77.69
345.031	87.69
345.259	90.69
345.487	79.69
345.714	71.69
345.942	81.69
346.17	86.69
346.397	92.69
346.625	83.69
346.853	81.69
347.08	85.69
347.308	105.69
347.535	102.69
347.763	78.69
347.99	93.69
348.218	87.69
348.445	85.69
348.673	89.69
348.9	81.69
349.128	77.69
349.355	78.69
349.583	70.69
349.81	83.69
350.037	76.69
350.265	85.69
350.492	90.69
350.72	91.69
350.947	82.69
351.174	85.69
351.402	88.69
351.629	88.69
351.856	86.69
352.083	92.69
352.311	72.69
352.538	84.69
352.765	71.69
352.992	87.69
353.22	78.69
353.447	77.69
353.674	84.69
353.901	90.69
354.128	89.69
354.355	88.69
354.583	101.69
354.81	96.69
355.037	88.69
355.264	84.69
355.491	90.69
355.718	88.69
355.945	90.69
356.172	73.69
356.399	88.69
356.626	84.69
356.853	84.69
357.08	92.69
357.307	90.69
357.534	88.69
357.761	77.69
357.988	92.69
358.215	99.69
358.441	91.69
358.668	82.69
358.895	82.69
359.122	95.69
359.349	87.69
359.576	87.69
359.802	84.69
360.029	82.69
360.256	85.69
360.483	90.69
360.709	94.69
360.936	94.69
361.163	95.69
361.39	83.69
361.616	88.69
361.843	103.69
362.07	97.69
362.296	95.69
362.523	98.69
362.749	105.69
362.976	94.69
363.203	118.69
363.429	98.69
363.656	100.69
363.882	88.69
364.109	103.69
364.335	103.69
364.562	140.69
364.788	110.69
365.015	86.69
365.241	86.69
365.468	93.69
365.694	91.69
365.92	106.69
366.147	95.69
366.373	90.69
366.599	83.69
366.826	95.69
367.052	80.69
367.278	80.69
367.505	84.69
367.731	93.69
367.957	82.69
368.184	93.69
368.41	73.69
368.636	87.69
368.862	80.69
369.089	80.69
369.315	76.69
369.541	81.69
369.767	92.69
369.993	90.69
370.219	86.69
370.445	93.69
370.672	85.69
370.898	81.69
371.124	92.69
371.35	83.69
371.576	93.69
371.802	104.69
372.028	89.69
372.254	95.69
372.48	101.69
372.706	96.69
372.932	89.69
373.158	94.69
373.384	113.69
373.61	119.69
373.835	96.69
374.061	96.69
374.287	82.69
374.513	79.69
374.739	97.69
374.965	88.69
375.191	93.69
375.416	104.69
375.642	96.69
375.868	99.69
376.094	89.69
376.319	94.69
376.545	81.69
376.771	91.69
376.997	70.69
377.222	77.69
377.448	80.69
377.674	90.69
377.899	83.69
378.125	87.69
378.35	79.69
378.576	74.69
378.802	77.69
379.027	76.69
379.253	89.69
379.478	82.69
379.704	95.69
379.929	87.69
380.155	89.69
380.38	93.69
380.606	78.69
380.831	88.69
381.057	82.69
381.282	89.69
381.507	90.69
381.733	100.69
381.958	88.69
382.184	87.69
382.409	101.69
382.634	87.69
382.86	93.69
383.085	88.69
383.31	100.69
383.535	83.69
383.761	90.69
383.986	93.69
384.211	96.69
384.436	82.69
384.662	97.69
384.887	84.69
385.112	88.69
385.337	79.69
385.562	90.69
385.787	89.69
386.013	89.69
386.238	98.69
386.463	75.69
386.688	104.69
386.913	75.69
387.138	73.69
387.363	89.69
387.588	105.69
387.813	103.69
388.038	114.69
388.263	82.69
388.488	90.69
388.713	107.69
388.938	84.69
389.163	79.69
389.387	90.69
389.612	66.69
389.837	95.69
390.062	93.69
390.287	90.69
390.512	92.69
390.736	81.69
390.961	84.69
391.186	88.69
391.411	86.69
391.636	84.69
391.86	75.69
392.085	77.69
392.31	104.69
392.534	112.69
392.759	104.69
392.984	134.69
393.208	227.69
393.433	280.69
393.658	223.69
393.882	122.69
394.107	102.69
394.331	112.69
394.556	110.69
394.78	99.69
395.005	105.69
395.229	95.69
395.454	105.69
395.678	113.69
395.903	125.69
396.127	140.69
396.352	163.69
396.576	153.69
396.801	219.69
397.025	241.69
397.249	166.69
397.474	138.69
397.698	102.69
397.922	93.69
398.147	94.69
398.371	88.69
398.595	86.69
398.82	75.69
399.044	87.69
399.268	79.69
399.492	87.69
399.717	92.69
399.941	97.69
400.165	92.69
400.389	88.69
400.613	88.69
400.837	103.69
401.062	89.69
401.286	85.69
401.51	82.69
401.734	83.69
401.958	67.69
402.182	83.69
402.406	81.69
402.63	71.69
402.854	83.69
403.078	80.69
403.302	77.69
403.526	88.69
403.75	88.69
403.974	80.69
404.198	79.69
404.422	93.69
404.645	92.69
404.869	90.69
405.093	92.69
405.317	80.69
405.541	80.69
405.765	88.69
405.988	76.69
406.212	85.69
406.436	91.69
406.66	76.69
406.883	82.69
407.107	86.69
407.331	80.69
407.555	90.69
407.778	104.69
408.002	126.69
408.226	81.69
408.449	84.69
408.673	83.69
408.896	91.69
409.12	84.69
409.344	88.69
409.567	108.69
409.791	99.69
410.014	104.69
410.238	104.69
410.461	92.69
410.685	90.69
410.908	80.69
411.132	98.69
411.355	84.69
411.578	85.69
411.802	75.69
412.025	92.69
412.249	86.69
412.472	79.69
412.695	84.69
412.919	79.69
413.142	82.69
413.365	85.69
413.589	98.69
413.812	83.69
414.035	84.69
414.258	84.69
414.482	82.69
414.705	97.69
414.928	87.69
415.151	69.69
415.374	73.69
415.597	85.69
415.821	92.69
416.044	88.69
416.267	97.69
416.49	85.69
416.713	66.69
416.936	84.69
417.159	73.69
417.382	84.69
417.605	72.69
417.828	89.69
418.051	65.69
418.274	99.69
418.497	96.69
418.72	74.69
418.943	75.69
419.166	89.69
419.389	85.69
419.611	95.69
419.834	82.69
420.057	81.69
420.28	74.69
420.503	98.69
420.726	78.69
420.948	89.69
421.171	97.69
421.394	93.69
421.617	119.69
421.839	124.69
422.062	141.69
422.285	159.69
422.507	228.69
422.73	295.69
422.953	266.69
423.175	193.69
423.398	136.69
423.621	113.69
423.843	88.69
424.066	87.69
424.288	99.69
424.511	92.69
424.733	98.69
424.956	92.69
425.178	76.69
425.401	90.69
425.623	84.69
425.846	80.69
426.068	88.69
426.291	85.69
426.513	102.69
426.735	81.69
426.958	99.69
427.18	82.69
427.402	100.69
427.625	91.69
427.847	79.69
428.069	92.69
428.292	130.69
428.514	113.69
428.736	103.69
428.958	110.69
429.181	120.69
429.403	101.69
429.625	96.69
429.847	117.69
430.069	153.69
430.292	169.69
430.514	142.69
430.736	136.69
430.958	128.69
431.18	103.69
431.402	89.69
431.624	91.69
431.846	108.69
432.068	120.69
432.29	101.69
432.512	92.69
432.734	89.69
432.956	102.69
433.178	90.69
433.4	82.69
433.622	92.69
433.844	93.69
434.066	92.69
434.287	100.69
434.509	70.69
434.731	87.69
434.953	83.69
435.175	89.69
435.397	86.69
435.618	89.69
435.84	102.69
436.062	84.69
436.284	84.69
436.505	80.69
436.727	74.69
436.949	78.69
437.17	80.69
437.392	72.69
437.614	78.69
437.835	80.69
438.057	81.69
438.278	86.69
438.5	87.69
438.721	104.69
438.943	82.69
439.165	84.69
439.386	98.69
439.608	94.69
439.829	78.69
440.05	78.69
440.272	85.69
440.493	73.69
440.715	93.69
440.936	94.69
441.158	95.69
441.379	98.69
441.6	93.69
441.822	78.69
442.043	80.69
442.264	80.69
442.486	119.69
442.707	162.69
442.928	134.69
443.149	119.69
443.371	145.69
443.592	216.69
443.813	173.69
444.034	121.69
444.255	102.69
444.476	93.69
444.698	94.69
444.919	124.69
445.14	168.69
445.361	179.69
445.582	252.69
445.803	246.69
446.024	118.69
446.245	94.69
446.466	75.69
446.687	83.69
446.908	84.69
447.129	76.69
447.35	90.69
447.571	87.69
447.792	70.69
448.013	94.69
448.234	95.69
448.455	91.69
448.675	88.69
448.896	92.69
449.117	84.69
449.338	92.69
449.559	78.69
449.779	78.69
450	77.69
450.221	77.69
450.442	73.69
450.662	89.69
450.883	87.69
451.104	84.69
451.324	91.69
451.545	80.69
451.766	74.69
451.986	75.69
452.207	96.69
452.428	90.69
452.648	102.69
452.869	102.69
453.089	86.69
453.31	97.69
453.53	89.69
453.751	91.69
453.971	85.69
454.192	83.69
454.412	80.69
454.633	73.69
454.853	83.69
455.073	68.69
455.294	74.69
455.514	77.69
455.734	110.69
455.955	86.69
456.175	69.69
456.395	70.69
456.616	97.69
456.836	87.69
457.056	82.69
457.276	84.69
457.497	83.69
457.717	105.69
457.937	108.69
458.157	133.69
458.377	126.69
458.598	132.69
458.818	142.69
459.038	104.69
459.258	77.69
459.478	80.69
459.698	78.69
459.918	75.69
460.138	84.69
460.358	99.69
460.578	99.69
460.798	114.69
461.018	118.69
461.238	90.69
461.458	88.69
461.678	71.69
461.898	74.69
462.118	73.69
462.338	94.69
462.558	96.69
462.777	89.69
462.997	86.69
463.217	74.69
463.437	94.69
463.657	82.69
463.876	75.69
464.096	92.69
464.316	78.69
464.536	90.69
464.755	98.69
464.975	85.69
465.195	77.69
465.414	76.69
465.634	90.69
465.854	85.69
466.073	65.69
466.293	66.69
466.512	81.69
466.732	78.69
466.951	96.69
467.171	82.69
467.391	86.69
467.61	79.69
467.829	90.69
468.049	74.69
468.268	98.69
468.488	87.69
468.707	92.69
468.927	73.69
469.146	80.69
469.365	79.69
469.585	84.69
469.804	92.69
470.023	81.69
470.243	83.69
470.462	78.69
470.681	88.69
470.901	72.69
471.12	83.69
471.339	86.69
471.558	81.69
471.777	70.69
471.997	64.69
472.216	90.69
472.435	74.69
472.654	82.69
472.873	72.69
473.092	86.69
473.311	74.69
473.53	82.69
473.749	93.69
473.968	86.69
474.187	89.69
474.406	80.69
474.625	87.69
474.844	85.69
475.063	79.69
475.282	97.69
475.501	78.69
475.72	86.69
475.939	86.69
476.158	96.69
476.377	81.69
476.596	77.69
476.814	82.69
477.033	78.69
477.252	80.69
477.471	76.69
477.69	80.69
477.908	74.69
478.127	81.69
478.346	81.69
478.564	84.69
478.783	101.69
479.002	75.69
479.22	80.69
479.439	75.69
479.658	86.69
479.876	79.69
480.095	94.69
480.313	71.69
480.532	88.69
480.751	91.69
480.969	73.69
481.188	96.69
481.406	97.69
481.624	98.69
481.843	92.69
482.061	74.69
482.28	86.69
482.498	89.69
482.717	90.69
482.935	92.69
483.153	78.69
483.372	90.69
483.59	88.69
483.808	77.69
484.027	74.69
484.245	85.69
484.463	90.69
484.681	96.69
484.9	83.69
485.118	73.69
485.336	98.69
485.554	84.69
485.772	100.69
485.99	86.69
486.209	87.69
486.427	85.69
486.645	93.69
486.863	109.69
487.081	78.69
487.299	107.69
487.517	102.69
487.735	124.69
487.953	169.69
488.171	151.69
488.389	104.69
488.607	90.69
488.825	98.69
489.043	75.69
489.261	94.69
489.479	74.69
489.696	76.69
489.914	77.69
490.132	89.69
490.35	84.69
490.568	89.69
490.786	80.69
491.003	81.69
491.221	88.69
491.439	71.69
491.657	75.69
491.874	88.69
492.092	97.69
492.31	84.69
492.527	81.69
492.745	89.69
492.963	93.69
493.18	88.69
493.398	91.69
493.615	100.69
493.833	88.69
494.05	76.69
494.268	89.69
494.485	90.69
494.703	86.69
494.92	83.69
495.138	78.69
495.355	72.69
495.573	98.69
495.79	64.69
496.008	103.69
496.225	87.69
496.442	82.69
496.66	87.69
496.877	79.69
497.094	93.69
497.312	88.69
497.529	84.69
497.746	99.69
497.963	105.69
498.181	81.69
498.398	91.69
498.615	102.69
498.832	77.69
499.049	99.69
499.267	110.69
499.484	83.69
499.701	81.69
499.918	91.69
500.135	94.69
500.352	75.69
500.569	80.69
500.786	94.69
501.003	103.69
501.22	97.69
501.437	72.69
501.654	94.69
501.871	56.69
502.088	74.69
502.305	98.69
502.522	88.69
502.739	86.69
502.956	89.69
503.172	101.69
503.389	98.69
503.606	85.69
503.823	90.69
504.04	107.69
504.256	150.69
504.473	158.69
504.69	90.69
504.907	93.69
505.123	99.69
505.34	79.69
505.557	93.69
505.773	87.69
505.99	82.69
506.207	86.69
506.423	78.69
506.64	97.69
506.856	89.69
507.073	73.69
507.289	97.69
507.506	86.69
507.722	94.69
507.939	78.69
508.155	98.69
508.372	88.69
508.588	89.69
508.805	75.69
509.021	97.69
509.238	78.69
509.454	84.69
509.67	105.69
509.887	88.69
510.103	89.69
510.319	78.69
510.536	75.69
510.752	85.69
510.968	92.69
511.184	80.69
511.401	88.69
511.617	86.69
511.833	92.69
512.049	85.69
512.265	86.69
512.481	87.69
512.698	82.69
512.914	80.69
513.13	92.69
513.346	73.69
513.562	85.69
513.778	108.69
513.994	79.69
514.21	96.69
514.426	85.69
514.642	90.69
514.858	89.69
515.074	76.69
515.29	94.69
515.506	89.69
515.721	95.69
515.937	91.69
516.153	79.69
516.369	78.69
516.585	94.69
516.801	80.69
517.016	107.69
517.232	94.69
517.448	94.69
517.664	98.69
517.879	98.69
518.095	90.69
518.311	91.69
