Data from 17600_2_HRD10591_00035.txt Node
Date: Mon Jan 19 14:08:40 EST 2026
User: Yrep
Spectrometer: HR+D1059
Trigger mode: 1
Integration Time (sec): 1.000000E-1
Scans to average: 1
Electric dark correction enabled: true
Nonlinearity correction enabled: false
Boxcar width: 0
XAxis mode: Wavelengths
Number of Pixels in Spectrum: 2048
>>>>>Begin Spectral Data<<<<<
223.165	-15.81
223.4	-15.81
223.635	-15.81
223.869	-17.81
224.104	-25.81
224.338	-9.81
224.573	-23.81
224.808	-23.81
225.042	-13.81
225.277	-8.81
225.511	-8.81
225.746	10.19
225.98	11.19
226.215	13.19
226.449	29.19
226.683	25.19
226.918	18.19
227.152	41.19
227.387	30.19
227.621	30.19
227.856	39.19
228.09	45.19
228.324	57.19
228.559	61.19
228.793	58.19
229.027	62.19
229.262	63.19
229.496	78.19
229.73	62.19
229.964	64.19
230.199	63.19
230.433	62.19
230.667	75.19
230.901	71.19
231.136	81.19
231.37	78.19
231.604	71.19
231.838	76.19
232.072	74.19
232.306	73.19
232.541	73.19
232.775	78.19
233.009	85.19
233.243	82.19
233.477	66.19
233.711	72.19
233.945	69.19
234.179	72.19
234.413	86.19
234.647	74.19
234.881	69.19
235.115	80.19
235.349	77.19
235.583	78.19
235.817	79.19
236.051	86.19
236.285	82.19
236.519	90.19
236.753	85.19
236.987	82.19
237.221	86.19
237.455	85.19
237.689	82.19
237.922	88.19
238.156	85.19
238.39	74.19
238.624	73.19
238.858	75.19
239.091	78.19
239.325	85.19
239.559	69.19
239.793	85.19
240.027	91.19
240.26	84.19
240.494	89.19
240.728	81.19
240.961	63.19
241.195	87.19
241.429	73.19
241.662	78.19
241.896	59.19
242.13	86.19
242.363	71.19
242.597	72.19
242.83	71.19
243.064	80.19
243.298	79.19
243.531	79.19
243.765	84.19
243.998	87.19
244.232	87.19
244.465	95.19
244.699	78.19
244.932	73.19
245.166	80.19
245.399	67.19
245.633	69.19
245.866	83.19
246.099	74.19
246.333	83.19
246.566	70.19
246.8	79.19
247.033	75.19
247.266	73.19
247.5	78.19
247.733	65.19
247.966	81.19
248.2	98.19
248.433	83.19
248.666	74.19
248.899	72.19
249.133	92.19
249.366	87.19
249.599	75.19
249.832	74.19
250.066	76.19
250.299	91.19
250.532	94.19
250.765	76.19
250.998	72.19
251.231	87.19
251.465	80.19
251.698	81.19
251.931	76.19
252.164	86.19
252.397	80.19
252.63	82.19
252.863	86.19
253.096	77.19
253.329	83.19
253.562	71.19
253.795	90.19
254.028	74.19
254.261	74.19
254.494	88.19
254.727	63.19
254.96	77.19
255.193	91.19
255.426	81.19
255.659	74.19
255.892	79.19
256.124	83.19
256.357	81.19
256.59	73.19
256.823	70.19
257.056	65.19
257.289	79.19
257.521	73.19
257.754	74.19
257.987	78.19
258.22	85.19
258.452	80.19
258.685	74.19
258.918	80.19
259.151	67.19
259.383	59.19
259.616	84.19
259.849	97.19
260.081	76.19
260.314	76.19
260.547	78.19
260.779	65.19
261.012	80.19
261.244	89.19
261.477	88.19
261.71	75.19
261.942	95.19
262.175	89.19
262.407	72.19
262.64	71.19
262.872	83.19
263.105	82.19
263.337	79.19
263.57	81.19
263.802	89.19
264.035	75.19
264.267	86.19
264.499	78.19
264.732	89.19
264.964	72.19
265.197	93.19
265.429	67.19
265.661	74.19
265.894	75.19
266.126	84.19
266.358	82.19
266.591	89.19
266.823	79.19
267.055	66.19
267.287	75.19
267.52	79.19
267.752	77.19
267.984	71.19
268.216	88.19
268.448	91.19
268.681	86.19
268.913	89.19
269.145	85.19
269.377	69.19
269.609	87.19
269.841	80.19
270.073	73.19
270.306	83.19
270.538	79.19
270.77	82.19
271.002	95.19
271.234	81.19
271.466	73.19
271.698	68.19
271.93	86.19
272.162	89.19
272.394	93.19
272.626	77.19
272.858	75.19
273.09	74.19
273.322	105.19
273.553	87.19
273.785	74.19
274.017	78.19
274.249	78.19
274.481	89.19
274.713	77.19
274.945	73.19
275.176	75.19
275.408	85.19
275.64	85.19
275.872	75.19
276.104	95.19
276.335	89.19
276.567	89.19
276.799	86.19
277.031	81.19
277.262	83.19
277.494	91.19
277.726	83.19
277.957	68.19
278.189	75.19
278.421	92.19
278.652	81.19
278.884	82.19
279.115	87.19
279.347	77.19
279.579	78.19
279.81	77.19
280.042	86.19
280.273	86.19
280.505	78.19
280.736	77.19
280.968	75.19
281.199	85.19
281.431	79.19
281.662	84.19
281.894	82.19
282.125	63.19
282.356	83.19
282.588	87.19
282.819	70.19
283.051	87.19
283.282	79.19
283.513	78.19
283.745	87.19
283.976	80.19
284.207	83.19
284.439	80.19
284.67	99.19
284.901	86.19
285.132	87.19
285.364	82.19
285.595	83.19
285.826	83.19
286.057	88.19
286.288	85.19
286.52	80.19
286.751	90.19
286.982	82.19
287.213	74.19
287.444	85.19
287.675	75.19
287.906	85.19
288.138	84.19
288.369	80.19
288.6	90.19
288.831	80.19
289.062	75.19
289.293	85.19
289.524	85.19
289.755	85.19
289.986	101.19
290.217	82.19
290.448	79.19
290.679	82.19
290.91	89.19
291.141	81.19
291.371	82.19
291.602	81.19
291.833	71.19
292.064	77.19
292.295	79.19
292.526	76.19
292.757	87.19
292.987	70.19
293.218	88.19
293.449	76.19
293.68	86.19
293.91	95.19
294.141	96.19
294.372	102.19
294.603	96.19
294.833	81.19
295.064	80.19
295.295	93.19
295.525	88.19
295.756	93.19
295.987	97.19
296.217	91.19
296.448	84.19
296.679	63.19
296.909	83.19
297.14	78.19
297.37	86.19
297.601	79.19
297.831	85.19
298.062	81.19
298.292	83.19
298.523	81.19
298.753	82.19
298.984	84.19
299.214	93.19
299.445	74.19
299.675	77.19
299.905	85.19
300.136	102.19
300.366	87.19
300.597	86.19
300.827	72.19
301.057	97.19
301.288	72.19
301.518	80.19
301.748	89.19
301.979	89.19
302.209	91.19
302.439	96.19
302.669	83.19
302.9	74.19
303.13	83.19
303.36	99.19
303.59	85.19
303.82	90.19
304.051	78.19
304.281	96.19
304.511	101.19
304.741	80.19
304.971	73.19
305.201	81.19
305.431	89.19
305.661	96.19
305.891	94.19
306.121	73.19
306.352	85.19
306.582	81.19
306.812	94.19
307.042	87.19
307.272	95.19
307.502	89.19
307.731	99.19
307.961	93.19
308.191	80.19
308.421	81.19
308.651	86.19
308.881	83.19
309.111	85.19
309.341	81.19
309.571	92.19
309.8	76.19
310.03	79.19
310.26	85.19
310.49	75.19
310.72	90.19
310.949	90.19
311.179	90.19
311.409	86.19
311.639	89.19
311.868	79.19
312.098	82.19
312.328	88.19
312.557	80.19
312.787	80.19
313.017	92.19
313.246	96.19
313.476	85.19
313.706	69.19
313.935	79.19
314.165	90.19
314.394	82.19
314.624	74.19
314.853	95.19
315.083	82.19
315.312	92.19
315.542	89.19
315.771	103.19
316.001	110.19
316.23	80.19
316.46	87.19
316.689	83.19
316.919	74.19
317.148	74.19
317.377	94.19
317.607	88.19
317.836	83.19
318.065	87.19
318.295	89.19
318.524	81.19
318.753	82.19
318.983	78.19
319.212	72.19
319.441	73.19
319.67	80.19
319.9	88.19
320.129	84.19
320.358	93.19
320.587	89.19
320.816	87.19
321.046	98.19
321.275	85.19
321.504	87.19
321.733	97.19
321.962	75.19
322.191	90.19
322.42	89.19
322.649	92.19
322.878	87.19
323.108	73.19
323.337	87.19
323.566	81.19
323.795	89.19
324.024	85.19
324.253	80.19
324.482	93.19
324.71	81.19
324.939	97.19
325.168	91.19
325.397	89.19
325.626	89.19
325.855	87.19
326.084	88.19
326.313	86.19
326.542	82.19
326.77	79.19
326.999	86.19
327.228	95.19
327.457	88.19
327.686	89.19
327.914	88.19
328.143	93.19
328.372	84.19
328.6	85.19
328.829	89.19
329.058	75.19
329.287	82.19
329.515	91.19
329.744	88.19
329.972	90.19
330.201	85.19
330.43	81.19
330.658	77.19
330.887	81.19
331.115	91.19
331.344	95.19
331.572	88.19
331.801	74.19
332.03	82.19
332.258	70.19
332.486	63.19
332.715	77.19
332.943	79.19
333.172	90.19
333.4	72.19
333.629	68.19
333.857	86.19
334.085	85.19
334.314	70.19
334.542	104.19
334.771	96.19
334.999	98.19
335.227	82.19
335.455	86.19
335.684	92.19
335.912	82.19
336.14	90.19
336.369	73.19
336.597	82.19
336.825	81.19
337.053	85.19
337.281	89.19
337.51	83.19
337.738	87.19
337.966	88.19
338.194	81.19
338.422	89.19
338.65	76.19
338.878	91.19
339.106	79.19
339.334	72.19
339.562	75.19
339.79	80.19
340.018	87.19
340.246	83.19
340.474	87.19
340.702	84.19
340.93	81.19
341.158	70.19
341.386	92.19
341.614	94.19
341.842	85.19
342.07	81.19
342.298	79.19
342.526	71.19
342.754	76.19
342.981	79.19
343.209	81.19
343.437	105.19
343.665	93.19
343.893	86.19
344.12	82.19
344.348	90.19
344.576	79.19
344.804	93.19
345.031	70.19
345.259	101.19
345.487	81.19
345.714	81.19
345.942	75.19
346.17	74.19
346.397	86.19
346.625	78.19
346.853	88.19
347.08	92.19
347.308	82.19
347.535	96.19
347.763	88.19
347.99	86.19
348.218	79.19
348.445	89.19
348.673	89.19
348.9	75.19
349.128	95.19
349.355	89.19
349.583	94.19
349.81	79.19
350.037	71.19
350.265	86.19
350.492	87.19
350.72	84.19
350.947	71.19
351.174	94.19
351.402	81.19
351.629	83.19
351.856	80.19
352.083	98.19
352.311	74.19
352.538	76.19
352.765	95.19
352.992	93.19
353.22	59.19
353.447	67.19
353.674	89.19
353.901	80.19
354.128	78.19
354.355	86.19
354.583	91.19
354.81	94.19
355.037	85.19
355.264	83.19
355.491	87.19
355.718	79.19
355.945	75.19
356.172	84.19
356.399	84.19
356.626	82.19
356.853	76.19
357.08	74.19
357.307	88.19
357.534	74.19
357.761	96.19
357.988	92.19
358.215	94.19
358.441	84.19
358.668	90.19
358.895	84.19
359.122	87.19
359.349	70.19
359.576	87.19
359.802	88.19
360.029	81.19
360.256	85.19
360.483	79.19
360.709	93.19
360.936	93.19
361.163	89.19
361.39	81.19
361.616	85.19
361.843	82.19
362.07	81.19
362.296	88.19
362.523	82.19
362.749	91.19
362.976	96.19
363.203	98.19
363.429	77.19
363.656	88.19
363.882	96.19
364.109	85.19
364.335	113.19
364.562	107.19
364.788	89.19
365.015	80.19
365.241	81.19
365.468	94.19
365.694	96.19
365.92	91.19
366.147	90.19
366.373	72.19
366.599	87.19
366.826	83.19
367.052	84.19
367.278	92.19
367.505	79.19
367.731	77.19
367.957	84.19
368.184	75.19
368.41	83.19
368.636	99.19
368.862	88.19
369.089	89.19
369.315	86.19
369.541	83.19
369.767	81.19
369.993	91.19
370.219	81.19
370.445	89.19
370.672	81.19
370.898	83.19
371.124	78.19
371.35	89.19
371.576	75.19
371.802	76.19
372.028	81.19
372.254	94.19
372.48	89.19
372.706	85.19
372.932	76.19
373.158	89.19
373.384	88.19
373.61	91.19
373.835	104.19
374.061	104.19
374.287	80.19
374.513	93.19
374.739	85.19
374.965	87.19
375.191	94.19
375.416	81.19
375.642	93.19
375.868	90.19
376.094	74.19
376.319	91.19
376.545	85.19
376.771	89.19
376.997	94.19
377.222	86.19
377.448	79.19
377.674	90.19
377.899	83.19
378.125	104.19
378.35	83.19
378.576	89.19
378.802	94.19
379.027	74.19
379.253	89.19
379.478	71.19
379.704	71.19
379.929	72.19
380.155	83.19
380.38	77.19
380.606	85.19
380.831	72.19
381.057	70.19
381.282	86.19
381.507	79.19
381.733	71.19
381.958	86.19
382.184	89.19
382.409	85.19
382.634	96.19
382.86	94.19
383.085	95.19
383.31	90.19
383.535	87.19
383.761	85.19
383.986	91.19
384.211	74.19
384.436	88.19
384.662	90.19
384.887	95.19
385.112	79.19
385.337	84.19
385.562	85.19
385.787	79.19
386.013	95.19
386.238	87.19
386.463	84.19
386.688	89.19
386.913	89.19
387.138	81.19
387.363	73.19
387.588	81.19
387.813	75.19
388.038	83.19
388.263	77.19
388.488	85.19
388.713	68.19
388.938	78.19
389.163	85.19
389.387	92.19
389.612	91.19
389.837	86.19
390.062	79.19
390.287	80.19
390.512	82.19
390.736	84.19
390.961	84.19
391.186	87.19
391.411	96.19
391.636	81.19
391.86	90.19
392.085	96.19
392.31	97.19
392.534	104.19
392.759	112.19
392.984	124.19
393.208	189.19
393.433	257.19
393.658	198.19
393.882	105.19
394.107	113.19
394.331	93.19
394.556	109.19
394.78	79.19
395.005	100.19
395.229	81.19
395.454	87.19
395.678	105.19
395.903	104.19
396.127	113.19
396.352	130.19
396.576	137.19
396.801	191.19
397.025	209.19
397.249	131.19
397.474	114.19
397.698	87.19
397.922	90.19
398.147	93.19
398.371	82.19
398.595	88.19
398.82	90.19
399.044	97.19
399.268	92.19
399.492	80.19
399.717	81.19
399.941	82.19
400.165	85.19
400.389	76.19
400.613	85.19
400.837	90.19
401.062	81.19
401.286	75.19
401.51	79.19
401.734	69.19
401.958	89.19
402.182	65.19
402.406	70.19
402.63	67.19
402.854	94.19
403.078	83.19
403.302	81.19
403.526	89.19
403.75	84.19
403.974	88.19
404.198	75.19
404.422	78.19
404.645	85.19
404.869	84.19
405.093	82.19
405.317	88.19
405.541	78.19
405.765	81.19
405.988	93.19
406.212	80.19
406.436	91.19
406.66	84.19
406.883	85.19
407.107	82.19
407.331	83.19
407.555	83.19
407.778	87.19
408.002	83.19
408.226	81.19
408.449	84.19
408.673	70.19
408.896	85.19
409.12	81.19
409.344	102.19
409.567	103.19
409.791	98.19
410.014	90.19
410.238	78.19
410.461	96.19
410.685	64.19
410.908	93.19
411.132	71.19
411.355	82.19
411.578	72.19
411.802	89.19
412.025	80.19
412.249	79.19
412.472	75.19
412.695	87.19
412.919	79.19
413.142	89.19
413.365	72.19
413.589	72.19
413.812	76.19
414.035	94.19
414.258	90.19
414.482	85.19
414.705	85.19
414.928	74.19
415.151	76.19
415.374	59.19
415.597	74.19
415.821	70.19
416.044	83.19
416.267	78.19
416.49	74.19
416.713	74.19
416.936	88.19
417.159	87.19
417.382	67.19
417.605	83.19
417.828	97.19
418.051	79.19
418.274	87.19
418.497	89.19
418.72	71.19
418.943	72.19
419.166	83.19
419.389	71.19
419.611	81.19
419.834	76.19
420.057	95.19
420.28	73.19
420.503	79.19
420.726	82.19
420.948	97.19
421.171	96.19
421.394	94.19
421.617	106.19
421.839	96.19
422.062	94.19
422.285	135.19
422.507	177.19
422.73	258.19
422.953	226.19
423.175	128.19
423.398	103.19
423.621	96.19
423.843	85.19
424.066	78.19
424.288	77.19
424.511	86.19
424.733	91.19
424.956	73.19
425.178	74.19
425.401	88.19
425.623	92.19
425.846	91.19
426.068	92.19
426.291	83.19
426.513	74.19
426.735	80.19
426.958	84.19
427.18	78.19
427.402	86.19
427.625	68.19
427.847	79.19
428.069	89.19
428.292	96.19
428.514	112.19
428.736	87.19
428.958	91.19
429.181	100.19
429.403	84.19
429.625	73.19
429.847	105.19
430.069	137.19
430.292	130.19
430.514	121.19
430.736	117.19
430.958	97.19
431.18	97.19
431.402	96.19
431.624	88.19
431.846	82.19
432.068	105.19
432.29	82.19
432.512	71.19
432.734	83.19
432.956	62.19
433.178	83.19
433.4	81.19
433.622	79.19
433.844	65.19
434.066	88.19
434.287	76.19
434.509	70.19
434.731	84.19
434.953	96.19
435.175	78.19
435.397	84.19
435.618	73.19
435.84	83.19
436.062	79.19
436.284	82.19
436.505	66.19
436.727	74.19
436.949	67.19
437.17	79.19
437.392	76.19
437.614	92.19
437.835	85.19
438.057	89.19
438.278	79.19
438.5	93.19
438.721	84.19
438.943	83.19
439.165	70.19
439.386	75.19
439.608	77.19
439.829	90.19
440.05	87.19
440.272	71.19
440.493	83.19
440.715	90.19
440.936	73.19
441.158	79.19
441.379	72.19
441.6	93.19
441.822	84.19
442.043	83.19
442.264	87.19
442.486	115.19
442.707	134.19
442.928	96.19
443.149	88.19
443.371	113.19
443.592	166.19
443.813	158.19
444.034	102.19
444.255	81.19
444.476	91.19
444.698	87.19
444.919	77.19
445.14	167.19
445.361	154.19
445.582	184.19
445.803	160.19
446.024	112.19
446.245	80.19
446.466	80.19
446.687	79.19
446.908	73.19
447.129	79.19
447.35	73.19
447.571	82.19
447.792	71.19
448.013	101.19
448.234	90.19
448.455	73.19
448.675	71.19
448.896	83.19
449.117	74.19
449.338	71.19
449.559	79.19
449.779	73.19
450	73.19
450.221	81.19
450.442	77.19
450.662	82.19
450.883	82.19
451.104	79.19
451.324	79.19
451.545	80.19
451.766	78.19
451.986	91.19
452.207	80.19
452.428	83.19
452.648	94.19
452.869	96.19
453.089	89.19
453.31	78.19
453.53	83.19
453.751	84.19
453.971	81.19
454.192	85.19
454.412	80.19
454.633	87.19
454.853	79.19
455.073	82.19
455.294	75.19
455.514	79.19
455.734	91.19
455.955	81.19
456.175	84.19
456.395	84.19
456.616	75.19
456.836	73.19
457.056	84.19
457.276	65.19
457.497	87.19
457.717	85.19
457.937	93.19
458.157	95.19
458.377	103.19
458.598	109.19
458.818	105.19
459.038	82.19
459.258	63.19
459.478	80.19
459.698	65.19
459.918	89.19
460.138	86.19
460.358	81.19
460.578	86.19
460.798	109.19
461.018	113.19
461.238	90.19
461.458	93.19
461.678	83.19
461.898	78.19
462.118	65.19
462.338	69.19
462.558	70.19
462.777	78.19
462.997	69.19
463.217	75.19
463.437	85.19
463.657	85.19
463.876	83.19
464.096	74.19
464.316	81.19
464.536	75.19
464.755	83.19
464.975	87.19
465.195	84.19
465.414	80.19
465.634	86.19
465.854	78.19
466.073	80.19
466.293	80.19
466.512	67.19
466.732	75.19
466.951	86.19
467.171	81.19
467.391	82.19
467.61	82.19
467.829	80.19
468.049	89.19
468.268	90.19
468.488	79.19
468.707	88.19
468.927	75.19
469.146	89.19
469.365	76.19
469.585	93.19
469.804	86.19
470.023	87.19
470.243	69.19
470.462	85.19
470.681	90.19
470.901	72.19
471.12	90.19
471.339	82.19
471.558	87.19
471.777	82.19
471.997	81.19
472.216	84.19
472.435	80.19
472.654	85.19
472.873	85.19
473.092	90.19
473.311	93.19
473.53	65.19
473.749	72.19
473.968	92.19
474.187	87.19
474.406	97.19
474.625	93.19
474.844	78.19
475.063	73.19
475.282	70.19
475.501	82.19
475.72	75.19
475.939	75.19
476.158	87.19
476.377	73.19
476.596	89.19
476.814	76.19
477.033	86.19
477.252	101.19
477.471	71.19
477.69	72.19
477.908	74.19
478.127	78.19
478.346	96.19
478.564	78.19
478.783	82.19
479.002	69.19
479.22	77.19
479.439	87.19
479.658	69.19
479.876	81.19
480.095	79.19
480.313	66.19
480.532	65.19
480.751	87.19
480.969	72.19
481.188	99.19
481.406	90.19
481.624	107.19
481.843	77.19
482.061	90.19
482.28	79.19
482.498	88.19
482.717	67.19
482.935	82.19
483.153	81.19
483.372	79.19
483.59	91.19
483.808	90.19
484.027	93.19
484.245	79.19
484.463	83.19
484.681	78.19
484.9	88.19
485.118	86.19
485.336	66.19
485.554	74.19
485.772	84.19
485.99	98.19
486.209	75.19
486.427	83.19
486.645	77.19
486.863	93.19
487.081	87.19
487.299	80.19
487.517	93.19
487.735	97.19
487.953	121.19
488.171	95.19
488.389	98.19
488.607	81.19
488.825	83.19
489.043	84.19
489.261	89.19
489.479	98.19
489.696	77.19
489.914	93.19
490.132	81.19
490.35	84.19
490.568	72.19
490.786	87.19
491.003	87.19
491.221	88.19
491.439	72.19
491.657	96.19
491.874	86.19
492.092	82.19
492.31	95.19
492.527	74.19
492.745	75.19
492.963	95.19
493.18	88.19
493.398	86.19
493.615	93.19
493.833	83.19
494.05	78.19
494.268	78.19
494.485	80.19
494.703	85.19
494.92	94.19
495.138	82.19
495.355	85.19
495.573	94.19
495.79	85.19
496.008	82.19
496.225	94.19
496.442	91.19
496.66	82.19
496.877	76.19
497.094	77.19
497.312	73.19
497.529	81.19
497.746	89.19
497.963	85.19
498.181	85.19
498.398	82.19
498.615	88.19
498.832	85.19
499.049	85.19
499.267	88.19
499.484	74.19
499.701	77.19
499.918	83.19
500.135	109.19
500.352	87.19
500.569	74.19
500.786	97.19
501.003	86.19
501.22	91.19
501.437	87.19
501.654	77.19
501.871	85.19
502.088	81.19
502.305	80.19
502.522	85.19
502.739	95.19
502.956	80.19
503.172	101.19
503.389	90.19
503.606	93.19
503.823	87.19
504.04	91.19
504.256	120.19
504.473	102.19
504.69	95.19
504.907	78.19
505.123	89.19
505.34	79.19
505.557	94.19
505.773	77.19
505.99	77.19
506.207	74.19
506.423	75.19
506.64	82.19
506.856	79.19
507.073	78.19
507.289	83.19
507.506	83.19
507.722	80.19
507.939	76.19
508.155	100.19
508.372	83.19
508.588	85.19
508.805	92.19
509.021	93.19
509.238	88.19
509.454	86.19
509.67	102.19
509.887	78.19
510.103	82.19
510.319	83.19
510.536	84.19
510.752	84.19
510.968	87.19
511.184	87.19
511.401	71.19
511.617	91.19
511.833	82.19
512.049	86.19
512.265	85.19
512.481	83.19
512.698	87.19
512.914	83.19
513.13	97.19
513.346	89.19
513.562	91.19
513.778	91.19
513.994	90.19
514.21	91.19
514.426	90.19
514.642	87.19
514.858	89.19
515.074	91.19
515.29	90.19
515.506	93.19
515.721	73.19
515.937	80.19
516.153	81.19
516.369	98.19
516.585	85.19
516.801	74.19
517.016	85.19
517.232	83.19
517.448	77.19
517.664	86.19
517.879	86.19
518.095	98.19
518.311	97.19
518.527	89.19
518.742	92.19
518.958	112.19
519.173	124.19
