Data from Circ_1991_H10_HRD10591_00002.txt Node
Date: Wed Jan 03 11:51:41 EST 2024
User: Yrep
Spectrometer: HR+D1059
Trigger mode: 1
Integration Time (sec): 1.000000E-1
Scans to average: 1
Electric dark correction enabled: true
Nonlinearity correction enabled: false
Boxcar width: 0
XAxis mode: Wavelengths
Number of Pixels in Spectrum: 2048
>>>>>Begin Spectral Data<<<<<
223.165	-27.81
223.4	-27.81
223.635	-27.81
223.869	-27.81
224.104	-20.81
224.338	-18.81
224.573	-4.81
224.808	-22.81
225.042	0.19
225.277	-7.81
225.511	-8.81
225.746	2.19
225.98	14.19
226.215	21.19
226.449	18.19
226.683	12.19
226.918	35.19
227.152	36.19
227.387	45.19
227.621	44.19
227.856	45.19
228.09	56.19
228.324	69.19
228.559	62.19
228.793	50.19
229.027	54.19
229.262	69.19
229.496	66.19
229.73	71.19
229.964	77.19
230.199	67.19
230.433	64.19
230.667	86.19
230.901	95.19
231.136	72.19
231.37	80.19
231.604	80.19
231.838	84.19
232.072	69.19
232.306	95.19
232.541	84.19
232.775	82.19
233.009	91.19
233.243	57.19
233.477	60.19
233.711	91.19
233.945	66.19
234.179	80.19
234.413	73.19
234.647	92.19
234.881	90.19
235.115	80.19
235.349	72.19
235.583	76.19
235.817	90.19
236.051	87.19
236.285	80.19
236.519	75.19
236.753	97.19
236.987	84.19
237.221	64.19
237.455	88.19
237.689	76.19
237.922	81.19
238.156	76.19
238.39	76.19
238.624	79.19
238.858	74.19
239.091	78.19
239.325	93.19
239.559	78.19
239.793	85.19
240.027	73.19
240.26	73.19
240.494	77.19
240.728	82.19
240.961	66.19
241.195	79.19
241.429	80.19
241.662	55.19
241.896	77.19
242.13	92.19
242.363	78.19
242.597	63.19
242.83	90.19
243.064	79.19
243.298	82.19
243.531	55.19
243.765	82.19
243.998	79.19
244.232	83.19
244.465	88.19
244.699	76.19
244.932	77.19
245.166	94.19
245.399	80.19
245.633	80.19
245.866	68.19
246.099	85.19
246.333	69.19
246.566	67.19
246.8	78.19
247.033	97.19
247.266	85.19
247.5	79.19
247.733	74.19
247.966	87.19
248.2	79.19
248.433	84.19
248.666	88.19
248.899	83.19
249.133	92.19
249.366	110.19
249.599	86.19
249.832	74.19
250.066	76.19
250.299	69.19
250.532	84.19
250.765	79.19
250.998	72.19
251.231	77.19
251.465	73.19
251.698	76.19
251.931	78.19
252.164	85.19
252.397	82.19
252.63	77.19
252.863	93.19
253.096	84.19
253.329	74.19
253.562	82.19
253.795	76.19
254.028	72.19
254.261	64.19
254.494	70.19
254.727	94.19
254.96	81.19
255.193	82.19
255.426	80.19
255.659	84.19
255.892	82.19
256.124	74.19
256.357	89.19
256.59	92.19
256.823	84.19
257.056	88.19
257.289	81.19
257.521	82.19
257.754	80.19
257.987	80.19
258.22	98.19
258.452	70.19
258.685	74.19
258.918	74.19
259.151	78.19
259.383	87.19
259.616	82.19
259.849	86.19
260.081	77.19
260.314	70.19
260.547	82.19
260.779	80.19
261.012	70.19
261.244	95.19
261.477	92.19
261.71	84.19
261.942	104.19
262.175	100.19
262.407	88.19
262.64	96.19
262.872	71.19
263.105	77.19
263.337	92.19
263.57	100.19
263.802	84.19
264.035	93.19
264.267	74.19
264.499	85.19
264.732	67.19
264.964	87.19
265.197	84.19
265.429	81.19
265.661	80.19
265.894	66.19
266.126	77.19
266.358	88.19
266.591	84.19
266.823	77.19
267.055	73.19
267.287	51.19
267.52	72.19
267.752	96.19
267.984	79.19
268.216	68.19
268.448	92.19
268.681	88.19
268.913	90.19
269.145	80.19
269.377	77.19
269.609	79.19
269.841	86.19
270.073	84.19
270.306	84.19
270.538	95.19
270.77	90.19
271.002	82.19
271.234	93.19
271.466	72.19
271.698	93.19
271.93	80.19
272.162	89.19
272.394	87.19
272.626	91.19
272.858	80.19
273.09	92.19
273.322	86.19
273.553	69.19
273.785	85.19
274.017	65.19
274.249	80.19
274.481	88.19
274.713	88.19
274.945	86.19
275.176	90.19
275.408	80.19
275.64	92.19
275.872	80.19
276.104	93.19
276.335	100.19
276.567	92.19
276.799	113.19
277.031	104.19
277.262	94.19
277.494	90.19
277.726	96.19
277.957	90.19
278.189	90.19
278.421	80.19
278.652	88.19
278.884	92.19
279.115	80.19
279.347	82.19
279.579	96.19
279.81	88.19
280.042	98.19
280.273	116.19
280.505	92.19
280.736	92.19
280.968	88.19
281.199	92.19
281.431	81.19
281.662	76.19
281.894	95.19
282.125	101.19
282.356	102.19
282.588	101.19
282.819	105.19
283.051	81.19
283.282	69.19
283.513	81.19
283.745	93.19
283.976	82.19
284.207	89.19
284.439	87.19
284.67	92.19
284.901	82.19
285.132	82.19
285.364	74.19
285.595	95.19
285.826	93.19
286.057	84.19
286.288	88.19
286.52	94.19
286.751	86.19
286.982	92.19
287.213	77.19
287.444	86.19
287.675	92.19
287.906	112.19
288.138	84.19
288.369	92.19
288.6	92.19
288.831	85.19
289.062	96.19
289.293	90.19
289.524	87.19
289.755	85.19
289.986	90.19
290.217	84.19
290.448	84.19
290.679	85.19
290.91	108.19
291.141	77.19
291.371	88.19
291.602	86.19
291.833	85.19
292.064	96.19
292.295	81.19
292.526	78.19
292.757	79.19
292.987	79.19
293.218	81.19
293.449	80.19
293.68	88.19
293.91	91.19
294.141	81.19
294.372	93.19
294.603	83.19
294.833	87.19
295.064	93.19
295.295	94.19
295.525	96.19
295.756	93.19
295.987	106.19
296.217	95.19
296.448	102.19
296.679	77.19
296.909	94.19
297.14	94.19
297.37	98.19
297.601	84.19
297.831	86.19
298.062	102.19
298.292	86.19
298.523	85.19
298.753	85.19
298.984	93.19
299.214	107.19
299.445	87.19
299.675	93.19
299.905	95.19
300.136	89.19
300.366	81.19
300.597	102.19
300.827	96.19
301.057	91.19
301.288	111.19
301.518	84.19
301.748	88.19
301.979	109.19
302.209	94.19
302.439	76.19
302.669	86.19
302.9	81.19
303.13	88.19
303.36	97.19
303.59	92.19
303.82	104.19
304.051	101.19
304.281	89.19
304.511	85.19
304.741	78.19
304.971	86.19
305.201	83.19
305.431	85.19
305.661	92.19
305.891	86.19
306.121	91.19
306.352	92.19
306.582	100.19
306.812	97.19
307.042	93.19
307.272	95.19
307.502	102.19
307.731	105.19
307.961	96.19
308.191	106.19
308.421	90.19
308.651	87.19
308.881	105.19
309.111	95.19
309.341	102.19
309.571	86.19
309.8	96.19
310.03	88.19
310.26	93.19
310.49	112.19
310.72	95.19
310.949	95.19
311.179	95.19
311.409	104.19
311.639	75.19
311.868	102.19
312.098	95.19
312.328	100.19
312.557	101.19
312.787	93.19
313.017	99.19
313.246	105.19
313.476	98.19
313.706	96.19
313.935	87.19
314.165	94.19
314.394	84.19
314.624	86.19
314.853	86.19
315.083	89.19
315.312	103.19
315.542	97.19
315.771	90.19
316.001	87.19
316.23	93.19
316.46	82.19
316.689	89.19
316.919	92.19
317.148	99.19
317.377	111.19
317.607	112.19
317.836	104.19
318.065	94.19
318.295	103.19
318.524	92.19
318.753	84.19
318.983	91.19
319.212	106.19
319.441	103.19
319.67	101.19
319.9	99.19
320.129	84.19
320.358	95.19
320.587	102.19
320.816	98.19
321.046	84.19
321.275	82.19
321.504	112.19
321.733	108.19
321.962	104.19
322.191	100.19
322.42	105.19
322.649	99.19
322.878	103.19
323.108	104.19
323.337	105.19
323.566	129.19
323.795	136.19
324.024	177.19
324.253	298.19
324.482	663.19
324.71	1326.19
324.939	1774.19
325.168	631.19
325.397	208.19
325.626	142.19
325.855	125.19
326.084	131.19
326.313	133.19
326.542	154.19
326.77	188.19
326.999	366.19
327.228	774.19
327.457	1391.19
327.686	1104.19
327.914	337.19
328.143	185.19
328.372	160.19
328.6	151.19
328.829	104.19
329.058	119.19
329.287	124.19
329.515	104.19
329.744	109.19
329.972	132.19
330.201	191.19
330.43	220.19
330.658	136.19
330.887	113.19
331.115	99.19
331.344	86.19
331.572	100.19
331.801	106.19
332.03	94.19
332.258	95.19
332.486	90.19
332.715	84.19
332.943	90.19
333.172	124.19
333.4	86.19
333.629	104.19
333.857	116.19
334.085	144.19
334.314	174.19
334.542	249.19
334.771	251.19
334.999	113.19
335.227	105.19
335.455	101.19
335.684	101.19
335.912	87.19
336.14	100.19
336.369	104.19
336.597	110.19
336.825	94.19
337.053	93.19
337.281	91.19
337.51	83.19
337.738	92.19
337.966	104.19
338.194	95.19
338.422	89.19
338.65	93.19
338.878	96.19
339.106	98.19
339.334	98.19
339.562	91.19
339.79	97.19
340.018	82.19
340.246	92.19
340.474	85.19
340.702	93.19
340.93	99.19
341.158	92.19
341.386	97.19
341.614	96.19
341.842	78.19
342.07	102.19
342.298	82.19
342.526	90.19
342.754	93.19
342.981	85.19
343.209	89.19
343.437	110.19
343.665	92.19
343.893	98.19
344.12	100.19
344.348	87.19
344.576	96.19
344.804	102.19
345.031	100.19
345.259	100.19
345.487	87.19
345.714	105.19
345.942	107.19
346.17	91.19
346.397	96.19
346.625	86.19
346.853	72.19
347.08	92.19
347.308	102.19
347.535	97.19
347.763	101.19
347.99	103.19
348.218	96.19
348.445	94.19
348.673	92.19
348.9	95.19
349.128	90.19
349.355	97.19
349.583	86.19
349.81	100.19
350.037	95.19
350.265	97.19
350.492	89.19
350.72	86.19
350.947	82.19
351.174	105.19
351.402	114.19
351.629	95.19
351.856	101.19
352.083	105.19
352.311	103.19
352.538	93.19
352.765	115.19
352.992	104.19
353.22	105.19
353.447	106.19
353.674	113.19
353.901	96.19
354.128	100.19
354.355	89.19
354.583	114.19
354.81	103.19
355.037	104.19
355.264	93.19
355.491	103.19
355.718	106.19
355.945	95.19
356.172	109.19
356.399	96.19
356.626	106.19
356.853	92.19
357.08	110.19
357.307	93.19
357.534	97.19
357.761	93.19
357.988	101.19
358.215	106.19
358.441	123.19
358.668	105.19
358.895	116.19
359.122	99.19
359.349	89.19
359.576	95.19
359.802	112.19
360.029	108.19
360.256	102.19
360.483	86.19
360.709	79.19
360.936	92.19
361.163	101.19
361.39	95.19
361.616	99.19
361.843	82.19
362.07	94.19
362.296	97.19
362.523	93.19
362.749	98.19
362.976	112.19
363.203	95.19
363.429	100.19
363.656	94.19
363.882	100.19
364.109	95.19
364.335	112.19
364.562	98.19
364.788	97.19
365.015	80.19
365.241	102.19
365.468	98.19
365.694	101.19
365.92	95.19
366.147	86.19
366.373	90.19
366.599	87.19
366.826	92.19
367.052	90.19
367.278	108.19
367.505	91.19
367.731	96.19
367.957	94.19
368.184	98.19
368.41	99.19
368.636	107.19
368.862	104.19
369.089	105.19
369.315	80.19
369.541	97.19
369.767	90.19
369.993	103.19
370.219	76.19
370.445	81.19
370.672	85.19
370.898	67.19
371.124	87.19
371.35	92.19
371.576	90.19
371.802	91.19
372.028	102.19
372.254	97.19
372.48	88.19
372.706	106.19
372.932	88.19
373.158	96.19
373.384	92.19
373.61	103.19
373.835	86.19
374.061	91.19
374.287	98.19
374.513	101.19
374.739	105.19
374.965	100.19
375.191	92.19
375.416	86.19
375.642	96.19
375.868	93.19
376.094	90.19
376.319	96.19
376.545	98.19
376.771	101.19
376.997	94.19
377.222	100.19
377.448	104.19
377.674	101.19
377.899	99.19
378.125	122.19
378.35	109.19
378.576	104.19
378.802	102.19
379.027	100.19
379.253	111.19
379.478	110.19
379.704	102.19
379.929	97.19
380.155	110.19
380.38	119.19
380.606	105.19
380.831	106.19
381.057	117.19
381.282	102.19
381.507	97.19
381.733	98.19
381.958	112.19
382.184	123.19
382.409	100.19
382.634	107.19
382.86	105.19
383.085	119.19
383.31	121.19
383.535	108.19
383.761	116.19
383.986	125.19
384.211	114.19
384.436	133.19
384.662	122.19
384.887	131.19
385.112	141.19
385.337	141.19
385.562	140.19
385.787	120.19
386.013	142.19
386.238	145.19
386.463	136.19
386.688	133.19
386.913	134.19
387.138	154.19
387.363	145.19
387.588	128.19
387.813	115.19
388.038	136.19
388.263	146.19
388.488	142.19
388.713	125.19
388.938	99.19
389.163	102.19
389.387	102.19
389.612	95.19
389.837	96.19
390.062	87.19
390.287	105.19
390.512	109.19
390.736	101.19
390.961	98.19
391.186	96.19
391.411	100.19
391.636	93.19
391.86	91.19
392.085	97.19
392.31	85.19
392.534	78.19
392.759	91.19
392.984	105.19
393.208	129.19
393.433	192.19
393.658	155.19
393.882	105.19
394.107	80.19
394.331	99.19
394.556	100.19
394.78	91.19
395.005	96.19
395.229	96.19
395.454	85.19
395.678	88.19
395.903	90.19
396.127	78.19
396.352	84.19
396.576	95.19
396.801	110.19
397.025	143.19
397.249	112.19
397.474	94.19
397.698	82.19
397.922	101.19
398.147	96.19
398.371	93.19
398.595	106.19
398.82	84.19
399.044	95.19
399.268	87.19
399.492	81.19
399.717	98.19
399.941	89.19
400.165	103.19
400.389	87.19
400.613	77.19
400.837	85.19
401.062	87.19
401.286	84.19
401.51	101.19
401.734	99.19
401.958	89.19
402.182	134.19
402.406	135.19
402.63	103.19
402.854	96.19
403.078	83.19
403.302	94.19
403.526	89.19
403.75	92.19
403.974	96.19
404.198	96.19
404.422	91.19
404.645	105.19
404.869	92.19
405.093	99.19
405.317	108.19
405.541	118.19
405.765	97.19
405.988	111.19
406.212	131.19
406.436	176.19
406.66	130.19
406.883	100.19
407.107	95.19
407.331	95.19
407.555	97.19
407.778	92.19
408.002	99.19
408.226	94.19
408.449	91.19
408.673	100.19
408.896	113.19
409.12	95.19
409.344	106.19
409.567	103.19
409.791	84.19
410.014	96.19
410.238	97.19
410.461	85.19
410.685	100.19
410.908	83.19
411.132	100.19
411.355	90.19
411.578	90.19
411.802	86.19
412.025	97.19
412.249	97.19
412.472	89.19
412.695	103.19
412.919	81.19
413.142	97.19
413.365	85.19
413.589	92.19
413.812	76.19
414.035	80.19
414.258	85.19
414.482	96.19
414.705	103.19
414.928	98.19
415.151	100.19
415.374	96.19
415.597	87.19
415.821	105.19
416.044	96.19
416.267	100.19
416.49	100.19
416.713	88.19
416.936	88.19
417.159	90.19
417.382	101.19
417.605	105.19
417.828	99.19
418.051	90.19
418.274	94.19
418.497	103.19
418.72	89.19
418.943	94.19
419.166	102.19
419.389	92.19
419.611	103.19
419.834	94.19
420.057	96.19
420.28	97.19
420.503	77.19
420.726	86.19
420.948	81.19
421.171	86.19
421.394	89.19
421.617	80.19
421.839	93.19
422.062	82.19
422.285	96.19
422.507	102.19
422.73	134.19
422.953	115.19
423.175	86.19
423.398	85.19
423.621	96.19
423.843	97.19
424.066	91.19
424.288	94.19
424.511	106.19
424.733	79.19
424.956	94.19
425.178	98.19
425.401	94.19
425.623	84.19
425.846	92.19
426.068	85.19
426.291	90.19
426.513	92.19
426.735	86.19
426.958	96.19
427.18	93.19
427.402	125.19
427.625	135.19
427.847	130.19
428.069	128.19
428.292	99.19
428.514	94.19
428.736	99.19
428.958	88.19
429.181	81.19
429.403	97.19
429.625	95.19
429.847	91.19
430.069	93.19
430.292	90.19
430.514	80.19
430.736	80.19
430.958	89.19
431.18	96.19
431.402	83.19
431.624	92.19
431.846	92.19
432.068	93.19
432.29	82.19
432.512	87.19
432.734	91.19
432.956	106.19
433.178	105.19
433.4	99.19
433.622	104.19
433.844	93.19
434.066	96.19
434.287	76.19
434.509	81.19
434.731	86.19
434.953	104.19
435.175	93.19
435.397	89.19
435.618	89.19
435.84	106.19
436.062	122.19
436.284	102.19
436.505	103.19
436.727	99.19
436.949	108.19
437.17	89.19
437.392	86.19
437.614	104.19
437.835	104.19
438.057	103.19
438.278	101.19
438.5	108.19
438.721	113.19
438.943	101.19
439.165	96.19
439.386	83.19
439.608	88.19
439.829	89.19
440.05	114.19
440.272	116.19
440.493	93.19
440.715	91.19
440.936	85.19
441.158	79.19
441.379	86.19
441.6	89.19
441.822	87.19
442.043	96.19
442.264	91.19
442.486	85.19
442.707	90.19
442.928	88.19
443.149	102.19
443.371	112.19
443.592	112.19
443.813	105.19
444.034	101.19
444.255	93.19
444.476	84.19
444.698	96.19
444.919	85.19
445.14	132.19
445.361	109.19
445.582	104.19
445.803	127.19
446.024	133.19
446.245	105.19
446.466	113.19
446.687	96.19
446.908	90.19
447.129	89.19
447.35	77.19
447.571	94.19
447.792	92.19
448.013	88.19
448.234	102.19
448.455	105.19
448.675	94.19
448.896	114.19
449.117	101.19
449.338	114.19
449.559	109.19
449.779	110.19
450	95.19
450.221	88.19
450.442	87.19
450.662	83.19
450.883	88.19
451.104	118.19
451.324	103.19
451.545	90.19
451.766	84.19
451.986	95.19
452.207	85.19
452.428	102.19
452.648	101.19
452.869	93.19
453.089	100.19
453.31	93.19
453.53	86.19
453.751	95.19
453.971	105.19
454.192	110.19
454.412	96.19
454.633	91.19
454.853	87.19
455.073	75.19
455.294	81.19
455.514	96.19
455.734	84.19
455.955	84.19
456.175	96.19
456.395	92.19
456.616	74.19
456.836	78.19
457.056	78.19
457.276	94.19
457.497	90.19
457.717	98.19
457.937	88.19
458.157	83.19
458.377	84.19
458.598	94.19
458.818	120.19
459.038	122.19
459.258	93.19
459.478	86.19
459.698	102.19
459.918	90.19
460.138	82.19
460.358	87.19
460.578	80.19
460.798	99.19
461.018	96.19
461.238	74.19
461.458	93.19
461.678	77.19
461.898	91.19
462.118	89.19
462.338	83.19
462.558	94.19
462.777	87.19
462.997	83.19
463.217	95.19
463.437	81.19
463.657	101.19
463.876	89.19
464.096	85.19
464.316	101.19
464.536	89.19
464.755	86.19
464.975	93.19
465.195	137.19
465.414	134.19
465.634	107.19
465.854	97.19
466.073	81.19
466.293	90.19
466.512	90.19
466.732	87.19
466.951	96.19
467.171	94.19
467.391	102.19
467.61	90.19
467.829	101.19
468.049	143.19
468.268	173.19
468.488	98.19
468.707	86.19
468.927	99.19
469.146	87.19
469.365	85.19
469.585	86.19
469.804	81.19
470.023	89.19
470.243	83.19
470.462	84.19
470.681	89.19
470.901	81.19
471.12	93.19
471.339	90.19
471.558	101.19
471.777	82.19
471.997	117.19
472.216	229.19
472.435	358.19
472.654	141.19
472.873	106.19
473.092	103.19
473.311	81.19
473.53	78.19
473.749	112.19
473.968	85.19
474.187	92.19
474.406	97.19
474.625	92.19
474.844	92.19
475.063	97.19
475.282	85.19
475.501	92.19
475.72	89.19
475.939	80.19
476.158	85.19
476.377	89.19
476.596	84.19
476.814	83.19
477.033	73.19
477.252	92.19
477.471	76.19
477.69	89.19
477.908	88.19
478.127	94.19
478.346	97.19
478.564	94.19
478.783	104.19
479.002	87.19
479.22	79.19
479.439	110.19
479.658	101.19
479.876	78.19
480.095	85.19
480.313	80.19
480.532	101.19
480.751	117.19
480.969	207.19
481.188	615.19
481.406	367.19
481.624	114.19
481.843	89.19
482.061	83.19
482.28	80.19
482.498	92.19
482.717	87.19
482.935	100.19
483.153	90.19
483.372	90.19
483.59	95.19
483.808	85.19
484.027	97.19
484.245	94.19
484.463	93.19
484.681	81.19
484.9	86.19
485.118	88.19
485.336	93.19
485.554	92.19
485.772	102.19
485.99	110.19
486.209	97.19
486.427	119.19
486.645	100.19
486.863	100.19
487.081	107.19
487.299	100.19
487.517	96.19
487.735	65.19
487.953	84.19
488.171	81.19
488.389	87.19
488.607	87.19
488.825	96.19
489.043	97.19
489.261	84.19
489.479	100.19
489.696	94.19
489.914	95.19
490.132	95.19
490.35	88.19
490.568	92.19
490.786	86.19
491.003	92.19
491.221	94.19
491.439	89.19
491.657	102.19
491.874	107.19
492.092	91.19
492.31	85.19
492.527	108.19
492.745	95.19
492.963	93.19
493.18	85.19
493.398	104.19
493.615	92.19
493.833	100.19
494.05	101.19
494.268	88.19
494.485	80.19
494.703	89.19
494.92	84.19
495.138	92.19
495.355	96.19
495.573	99.19
495.79	97.19
496.008	108.19
496.225	93.19
496.442	93.19
496.66	88.19
496.877	96.19
497.094	79.19
497.312	94.19
497.529	82.19
497.746	95.19
497.963	99.19
498.181	96.19
498.398	98.19
498.615	100.19
498.832	95.19
499.049	76.19
499.267	82.19
499.484	98.19
499.701	90.19
499.918	96.19
500.135	89.19
500.352	95.19
500.569	94.19
500.786	90.19
501.003	76.19
501.22	83.19
501.437	88.19
501.654	98.19
501.871	101.19
502.088	97.19
502.305	104.19
502.522	94.19
502.739	86.19
502.956	88.19
503.172	82.19
503.389	83.19
503.606	92.19
503.823	98.19
504.04	106.19
504.256	93.19
504.473	87.19
504.69	90.19
504.907	100.19
505.123	93.19
505.34	86.19
505.557	104.19
505.773	107.19
505.99	89.19
506.207	82.19
506.423	95.19
506.64	98.19
506.856	87.19
507.073	82.19
507.289	102.19
507.506	105.19
507.722	90.19
507.939	102.19
508.155	98.19
508.372	99.19
508.588	90.19
508.805	90.19
509.021	90.19
509.238	110.19
509.454	100.19
509.67	111.19
509.887	99.19
510.103	122.19
510.319	162.19
510.536	526.19
510.752	1542.19
510.968	450.19
511.184	135.19
511.401	99.19
511.617	93.19
511.833	102.19
512.049	85.19
512.265	82.19
512.481	94.19
512.698	80.19
512.914	94.19
513.13	85.19
513.346	79.19
513.562	97.19
513.778	106.19
513.994	90.19
514.21	89.19
514.426	121.19
514.642	120.19
