Data from Circ_1991_H10_HRD10591_00036.txt Node
Date: Wed Jan 03 11:51:48 EST 2024
User: Yrep
Spectrometer: HR+D1059
Trigger mode: 1
Integration Time (sec): 1.000000E-1
Scans to average: 1
Electric dark correction enabled: true
Nonlinearity correction enabled: false
Boxcar width: 0
XAxis mode: Wavelengths
Number of Pixels in Spectrum: 2048
>>>>>Begin Spectral Data<<<<<
223.165	-8.62
223.4	-8.62
223.635	-8.62
223.869	-16.62
224.104	-21.62
224.338	11.38
224.573	-5.62
224.808	-15.62
225.042	-20.62
225.277	-6.62
225.511	-8.62
225.746	-1.62
225.98	11.38
226.215	11.38
226.449	13.38
226.683	15.38
226.918	22.38
227.152	20.38
227.387	38.38
227.621	47.38
227.856	37.38
228.09	53.38
228.324	48.38
228.559	54.38
228.793	55.38
229.027	55.38
229.262	54.38
229.496	74.38
229.73	84.38
229.964	89.38
230.199	79.38
230.433	77.38
230.667	79.38
230.901	61.38
231.136	79.38
231.37	76.38
231.604	62.38
231.838	82.38
232.072	84.38
232.306	85.38
232.541	86.38
232.775	85.38
233.009	72.38
233.243	78.38
233.477	77.38
233.711	70.38
233.945	68.38
234.179	80.38
234.413	99.38
234.647	68.38
234.881	92.38
235.115	82.38
235.349	78.38
235.583	83.38
235.817	81.38
236.051	85.38
236.285	74.38
236.519	68.38
236.753	74.38
236.987	77.38
237.221	70.38
237.455	79.38
237.689	85.38
237.922	91.38
238.156	77.38
238.39	70.38
238.624	77.38
238.858	72.38
239.091	73.38
239.325	76.38
239.559	79.38
239.793	77.38
240.027	68.38
240.26	65.38
240.494	86.38
240.728	71.38
240.961	87.38
241.195	75.38
241.429	68.38
241.662	69.38
241.896	66.38
242.13	78.38
242.363	61.38
242.597	66.38
242.83	82.38
243.064	71.38
243.298	78.38
243.531	83.38
243.765	79.38
243.998	86.38
244.232	86.38
244.465	97.38
244.699	81.38
244.932	83.38
245.166	78.38
245.399	73.38
245.633	68.38
245.866	73.38
246.099	75.38
246.333	74.38
246.566	77.38
246.8	75.38
247.033	82.38
247.266	85.38
247.5	78.38
247.733	77.38
247.966	78.38
248.2	71.38
248.433	80.38
248.666	83.38
248.899	79.38
249.133	83.38
249.366	83.38
249.599	94.38
249.832	73.38
250.066	89.38
250.299	66.38
250.532	89.38
250.765	81.38
250.998	73.38
251.231	77.38
251.465	77.38
251.698	90.38
251.931	85.38
252.164	79.38
252.397	67.38
252.63	71.38
252.863	78.38
253.096	83.38
253.329	79.38
253.562	69.38
253.795	79.38
254.028	82.38
254.261	75.38
254.494	88.38
254.727	94.38
254.96	83.38
255.193	67.38
255.426	87.38
255.659	81.38
255.892	85.38
256.124	73.38
256.357	79.38
256.59	95.38
256.823	74.38
257.056	79.38
257.289	80.38
257.521	86.38
257.754	83.38
257.987	85.38
258.22	89.38
258.452	91.38
258.685	90.38
258.918	85.38
259.151	89.38
259.383	80.38
259.616	92.38
259.849	88.38
260.081	86.38
260.314	79.38
260.547	89.38
260.779	79.38
261.012	87.38
261.244	74.38
261.477	80.38
261.71	110.38
261.942	119.38
262.175	101.38
262.407	86.38
262.64	85.38
262.872	86.38
263.105	79.38
263.337	84.38
263.57	88.38
263.802	97.38
264.035	87.38
264.267	63.38
264.499	81.38
264.732	70.38
264.964	83.38
265.197	76.38
265.429	84.38
265.661	79.38
265.894	78.38
266.126	90.38
266.358	93.38
266.591	81.38
266.823	89.38
267.055	63.38
267.287	79.38
267.52	86.38
267.752	70.38
267.984	93.38
268.216	76.38
268.448	102.38
268.681	75.38
268.913	85.38
269.145	85.38
269.377	85.38
269.609	89.38
269.841	83.38
270.073	83.38
270.306	90.38
270.538	74.38
270.77	76.38
271.002	81.38
271.234	86.38
271.466	93.38
271.698	82.38
271.93	85.38
272.162	90.38
272.394	102.38
272.626	80.38
272.858	73.38
273.09	81.38
273.322	83.38
273.553	78.38
273.785	77.38
274.017	92.38
274.249	71.38
274.481	92.38
274.713	86.38
274.945	85.38
275.176	92.38
275.408	80.38
275.64	91.38
275.872	84.38
276.104	83.38
276.335	95.38
276.567	95.38
276.799	121.38
277.031	117.38
277.262	107.38
277.494	95.38
277.726	96.38
277.957	81.38
278.189	83.38
278.421	101.38
278.652	80.38
278.884	80.38
279.115	68.38
279.347	94.38
279.579	94.38
279.81	91.38
280.042	102.38
280.273	125.38
280.505	115.38
280.736	95.38
280.968	96.38
281.199	89.38
281.431	89.38
281.662	90.38
281.894	81.38
282.125	86.38
282.356	117.38
282.588	138.38
282.819	105.38
283.051	78.38
283.282	77.38
283.513	88.38
283.745	81.38
283.976	83.38
284.207	77.38
284.439	91.38
284.67	87.38
284.901	97.38
285.132	98.38
285.364	98.38
285.595	87.38
285.826	93.38
286.057	73.38
286.288	93.38
286.52	83.38
286.751	87.38
286.982	78.38
287.213	98.38
287.444	82.38
287.675	93.38
287.906	93.38
288.138	93.38
288.369	89.38
288.6	82.38
288.831	74.38
289.062	82.38
289.293	70.38
289.524	76.38
289.755	105.38
289.986	75.38
290.217	87.38
290.448	97.38
290.679	81.38
290.91	85.38
291.141	80.38
291.371	85.38
291.602	86.38
291.833	79.38
292.064	82.38
292.295	91.38
292.526	90.38
292.757	87.38
292.987	86.38
293.218	82.38
293.449	89.38
293.68	99.38
293.91	89.38
294.141	78.38
294.372	78.38
294.603	91.38
294.833	89.38
295.064	93.38
295.295	81.38
295.525	102.38
295.756	90.38
295.987	119.38
296.217	135.38
296.448	122.38
296.679	96.38
296.909	75.38
297.14	93.38
297.37	91.38
297.601	94.38
297.831	90.38
298.062	75.38
298.292	85.38
298.523	84.38
298.753	100.38
298.984	89.38
299.214	91.38
299.445	87.38
299.675	83.38
299.905	85.38
300.136	90.38
300.366	90.38
300.597	96.38
300.827	98.38
301.057	95.38
301.288	96.38
301.518	88.38
301.748	95.38
301.979	98.38
302.209	87.38
302.439	83.38
302.669	89.38
302.9	87.38
303.13	86.38
303.36	103.38
303.59	117.38
303.82	108.38
304.051	92.38
304.281	98.38
304.511	88.38
304.741	99.38
304.971	92.38
305.201	90.38
305.431	84.38
305.661	76.38
305.891	73.38
306.121	87.38
306.352	92.38
306.582	97.38
306.812	102.38
307.042	97.38
307.272	127.38
307.502	119.38
307.731	115.38
307.961	99.38
308.191	107.38
308.421	88.38
308.651	85.38
308.881	89.38
309.111	91.38
309.341	90.38
309.571	99.38
309.8	109.38
310.03	98.38
310.26	111.38
310.49	93.38
310.72	107.38
310.949	113.38
311.179	75.38
311.409	99.38
311.639	107.38
311.868	106.38
312.098	91.38
312.328	91.38
312.557	108.38
312.787	111.38
313.017	87.38
313.246	84.38
313.476	97.38
313.706	102.38
313.935	102.38
314.165	93.38
314.394	108.38
314.624	94.38
314.853	84.38
315.083	93.38
315.312	100.38
315.542	91.38
315.771	93.38
316.001	89.38
316.23	92.38
316.46	91.38
316.689	89.38
316.919	94.38
317.148	94.38
317.377	84.38
317.607	94.38
317.836	105.38
318.065	88.38
318.295	78.38
318.524	82.38
318.753	96.38
318.983	100.38
319.212	110.38
319.441	101.38
319.67	103.38
319.9	100.38
320.129	101.38
320.358	97.38
320.587	100.38
320.816	96.38
321.046	97.38
321.275	94.38
321.504	106.38
321.733	100.38
321.962	102.38
322.191	112.38
322.42	103.38
322.649	102.38
322.878	102.38
323.108	124.38
323.337	122.38
323.566	130.38
323.795	155.38
324.024	194.38
324.253	373.38
324.482	763.38
324.71	1658.38
324.939	2162.38
325.168	806.38
325.397	228.38
325.626	158.38
325.855	118.38
326.084	128.38
326.313	122.38
326.542	153.38
326.77	228.38
326.999	405.38
327.228	879.38
327.457	1691.38
327.686	1349.38
327.914	390.38
328.143	247.38
328.372	241.38
328.6	175.38
328.829	124.38
329.058	135.38
329.287	127.38
329.515	113.38
329.744	139.38
329.972	189.38
330.201	283.38
330.43	393.38
330.658	221.38
330.887	159.38
331.115	128.38
331.344	101.38
331.572	115.38
331.801	103.38
332.03	107.38
332.258	106.38
332.486	106.38
332.715	106.38
332.943	93.38
333.172	99.38
333.4	103.38
333.629	114.38
333.857	142.38
334.085	179.38
334.314	272.38
334.542	482.38
334.771	442.38
334.999	174.38
335.227	111.38
335.455	106.38
335.684	92.38
335.912	109.38
336.14	100.38
336.369	102.38
336.597	100.38
336.825	93.38
337.053	95.38
337.281	101.38
337.51	96.38
337.738	101.38
337.966	82.38
338.194	99.38
338.422	94.38
338.65	90.38
338.878	104.38
339.106	84.38
339.334	95.38
339.562	90.38
339.79	90.38
340.018	92.38
340.246	77.38
340.474	78.38
340.702	82.38
340.93	91.38
341.158	85.38
341.386	89.38
341.614	101.38
341.842	82.38
342.07	92.38
342.298	89.38
342.526	89.38
342.754	88.38
342.981	99.38
343.209	78.38
343.437	94.38
343.665	89.38
343.893	95.38
344.12	91.38
344.348	90.38
344.576	85.38
344.804	96.38
345.031	97.38
345.259	98.38
345.487	85.38
345.714	87.38
345.942	96.38
346.17	96.38
346.397	89.38
346.625	102.38
346.853	94.38
347.08	92.38
347.308	79.38
347.535	92.38
347.763	102.38
347.99	95.38
348.218	96.38
348.445	109.38
348.673	107.38
348.9	98.38
349.128	102.38
349.355	84.38
349.583	104.38
349.81	96.38
350.037	95.38
350.265	81.38
350.492	83.38
350.72	95.38
350.947	97.38
351.174	107.38
351.402	98.38
351.629	93.38
351.856	91.38
352.083	105.38
352.311	112.38
352.538	105.38
352.765	100.38
352.992	108.38
353.22	114.38
353.447	97.38
353.674	97.38
353.901	96.38
354.128	102.38
354.355	91.38
354.583	98.38
354.81	107.38
355.037	97.38
355.264	94.38
355.491	91.38
355.718	99.38
355.945	97.38
356.172	87.38
356.399	90.38
356.626	95.38
356.853	97.38
357.08	93.38
357.307	98.38
357.534	89.38
357.761	102.38
357.988	96.38
358.215	102.38
358.441	86.38
358.668	91.38
358.895	94.38
359.122	78.38
359.349	98.38
359.576	97.38
359.802	102.38
360.029	112.38
360.256	106.38
360.483	90.38
360.709	80.38
360.936	81.38
361.163	104.38
361.39	91.38
361.616	94.38
361.843	100.38
362.07	80.38
362.296	95.38
362.523	104.38
362.749	87.38
362.976	85.38
363.203	90.38
363.429	82.38
363.656	97.38
363.882	84.38
364.109	88.38
364.335	80.38
364.562	64.38
364.788	100.38
365.015	93.38
365.241	99.38
365.468	102.38
365.694	101.38
365.92	94.38
366.147	89.38
366.373	90.38
366.599	87.38
366.826	83.38
367.052	83.38
367.278	83.38
367.505	93.38
367.731	84.38
367.957	74.38
368.184	91.38
368.41	113.38
368.636	115.38
368.862	125.38
369.089	96.38
369.315	100.38
369.541	95.38
369.767	82.38
369.993	94.38
370.219	93.38
370.445	95.38
370.672	93.38
370.898	82.38
371.124	81.38
371.35	92.38
371.576	75.38
371.802	95.38
372.028	98.38
372.254	81.38
372.48	84.38
372.706	91.38
372.932	102.38
373.158	85.38
373.384	83.38
373.61	89.38
373.835	102.38
374.061	89.38
374.287	88.38
374.513	92.38
374.739	77.38
374.965	84.38
375.191	82.38
375.416	90.38
375.642	79.38
375.868	86.38
376.094	100.38
376.319	92.38
376.545	91.38
376.771	76.38
376.997	87.38
377.222	99.38
377.448	87.38
377.674	84.38
377.899	96.38
378.125	85.38
378.35	87.38
378.576	90.38
378.802	83.38
379.027	88.38
379.253	88.38
379.478	77.38
379.704	86.38
379.929	99.38
380.155	91.38
380.38	88.38
380.606	87.38
380.831	102.38
381.057	101.38
381.282	92.38
381.507	112.38
381.733	103.38
381.958	91.38
382.184	93.38
382.409	98.38
382.634	101.38
382.86	90.38
383.085	91.38
383.31	95.38
383.535	100.38
383.761	108.38
383.986	103.38
384.211	92.38
384.436	94.38
384.662	96.38
384.887	94.38
385.112	105.38
385.337	103.38
385.562	109.38
385.787	101.38
386.013	104.38
386.238	111.38
386.463	91.38
386.688	107.38
386.913	105.38
387.138	116.38
387.363	100.38
387.588	98.38
387.813	102.38
388.038	100.38
388.263	125.38
388.488	108.38
388.713	105.38
388.938	99.38
389.163	96.38
389.387	93.38
389.612	90.38
389.837	90.38
390.062	85.38
390.287	93.38
390.512	103.38
390.736	91.38
390.961	89.38
391.186	88.38
391.411	83.38
391.636	88.38
391.86	66.38
392.085	84.38
392.31	81.38
392.534	79.38
392.759	87.38
392.984	97.38
393.208	102.38
393.433	153.38
393.658	134.38
393.882	98.38
394.107	80.38
394.331	87.38
394.556	89.38
394.78	77.38
395.005	81.38
395.229	77.38
395.454	89.38
395.678	83.38
395.903	67.38
396.127	90.38
396.352	84.38
396.576	83.38
396.801	114.38
397.025	106.38
397.249	104.38
397.474	102.38
397.698	93.38
397.922	79.38
398.147	73.38
398.371	91.38
398.595	75.38
398.82	77.38
399.044	84.38
399.268	94.38
399.492	89.38
399.717	92.38
399.941	101.38
400.165	82.38
400.389	82.38
400.613	68.38
400.837	90.38
401.062	89.38
401.286	79.38
401.51	99.38
401.734	85.38
401.958	95.38
402.182	126.38
402.406	143.38
402.63	124.38
402.854	87.38
403.078	81.38
403.302	94.38
403.526	86.38
403.75	87.38
403.974	83.38
404.198	82.38
404.422	100.38
404.645	79.38
404.869	97.38
405.093	95.38
405.317	111.38
405.541	97.38
405.765	77.38
405.988	110.38
406.212	172.38
406.436	217.38
406.66	167.38
406.883	99.38
407.107	81.38
407.331	105.38
407.555	103.38
407.778	79.38
408.002	96.38
408.226	83.38
408.449	95.38
408.673	92.38
408.896	94.38
409.12	100.38
409.344	105.38
409.567	87.38
409.791	92.38
410.014	91.38
410.238	91.38
410.461	81.38
410.685	82.38
410.908	97.38
411.132	100.38
411.355	92.38
411.578	91.38
411.802	56.38
412.025	92.38
412.249	93.38
412.472	79.38
412.695	90.38
412.919	75.38
413.142	81.38
413.365	86.38
413.589	90.38
413.812	102.38
414.035	90.38
414.258	87.38
414.482	84.38
414.705	90.38
414.928	96.38
415.151	91.38
415.374	88.38
415.597	79.38
415.821	85.38
416.044	82.38
416.267	87.38
416.49	88.38
416.713	89.38
416.936	95.38
417.159	99.38
417.382	84.38
417.605	99.38
417.828	95.38
418.051	90.38
418.274	86.38
418.497	75.38
418.72	77.38
418.943	98.38
419.166	82.38
419.389	83.38
419.611	96.38
419.834	95.38
420.057	77.38
420.28	85.38
420.503	89.38
420.726	84.38
420.948	91.38
421.171	81.38
421.394	95.38
421.617	92.38
421.839	94.38
422.062	88.38
422.285	103.38
422.507	103.38
422.73	114.38
422.953	92.38
423.175	87.38
423.398	93.38
423.621	81.38
423.843	85.38
424.066	87.38
424.288	78.38
424.511	78.38
424.733	101.38
424.956	102.38
425.178	98.38
425.401	97.38
425.623	84.38
425.846	95.38
426.068	83.38
426.291	99.38
426.513	77.38
426.735	77.38
426.958	100.38
427.18	93.38
427.402	123.38
427.625	166.38
427.847	162.38
428.069	154.38
428.292	98.38
428.514	97.38
428.736	85.38
428.958	83.38
429.181	85.38
429.403	85.38
429.625	86.38
429.847	92.38
430.069	93.38
430.292	101.38
430.514	78.38
430.736	63.38
430.958	84.38
431.18	81.38
431.402	66.38
431.624	87.38
431.846	91.38
432.068	83.38
432.29	81.38
432.512	86.38
432.734	78.38
432.956	91.38
433.178	94.38
433.4	93.38
433.622	87.38
433.844	77.38
434.066	94.38
434.287	74.38
434.509	98.38
434.731	73.38
434.953	91.38
435.175	92.38
435.397	91.38
435.618	97.38
435.84	100.38
436.062	116.38
436.284	116.38
436.505	86.38
436.727	78.38
436.949	99.38
437.17	81.38
437.392	79.38
437.614	85.38
437.835	89.38
438.057	106.38
438.278	100.38
438.5	89.38
438.721	109.38
438.943	104.38
439.165	98.38
439.386	91.38
439.608	91.38
439.829	101.38
440.05	105.38
440.272	130.38
440.493	93.38
440.715	92.38
440.936	86.38
441.158	85.38
441.379	84.38
441.6	103.38
441.822	93.38
442.043	95.38
442.264	116.38
442.486	104.38
442.707	102.38
442.928	88.38
443.149	134.38
443.371	122.38
443.592	110.38
443.813	102.38
444.034	92.38
444.255	83.38
444.476	81.38
444.698	75.38
444.919	76.38
445.14	128.38
445.361	130.38
445.582	113.38
445.803	133.38
446.024	130.38
446.245	123.38
446.466	118.38
446.687	87.38
446.908	77.38
447.129	77.38
447.35	84.38
447.571	92.38
447.792	81.38
448.013	105.38
448.234	100.38
448.455	95.38
448.675	95.38
448.896	111.38
449.117	97.38
449.338	102.38
449.559	109.38
449.779	126.38
450	86.38
450.221	93.38
450.442	71.38
450.662	87.38
450.883	106.38
451.104	102.38
451.324	100.38
451.545	90.38
451.766	87.38
451.986	105.38
452.207	93.38
452.428	89.38
452.648	99.38
452.869	110.38
453.089	108.38
453.31	124.38
453.53	74.38
453.751	84.38
453.971	86.38
454.192	115.38
454.412	90.38
454.633	92.38
454.853	89.38
455.073	76.38
455.294	99.38
455.514	103.38
455.734	103.38
455.955	87.38
456.175	85.38
456.395	60.38
456.616	87.38
456.836	70.38
457.056	93.38
457.276	90.38
457.497	98.38
457.717	86.38
457.937	95.38
458.157	84.38
458.377	90.38
458.598	97.38
458.818	135.38
459.038	159.38
459.258	110.38
459.478	85.38
459.698	87.38
459.918	107.38
460.138	70.38
460.358	79.38
460.578	89.38
460.798	94.38
461.018	81.38
461.238	81.38
461.458	89.38
461.678	88.38
461.898	89.38
462.118	79.38
462.338	87.38
462.558	82.38
462.777	87.38
462.997	82.38
463.217	93.38
463.437	90.38
463.657	85.38
463.876	87.38
464.096	84.38
464.316	91.38
464.536	95.38
464.755	90.38
464.975	98.38
465.195	165.38
465.414	155.38
465.634	91.38
465.854	80.38
466.073	77.38
466.293	75.38
466.512	77.38
466.732	93.38
466.951	77.38
467.171	94.38
467.391	110.38
467.61	111.38
467.829	124.38
468.049	217.38
468.268	271.38
468.488	100.38
468.707	83.38
468.927	80.38
469.146	70.38
469.365	86.38
469.585	87.38
469.804	96.38
470.023	95.38
470.243	86.38
470.462	85.38
470.681	102.38
470.901	92.38
471.12	89.38
471.339	95.38
471.558	84.38
471.777	109.38
471.997	151.38
472.216	347.38
472.435	658.38
472.654	211.38
472.873	110.38
473.092	102.38
473.311	101.38
473.53	86.38
473.749	82.38
473.968	91.38
474.187	89.38
474.406	98.38
474.625	102.38
474.844	75.38
475.063	82.38
475.282	91.38
475.501	93.38
475.72	98.38
475.939	92.38
476.158	91.38
476.377	77.38
476.596	85.38
476.814	97.38
477.033	93.38
477.252	90.38
477.471	86.38
477.69	70.38
477.908	89.38
478.127	75.38
478.346	75.38
478.564	80.38
478.783	95.38
479.002	77.38
479.22	87.38
479.439	86.38
479.658	92.38
479.876	89.38
480.095	104.38
480.313	106.38
480.532	110.38
480.751	132.38
480.969	342.38
481.188	1185.38
481.406	686.38
481.624	161.38
481.843	97.38
482.061	87.38
482.28	91.38
482.498	99.38
482.717	94.38
482.935	83.38
483.153	85.38
483.372	91.38
483.59	77.38
483.808	77.38
484.027	91.38
484.245	89.38
484.463	77.38
484.681	95.38
484.9	77.38
485.118	90.38
485.336	95.38
485.554	94.38
485.772	93.38
485.99	94.38
486.209	103.38
486.427	86.38
486.645	110.38
486.863	98.38
487.081	85.38
487.299	103.38
487.517	92.38
487.735	88.38
487.953	100.38
488.171	99.38
488.389	85.38
488.607	95.38
488.825	98.38
489.043	79.38
489.261	70.38
489.479	76.38
489.696	84.38
489.914	91.38
490.132	92.38
490.35	92.38
490.568	97.38
490.786	81.38
491.003	96.38
491.221	92.38
491.439	76.38
491.657	107.38
491.874	94.38
492.092	90.38
492.31	86.38
492.527	96.38
492.745	89.38
492.963	86.38
493.18	84.38
493.398	101.38
493.615	70.38
493.833	100.38
494.05	97.38
494.268	100.38
494.485	93.38
494.703	77.38
494.92	83.38
495.138	83.38
495.355	92.38
495.573	89.38
495.79	89.38
496.008	87.38
496.225	89.38
496.442	81.38
496.66	104.38
496.877	84.38
497.094	90.38
497.312	86.38
497.529	94.38
497.746	87.38
497.963	81.38
498.181	87.38
498.398	95.38
498.615	118.38
498.832	99.38
499.049	97.38
499.267	86.38
499.484	101.38
499.701	96.38
499.918	101.38
500.135	91.38
500.352	93.38
500.569	90.38
500.786	85.38
501.003	81.38
501.22	99.38
501.437	89.38
501.654	90.38
501.871	107.38
502.088	95.38
502.305	75.38
502.522	84.38
502.739	102.38
502.956	83.38
503.172	81.38
503.389	87.38
503.606	104.38
503.823	88.38
504.04	74.38
504.256	71.38
504.473	97.38
504.69	90.38
504.907	92.38
505.123	87.38
505.34	97.38
505.557	88.38
505.773	92.38
505.99	92.38
506.207	80.38
506.423	85.38
506.64	90.38
506.856	81.38
507.073	93.38
507.289	107.38
507.506	103.38
507.722	117.38
507.939	102.38
508.155	108.38
508.372	92.38
508.588	79.38
508.805	87.38
509.021	82.38
509.238	96.38
509.454	92.38
509.67	104.38
509.887	88.38
510.103	117.38
510.319	214.38
510.536	743.38
510.752	2409.38
510.968	681.38
511.184	168.38
511.401	102.38
511.617	101.38
511.833	97.38
512.049	77.38
512.265	90.38
512.481	88.38
512.698	90.38
512.914	94.38
513.13	86.38
513.346	97.38
513.562	70.38
513.778	91.38
513.994	99.38
514.21	105.38
514.426	132.38
514.642	130.38
514.858	130.38
515.074	173.38
515.29	449.38
515.506	1490.38
