Data from Circ_1991_H10_HRD10591_00098.txt Node
Date: Wed Jan 03 11:52:00 EST 2024
User: Yrep
Spectrometer: HR+D1059
Trigger mode: 1
Integration Time (sec): 1.000000E-1
Scans to average: 1
Electric dark correction enabled: true
Nonlinearity correction enabled: false
Boxcar width: 0
XAxis mode: Wavelengths
Number of Pixels in Spectrum: 2048
>>>>>Begin Spectral Data<<<<<
223.165	-21.19
223.4	-21.19
223.635	-21.19
223.869	-21.19
224.104	-7.19
224.338	-20.19
224.573	-12.19
224.808	-24.19
225.042	6.81
225.277	-18.19
225.511	2.81
225.746	2.81
225.98	16.81
226.215	13.81
226.449	6.81
226.683	22.81
226.918	15.81
227.152	35.81
227.387	32.81
227.621	33.81
227.856	32.81
228.09	50.81
228.324	52.81
228.559	61.81
228.793	53.81
229.027	58.81
229.262	73.81
229.496	73.81
229.73	80.81
229.964	79.81
230.199	73.81
230.433	78.81
230.667	84.81
230.901	90.81
231.136	98.81
231.37	77.81
231.604	76.81
231.838	89.81
232.072	85.81
232.306	78.81
232.541	92.81
232.775	91.81
233.009	86.81
233.243	80.81
233.477	79.81
233.711	79.81
233.945	81.81
234.179	84.81
234.413	82.81
234.647	69.81
234.881	88.81
235.115	78.81
235.349	87.81
235.583	66.81
235.817	73.81
236.051	74.81
236.285	71.81
236.519	88.81
236.753	87.81
236.987	86.81
237.221	86.81
237.455	79.81
237.689	70.81
237.922	72.81
238.156	78.81
238.39	86.81
238.624	84.81
238.858	77.81
239.091	79.81
239.325	79.81
239.559	89.81
239.793	80.81
240.027	85.81
240.26	72.81
240.494	87.81
240.728	84.81
240.961	76.81
241.195	76.81
241.429	80.81
241.662	85.81
241.896	82.81
242.13	72.81
242.363	82.81
242.597	57.81
242.83	75.81
243.064	76.81
243.298	86.81
243.531	86.81
243.765	86.81
243.998	79.81
244.232	80.81
244.465	107.81
244.699	82.81
244.932	81.81
245.166	86.81
245.399	81.81
245.633	79.81
245.866	94.81
246.099	100.81
246.333	88.81
246.566	81.81
246.8	82.81
247.033	85.81
247.266	85.81
247.5	82.81
247.733	92.81
247.966	83.81
248.2	96.81
248.433	85.81
248.666	83.81
248.899	86.81
249.133	96.81
249.366	98.81
249.599	96.81
249.832	80.81
250.066	67.81
250.299	80.81
250.532	92.81
250.765	74.81
250.998	84.81
251.231	80.81
251.465	81.81
251.698	79.81
251.931	80.81
252.164	87.81
252.397	79.81
252.63	72.81
252.863	96.81
253.096	92.81
253.329	85.81
253.562	83.81
253.795	84.81
254.028	89.81
254.261	82.81
254.494	84.81
254.727	97.81
254.96	87.81
255.193	70.81
255.426	96.81
255.659	90.81
255.892	88.81
256.124	89.81
256.357	71.81
256.59	92.81
256.823	82.81
257.056	89.81
257.289	82.81
257.521	100.81
257.754	82.81
257.987	88.81
258.22	78.81
258.452	92.81
258.685	80.81
258.918	104.81
259.151	86.81
259.383	83.81
259.616	73.81
259.849	86.81
260.081	91.81
260.314	89.81
260.547	73.81
260.779	88.81
261.012	100.81
261.244	93.81
261.477	101.81
261.71	101.81
261.942	117.81
262.175	121.81
262.407	79.81
262.64	80.81
262.872	86.81
263.105	85.81
263.337	93.81
263.57	86.81
263.802	81.81
264.035	97.81
264.267	87.81
264.499	78.81
264.732	81.81
264.964	94.81
265.197	83.81
265.429	68.81
265.661	83.81
265.894	87.81
266.126	77.81
266.358	74.81
266.591	80.81
266.823	81.81
267.055	95.81
267.287	86.81
267.52	85.81
267.752	84.81
267.984	90.81
268.216	87.81
268.448	73.81
268.681	106.81
268.913	88.81
269.145	84.81
269.377	76.81
269.609	88.81
269.841	93.81
270.073	94.81
270.306	90.81
270.538	87.81
270.77	85.81
271.002	84.81
271.234	84.81
271.466	98.81
271.698	89.81
271.93	87.81
272.162	82.81
272.394	101.81
272.626	80.81
272.858	69.81
273.09	92.81
273.322	84.81
273.553	94.81
273.785	91.81
274.017	89.81
274.249	88.81
274.481	78.81
274.713	91.81
274.945	89.81
275.176	84.81
275.408	90.81
275.64	106.81
275.872	95.81
276.104	104.81
276.335	81.81
276.567	96.81
276.799	110.81
277.031	121.81
277.262	131.81
277.494	104.81
277.726	109.81
277.957	82.81
278.189	95.81
278.421	88.81
278.652	74.81
278.884	84.81
279.115	81.81
279.347	88.81
279.579	84.81
279.81	102.81
280.042	138.81
280.273	171.81
280.505	135.81
280.736	86.81
280.968	106.81
281.199	92.81
281.431	85.81
281.662	94.81
281.894	100.81
282.125	104.81
282.356	123.81
282.588	154.81
282.819	106.81
283.051	87.81
283.282	95.81
283.513	90.81
283.745	94.81
283.976	93.81
284.207	93.81
284.439	88.81
284.67	89.81
284.901	94.81
285.132	99.81
285.364	78.81
285.595	99.81
285.826	93.81
286.057	94.81
286.288	99.81
286.52	100.81
286.751	83.81
286.982	86.81
287.213	86.81
287.444	81.81
287.675	82.81
287.906	94.81
288.138	94.81
288.369	95.81
288.6	93.81
288.831	96.81
289.062	81.81
289.293	80.81
289.524	97.81
289.755	102.81
289.986	101.81
290.217	91.81
290.448	94.81
290.679	76.81
290.91	94.81
291.141	91.81
291.371	76.81
291.602	94.81
291.833	94.81
292.064	93.81
292.295	80.81
292.526	90.81
292.757	97.81
292.987	101.81
293.218	92.81
293.449	92.81
293.68	82.81
293.91	97.81
294.141	104.81
294.372	87.81
294.603	81.81
294.833	95.81
295.064	87.81
295.295	77.81
295.525	89.81
295.756	92.81
295.987	125.81
296.217	132.81
296.448	133.81
296.679	87.81
296.909	93.81
297.14	88.81
297.37	80.81
297.601	86.81
297.831	86.81
298.062	90.81
298.292	94.81
298.523	92.81
298.753	78.81
298.984	81.81
299.214	101.81
299.445	97.81
299.675	87.81
299.905	113.81
300.136	94.81
300.366	99.81
300.597	95.81
300.827	98.81
301.057	104.81
301.288	105.81
301.518	104.81
301.748	104.81
301.979	102.81
302.209	86.81
302.439	104.81
302.669	85.81
302.9	106.81
303.13	94.81
303.36	87.81
303.59	113.81
303.82	127.81
304.051	100.81
304.281	92.81
304.511	94.81
304.741	76.81
304.971	88.81
305.201	96.81
305.431	95.81
305.661	99.81
305.891	93.81
306.121	90.81
306.352	102.81
306.582	119.81
306.812	102.81
307.042	103.81
307.272	116.81
307.502	135.81
307.731	132.81
307.961	114.81
308.191	94.81
308.421	80.81
308.651	96.81
308.881	96.81
309.111	92.81
309.341	101.81
309.571	99.81
309.8	93.81
310.03	100.81
310.26	103.81
310.49	102.81
310.72	107.81
310.949	119.81
311.179	102.81
311.409	80.81
311.639	101.81
311.868	94.81
312.098	102.81
312.328	113.81
312.557	110.81
312.787	110.81
313.017	106.81
313.246	98.81
313.476	98.81
313.706	104.81
313.935	94.81
314.165	106.81
314.394	93.81
314.624	94.81
314.853	97.81
315.083	104.81
315.312	96.81
315.542	91.81
315.771	100.81
316.001	102.81
316.23	84.81
316.46	93.81
316.689	87.81
316.919	81.81
317.148	93.81
317.377	96.81
317.607	105.81
317.836	99.81
318.065	88.81
318.295	96.81
318.524	94.81
318.753	96.81
318.983	106.81
319.212	101.81
319.441	119.81
319.67	110.81
319.9	98.81
320.129	109.81
320.358	90.81
320.587	105.81
320.816	118.81
321.046	90.81
321.275	96.81
321.504	96.81
321.733	90.81
321.962	87.81
322.191	109.81
322.42	110.81
322.649	120.81
322.878	113.81
323.108	124.81
323.337	125.81
323.566	132.81
323.795	166.81
324.024	219.81
324.253	438.81
324.482	950.81
324.71	2009.81
324.939	2790.81
325.168	982.81
325.397	286.81
325.626	149.81
325.855	139.81
326.084	132.81
326.313	151.81
326.542	169.81
326.77	270.81
326.999	504.81
327.228	1064.81
327.457	2064.81
327.686	1636.81
327.914	478.81
328.143	332.81
328.372	381.81
328.6	229.81
328.829	146.81
329.058	144.81
329.287	135.81
329.515	142.81
329.744	172.81
329.972	265.81
330.201	480.81
330.43	680.81
330.658	338.81
330.887	204.81
331.115	158.81
331.344	114.81
331.572	113.81
331.801	106.81
332.03	104.81
332.258	112.81
332.486	102.81
332.715	89.81
332.943	90.81
333.172	127.81
333.4	102.81
333.629	125.81
333.857	149.81
334.085	246.81
334.314	443.81
334.542	873.81
334.771	814.81
334.999	251.81
335.227	126.81
335.455	103.81
335.684	104.81
335.912	105.81
336.14	102.81
336.369	112.81
336.597	110.81
336.825	105.81
337.053	86.81
337.281	82.81
337.51	102.81
337.738	99.81
337.966	109.81
338.194	112.81
338.422	94.81
338.65	105.81
338.878	94.81
339.106	88.81
339.334	89.81
339.562	90.81
339.79	95.81
340.018	90.81
340.246	82.81
340.474	106.81
340.702	87.81
340.93	100.81
341.158	88.81
341.386	104.81
341.614	110.81
341.842	104.81
342.07	92.81
342.298	90.81
342.526	80.81
342.754	93.81
342.981	87.81
343.209	86.81
343.437	100.81
343.665	89.81
343.893	91.81
344.12	84.81
344.348	102.81
344.576	95.81
344.804	101.81
345.031	110.81
345.259	116.81
345.487	99.81
345.714	108.81
345.942	102.81
346.17	117.81
346.397	95.81
346.625	97.81
346.853	97.81
347.08	108.81
347.308	79.81
347.535	97.81
347.763	88.81
347.99	114.81
348.218	113.81
348.445	94.81
348.673	102.81
348.9	101.81
349.128	86.81
349.355	80.81
349.583	94.81
349.81	85.81
350.037	96.81
350.265	120.81
350.492	85.81
350.72	91.81
350.947	107.81
351.174	105.81
351.402	104.81
351.629	104.81
351.856	93.81
352.083	117.81
352.311	105.81
352.538	131.81
352.765	99.81
352.992	112.81
353.22	105.81
353.447	109.81
353.674	100.81
353.901	106.81
354.128	102.81
354.355	91.81
354.583	95.81
354.81	102.81
355.037	103.81
355.264	98.81
355.491	88.81
355.718	83.81
355.945	87.81
356.172	99.81
356.399	93.81
356.626	92.81
356.853	80.81
357.08	99.81
357.307	97.81
357.534	96.81
357.761	96.81
357.988	89.81
358.215	84.81
358.441	94.81
358.668	96.81
358.895	93.81
359.122	109.81
359.349	86.81
359.576	100.81
359.802	105.81
360.029	110.81
360.256	121.81
360.483	95.81
360.709	95.81
360.936	105.81
361.163	98.81
361.39	105.81
361.616	95.81
361.843	96.81
362.07	98.81
362.296	90.81
362.523	92.81
362.749	95.81
362.976	77.81
363.203	86.81
363.429	83.81
363.656	92.81
363.882	93.81
364.109	85.81
364.335	94.81
364.562	90.81
364.788	97.81
365.015	93.81
365.241	93.81
365.468	116.81
365.694	99.81
365.92	109.81
366.147	80.81
366.373	94.81
366.599	83.81
366.826	78.81
367.052	96.81
367.278	99.81
367.505	86.81
367.731	98.81
367.957	92.81
368.184	89.81
368.41	98.81
368.636	122.81
368.862	134.81
369.089	112.81
369.315	78.81
369.541	97.81
369.767	96.81
369.993	99.81
370.219	104.81
370.445	90.81
370.672	88.81
370.898	96.81
371.124	88.81
371.35	88.81
371.576	96.81
371.802	88.81
372.028	98.81
372.254	102.81
372.48	96.81
372.706	94.81
372.932	80.81
373.158	102.81
373.384	82.81
373.61	95.81
373.835	85.81
374.061	82.81
374.287	92.81
374.513	98.81
374.739	86.81
374.965	74.81
375.191	95.81
375.416	95.81
375.642	105.81
375.868	94.81
376.094	101.81
376.319	98.81
376.545	107.81
376.771	82.81
376.997	84.81
377.222	97.81
377.448	104.81
377.674	101.81
377.899	103.81
378.125	86.81
378.35	86.81
378.576	93.81
378.802	101.81
379.027	84.81
379.253	88.81
379.478	93.81
379.704	107.81
379.929	96.81
380.155	87.81
380.38	104.81
380.606	98.81
380.831	105.81
381.057	109.81
381.282	97.81
381.507	100.81
381.733	85.81
381.958	106.81
382.184	85.81
382.409	103.81
382.634	92.81
382.86	91.81
383.085	101.81
383.31	84.81
383.535	99.81
383.761	102.81
383.986	91.81
384.211	100.81
384.436	103.81
384.662	91.81
384.887	94.81
385.112	114.81
385.337	116.81
385.562	119.81
385.787	103.81
386.013	105.81
386.238	123.81
386.463	92.81
386.688	111.81
386.913	88.81
387.138	91.81
387.363	96.81
387.588	107.81
387.813	104.81
388.038	103.81
388.263	119.81
388.488	108.81
388.713	96.81
388.938	112.81
389.163	86.81
389.387	93.81
389.612	102.81
389.837	95.81
390.062	102.81
390.287	100.81
390.512	89.81
390.736	85.81
390.961	106.81
391.186	100.81
391.411	95.81
391.636	100.81
391.86	97.81
392.085	86.81
392.31	87.81
392.534	89.81
392.759	96.81
392.984	82.81
393.208	93.81
393.433	98.81
393.658	102.81
393.882	86.81
394.107	89.81
394.331	95.81
394.556	104.81
394.78	95.81
395.005	88.81
395.229	93.81
395.454	92.81
395.678	81.81
395.903	92.81
396.127	107.81
396.352	105.81
396.576	91.81
396.801	98.81
397.025	100.81
397.249	80.81
397.474	100.81
397.698	101.81
397.922	88.81
398.147	82.81
398.371	83.81
398.595	102.81
398.82	76.81
399.044	83.81
399.268	76.81
399.492	88.81
399.717	98.81
399.941	93.81
400.165	99.81
400.389	110.81
400.613	84.81
400.837	89.81
401.062	93.81
401.286	88.81
401.51	101.81
401.734	92.81
401.958	87.81
402.182	118.81
402.406	164.81
402.63	124.81
402.854	88.81
403.078	97.81
403.302	94.81
403.526	88.81
403.75	85.81
403.974	91.81
404.198	94.81
404.422	97.81
404.645	82.81
404.869	106.81
405.093	113.81
405.317	134.81
405.541	125.81
405.765	106.81
405.988	125.81
406.212	173.81
406.436	245.81
406.66	152.81
406.883	105.81
407.107	104.81
407.331	89.81
407.555	97.81
407.778	112.81
408.002	106.81
408.226	94.81
408.449	89.81
408.673	86.81
408.896	81.81
409.12	102.81
409.344	73.81
409.567	87.81
409.791	90.81
410.014	102.81
410.238	90.81
410.461	80.81
410.685	103.81
410.908	100.81
411.132	114.81
411.355	102.81
411.578	103.81
411.802	84.81
412.025	92.81
412.249	108.81
412.472	110.81
412.695	117.81
412.919	108.81
413.142	96.81
413.365	84.81
413.589	79.81
413.812	94.81
414.035	93.81
414.258	85.81
414.482	93.81
414.705	89.81
414.928	83.81
415.151	101.81
415.374	91.81
415.597	92.81
415.821	91.81
416.044	101.81
416.267	93.81
416.49	93.81
416.713	92.81
416.936	95.81
417.159	86.81
417.382	92.81
417.605	100.81
417.828	115.81
418.051	101.81
418.274	89.81
418.497	80.81
418.72	95.81
418.943	94.81
419.166	96.81
419.389	103.81
419.611	94.81
419.834	94.81
420.057	93.81
420.28	96.81
420.503	94.81
420.726	87.81
420.948	98.81
421.171	86.81
421.394	94.81
421.617	91.81
421.839	85.81
422.062	94.81
422.285	94.81
422.507	92.81
422.73	113.81
422.953	91.81
423.175	95.81
423.398	97.81
423.621	105.81
423.843	88.81
424.066	90.81
424.288	86.81
424.511	93.81
424.733	105.81
424.956	109.81
425.178	101.81
425.401	99.81
425.623	101.81
425.846	86.81
426.068	89.81
426.291	120.81
426.513	91.81
426.735	87.81
426.958	118.81
427.18	104.81
427.402	162.81
427.625	205.81
427.847	191.81
428.069	189.81
428.292	105.81
428.514	97.81
428.736	94.81
428.958	80.81
429.181	82.81
429.403	81.81
429.625	100.81
429.847	108.81
430.069	110.81
430.292	99.81
430.514	80.81
430.736	86.81
430.958	92.81
431.18	87.81
431.402	87.81
431.624	87.81
431.846	85.81
432.068	92.81
432.29	98.81
432.512	91.81
432.734	93.81
432.956	90.81
433.178	102.81
433.4	88.81
433.622	102.81
433.844	109.81
434.066	94.81
434.287	86.81
434.509	80.81
434.731	87.81
434.953	103.81
435.175	98.81
435.397	93.81
435.618	88.81
435.84	109.81
436.062	134.81
436.284	117.81
436.505	92.81
436.727	107.81
436.949	99.81
437.17	102.81
437.392	93.81
437.614	117.81
437.835	111.81
438.057	128.81
438.278	126.81
438.5	85.81
438.721	121.81
438.943	100.81
439.165	95.81
439.386	100.81
439.608	99.81
439.829	109.81
440.05	132.81
440.272	152.81
440.493	103.81
440.715	76.81
440.936	96.81
441.158	86.81
441.379	90.81
441.6	106.81
441.822	96.81
442.043	88.81
442.264	104.81
442.486	102.81
442.707	101.81
442.928	112.81
443.149	152.81
443.371	133.81
443.592	121.81
443.813	126.81
444.034	114.81
444.255	98.81
444.476	101.81
444.698	96.81
444.919	86.81
445.14	126.81
445.361	126.81
445.582	117.81
445.803	134.81
446.024	142.81
446.245	159.81
446.466	118.81
446.687	105.81
446.908	86.81
447.129	83.81
447.35	91.81
447.571	102.81
447.792	94.81
448.013	102.81
448.234	109.81
448.455	105.81
448.675	123.81
448.896	130.81
449.117	119.81
449.338	112.81
449.559	133.81
449.779	168.81
450	101.81
450.221	90.81
450.442	95.81
450.662	110.81
450.883	103.81
451.104	118.81
451.324	95.81
451.545	102.81
451.766	99.81
451.986	81.81
452.207	90.81
452.428	101.81
452.648	105.81
452.869	112.81
453.089	120.81
453.31	124.81
453.53	95.81
453.751	97.81
453.971	107.81
454.192	119.81
454.412	96.81
454.633	105.81
454.853	95.81
455.073	93.81
455.294	100.81
455.514	92.81
455.734	93.81
455.955	88.81
456.175	96.81
456.395	79.81
456.616	92.81
456.836	98.81
457.056	94.81
457.276	83.81
457.497	84.81
457.717	92.81
457.937	87.81
458.157	102.81
458.377	84.81
458.598	110.81
458.818	175.81
459.038	186.81
459.258	119.81
459.478	96.81
459.698	84.81
459.918	90.81
460.138	83.81
460.358	78.81
460.578	87.81
460.798	91.81
461.018	95.81
461.238	101.81
461.458	84.81
461.678	89.81
461.898	81.81
462.118	79.81
462.338	92.81
462.558	86.81
462.777	89.81
462.997	90.81
463.217	113.81
463.437	79.81
463.657	76.81
463.876	85.81
464.096	76.81
464.316	86.81
464.536	81.81
464.755	90.81
464.975	115.81
465.195	180.81
465.414	177.81
465.634	98.81
465.854	94.81
466.073	86.81
466.293	112.81
466.512	101.81
466.732	89.81
466.951	92.81
467.171	85.81
467.391	93.81
467.61	124.81
467.829	162.81
468.049	302.81
468.268	430.81
468.488	145.81
468.707	94.81
468.927	92.81
469.146	84.81
469.365	88.81
469.585	94.81
469.804	112.81
470.023	98.81
470.243	97.81
470.462	111.81
470.681	125.81
470.901	85.81
471.12	99.81
471.339	106.81
471.558	108.81
471.777	121.81
471.997	192.81
472.216	604.81
472.435	1202.81
472.654	326.81
472.873	124.81
473.092	109.81
473.311	98.81
473.53	95.81
473.749	109.81
473.968	115.81
474.187	110.81
474.406	94.81
474.625	91.81
474.844	88.81
475.063	87.81
475.282	83.81
475.501	90.81
475.72	92.81
475.939	95.81
476.158	87.81
476.377	84.81
476.596	103.81
476.814	96.81
477.033	99.81
477.252	84.81
477.471	83.81
477.69	89.81
477.908	94.81
478.127	102.81
478.346	93.81
478.564	90.81
478.783	101.81
479.002	106.81
479.22	102.81
479.439	113.81
479.658	109.81
479.876	119.81
480.095	94.81
480.313	108.81
480.532	129.81
480.751	168.81
480.969	564.81
481.188	2133.81
481.406	1250.81
481.624	222.81
481.843	118.81
482.061	98.81
482.28	103.81
482.498	97.81
482.717	83.81
482.935	84.81
483.153	101.81
483.372	92.81
483.59	96.81
483.808	89.81
484.027	83.81
484.245	92.81
484.463	86.81
484.681	101.81
484.9	97.81
485.118	103.81
485.336	89.81
485.554	96.81
485.772	104.81
485.99	100.81
486.209	110.81
486.427	113.81
486.645	110.81
486.863	103.81
487.081	110.81
487.299	110.81
487.517	106.81
487.735	98.81
487.953	102.81
488.171	84.81
488.389	97.81
488.607	103.81
488.825	101.81
489.043	94.81
489.261	98.81
489.479	82.81
489.696	80.81
489.914	100.81
490.132	89.81
490.35	93.81
490.568	93.81
490.786	97.81
491.003	107.81
491.221	84.81
491.439	82.81
491.657	90.81
491.874	105.81
492.092	98.81
492.31	86.81
492.527	79.81
492.745	96.81
492.963	90.81
493.18	92.81
493.398	93.81
493.615	97.81
493.833	103.81
494.05	86.81
494.268	85.81
494.485	96.81
494.703	95.81
494.92	88.81
495.138	96.81
495.355	74.81
495.573	82.81
495.79	94.81
496.008	86.81
496.225	96.81
496.442	104.81
496.66	93.81
496.877	82.81
497.094	94.81
497.312	99.81
497.529	90.81
497.746	95.81
497.963	94.81
498.181	97.81
498.398	99.81
498.615	116.81
498.832	96.81
499.049	90.81
499.267	94.81
499.484	101.81
499.701	96.81
499.918	91.81
500.135	81.81
500.352	89.81
500.569	91.81
500.786	91.81
501.003	90.81
501.22	86.81
501.437	86.81
501.654	98.81
501.871	105.81
502.088	101.81
502.305	93.81
502.522	92.81
502.739	79.81
502.956	86.81
503.172	97.81
503.389	110.81
503.606	111.81
503.823	99.81
504.04	80.81
504.256	84.81
504.473	93.81
504.69	82.81
504.907	94.81
505.123	84.81
505.34	88.81
505.557	73.81
505.773	80.81
505.99	88.81
506.207	96.81
506.423	97.81
506.64	84.81
506.856	104.81
507.073	88.81
507.289	83.81
507.506	102.81
507.722	114.81
507.939	120.81
508.155	91.81
508.372	92.81
508.588	99.81
508.805	101.81
509.021	95.81
509.238	81.81
509.454	98.81
509.67	95.81
509.887	106.81
510.103	130.81
510.319	205.81
510.536	751.81
510.752	2441.81
510.968	664.81
511.184	140.81
511.401	111.81
511.617	94.81
511.833	105.81
512.049	95.81
512.265	87.81
512.481	81.81
512.698	87.81
512.914	96.81
513.13	94.81
513.346	94.81
513.562	97.81
