Data from Circ_1991_H10_HRD10591_00020.txt Node
Date: Wed Jan 03 11:51:45 EST 2024
User: Yrep
Spectrometer: HR+D1059
Trigger mode: 1
Integration Time (sec): 1.000000E-1
Scans to average: 1
Electric dark correction enabled: true
Nonlinearity correction enabled: false
Boxcar width: 0
XAxis mode: Wavelengths
Number of Pixels in Spectrum: 2048
>>>>>Begin Spectral Data<<<<<
223.165	-15.44
223.4	-15.44
223.635	-15.44
223.869	-19.44
224.104	-18.44
224.338	-24.44
224.573	-8.44
224.808	-23.44
225.042	-9.44
225.277	-6.44
225.511	4.56
225.746	10.56
225.98	13.56
226.215	10.56
226.449	15.56
226.683	23.56
226.918	18.56
227.152	28.56
227.387	37.56
227.621	34.56
227.856	41.56
228.09	47.56
228.324	66.56
228.559	58.56
228.793	44.56
229.027	74.56
229.262	67.56
229.496	84.56
229.73	78.56
229.964	77.56
230.199	81.56
230.433	64.56
230.667	74.56
230.901	92.56
231.136	77.56
231.37	82.56
231.604	92.56
231.838	82.56
232.072	82.56
232.306	86.56
232.541	85.56
232.775	75.56
233.009	81.56
233.243	90.56
233.477	74.56
233.711	86.56
233.945	100.56
234.179	70.56
234.413	68.56
234.647	98.56
234.881	75.56
235.115	89.56
235.349	94.56
235.583	79.56
235.817	68.56
236.051	83.56
236.285	76.56
236.519	81.56
236.753	95.56
236.987	103.56
237.221	92.56
237.455	82.56
237.689	67.56
237.922	65.56
238.156	93.56
238.39	89.56
238.624	79.56
238.858	74.56
239.091	82.56
239.325	66.56
239.559	85.56
239.793	79.56
240.027	80.56
240.26	77.56
240.494	87.56
240.728	81.56
240.961	81.56
241.195	95.56
241.429	86.56
241.662	79.56
241.896	81.56
242.13	79.56
242.363	78.56
242.597	82.56
242.83	86.56
243.064	81.56
243.298	84.56
243.531	79.56
243.765	84.56
243.998	90.56
244.232	70.56
244.465	84.56
244.699	96.56
244.932	83.56
245.166	77.56
245.399	83.56
245.633	85.56
245.866	77.56
246.099	81.56
246.333	85.56
246.566	79.56
246.8	77.56
247.033	71.56
247.266	78.56
247.5	67.56
247.733	91.56
247.966	87.56
248.2	90.56
248.433	87.56
248.666	69.56
248.899	78.56
249.133	94.56
249.366	107.56
249.599	106.56
249.832	92.56
250.066	94.56
250.299	86.56
250.532	83.56
250.765	90.56
250.998	82.56
251.231	89.56
251.465	78.56
251.698	80.56
251.931	83.56
252.164	80.56
252.397	84.56
252.63	67.56
252.863	93.56
253.096	100.56
253.329	78.56
253.562	87.56
253.795	90.56
254.028	86.56
254.261	75.56
254.494	86.56
254.727	81.56
254.96	82.56
255.193	82.56
255.426	74.56
255.659	75.56
255.892	85.56
256.124	80.56
256.357	91.56
256.59	79.56
256.823	76.56
257.056	78.56
257.289	84.56
257.521	88.56
257.754	80.56
257.987	91.56
258.22	81.56
258.452	78.56
258.685	88.56
258.918	86.56
259.151	81.56
259.383	91.56
259.616	93.56
259.849	82.56
260.081	86.56
260.314	74.56
260.547	81.56
260.779	87.56
261.012	68.56
261.244	92.56
261.477	87.56
261.71	88.56
261.942	104.56
262.175	113.56
262.407	98.56
262.64	94.56
262.872	83.56
263.105	82.56
263.337	84.56
263.57	93.56
263.802	62.56
264.035	91.56
264.267	89.56
264.499	78.56
264.732	100.56
264.964	75.56
265.197	74.56
265.429	88.56
265.661	85.56
265.894	74.56
266.126	84.56
266.358	90.56
266.591	92.56
266.823	75.56
267.055	86.56
267.287	71.56
267.52	72.56
267.752	92.56
267.984	91.56
268.216	81.56
268.448	90.56
268.681	82.56
268.913	82.56
269.145	78.56
269.377	91.56
269.609	89.56
269.841	78.56
270.073	75.56
270.306	74.56
270.538	88.56
270.77	74.56
271.002	96.56
271.234	92.56
271.466	96.56
271.698	90.56
271.93	87.56
272.162	81.56
272.394	93.56
272.626	98.56
272.858	93.56
273.09	88.56
273.322	86.56
273.553	69.56
273.785	96.56
274.017	79.56
274.249	68.56
274.481	79.56
274.713	87.56
274.945	84.56
275.176	86.56
275.408	82.56
275.64	86.56
275.872	98.56
276.104	89.56
276.335	75.56
276.567	96.56
276.799	103.56
277.031	99.56
277.262	97.56
277.494	95.56
277.726	80.56
277.957	99.56
278.189	82.56
278.421	86.56
278.652	84.56
278.884	76.56
279.115	87.56
279.347	98.56
279.579	90.56
279.81	92.56
280.042	85.56
280.273	90.56
280.505	96.56
280.736	93.56
280.968	70.56
281.199	87.56
281.431	92.56
281.662	92.56
281.894	93.56
282.125	108.56
282.356	116.56
282.588	131.56
282.819	112.56
283.051	93.56
283.282	93.56
283.513	83.56
283.745	85.56
283.976	86.56
284.207	77.56
284.439	89.56
284.67	96.56
284.901	91.56
285.132	94.56
285.364	93.56
285.595	99.56
285.826	87.56
286.057	84.56
286.288	88.56
286.52	102.56
286.751	93.56
286.982	86.56
287.213	96.56
287.444	84.56
287.675	84.56
287.906	90.56
288.138	87.56
288.369	98.56
288.6	91.56
288.831	91.56
289.062	74.56
289.293	84.56
289.524	99.56
289.755	83.56
289.986	86.56
290.217	84.56
290.448	92.56
290.679	84.56
290.91	98.56
291.141	89.56
291.371	81.56
291.602	80.56
291.833	76.56
292.064	82.56
292.295	90.56
292.526	97.56
292.757	95.56
292.987	95.56
293.218	87.56
293.449	85.56
293.68	88.56
293.91	91.56
294.141	98.56
294.372	81.56
294.603	95.56
294.833	102.56
295.064	85.56
295.295	94.56
295.525	81.56
295.756	103.56
295.987	99.56
296.217	123.56
296.448	122.56
296.679	104.56
296.909	99.56
297.14	87.56
297.37	87.56
297.601	98.56
297.831	91.56
298.062	93.56
298.292	80.56
298.523	99.56
298.753	79.56
298.984	96.56
299.214	86.56
299.445	93.56
299.675	100.56
299.905	96.56
300.136	90.56
300.366	83.56
300.597	89.56
300.827	102.56
301.057	92.56
301.288	99.56
301.518	105.56
301.748	94.56
301.979	101.56
302.209	89.56
302.439	95.56
302.669	81.56
302.9	86.56
303.13	86.56
303.36	82.56
303.59	96.56
303.82	98.56
304.051	70.56
304.281	86.56
304.511	101.56
304.741	76.56
304.971	87.56
305.201	107.56
305.431	83.56
305.661	87.56
305.891	87.56
306.121	94.56
306.352	99.56
306.582	108.56
306.812	93.56
307.042	91.56
307.272	91.56
307.502	102.56
307.731	111.56
307.961	90.56
308.191	103.56
308.421	104.56
308.651	90.56
308.881	100.56
309.111	87.56
309.341	92.56
309.571	100.56
309.8	95.56
310.03	86.56
310.26	93.56
310.49	85.56
310.72	104.56
310.949	100.56
311.179	94.56
311.409	104.56
311.639	91.56
311.868	84.56
312.098	99.56
312.328	97.56
312.557	97.56
312.787	107.56
313.017	102.56
313.246	94.56
313.476	87.56
313.706	82.56
313.935	103.56
314.165	96.56
314.394	85.56
314.624	91.56
314.853	96.56
315.083	103.56
315.312	87.56
315.542	99.56
315.771	92.56
316.001	94.56
316.23	84.56
316.46	93.56
316.689	96.56
316.919	88.56
317.148	94.56
317.377	103.56
317.607	100.56
317.836	92.56
318.065	77.56
318.295	84.56
318.524	82.56
318.753	103.56
318.983	87.56
319.212	96.56
319.441	102.56
319.67	113.56
319.9	96.56
320.129	86.56
320.358	98.56
320.587	93.56
320.816	91.56
321.046	93.56
321.275	99.56
321.504	84.56
321.733	83.56
321.962	94.56
322.191	98.56
322.42	97.56
322.649	117.56
322.878	115.56
323.108	114.56
323.337	107.56
323.566	131.56
323.795	147.56
324.024	174.56
324.253	330.56
324.482	679.56
324.71	1418.56
324.939	1914.56
325.168	718.56
325.397	229.56
325.626	130.56
325.855	123.56
326.084	118.56
326.313	126.56
326.542	148.56
326.77	198.56
326.999	383.56
327.228	813.56
327.457	1452.56
327.686	1174.56
327.914	334.56
328.143	210.56
328.372	199.56
328.6	153.56
328.829	124.56
329.058	116.56
329.287	112.56
329.515	106.56
329.744	103.56
329.972	140.56
330.201	220.56
330.43	260.56
330.658	172.56
330.887	146.56
331.115	122.56
331.344	95.56
331.572	89.56
331.801	90.56
332.03	99.56
332.258	87.56
332.486	89.56
332.715	112.56
332.943	94.56
333.172	99.56
333.4	113.56
333.629	112.56
333.857	117.56
334.085	139.56
334.314	210.56
334.542	322.56
334.771	295.56
334.999	137.56
335.227	102.56
335.455	84.56
335.684	111.56
335.912	94.56
336.14	94.56
336.369	102.56
336.597	105.56
336.825	90.56
337.053	95.56
337.281	86.56
337.51	83.56
337.738	87.56
337.966	94.56
338.194	98.56
338.422	95.56
338.65	90.56
338.878	92.56
339.106	92.56
339.334	88.56
339.562	87.56
339.79	98.56
340.018	91.56
340.246	84.56
340.474	98.56
340.702	89.56
340.93	88.56
341.158	90.56
341.386	112.56
341.614	89.56
341.842	102.56
342.07	88.56
342.298	87.56
342.526	94.56
342.754	92.56
342.981	86.56
343.209	94.56
343.437	92.56
343.665	86.56
343.893	84.56
344.12	77.56
344.348	89.56
344.576	81.56
344.804	90.56
345.031	97.56
345.259	100.56
345.487	79.56
345.714	93.56
345.942	79.56
346.17	96.56
346.397	83.56
346.625	92.56
346.853	99.56
347.08	91.56
347.308	78.56
347.535	90.56
347.763	97.56
347.99	81.56
348.218	102.56
348.445	103.56
348.673	103.56
348.9	102.56
349.128	101.56
349.355	92.56
349.583	94.56
349.81	103.56
350.037	95.56
350.265	90.56
350.492	92.56
350.72	89.56
350.947	91.56
351.174	94.56
351.402	109.56
351.629	101.56
351.856	99.56
352.083	107.56
352.311	95.56
352.538	109.56
352.765	111.56
352.992	116.56
353.22	115.56
353.447	93.56
353.674	87.56
353.901	103.56
354.128	99.56
354.355	91.56
354.583	98.56
354.81	98.56
355.037	95.56
355.264	96.56
355.491	103.56
355.718	83.56
355.945	90.56
356.172	92.56
356.399	104.56
356.626	86.56
356.853	108.56
357.08	111.56
357.307	95.56
357.534	97.56
357.761	84.56
357.988	86.56
358.215	93.56
358.441	98.56
358.668	100.56
358.895	94.56
359.122	94.56
359.349	98.56
359.576	102.56
359.802	96.56
360.029	101.56
360.256	93.56
360.483	100.56
360.709	84.56
360.936	84.56
361.163	99.56
361.39	85.56
361.616	94.56
361.843	90.56
362.07	101.56
362.296	88.56
362.523	84.56
362.749	83.56
362.976	91.56
363.203	85.56
363.429	92.56
363.656	81.56
363.882	95.56
364.109	77.56
364.335	89.56
364.562	76.56
364.788	77.56
365.015	101.56
365.241	99.56
365.468	103.56
365.694	105.56
365.92	104.56
366.147	84.56
366.373	83.56
366.599	88.56
366.826	87.56
367.052	80.56
367.278	77.56
367.505	86.56
367.731	80.56
367.957	86.56
368.184	87.56
368.41	76.56
368.636	102.56
368.862	116.56
369.089	107.56
369.315	91.56
369.541	85.56
369.767	86.56
369.993	99.56
370.219	101.56
370.445	101.56
370.672	82.56
370.898	76.56
371.124	87.56
371.35	90.56
371.576	82.56
371.802	83.56
372.028	78.56
372.254	79.56
372.48	80.56
372.706	100.56
372.932	99.56
373.158	85.56
373.384	83.56
373.61	100.56
373.835	86.56
374.061	95.56
374.287	91.56
374.513	85.56
374.739	96.56
374.965	90.56
375.191	82.56
375.416	88.56
375.642	89.56
375.868	96.56
376.094	90.56
376.319	94.56
376.545	90.56
376.771	91.56
376.997	102.56
377.222	81.56
377.448	90.56
377.674	94.56
377.899	92.56
378.125	93.56
378.35	100.56
378.576	93.56
378.802	95.56
379.027	97.56
379.253	106.56
379.478	85.56
379.704	99.56
379.929	95.56
380.155	91.56
380.38	113.56
380.606	110.56
380.831	97.56
381.057	103.56
381.282	94.56
381.507	90.56
381.733	111.56
381.958	100.56
382.184	92.56
382.409	104.56
382.634	112.56
382.86	104.56
383.085	88.56
383.31	99.56
383.535	103.56
383.761	93.56
383.986	118.56
384.211	112.56
384.436	106.56
384.662	108.56
384.887	112.56
385.112	110.56
385.337	101.56
385.562	116.56
385.787	118.56
386.013	114.56
386.238	120.56
386.463	117.56
386.688	100.56
386.913	106.56
387.138	117.56
387.363	98.56
387.588	102.56
387.813	109.56
388.038	131.56
388.263	123.56
388.488	119.56
388.713	100.56
388.938	93.56
389.163	92.56
389.387	98.56
389.612	83.56
389.837	86.56
390.062	96.56
390.287	94.56
390.512	91.56
390.736	98.56
390.961	106.56
391.186	99.56
391.411	102.56
391.636	102.56
391.86	92.56
392.085	87.56
392.31	97.56
392.534	88.56
392.759	82.56
392.984	107.56
393.208	129.56
393.433	196.56
393.658	163.56
393.882	84.56
394.107	78.56
394.331	90.56
394.556	90.56
394.78	90.56
395.005	68.56
395.229	84.56
395.454	97.56
395.678	88.56
395.903	91.56
396.127	100.56
396.352	100.56
396.576	99.56
396.801	117.56
397.025	154.56
397.249	98.56
397.474	98.56
397.698	90.56
397.922	82.56
398.147	82.56
398.371	87.56
398.595	89.56
398.82	84.56
399.044	82.56
399.268	84.56
399.492	91.56
399.717	67.56
399.941	76.56
400.165	78.56
400.389	85.56
400.613	97.56
400.837	94.56
401.062	79.56
401.286	87.56
401.51	83.56
401.734	97.56
401.958	87.56
402.182	118.56
402.406	142.56
402.63	109.56
402.854	95.56
403.078	84.56
403.302	71.56
403.526	86.56
403.75	77.56
403.974	102.56
404.198	86.56
404.422	80.56
404.645	88.56
404.869	87.56
405.093	99.56
405.317	103.56
405.541	84.56
405.765	109.56
405.988	103.56
406.212	158.56
406.436	199.56
406.66	131.56
406.883	90.56
407.107	91.56
407.331	90.56
407.555	95.56
407.778	101.56
408.002	85.56
408.226	84.56
408.449	91.56
408.673	69.56
408.896	89.56
409.12	98.56
409.344	79.56
409.567	89.56
409.791	79.56
410.014	94.56
410.238	92.56
410.461	84.56
410.685	109.56
410.908	97.56
411.132	91.56
411.355	97.56
411.578	76.56
411.802	84.56
412.025	91.56
412.249	92.56
412.472	94.56
412.695	108.56
412.919	74.56
413.142	83.56
413.365	97.56
413.589	87.56
413.812	77.56
414.035	98.56
414.258	80.56
414.482	93.56
414.705	76.56
414.928	90.56
415.151	96.56
415.374	87.56
415.597	94.56
415.821	80.56
416.044	96.56
416.267	96.56
416.49	95.56
416.713	80.56
416.936	80.56
417.159	88.56
417.382	98.56
417.605	85.56
417.828	90.56
418.051	96.56
418.274	90.56
418.497	89.56
418.72	79.56
418.943	91.56
419.166	91.56
419.389	83.56
419.611	94.56
419.834	92.56
420.057	80.56
420.28	94.56
420.503	82.56
420.726	82.56
420.948	102.56
421.171	102.56
421.394	92.56
421.617	104.56
421.839	87.56
422.062	84.56
422.285	76.56
422.507	100.56
422.73	99.56
422.953	103.56
423.175	87.56
423.398	95.56
423.621	88.56
423.843	100.56
424.066	92.56
424.288	93.56
424.511	81.56
424.733	86.56
424.956	90.56
425.178	94.56
425.401	100.56
425.623	101.56
425.846	88.56
426.068	90.56
426.291	104.56
426.513	92.56
426.735	82.56
426.958	90.56
427.18	100.56
427.402	134.56
427.625	143.56
427.847	135.56
428.069	126.56
428.292	97.56
428.514	76.56
428.736	86.56
428.958	91.56
429.181	75.56
429.403	92.56
429.625	98.56
429.847	88.56
430.069	95.56
430.292	79.56
430.514	83.56
430.736	82.56
430.958	102.56
431.18	94.56
431.402	93.56
431.624	84.56
431.846	84.56
432.068	91.56
432.29	92.56
432.512	88.56
432.734	88.56
432.956	90.56
433.178	111.56
433.4	101.56
433.622	92.56
433.844	95.56
434.066	89.56
434.287	82.56
434.509	89.56
434.731	88.56
434.953	91.56
435.175	96.56
435.397	93.56
435.618	95.56
435.84	97.56
436.062	107.56
436.284	116.56
436.505	98.56
436.727	94.56
436.949	107.56
437.17	87.56
437.392	100.56
437.614	86.56
437.835	94.56
438.057	101.56
438.278	80.56
438.5	99.56
438.721	107.56
438.943	102.56
439.165	90.56
439.386	98.56
439.608	93.56
439.829	98.56
440.05	119.56
440.272	149.56
440.493	99.56
440.715	91.56
440.936	98.56
441.158	83.56
441.379	98.56
441.6	79.56
441.822	95.56
442.043	91.56
442.264	92.56
442.486	103.56
442.707	88.56
442.928	95.56
443.149	97.56
443.371	124.56
443.592	101.56
443.813	106.56
444.034	96.56
444.255	92.56
444.476	83.56
444.698	82.56
444.919	94.56
445.14	117.56
445.361	109.56
445.582	113.56
445.803	135.56
446.024	124.56
446.245	141.56
446.466	106.56
446.687	101.56
446.908	68.56
447.129	96.56
447.35	94.56
447.571	100.56
447.792	83.56
448.013	97.56
448.234	101.56
448.455	91.56
448.675	115.56
448.896	109.56
449.117	107.56
449.338	102.56
449.559	116.56
449.779	132.56
450	90.56
450.221	103.56
450.442	90.56
450.662	94.56
450.883	96.56
451.104	102.56
451.324	93.56
451.545	89.56
451.766	85.56
451.986	83.56
452.207	86.56
452.428	76.56
452.648	94.56
452.869	95.56
453.089	110.56
453.31	99.56
453.53	100.56
453.751	86.56
453.971	102.56
454.192	95.56
454.412	94.56
454.633	94.56
454.853	92.56
455.073	84.56
455.294	92.56
455.514	104.56
455.734	80.56
455.955	83.56
456.175	89.56
456.395	86.56
456.616	76.56
456.836	85.56
457.056	88.56
457.276	78.56
457.497	93.56
457.717	79.56
457.937	77.56
458.157	71.56
458.377	106.56
458.598	112.56
458.818	132.56
459.038	144.56
459.258	108.56
459.478	86.56
459.698	92.56
459.918	78.56
460.138	74.56
460.358	82.56
460.578	79.56
460.798	98.56
461.018	100.56
461.238	80.56
461.458	87.56
461.678	85.56
461.898	80.56
462.118	74.56
462.338	77.56
462.558	88.56
462.777	89.56
462.997	94.56
463.217	84.56
463.437	91.56
463.657	95.56
463.876	84.56
464.096	75.56
464.316	88.56
464.536	88.56
464.755	103.56
464.975	104.56
465.195	146.56
465.414	144.56
465.634	96.56
465.854	88.56
466.073	80.56
466.293	82.56
466.512	88.56
466.732	96.56
466.951	90.56
467.171	103.56
467.391	93.56
467.61	108.56
467.829	102.56
468.049	154.56
468.268	191.56
468.488	106.56
468.707	82.56
468.927	85.56
469.146	95.56
469.365	80.56
469.585	103.56
469.804	96.56
470.023	99.56
470.243	82.56
470.462	104.56
470.681	104.56
470.901	87.56
471.12	86.56
471.339	84.56
471.558	81.56
471.777	85.56
471.997	114.56
472.216	254.56
472.435	426.56
472.654	157.56
472.873	103.56
473.092	88.56
473.311	78.56
473.53	86.56
473.749	85.56
473.968	88.56
474.187	101.56
474.406	96.56
474.625	93.56
474.844	76.56
475.063	92.56
475.282	90.56
475.501	85.56
475.72	78.56
475.939	78.56
476.158	75.56
476.377	78.56
476.596	90.56
476.814	90.56
477.033	101.56
477.252	93.56
477.471	82.56
477.69	90.56
477.908	96.56
478.127	109.56
478.346	88.56
478.564	77.56
478.783	93.56
479.002	88.56
479.22	79.56
479.439	102.56
479.658	86.56
479.876	80.56
480.095	89.56
480.313	92.56
480.532	100.56
480.751	127.56
480.969	229.56
481.188	740.56
481.406	440.56
481.624	126.56
481.843	90.56
482.061	89.56
482.28	95.56
482.498	88.56
482.717	91.56
482.935	87.56
483.153	98.56
483.372	86.56
483.59	103.56
483.808	90.56
484.027	86.56
484.245	95.56
484.463	100.56
484.681	90.56
484.9	82.56
485.118	101.56
485.336	93.56
485.554	77.56
485.772	98.56
485.99	100.56
486.209	99.56
486.427	111.56
486.645	102.56
486.863	109.56
487.081	104.56
487.299	94.56
487.517	101.56
487.735	94.56
487.953	84.56
488.171	100.56
488.389	102.56
488.607	91.56
488.825	91.56
489.043	95.56
489.261	110.56
489.479	90.56
489.696	97.56
489.914	94.56
490.132	95.56
490.35	90.56
490.568	87.56
490.786	86.56
491.003	82.56
491.221	93.56
491.439	82.56
491.657	84.56
491.874	86.56
492.092	99.56
492.31	95.56
492.527	86.56
492.745	76.56
492.963	99.56
493.18	82.56
493.398	84.56
493.615	97.56
493.833	96.56
494.05	91.56
494.268	86.56
494.485	94.56
494.703	88.56
494.92	96.56
495.138	88.56
495.355	90.56
495.573	91.56
495.79	71.56
496.008	107.56
496.225	86.56
496.442	74.56
496.66	89.56
496.877	95.56
497.094	92.56
497.312	99.56
497.529	98.56
497.746	97.56
497.963	76.56
498.181	78.56
498.398	78.56
498.615	110.56
498.832	91.56
499.049	89.56
499.267	97.56
499.484	101.56
499.701	101.56
499.918	94.56
500.135	95.56
500.352	98.56
500.569	88.56
500.786	81.56
501.003	86.56
501.22	87.56
501.437	101.56
501.654	89.56
501.871	107.56
502.088	83.56
502.305	91.56
502.522	92.56
502.739	88.56
502.956	79.56
503.172	97.56
503.389	106.56
503.606	102.56
503.823	95.56
504.04	89.56
504.256	88.56
504.473	78.56
504.69	89.56
504.907	93.56
505.123	93.56
505.34	84.56
505.557	89.56
505.773	85.56
505.99	84.56
506.207	76.56
506.423	85.56
506.64	84.56
506.856	89.56
507.073	94.56
507.289	96.56
507.506	85.56
507.722	108.56
507.939	106.56
508.155	102.56
508.372	91.56
508.588	90.56
508.805	92.56
509.021	78.56
509.238	93.56
509.454	113.56
509.67	94.56
509.887	114.56
510.103	112.56
510.319	204.56
510.536	602.56
510.752	1916.56
510.968	534.56
511.184	123.56
511.401	117.56
511.617	91.56
511.833	88.56
512.049	92.56
512.265	84.56
512.481	86.56
512.698	87.56
512.914	87.56
513.13	90.56
513.346	84.56
513.562	83.56
513.778	87.56
513.994	96.56
514.21	104.56
514.426	115.56
514.642	117.56
514.858	111.56
515.074	147.56
515.29	343.56
515.506	1116.56
