Data from Circ_1991_H10_HRD10591_00016.txt Node
Date: Wed Jan 03 11:51:44 EST 2024
User: Yrep
Spectrometer: HR+D1059
Trigger mode: 1
Integration Time (sec): 1.000000E-1
Scans to average: 1
Electric dark correction enabled: true
Nonlinearity correction enabled: false
Boxcar width: 0
XAxis mode: Wavelengths
Number of Pixels in Spectrum: 2048
>>>>>Begin Spectral Data<<<<<
223.165	-18.25
223.4	-18.25
223.635	-18.25
223.869	-24.25
224.104	-17.25
224.338	0.75
224.573	-22.25
224.808	-17.25
225.042	0.75
225.277	-22.25
225.511	-12.25
225.746	3.75
225.98	-1.25
226.215	17.75
226.449	9.75
226.683	27.75
226.918	36.75
227.152	37.75
227.387	43.75
227.621	35.75
227.856	43.75
228.09	55.75
228.324	31.75
228.559	52.75
228.793	55.75
229.027	77.75
229.262	67.75
229.496	73.75
229.73	73.75
229.964	89.75
230.199	60.75
230.433	70.75
230.667	90.75
230.901	83.75
231.136	90.75
231.37	81.75
231.604	77.75
231.838	79.75
232.072	83.75
232.306	75.75
232.541	69.75
232.775	85.75
233.009	77.75
233.243	84.75
233.477	82.75
233.711	85.75
233.945	79.75
234.179	81.75
234.413	86.75
234.647	86.75
234.881	67.75
235.115	78.75
235.349	81.75
235.583	72.75
235.817	87.75
236.051	91.75
236.285	86.75
236.519	82.75
236.753	75.75
236.987	65.75
237.221	71.75
237.455	77.75
237.689	82.75
237.922	75.75
238.156	79.75
238.39	84.75
238.624	71.75
238.858	73.75
239.091	81.75
239.325	87.75
239.559	75.75
239.793	63.75
240.027	68.75
240.26	86.75
240.494	84.75
240.728	79.75
240.961	69.75
241.195	67.75
241.429	75.75
241.662	84.75
241.896	75.75
242.13	84.75
242.363	77.75
242.597	62.75
242.83	71.75
243.064	79.75
243.298	79.75
243.531	73.75
243.765	88.75
243.998	77.75
244.232	82.75
244.465	84.75
244.699	84.75
244.932	81.75
245.166	84.75
245.399	74.75
245.633	63.75
245.866	85.75
246.099	87.75
246.333	71.75
246.566	84.75
246.8	82.75
247.033	93.75
247.266	71.75
247.5	74.75
247.733	80.75
247.966	90.75
248.2	77.75
248.433	86.75
248.666	66.75
248.899	78.75
249.133	81.75
249.366	87.75
249.599	90.75
249.832	86.75
250.066	84.75
250.299	91.75
250.532	89.75
250.765	79.75
250.998	85.75
251.231	79.75
251.465	74.75
251.698	77.75
251.931	76.75
252.164	67.75
252.397	65.75
252.63	93.75
252.863	88.75
253.096	77.75
253.329	62.75
253.562	83.75
253.795	73.75
254.028	81.75
254.261	88.75
254.494	72.75
254.727	78.75
254.96	77.75
255.193	82.75
255.426	82.75
255.659	83.75
255.892	77.75
256.124	81.75
256.357	98.75
256.59	79.75
256.823	71.75
257.056	81.75
257.289	68.75
257.521	78.75
257.754	76.75
257.987	94.75
258.22	82.75
258.452	83.75
258.685	73.75
258.918	97.75
259.151	81.75
259.383	78.75
259.616	65.75
259.849	82.75
260.081	82.75
260.314	89.75
260.547	87.75
260.779	85.75
261.012	81.75
261.244	98.75
261.477	99.75
261.71	82.75
261.942	89.75
262.175	110.75
262.407	100.75
262.64	85.75
262.872	81.75
263.105	78.75
263.337	79.75
263.57	90.75
263.802	81.75
264.035	82.75
264.267	93.75
264.499	77.75
264.732	67.75
264.964	83.75
265.197	90.75
265.429	89.75
265.661	79.75
265.894	84.75
266.126	86.75
266.358	85.75
266.591	77.75
266.823	87.75
267.055	96.75
267.287	93.75
267.52	86.75
267.752	83.75
267.984	86.75
268.216	84.75
268.448	98.75
268.681	94.75
268.913	81.75
269.145	88.75
269.377	79.75
269.609	72.75
269.841	78.75
270.073	81.75
270.306	89.75
270.538	99.75
270.77	80.75
271.002	81.75
271.234	95.75
271.466	77.75
271.698	92.75
271.93	92.75
272.162	81.75
272.394	87.75
272.626	93.75
272.858	86.75
273.09	84.75
273.322	73.75
273.553	74.75
273.785	86.75
274.017	100.75
274.249	89.75
274.481	95.75
274.713	69.75
274.945	87.75
275.176	92.75
275.408	94.75
275.64	78.75
275.872	86.75
276.104	76.75
276.335	83.75
276.567	90.75
276.799	109.75
277.031	111.75
277.262	87.75
277.494	75.75
277.726	85.75
277.957	80.75
278.189	94.75
278.421	87.75
278.652	91.75
278.884	89.75
279.115	76.75
279.347	78.75
279.579	89.75
279.81	99.75
280.042	79.75
280.273	99.75
280.505	86.75
280.736	69.75
280.968	77.75
281.199	89.75
281.431	82.75
281.662	86.75
281.894	81.75
282.125	81.75
282.356	100.75
282.588	114.75
282.819	107.75
283.051	98.75
283.282	83.75
283.513	82.75
283.745	85.75
283.976	87.75
284.207	88.75
284.439	77.75
284.67	88.75
284.901	93.75
285.132	87.75
285.364	92.75
285.595	89.75
285.826	90.75
286.057	90.75
286.288	76.75
286.52	85.75
286.751	82.75
286.982	84.75
287.213	80.75
287.444	93.75
287.675	99.75
287.906	75.75
288.138	82.75
288.369	97.75
288.6	100.75
288.831	81.75
289.062	84.75
289.293	84.75
289.524	76.75
289.755	97.75
289.986	89.75
290.217	85.75
290.448	99.75
290.679	88.75
290.91	110.75
291.141	81.75
291.371	82.75
291.602	105.75
291.833	81.75
292.064	82.75
292.295	91.75
292.526	83.75
292.757	73.75
292.987	84.75
293.218	80.75
293.449	89.75
293.68	86.75
293.91	73.75
294.141	83.75
294.372	87.75
294.603	66.75
294.833	71.75
295.064	78.75
295.295	82.75
295.525	82.75
295.756	101.75
295.987	109.75
296.217	115.75
296.448	118.75
296.679	107.75
296.909	76.75
297.14	92.75
297.37	89.75
297.601	89.75
297.831	89.75
298.062	74.75
298.292	82.75
298.523	91.75
298.753	93.75
298.984	81.75
299.214	102.75
299.445	90.75
299.675	82.75
299.905	93.75
300.136	80.75
300.366	70.75
300.597	85.75
300.827	77.75
301.057	102.75
301.288	88.75
301.518	92.75
301.748	78.75
301.979	91.75
302.209	80.75
302.439	85.75
302.669	97.75
302.9	83.75
303.13	76.75
303.36	88.75
303.59	92.75
303.82	91.75
304.051	96.75
304.281	78.75
304.511	109.75
304.741	102.75
304.971	86.75
305.201	86.75
305.431	87.75
305.661	94.75
305.891	84.75
306.121	95.75
306.352	89.75
306.582	108.75
306.812	90.75
307.042	109.75
307.272	81.75
307.502	91.75
307.731	93.75
307.961	98.75
308.191	92.75
308.421	89.75
308.651	70.75
308.881	75.75
309.111	103.75
309.341	85.75
309.571	99.75
309.8	93.75
310.03	107.75
310.26	84.75
310.49	97.75
310.72	92.75
310.949	99.75
311.179	108.75
311.409	85.75
311.639	89.75
311.868	95.75
312.098	83.75
312.328	95.75
312.557	111.75
312.787	95.75
313.017	97.75
313.246	98.75
313.476	99.75
313.706	93.75
313.935	102.75
314.165	87.75
314.394	93.75
314.624	93.75
314.853	99.75
315.083	90.75
315.312	90.75
315.542	78.75
315.771	93.75
316.001	95.75
316.23	98.75
316.46	95.75
316.689	89.75
316.919	92.75
317.148	88.75
317.377	93.75
317.607	106.75
317.836	89.75
318.065	86.75
318.295	85.75
318.524	80.75
318.753	89.75
318.983	83.75
319.212	83.75
319.441	96.75
319.67	99.75
319.9	90.75
320.129	91.75
320.358	82.75
320.587	101.75
320.816	94.75
321.046	98.75
321.275	92.75
321.504	98.75
321.733	99.75
321.962	89.75
322.191	103.75
322.42	101.75
322.649	103.75
322.878	109.75
323.108	116.75
323.337	111.75
323.566	111.75
323.795	134.75
324.024	167.75
324.253	342.75
324.482	717.75
324.71	1435.75
324.939	1915.75
325.168	694.75
325.397	213.75
325.626	137.75
325.855	124.75
326.084	116.75
326.313	125.75
326.542	125.75
326.77	199.75
326.999	403.75
327.228	810.75
327.457	1481.75
327.686	1209.75
327.914	315.75
328.143	211.75
328.372	161.75
328.6	114.75
328.829	109.75
329.058	120.75
329.287	133.75
329.515	107.75
329.744	95.75
329.972	129.75
330.201	206.75
330.43	248.75
330.658	147.75
330.887	127.75
331.115	101.75
331.344	102.75
331.572	94.75
331.801	99.75
332.03	103.75
332.258	86.75
332.486	101.75
332.715	101.75
332.943	94.75
333.172	103.75
333.4	112.75
333.629	97.75
333.857	117.75
334.085	141.75
334.314	199.75
334.542	307.75
334.771	273.75
334.999	126.75
335.227	93.75
335.455	98.75
335.684	88.75
335.912	114.75
336.14	101.75
336.369	93.75
336.597	94.75
336.825	98.75
337.053	85.75
337.281	94.75
337.51	68.75
337.738	92.75
337.966	96.75
338.194	90.75
338.422	97.75
338.65	88.75
338.878	93.75
339.106	86.75
339.334	85.75
339.562	84.75
339.79	82.75
340.018	91.75
340.246	87.75
340.474	112.75
340.702	93.75
340.93	93.75
341.158	110.75
341.386	96.75
341.614	97.75
341.842	97.75
342.07	74.75
342.298	78.75
342.526	80.75
342.754	87.75
342.981	97.75
343.209	97.75
343.437	97.75
343.665	93.75
343.893	91.75
344.12	89.75
344.348	95.75
344.576	89.75
344.804	73.75
345.031	94.75
345.259	87.75
345.487	79.75
345.714	97.75
345.942	103.75
346.17	96.75
346.397	90.75
346.625	84.75
346.853	98.75
347.08	96.75
347.308	89.75
347.535	97.75
347.763	95.75
347.99	102.75
348.218	94.75
348.445	90.75
348.673	91.75
348.9	81.75
349.128	89.75
349.355	96.75
349.583	100.75
349.81	83.75
350.037	97.75
350.265	85.75
350.492	83.75
350.72	97.75
350.947	100.75
351.174	102.75
351.402	96.75
351.629	95.75
351.856	95.75
352.083	105.75
352.311	114.75
352.538	102.75
352.765	83.75
352.992	113.75
353.22	111.75
353.447	124.75
353.674	101.75
353.901	91.75
354.128	98.75
354.355	90.75
354.583	88.75
354.81	113.75
355.037	102.75
355.264	92.75
355.491	92.75
355.718	86.75
355.945	102.75
356.172	95.75
356.399	92.75
356.626	85.75
356.853	95.75
357.08	100.75
357.307	79.75
357.534	95.75
357.761	99.75
357.988	96.75
358.215	86.75
358.441	97.75
358.668	98.75
358.895	75.75
359.122	84.75
359.349	89.75
359.576	95.75
359.802	88.75
360.029	96.75
360.256	106.75
360.483	89.75
360.709	101.75
360.936	95.75
361.163	79.75
361.39	93.75
361.616	106.75
361.843	80.75
362.07	92.75
362.296	98.75
362.523	85.75
362.749	90.75
362.976	75.75
363.203	85.75
363.429	97.75
363.656	88.75
363.882	92.75
364.109	83.75
364.335	98.75
364.562	84.75
364.788	76.75
365.015	100.75
365.241	94.75
365.468	81.75
365.694	91.75
365.92	73.75
366.147	75.75
366.373	86.75
366.599	87.75
366.826	86.75
367.052	90.75
367.278	82.75
367.505	98.75
367.731	82.75
367.957	90.75
368.184	102.75
368.41	85.75
368.636	92.75
368.862	114.75
369.089	90.75
369.315	100.75
369.541	89.75
369.767	97.75
369.993	79.75
370.219	79.75
370.445	78.75
370.672	77.75
370.898	84.75
371.124	84.75
371.35	85.75
371.576	90.75
371.802	99.75
372.028	88.75
372.254	81.75
372.48	101.75
372.706	85.75
372.932	91.75
373.158	82.75
373.384	95.75
373.61	91.75
373.835	68.75
374.061	86.75
374.287	95.75
374.513	91.75
374.739	87.75
374.965	84.75
375.191	83.75
375.416	83.75
375.642	95.75
375.868	71.75
376.094	90.75
376.319	92.75
376.545	89.75
376.771	94.75
376.997	103.75
377.222	92.75
377.448	95.75
377.674	96.75
377.899	70.75
378.125	87.75
378.35	94.75
378.576	99.75
378.802	87.75
379.027	100.75
379.253	94.75
379.478	93.75
379.704	106.75
379.929	89.75
380.155	93.75
380.38	104.75
380.606	97.75
380.831	95.75
381.057	96.75
381.282	110.75
381.507	91.75
381.733	101.75
381.958	100.75
382.184	102.75
382.409	106.75
382.634	104.75
382.86	108.75
383.085	85.75
383.31	105.75
383.535	112.75
383.761	109.75
383.986	103.75
384.211	111.75
384.436	105.75
384.662	107.75
384.887	117.75
385.112	116.75
385.337	113.75
385.562	130.75
385.787	110.75
386.013	137.75
386.238	119.75
386.463	108.75
386.688	111.75
386.913	106.75
387.138	124.75
387.363	105.75
387.588	96.75
387.813	116.75
388.038	103.75
388.263	139.75
388.488	132.75
388.713	97.75
388.938	93.75
389.163	97.75
389.387	97.75
389.612	96.75
389.837	82.75
390.062	95.75
390.287	101.75
390.512	84.75
390.736	92.75
390.961	98.75
391.186	102.75
391.411	102.75
391.636	90.75
391.86	85.75
392.085	85.75
392.31	85.75
392.534	92.75
392.759	99.75
392.984	92.75
393.208	125.75
393.433	193.75
393.658	159.75
393.882	97.75
394.107	79.75
394.331	89.75
394.556	83.75
394.78	76.75
395.005	85.75
395.229	80.75
395.454	104.75
395.678	81.75
395.903	97.75
396.127	92.75
396.352	97.75
396.576	85.75
396.801	127.75
397.025	131.75
397.249	84.75
397.474	88.75
397.698	88.75
397.922	95.75
398.147	93.75
398.371	87.75
398.595	91.75
398.82	76.75
399.044	93.75
399.268	90.75
399.492	96.75
399.717	98.75
399.941	84.75
400.165	101.75
400.389	81.75
400.613	84.75
400.837	83.75
401.062	77.75
401.286	73.75
401.51	92.75
401.734	82.75
401.958	92.75
402.182	111.75
402.406	121.75
402.63	113.75
402.854	82.75
403.078	78.75
403.302	82.75
403.526	97.75
403.75	95.75
403.974	102.75
404.198	100.75
404.422	83.75
404.645	75.75
404.869	88.75
405.093	93.75
405.317	97.75
405.541	105.75
405.765	93.75
405.988	99.75
406.212	138.75
406.436	182.75
406.66	102.75
406.883	100.75
407.107	86.75
407.331	77.75
407.555	96.75
407.778	89.75
408.002	94.75
408.226	92.75
408.449	81.75
408.673	90.75
408.896	109.75
409.12	96.75
409.344	97.75
409.567	88.75
409.791	100.75
410.014	86.75
410.238	85.75
410.461	84.75
410.685	89.75
410.908	101.75
411.132	107.75
411.355	93.75
411.578	91.75
411.802	96.75
412.025	86.75
412.249	86.75
412.472	100.75
412.695	115.75
412.919	85.75
413.142	93.75
413.365	92.75
413.589	86.75
413.812	82.75
414.035	98.75
414.258	100.75
414.482	96.75
414.705	79.75
414.928	91.75
415.151	93.75
415.374	85.75
415.597	80.75
415.821	65.75
416.044	79.75
416.267	80.75
416.49	95.75
416.713	84.75
416.936	93.75
417.159	92.75
417.382	65.75
417.605	99.75
417.828	76.75
418.051	87.75
418.274	94.75
418.497	93.75
418.72	84.75
418.943	107.75
419.166	97.75
419.389	91.75
419.611	95.75
419.834	83.75
420.057	87.75
420.28	87.75
420.503	88.75
420.726	94.75
420.948	88.75
421.171	83.75
421.394	89.75
421.617	93.75
421.839	74.75
422.062	78.75
422.285	71.75
422.507	104.75
422.73	108.75
422.953	102.75
423.175	87.75
423.398	98.75
423.621	85.75
423.843	78.75
424.066	91.75
424.288	75.75
424.511	75.75
424.733	97.75
424.956	94.75
425.178	102.75
425.401	89.75
425.623	99.75
425.846	96.75
426.068	84.75
426.291	86.75
426.513	96.75
426.735	85.75
426.958	81.75
427.18	112.75
427.402	121.75
427.625	146.75
427.847	124.75
428.069	118.75
428.292	94.75
428.514	86.75
428.736	88.75
428.958	94.75
429.181	87.75
429.403	65.75
429.625	79.75
429.847	89.75
430.069	88.75
430.292	93.75
430.514	92.75
430.736	86.75
430.958	71.75
431.18	68.75
431.402	90.75
431.624	74.75
431.846	72.75
432.068	80.75
432.29	77.75
432.512	86.75
432.734	77.75
432.956	90.75
433.178	98.75
433.4	96.75
433.622	90.75
433.844	80.75
434.066	81.75
434.287	86.75
434.509	83.75
434.731	82.75
434.953	91.75
435.175	93.75
435.397	89.75
435.618	96.75
435.84	101.75
436.062	108.75
436.284	111.75
436.505	101.75
436.727	109.75
436.949	96.75
437.17	92.75
437.392	80.75
437.614	96.75
437.835	86.75
438.057	116.75
438.278	102.75
438.5	92.75
438.721	108.75
438.943	80.75
439.165	82.75
439.386	94.75
439.608	80.75
439.829	84.75
440.05	107.75
440.272	118.75
440.493	90.75
440.715	86.75
440.936	96.75
441.158	86.75
441.379	84.75
441.6	86.75
441.822	76.75
442.043	99.75
442.264	105.75
442.486	93.75
442.707	71.75
442.928	91.75
443.149	121.75
443.371	116.75
443.592	99.75
443.813	101.75
444.034	102.75
444.255	88.75
444.476	92.75
444.698	81.75
444.919	90.75
445.14	138.75
445.361	137.75
445.582	123.75
445.803	131.75
446.024	127.75
446.245	140.75
446.466	118.75
446.687	86.75
446.908	85.75
447.129	95.75
447.35	75.75
447.571	102.75
447.792	85.75
448.013	85.75
448.234	99.75
448.455	86.75
448.675	102.75
448.896	104.75
449.117	91.75
449.338	113.75
449.559	130.75
449.779	108.75
450	95.75
450.221	86.75
450.442	99.75
450.662	98.75
450.883	110.75
451.104	107.75
451.324	87.75
451.545	93.75
451.766	85.75
451.986	93.75
452.207	100.75
452.428	94.75
452.648	81.75
452.869	92.75
453.089	112.75
453.31	106.75
453.53	97.75
453.751	87.75
453.971	111.75
454.192	93.75
454.412	89.75
454.633	84.75
454.853	76.75
455.073	93.75
455.294	96.75
455.514	108.75
455.734	75.75
455.955	89.75
456.175	89.75
456.395	95.75
456.616	80.75
456.836	93.75
457.056	87.75
457.276	89.75
457.497	85.75
457.717	81.75
457.937	82.75
458.157	84.75
458.377	90.75
458.598	93.75
458.818	131.75
459.038	130.75
459.258	106.75
459.478	71.75
459.698	94.75
459.918	93.75
460.138	97.75
460.358	92.75
460.578	96.75
460.798	92.75
461.018	87.75
461.238	82.75
461.458	71.75
461.678	84.75
461.898	77.75
462.118	100.75
462.338	70.75
462.558	85.75
462.777	93.75
462.997	75.75
463.217	91.75
463.437	82.75
463.657	89.75
463.876	80.75
464.096	80.75
464.316	79.75
464.536	98.75
464.755	82.75
464.975	103.75
465.195	153.75
465.414	125.75
465.634	93.75
465.854	81.75
466.073	93.75
466.293	95.75
466.512	83.75
466.732	81.75
466.951	86.75
467.171	74.75
467.391	84.75
467.61	106.75
467.829	105.75
468.049	150.75
468.268	172.75
468.488	93.75
468.707	80.75
468.927	98.75
469.146	94.75
469.365	82.75
469.585	89.75
469.804	84.75
470.023	98.75
470.243	94.75
470.462	103.75
470.681	104.75
470.901	86.75
471.12	81.75
471.339	91.75
471.558	89.75
471.777	91.75
471.997	126.75
472.216	230.75
472.435	407.75
472.654	140.75
472.873	99.75
473.092	88.75
473.311	87.75
473.53	86.75
473.749	84.75
473.968	96.75
474.187	98.75
474.406	90.75
474.625	68.75
474.844	84.75
475.063	81.75
475.282	76.75
475.501	82.75
475.72	86.75
475.939	68.75
476.158	83.75
476.377	91.75
476.596	80.75
476.814	98.75
477.033	91.75
477.252	82.75
477.471	103.75
477.69	87.75
477.908	91.75
478.127	91.75
478.346	88.75
478.564	95.75
478.783	95.75
479.002	83.75
479.22	87.75
479.439	100.75
479.658	87.75
479.876	97.75
480.095	94.75
480.313	97.75
480.532	86.75
480.751	115.75
480.969	228.75
481.188	678.75
481.406	405.75
481.624	123.75
481.843	99.75
482.061	92.75
482.28	98.75
482.498	99.75
482.717	85.75
482.935	95.75
483.153	79.75
483.372	83.75
483.59	77.75
483.808	86.75
484.027	105.75
484.245	92.75
484.463	87.75
484.681	105.75
484.9	84.75
485.118	74.75
485.336	86.75
485.554	86.75
485.772	97.75
485.99	100.75
486.209	106.75
486.427	102.75
486.645	116.75
486.863	111.75
487.081	97.75
487.299	89.75
487.517	97.75
487.735	94.75
487.953	106.75
488.171	111.75
488.389	92.75
488.607	97.75
488.825	93.75
489.043	75.75
489.261	90.75
489.479	88.75
489.696	86.75
489.914	88.75
490.132	81.75
490.35	84.75
490.568	95.75
490.786	68.75
491.003	87.75
491.221	80.75
491.439	83.75
491.657	89.75
491.874	86.75
492.092	84.75
492.31	107.75
492.527	82.75
492.745	97.75
492.963	87.75
493.18	84.75
493.398	95.75
493.615	81.75
493.833	85.75
494.05	103.75
494.268	95.75
494.485	79.75
494.703	101.75
494.92	86.75
495.138	100.75
495.355	81.75
495.573	102.75
495.79	95.75
496.008	85.75
496.225	86.75
496.442	70.75
496.66	79.75
496.877	87.75
497.094	96.75
497.312	91.75
497.529	81.75
497.746	81.75
497.963	93.75
498.181	90.75
498.398	90.75
498.615	91.75
498.832	82.75
499.049	93.75
499.267	86.75
499.484	84.75
499.701	100.75
499.918	90.75
500.135	85.75
500.352	76.75
500.569	84.75
500.786	87.75
501.003	109.75
501.22	94.75
501.437	89.75
501.654	89.75
501.871	92.75
502.088	82.75
502.305	85.75
502.522	88.75
502.739	75.75
502.956	97.75
503.172	85.75
503.389	101.75
503.606	104.75
503.823	89.75
504.04	91.75
504.256	94.75
504.473	79.75
504.69	80.75
504.907	95.75
505.123	93.75
505.34	102.75
505.557	81.75
505.773	101.75
505.99	86.75
506.207	81.75
506.423	92.75
506.64	92.75
506.856	93.75
507.073	90.75
507.289	90.75
507.506	88.75
507.722	108.75
507.939	110.75
508.155	89.75
508.372	89.75
508.588	96.75
508.805	103.75
509.021	89.75
509.238	89.75
509.454	90.75
509.67	105.75
509.887	101.75
510.103	125.75
510.319	187.75
510.536	610.75
510.752	1894.75
510.968	525.75
511.184	146.75
511.401	109.75
511.617	99.75
511.833	87.75
512.049	84.75
512.265	80.75
512.481	100.75
512.698	91.75
512.914	95.75
513.13	100.75
513.346	87.75
513.562	91.75
513.778	89.75
513.994	94.75
514.21	101.75
514.426	111.75
514.642	122.75
514.858	107.75
515.074	145.75
515.29	356.75
515.506	1095.75
515.721	403.75
515.937	126.75
516.153	111.75
