Data from Circ_1991_H10_HRD10591_00066.txt Node
Date: Wed Jan 03 11:51:54 EST 2024
User: Yrep
Spectrometer: HR+D1059
Trigger mode: 1
Integration Time (sec): 1.000000E-1
Scans to average: 1
Electric dark correction enabled: true
Nonlinearity correction enabled: false
Boxcar width: 0
XAxis mode: Wavelengths
Number of Pixels in Spectrum: 2048
>>>>>Begin Spectral Data<<<<<
223.165	-32.44
223.4	-32.44
223.635	-32.44
223.869	-14.44
224.104	-14.44
224.338	-6.44
224.573	-3.44
224.808	-7.44
225.042	-16.44
225.277	-10.44
225.511	-16.44
225.746	-3.44
225.98	11.56
226.215	2.56
226.449	33.56
226.683	22.56
226.918	30.56
227.152	24.56
227.387	32.56
227.621	38.56
227.856	56.56
228.09	49.56
228.324	55.56
228.559	70.56
228.793	68.56
229.027	79.56
229.262	74.56
229.496	66.56
229.73	85.56
229.964	91.56
230.199	73.56
230.433	67.56
230.667	81.56
230.901	87.56
231.136	85.56
231.37	83.56
231.604	82.56
231.838	80.56
232.072	72.56
232.306	82.56
232.541	99.56
232.775	94.56
233.009	75.56
233.243	87.56
233.477	82.56
233.711	74.56
233.945	88.56
234.179	86.56
234.413	94.56
234.647	82.56
234.881	84.56
235.115	78.56
235.349	85.56
235.583	86.56
235.817	84.56
236.051	76.56
236.285	78.56
236.519	72.56
236.753	72.56
236.987	84.56
237.221	105.56
237.455	79.56
237.689	82.56
237.922	71.56
238.156	82.56
238.39	72.56
238.624	83.56
238.858	80.56
239.091	87.56
239.325	73.56
239.559	74.56
239.793	81.56
240.027	78.56
240.26	81.56
240.494	91.56
240.728	90.56
240.961	89.56
241.195	90.56
241.429	89.56
241.662	82.56
241.896	83.56
242.13	65.56
242.363	78.56
242.597	82.56
242.83	75.56
243.064	76.56
243.298	82.56
243.531	82.56
243.765	82.56
243.998	87.56
244.232	73.56
244.465	87.56
244.699	74.56
244.932	81.56
245.166	88.56
245.399	92.56
245.633	87.56
245.866	86.56
246.099	64.56
246.333	94.56
246.566	71.56
246.8	101.56
247.033	98.56
247.266	88.56
247.5	96.56
247.733	66.56
247.966	90.56
248.2	84.56
248.433	75.56
248.666	75.56
248.899	91.56
249.133	96.56
249.366	96.56
249.599	104.56
249.832	89.56
250.066	75.56
250.299	84.56
250.532	86.56
250.765	78.56
250.998	91.56
251.231	85.56
251.465	97.56
251.698	89.56
251.931	89.56
252.164	85.56
252.397	81.56
252.63	86.56
252.863	87.56
253.096	92.56
253.329	95.56
253.562	82.56
253.795	75.56
254.028	90.56
254.261	75.56
254.494	72.56
254.727	81.56
254.96	87.56
255.193	90.56
255.426	78.56
255.659	81.56
255.892	95.56
256.124	104.56
256.357	85.56
256.59	87.56
256.823	84.56
257.056	82.56
257.289	76.56
257.521	87.56
257.754	96.56
257.987	79.56
258.22	93.56
258.452	82.56
258.685	80.56
258.918	82.56
259.151	73.56
259.383	78.56
259.616	86.56
259.849	84.56
260.081	85.56
260.314	82.56
260.547	81.56
260.779	91.56
261.012	94.56
261.244	89.56
261.477	98.56
261.71	121.56
261.942	107.56
262.175	119.56
262.407	96.56
262.64	92.56
262.872	95.56
263.105	97.56
263.337	91.56
263.57	90.56
263.802	95.56
264.035	68.56
264.267	94.56
264.499	75.56
264.732	86.56
264.964	93.56
265.197	74.56
265.429	80.56
265.661	85.56
265.894	78.56
266.126	94.56
266.358	82.56
266.591	86.56
266.823	85.56
267.055	90.56
267.287	96.56
267.52	90.56
267.752	78.56
267.984	83.56
268.216	80.56
268.448	85.56
268.681	87.56
268.913	86.56
269.145	92.56
269.377	94.56
269.609	91.56
269.841	95.56
270.073	100.56
270.306	96.56
270.538	91.56
270.77	89.56
271.002	99.56
271.234	82.56
271.466	97.56
271.698	83.56
271.93	84.56
272.162	99.56
272.394	81.56
272.626	94.56
272.858	94.56
273.09	95.56
273.322	101.56
273.553	92.56
273.785	91.56
274.017	87.56
274.249	85.56
274.481	88.56
274.713	71.56
274.945	88.56
275.176	102.56
275.408	87.56
275.64	108.56
275.872	115.56
276.104	101.56
276.335	80.56
276.567	111.56
276.799	134.56
277.031	117.56
277.262	131.56
277.494	116.56
277.726	93.56
277.957	101.56
278.189	76.56
278.421	100.56
278.652	94.56
278.884	95.56
279.115	76.56
279.347	91.56
279.579	100.56
279.81	108.56
280.042	138.56
280.273	166.56
280.505	122.56
280.736	111.56
280.968	94.56
281.199	101.56
281.431	90.56
281.662	90.56
281.894	92.56
282.125	107.56
282.356	129.56
282.588	137.56
282.819	117.56
283.051	95.56
283.282	90.56
283.513	95.56
283.745	92.56
283.976	91.56
284.207	96.56
284.439	92.56
284.67	101.56
284.901	89.56
285.132	85.56
285.364	102.56
285.595	95.56
285.826	82.56
286.057	90.56
286.288	91.56
286.52	71.56
286.751	97.56
286.982	96.56
287.213	99.56
287.444	98.56
287.675	89.56
287.906	95.56
288.138	86.56
288.369	97.56
288.6	101.56
288.831	87.56
289.062	92.56
289.293	90.56
289.524	98.56
289.755	97.56
289.986	88.56
290.217	76.56
290.448	83.56
290.679	104.56
290.91	78.56
291.141	96.56
291.371	105.56
291.602	98.56
291.833	89.56
292.064	95.56
292.295	89.56
292.526	77.56
292.757	86.56
292.987	93.56
293.218	96.56
293.449	99.56
293.68	87.56
293.91	88.56
294.141	92.56
294.372	94.56
294.603	84.56
294.833	89.56
295.064	72.56
295.295	101.56
295.525	103.56
295.756	119.56
295.987	119.56
296.217	166.56
296.448	128.56
296.679	109.56
296.909	110.56
297.14	80.56
297.37	99.56
297.601	85.56
297.831	86.56
298.062	96.56
298.292	109.56
298.523	86.56
298.753	89.56
298.984	94.56
299.214	103.56
299.445	96.56
299.675	105.56
299.905	100.56
300.136	103.56
300.366	100.56
300.597	100.56
300.827	97.56
301.057	100.56
301.288	98.56
301.518	94.56
301.748	103.56
301.979	112.56
302.209	96.56
302.439	87.56
302.669	108.56
302.9	102.56
303.13	104.56
303.36	107.56
303.59	117.56
303.82	120.56
304.051	99.56
304.281	85.56
304.511	107.56
304.741	103.56
304.971	98.56
305.201	96.56
305.431	98.56
305.661	91.56
305.891	92.56
306.121	102.56
306.352	112.56
306.582	118.56
306.812	120.56
307.042	96.56
307.272	106.56
307.502	136.56
307.731	129.56
307.961	124.56
308.191	100.56
308.421	93.56
308.651	101.56
308.881	107.56
309.111	99.56
309.341	109.56
309.571	103.56
309.8	107.56
310.03	96.56
310.26	99.56
310.49	113.56
310.72	103.56
310.949	114.56
311.179	90.56
311.409	84.56
311.639	99.56
311.868	102.56
312.098	88.56
312.328	87.56
312.557	115.56
312.787	118.56
313.017	104.56
313.246	99.56
313.476	106.56
313.706	113.56
313.935	100.56
314.165	107.56
314.394	107.56
314.624	119.56
314.853	104.56
315.083	105.56
315.312	94.56
315.542	101.56
315.771	101.56
316.001	95.56
316.23	92.56
316.46	94.56
316.689	85.56
316.919	103.56
317.148	101.56
317.377	95.56
317.607	108.56
317.836	109.56
318.065	107.56
318.295	92.56
318.524	91.56
318.753	99.56
318.983	106.56
319.212	113.56
319.441	118.56
319.67	117.56
319.9	101.56
320.129	99.56
320.358	106.56
320.587	111.56
320.816	118.56
321.046	99.56
321.275	99.56
321.504	98.56
321.733	117.56
321.962	110.56
322.191	103.56
322.42	121.56
322.649	125.56
322.878	119.56
323.108	115.56
323.337	126.56
323.566	147.56
323.795	166.56
324.024	209.56
324.253	449.56
324.482	945.56
324.71	1985.56
324.939	2763.56
325.168	980.56
325.397	267.56
325.626	152.56
325.855	146.56
326.084	130.56
326.313	144.56
326.542	175.56
326.77	249.56
326.999	496.56
327.228	1062.56
327.457	2015.56
327.686	1629.56
327.914	471.56
328.143	334.56
328.372	378.56
328.6	250.56
328.829	167.56
329.058	164.56
329.287	155.56
329.515	138.56
329.744	171.56
329.972	279.56
330.201	505.56
330.43	722.56
330.658	351.56
330.887	203.56
331.115	160.56
331.344	129.56
331.572	110.56
331.801	117.56
332.03	118.56
332.258	100.56
332.486	91.56
332.715	98.56
332.943	115.56
333.172	98.56
333.4	121.56
333.629	136.56
333.857	172.56
334.085	256.56
334.314	481.56
334.542	907.56
334.771	856.56
334.999	270.56
335.227	122.56
335.455	112.56
335.684	111.56
335.912	114.56
336.14	105.56
336.369	114.56
336.597	114.56
336.825	113.56
337.053	91.56
337.281	103.56
337.51	110.56
337.738	105.56
337.966	115.56
338.194	110.56
338.422	103.56
338.65	102.56
338.878	92.56
339.106	88.56
339.334	85.56
339.562	80.56
339.79	96.56
340.018	96.56
340.246	100.56
340.474	96.56
340.702	101.56
340.93	95.56
341.158	103.56
341.386	107.56
341.614	105.56
341.842	100.56
342.07	108.56
342.298	112.56
342.526	102.56
342.754	93.56
342.981	94.56
343.209	74.56
343.437	105.56
343.665	90.56
343.893	101.56
344.12	110.56
344.348	94.56
344.576	92.56
344.804	95.56
345.031	98.56
345.259	111.56
345.487	95.56
345.714	87.56
345.942	94.56
346.17	107.56
346.397	96.56
346.625	115.56
346.853	84.56
347.08	92.56
347.308	95.56
347.535	116.56
347.763	110.56
347.99	98.56
348.218	102.56
348.445	120.56
348.673	108.56
348.9	116.56
349.128	98.56
349.355	90.56
349.583	108.56
349.81	92.56
350.037	98.56
350.265	105.56
350.492	95.56
350.72	94.56
350.947	107.56
351.174	104.56
351.402	114.56
351.629	106.56
351.856	114.56
352.083	109.56
352.311	115.56
352.538	123.56
352.765	129.56
352.992	115.56
353.22	112.56
353.447	106.56
353.674	98.56
353.901	102.56
354.128	94.56
354.355	103.56
354.583	110.56
354.81	89.56
355.037	104.56
355.264	112.56
355.491	106.56
355.718	86.56
355.945	102.56
356.172	99.56
356.399	104.56
356.626	96.56
356.853	87.56
357.08	102.56
357.307	96.56
357.534	101.56
357.761	90.56
357.988	107.56
358.215	107.56
358.441	83.56
358.668	99.56
358.895	84.56
359.122	111.56
359.349	100.56
359.576	95.56
359.802	106.56
360.029	118.56
360.256	126.56
360.483	106.56
360.709	96.56
360.936	104.56
361.163	111.56
361.39	95.56
361.616	91.56
361.843	100.56
362.07	102.56
362.296	108.56
362.523	97.56
362.749	96.56
362.976	93.56
363.203	82.56
363.429	98.56
363.656	113.56
363.882	92.56
364.109	85.56
364.335	105.56
364.562	101.56
364.788	90.56
365.015	103.56
365.241	104.56
365.468	128.56
365.694	117.56
365.92	105.56
366.147	105.56
366.373	87.56
366.599	106.56
366.826	99.56
367.052	86.56
367.278	94.56
367.505	97.56
367.731	105.56
367.957	105.56
368.184	100.56
368.41	100.56
368.636	130.56
368.862	152.56
369.089	110.56
369.315	100.56
369.541	85.56
369.767	103.56
369.993	85.56
370.219	113.56
370.445	99.56
370.672	90.56
370.898	90.56
371.124	91.56
371.35	96.56
371.576	104.56
371.802	94.56
372.028	102.56
372.254	91.56
372.48	92.56
372.706	84.56
372.932	91.56
373.158	96.56
373.384	98.56
373.61	111.56
373.835	83.56
374.061	97.56
374.287	86.56
374.513	100.56
374.739	96.56
374.965	93.56
375.191	107.56
375.416	96.56
375.642	105.56
375.868	105.56
376.094	99.56
376.319	96.56
376.545	97.56
376.771	100.56
376.997	97.56
377.222	91.56
377.448	107.56
377.674	92.56
377.899	111.56
378.125	90.56
378.35	99.56
378.576	101.56
378.802	89.56
379.027	100.56
379.253	83.56
379.478	100.56
379.704	102.56
379.929	110.56
380.155	111.56
380.38	96.56
380.606	102.56
380.831	90.56
381.057	89.56
381.282	99.56
381.507	98.56
381.733	96.56
381.958	98.56
382.184	97.56
382.409	96.56
382.634	117.56
382.86	108.56
383.085	97.56
383.31	102.56
383.535	109.56
383.761	120.56
383.986	118.56
384.211	115.56
384.436	105.56
384.662	95.56
384.887	100.56
385.112	91.56
385.337	89.56
385.562	94.56
385.787	103.56
386.013	103.56
386.238	118.56
386.463	114.56
386.688	107.56
386.913	108.56
387.138	99.56
387.363	111.56
387.588	111.56
387.813	107.56
388.038	119.56
388.263	115.56
388.488	114.56
388.713	106.56
388.938	112.56
389.163	96.56
389.387	90.56
389.612	101.56
389.837	98.56
390.062	82.56
390.287	98.56
390.512	84.56
390.736	91.56
390.961	100.56
391.186	94.56
391.411	93.56
391.636	99.56
391.86	90.56
392.085	111.56
392.31	86.56
392.534	80.56
392.759	95.56
392.984	87.56
393.208	102.56
393.433	109.56
393.658	98.56
393.882	91.56
394.107	97.56
394.331	97.56
394.556	95.56
394.78	102.56
395.005	87.56
395.229	99.56
395.454	84.56
395.678	107.56
395.903	92.56
396.127	100.56
396.352	85.56
396.576	97.56
396.801	91.56
397.025	107.56
397.249	85.56
397.474	90.56
397.698	91.56
397.922	92.56
398.147	83.56
398.371	94.56
398.595	103.56
398.82	91.56
399.044	99.56
399.268	81.56
399.492	78.56
399.717	103.56
399.941	88.56
400.165	116.56
400.389	96.56
400.613	99.56
400.837	89.56
401.062	98.56
401.286	92.56
401.51	85.56
401.734	96.56
401.958	103.56
402.182	121.56
402.406	172.56
402.63	128.56
402.854	98.56
403.078	105.56
403.302	90.56
403.526	96.56
403.75	103.56
403.974	98.56
404.198	107.56
404.422	98.56
404.645	99.56
404.869	100.56
405.093	123.56
405.317	133.56
405.541	114.56
405.765	121.56
405.988	117.56
406.212	204.56
406.436	254.56
406.66	165.56
406.883	119.56
407.107	95.56
407.331	107.56
407.555	112.56
407.778	89.56
408.002	84.56
408.226	89.56
408.449	100.56
408.673	103.56
408.896	105.56
409.12	98.56
409.344	80.56
409.567	94.56
409.791	91.56
410.014	99.56
410.238	97.56
410.461	85.56
410.685	98.56
410.908	107.56
411.132	103.56
411.355	102.56
411.578	96.56
411.802	87.56
412.025	99.56
412.249	96.56
412.472	106.56
412.695	117.56
412.919	102.56
413.142	92.56
413.365	106.56
413.589	104.56
413.812	85.56
414.035	97.56
414.258	96.56
414.482	82.56
414.705	89.56
414.928	97.56
415.151	82.56
415.374	98.56
415.597	92.56
415.821	91.56
416.044	91.56
416.267	106.56
416.49	100.56
416.713	106.56
416.936	93.56
417.159	102.56
417.382	100.56
417.605	86.56
417.828	102.56
418.051	115.56
418.274	101.56
418.497	102.56
418.72	84.56
418.943	99.56
419.166	108.56
419.389	99.56
419.611	91.56
419.834	92.56
420.057	77.56
420.28	99.56
420.503	89.56
420.726	105.56
420.948	87.56
421.171	97.56
421.394	102.56
421.617	98.56
421.839	84.56
422.062	104.56
422.285	92.56
422.507	98.56
422.73	110.56
422.953	91.56
423.175	93.56
423.398	92.56
423.621	91.56
423.843	91.56
424.066	81.56
424.288	80.56
424.511	98.56
424.733	90.56
424.956	123.56
425.178	106.56
425.401	111.56
425.623	113.56
425.846	97.56
426.068	104.56
426.291	94.56
426.513	93.56
426.735	98.56
426.958	103.56
427.18	120.56
427.402	166.56
427.625	214.56
427.847	212.56
428.069	180.56
428.292	116.56
428.514	90.56
428.736	84.56
428.958	91.56
429.181	91.56
429.403	93.56
429.625	106.56
429.847	88.56
430.069	111.56
430.292	96.56
430.514	98.56
430.736	94.56
430.958	103.56
431.18	88.56
431.402	78.56
431.624	84.56
431.846	91.56
432.068	94.56
432.29	84.56
432.512	91.56
432.734	103.56
432.956	90.56
433.178	96.56
433.4	97.56
433.622	94.56
433.844	95.56
434.066	98.56
434.287	103.56
434.509	98.56
434.731	107.56
434.953	96.56
435.175	98.56
435.397	108.56
435.618	108.56
435.84	103.56
436.062	115.56
436.284	126.56
436.505	105.56
436.727	94.56
436.949	98.56
437.17	96.56
437.392	82.56
437.614	87.56
437.835	118.56
438.057	143.56
438.278	115.56
438.5	121.56
438.721	140.56
438.943	116.56
439.165	106.56
439.386	95.56
439.608	107.56
439.829	119.56
440.05	131.56
440.272	159.56
440.493	115.56
440.715	91.56
440.936	107.56
441.158	91.56
441.379	89.56
441.6	94.56
441.822	103.56
442.043	98.56
442.264	113.56
442.486	120.56
442.707	81.56
442.928	100.56
443.149	151.56
443.371	137.56
443.592	117.56
443.813	119.56
444.034	100.56
444.255	94.56
444.476	84.56
444.698	98.56
444.919	78.56
445.14	132.56
445.361	137.56
445.582	132.56
445.803	155.56
446.024	151.56
446.245	150.56
446.466	116.56
446.687	111.56
446.908	94.56
447.129	83.56
447.35	83.56
447.571	93.56
447.792	96.56
448.013	114.56
448.234	121.56
448.455	109.56
448.675	122.56
448.896	130.56
449.117	103.56
449.338	111.56
449.559	133.56
449.779	143.56
450	102.56
450.221	101.56
450.442	98.56
450.662	107.56
450.883	122.56
451.104	121.56
451.324	107.56
451.545	86.56
451.766	84.56
451.986	83.56
452.207	100.56
452.428	107.56
452.648	95.56
452.869	120.56
453.089	139.56
453.31	143.56
453.53	88.56
453.751	105.56
453.971	120.56
454.192	123.56
454.412	95.56
454.633	87.56
454.853	93.56
455.073	88.56
455.294	98.56
455.514	101.56
455.734	107.56
455.955	97.56
456.175	84.56
456.395	90.56
456.616	80.56
456.836	92.56
457.056	85.56
457.276	91.56
457.497	91.56
457.717	97.56
457.937	92.56
458.157	97.56
458.377	101.56
458.598	112.56
458.818	178.56
459.038	196.56
459.258	132.56
459.478	97.56
459.698	101.56
459.918	99.56
460.138	92.56
460.358	91.56
460.578	105.56
460.798	85.56
461.018	89.56
461.238	84.56
461.458	80.56
461.678	94.56
461.898	88.56
462.118	89.56
462.338	96.56
462.558	105.56
462.777	93.56
462.997	82.56
463.217	94.56
463.437	84.56
463.657	91.56
463.876	89.56
464.096	94.56
464.316	96.56
464.536	106.56
464.755	112.56
464.975	123.56
465.195	204.56
465.414	190.56
465.634	96.56
465.854	99.56
466.073	92.56
466.293	99.56
466.512	96.56
466.732	90.56
466.951	106.56
467.171	99.56
467.391	93.56
467.61	122.56
467.829	160.56
468.049	324.56
468.268	446.56
468.488	160.56
468.707	88.56
468.927	91.56
469.146	82.56
469.365	94.56
469.585	86.56
469.804	93.56
470.023	110.56
470.243	110.56
470.462	105.56
470.681	135.56
470.901	94.56
471.12	96.56
471.339	88.56
471.558	90.56
471.777	118.56
471.997	196.56
472.216	608.56
472.435	1280.56
472.654	340.56
472.873	124.56
473.092	95.56
473.311	86.56
473.53	92.56
473.749	109.56
473.968	116.56
474.187	101.56
474.406	101.56
474.625	96.56
474.844	90.56
475.063	94.56
475.282	96.56
475.501	86.56
475.72	97.56
475.939	90.56
476.158	86.56
476.377	95.56
476.596	102.56
476.814	103.56
477.033	85.56
477.252	87.56
477.471	105.56
477.69	94.56
477.908	91.56
478.127	102.56
478.346	96.56
478.564	102.56
478.783	96.56
479.002	97.56
479.22	95.56
479.439	113.56
479.658	135.56
479.876	108.56
480.095	95.56
480.313	108.56
480.532	134.56
480.751	187.56
480.969	567.56
481.188	2216.56
481.406	1303.56
481.624	237.56
481.843	111.56
482.061	96.56
482.28	105.56
482.498	88.56
482.717	95.56
482.935	97.56
483.153	89.56
483.372	90.56
483.59	88.56
483.808	100.56
484.027	107.56
484.245	91.56
484.463	89.56
484.681	83.56
484.9	91.56
485.118	96.56
485.336	118.56
485.554	95.56
485.772	104.56
485.99	110.56
486.209	94.56
486.427	111.56
486.645	118.56
486.863	114.56
487.081	115.56
487.299	103.56
487.517	105.56
487.735	99.56
487.953	102.56
488.171	88.56
488.389	105.56
488.607	116.56
488.825	97.56
489.043	86.56
489.261	94.56
489.479	103.56
489.696	109.56
489.914	92.56
490.132	90.56
490.35	102.56
490.568	102.56
490.786	103.56
491.003	95.56
491.221	101.56
491.439	84.56
491.657	101.56
491.874	98.56
492.092	96.56
492.31	89.56
492.527	94.56
492.745	90.56
492.963	67.56
493.18	108.56
493.398	90.56
493.615	103.56
493.833	114.56
494.05	97.56
494.268	90.56
494.485	103.56
494.703	93.56
494.92	102.56
495.138	109.56
495.355	91.56
495.573	80.56
495.79	90.56
496.008	103.56
496.225	95.56
496.442	101.56
496.66	106.56
496.877	103.56
497.094	91.56
497.312	98.56
497.529	94.56
497.746	101.56
497.963	98.56
498.181	89.56
498.398	99.56
498.615	116.56
498.832	97.56
499.049	96.56
499.267	88.56
499.484	96.56
499.701	88.56
499.918	72.56
500.135	86.56
500.352	103.56
500.569	86.56
500.786	88.56
501.003	101.56
501.22	91.56
501.437	91.56
501.654	84.56
501.871	113.56
502.088	90.56
502.305	89.56
502.522	89.56
502.739	102.56
502.956	97.56
503.172	99.56
503.389	109.56
503.606	114.56
503.823	106.56
504.04	97.56
504.256	108.56
504.473	103.56
504.69	89.56
504.907	95.56
505.123	94.56
505.34	89.56
505.557	90.56
505.773	87.56
505.99	88.56
506.207	111.56
506.423	105.56
506.64	85.56
506.856	86.56
507.073	92.56
507.289	99.56
507.506	106.56
507.722	140.56
507.939	121.56
508.155	98.56
508.372	90.56
508.588	101.56
508.805	87.56
509.021	100.56
509.238	116.56
509.454	117.56
509.67	93.56
509.887	108.56
510.103	145.56
510.319	244.56
510.536	798.56
510.752	2752.56
510.968	723.56
511.184	164.56
511.401	123.56
511.617	105.56
511.833	90.56
512.049	101.56
512.265	96.56
