Data from Circ_1991_H10_HRD10591_00038.txt Node
Date: Wed Jan 03 11:51:48 EST 2024
User: Yrep
Spectrometer: HR+D1059
Trigger mode: 1
Integration Time (sec): 1.000000E-1
Scans to average: 1
Electric dark correction enabled: true
Nonlinearity correction enabled: false
Boxcar width: 0
XAxis mode: Wavelengths
Number of Pixels in Spectrum: 2048
>>>>>Begin Spectral Data<<<<<
223.165	-14.44
223.4	-14.44
223.635	-14.44
223.869	-23.44
224.104	-2.44
224.338	-12.44
224.573	-32.44
224.808	-31.44
225.042	4.56
225.277	-12.44
225.511	-2.44
225.746	11.56
225.98	14.56
226.215	9.56
226.449	15.56
226.683	26.56
226.918	22.56
227.152	26.56
227.387	25.56
227.621	25.56
227.856	39.56
228.09	37.56
228.324	56.56
228.559	55.56
228.793	57.56
229.027	58.56
229.262	62.56
229.496	74.56
229.73	74.56
229.964	86.56
230.199	74.56
230.433	71.56
230.667	83.56
230.901	82.56
231.136	75.56
231.37	81.56
231.604	76.56
231.838	60.56
232.072	78.56
232.306	82.56
232.541	76.56
232.775	85.56
233.009	78.56
233.243	90.56
233.477	75.56
233.711	85.56
233.945	71.56
234.179	78.56
234.413	85.56
234.647	79.56
234.881	79.56
235.115	70.56
235.349	73.56
235.583	87.56
235.817	85.56
236.051	78.56
236.285	66.56
236.519	58.56
236.753	68.56
236.987	70.56
237.221	78.56
237.455	60.56
237.689	80.56
237.922	71.56
238.156	70.56
238.39	76.56
238.624	78.56
238.858	88.56
239.091	71.56
239.325	78.56
239.559	69.56
239.793	75.56
240.027	76.56
240.26	98.56
240.494	70.56
240.728	86.56
240.961	66.56
241.195	78.56
241.429	89.56
241.662	66.56
241.896	73.56
242.13	76.56
242.363	65.56
242.597	75.56
242.83	83.56
243.064	78.56
243.298	88.56
243.531	93.56
243.765	89.56
243.998	81.56
244.232	76.56
244.465	77.56
244.699	90.56
244.932	61.56
245.166	86.56
245.399	73.56
245.633	83.56
245.866	78.56
246.099	83.56
246.333	86.56
246.566	81.56
246.8	75.56
247.033	80.56
247.266	54.56
247.5	80.56
247.733	90.56
247.966	81.56
248.2	89.56
248.433	81.56
248.666	77.56
248.899	93.56
249.133	73.56
249.366	97.56
249.599	94.56
249.832	83.56
250.066	84.56
250.299	75.56
250.532	84.56
250.765	77.56
250.998	73.56
251.231	74.56
251.465	89.56
251.698	67.56
251.931	82.56
252.164	98.56
252.397	80.56
252.63	81.56
252.863	70.56
253.096	78.56
253.329	70.56
253.562	92.56
253.795	76.56
254.028	100.56
254.261	95.56
254.494	85.56
254.727	81.56
254.96	95.56
255.193	61.56
255.426	90.56
255.659	81.56
255.892	87.56
256.124	80.56
256.357	70.56
256.59	87.56
256.823	85.56
257.056	92.56
257.289	73.56
257.521	80.56
257.754	79.56
257.987	85.56
258.22	74.56
258.452	76.56
258.685	86.56
258.918	88.56
259.151	89.56
259.383	84.56
259.616	97.56
259.849	84.56
260.081	81.56
260.314	82.56
260.547	85.56
260.779	82.56
261.012	88.56
261.244	89.56
261.477	82.56
261.71	82.56
261.942	102.56
262.175	121.56
262.407	90.56
262.64	91.56
262.872	92.56
263.105	84.56
263.337	85.56
263.57	85.56
263.802	90.56
264.035	89.56
264.267	101.56
264.499	80.56
264.732	76.56
264.964	80.56
265.197	75.56
265.429	82.56
265.661	94.56
265.894	63.56
266.126	82.56
266.358	77.56
266.591	89.56
266.823	77.56
267.055	85.56
267.287	60.56
267.52	84.56
267.752	77.56
267.984	86.56
268.216	78.56
268.448	85.56
268.681	73.56
268.913	80.56
269.145	86.56
269.377	81.56
269.609	78.56
269.841	89.56
270.073	85.56
270.306	89.56
270.538	85.56
270.77	80.56
271.002	72.56
271.234	92.56
271.466	79.56
271.698	77.56
271.93	87.56
272.162	80.56
272.394	85.56
272.626	82.56
272.858	81.56
273.09	74.56
273.322	89.56
273.553	86.56
273.785	93.56
274.017	86.56
274.249	66.56
274.481	79.56
274.713	73.56
274.945	75.56
275.176	80.56
275.408	90.56
275.64	90.56
275.872	77.56
276.104	86.56
276.335	85.56
276.567	107.56
276.799	112.56
277.031	99.56
277.262	102.56
277.494	94.56
277.726	93.56
277.957	91.56
278.189	77.56
278.421	81.56
278.652	94.56
278.884	88.56
279.115	78.56
279.347	78.56
279.579	88.56
279.81	91.56
280.042	114.56
280.273	110.56
280.505	121.56
280.736	91.56
280.968	95.56
281.199	88.56
281.431	82.56
281.662	82.56
281.894	89.56
282.125	85.56
282.356	138.56
282.588	138.56
282.819	93.56
283.051	88.56
283.282	91.56
283.513	96.56
283.745	78.56
283.976	91.56
284.207	93.56
284.439	90.56
284.67	77.56
284.901	95.56
285.132	85.56
285.364	87.56
285.595	91.56
285.826	88.56
286.057	90.56
286.288	79.56
286.52	92.56
286.751	73.56
286.982	90.56
287.213	96.56
287.444	77.56
287.675	89.56
287.906	101.56
288.138	89.56
288.369	89.56
288.6	82.56
288.831	84.56
289.062	85.56
289.293	91.56
289.524	69.56
289.755	78.56
289.986	81.56
290.217	90.56
290.448	82.56
290.679	95.56
290.91	89.56
291.141	91.56
291.371	94.56
291.602	69.56
291.833	89.56
292.064	74.56
292.295	83.56
292.526	69.56
292.757	91.56
292.987	89.56
293.218	92.56
293.449	89.56
293.68	102.56
293.91	81.56
294.141	97.56
294.372	97.56
294.603	90.56
294.833	98.56
295.064	95.56
295.295	90.56
295.525	97.56
295.756	108.56
295.987	122.56
296.217	128.56
296.448	126.56
296.679	84.56
296.909	95.56
297.14	85.56
297.37	88.56
297.601	88.56
297.831	92.56
298.062	84.56
298.292	101.56
298.523	91.56
298.753	91.56
298.984	98.56
299.214	97.56
299.445	92.56
299.675	93.56
299.905	110.56
300.136	97.56
300.366	92.56
300.597	95.56
300.827	84.56
301.057	89.56
301.288	97.56
301.518	100.56
301.748	93.56
301.979	105.56
302.209	89.56
302.439	94.56
302.669	84.56
302.9	81.56
303.13	90.56
303.36	109.56
303.59	97.56
303.82	107.56
304.051	86.56
304.281	82.56
304.511	96.56
304.741	87.56
304.971	77.56
305.201	96.56
305.431	100.56
305.661	90.56
305.891	83.56
306.121	79.56
306.352	102.56
306.582	102.56
306.812	99.56
307.042	107.56
307.272	109.56
307.502	122.56
307.731	119.56
307.961	89.56
308.191	94.56
308.421	90.56
308.651	91.56
308.881	98.56
309.111	78.56
309.341	106.56
309.571	109.56
309.8	101.56
310.03	111.56
310.26	93.56
310.49	82.56
310.72	84.56
310.949	86.56
311.179	97.56
311.409	86.56
311.639	112.56
311.868	97.56
312.098	92.56
312.328	104.56
312.557	103.56
312.787	105.56
313.017	107.56
313.246	100.56
313.476	90.56
313.706	82.56
313.935	90.56
314.165	102.56
314.394	98.56
314.624	97.56
314.853	102.56
315.083	90.56
315.312	99.56
315.542	82.56
315.771	97.56
316.001	97.56
316.23	94.56
316.46	92.56
316.689	97.56
316.919	92.56
317.148	92.56
317.377	83.56
317.607	103.56
317.836	89.56
318.065	82.56
318.295	93.56
318.524	91.56
318.753	99.56
318.983	98.56
319.212	98.56
319.441	114.56
319.67	111.56
319.9	103.56
320.129	107.56
320.358	99.56
320.587	94.56
320.816	91.56
321.046	91.56
321.275	90.56
321.504	90.56
321.733	99.56
321.962	98.56
322.191	95.56
322.42	110.56
322.649	114.56
322.878	133.56
323.108	111.56
323.337	114.56
323.566	122.56
323.795	165.56
324.024	209.56
324.253	374.56
324.482	804.56
324.71	1749.56
324.939	2317.56
325.168	849.56
325.397	253.56
325.626	139.56
325.855	134.56
326.084	109.56
326.313	126.56
326.542	145.56
326.77	227.56
326.999	448.56
327.228	935.56
327.457	1748.56
327.686	1423.56
327.914	389.56
328.143	261.56
328.372	251.56
328.6	169.56
328.829	121.56
329.058	119.56
329.287	130.56
329.515	124.56
329.744	132.56
329.972	187.56
330.201	300.56
330.43	427.56
330.658	235.56
330.887	162.56
331.115	116.56
331.344	101.56
331.572	101.56
331.801	104.56
332.03	116.56
332.258	107.56
332.486	109.56
332.715	91.56
332.943	109.56
333.172	103.56
333.4	108.56
333.629	111.56
333.857	141.56
334.085	185.56
334.314	291.56
334.542	498.56
334.771	490.56
334.999	176.56
335.227	109.56
335.455	95.56
335.684	92.56
335.912	85.56
336.14	98.56
336.369	102.56
336.597	108.56
336.825	97.56
337.053	98.56
337.281	87.56
337.51	71.56
337.738	89.56
337.966	96.56
338.194	93.56
338.422	86.56
338.65	89.56
338.878	103.56
339.106	86.56
339.334	93.56
339.562	93.56
339.79	90.56
340.018	84.56
340.246	97.56
340.474	83.56
340.702	91.56
340.93	94.56
341.158	91.56
341.386	104.56
341.614	103.56
341.842	91.56
342.07	97.56
342.298	88.56
342.526	75.56
342.754	93.56
342.981	86.56
343.209	84.56
343.437	104.56
343.665	75.56
343.893	86.56
344.12	86.56
344.348	87.56
344.576	89.56
344.804	87.56
345.031	103.56
345.259	102.56
345.487	94.56
345.714	88.56
345.942	94.56
346.17	95.56
346.397	86.56
346.625	89.56
346.853	76.56
347.08	83.56
347.308	91.56
347.535	97.56
347.763	99.56
347.99	105.56
348.218	102.56
348.445	100.56
348.673	83.56
348.9	102.56
349.128	99.56
349.355	85.56
349.583	107.56
349.81	92.56
350.037	108.56
350.265	99.56
350.492	83.56
350.72	89.56
350.947	86.56
351.174	94.56
351.402	106.56
351.629	100.56
351.856	103.56
352.083	93.56
352.311	106.56
352.538	105.56
352.765	109.56
352.992	108.56
353.22	108.56
353.447	107.56
353.674	94.56
353.901	91.56
354.128	90.56
354.355	82.56
354.583	90.56
354.81	90.56
355.037	97.56
355.264	96.56
355.491	103.56
355.718	63.56
355.945	97.56
356.172	86.56
356.399	92.56
356.626	89.56
356.853	89.56
357.08	92.56
357.307	108.56
357.534	75.56
357.761	91.56
357.988	87.56
358.215	84.56
358.441	103.56
358.668	87.56
358.895	93.56
359.122	97.56
359.349	91.56
359.576	98.56
359.802	103.56
360.029	109.56
360.256	117.56
360.483	97.56
360.709	89.56
360.936	77.56
361.163	98.56
361.39	92.56
361.616	109.56
361.843	96.56
362.07	91.56
362.296	85.56
362.523	96.56
362.749	82.56
362.976	92.56
363.203	97.56
363.429	89.56
363.656	100.56
363.882	95.56
364.109	85.56
364.335	87.56
364.562	95.56
364.788	90.56
365.015	86.56
365.241	94.56
365.468	117.56
365.694	83.56
365.92	83.56
366.147	94.56
366.373	84.56
366.599	91.56
366.826	91.56
367.052	90.56
367.278	89.56
367.505	92.56
367.731	99.56
367.957	100.56
368.184	90.56
368.41	95.56
368.636	122.56
368.862	111.56
369.089	105.56
369.315	102.56
369.541	91.56
369.767	89.56
369.993	91.56
370.219	93.56
370.445	100.56
370.672	92.56
370.898	79.56
371.124	78.56
371.35	91.56
371.576	83.56
371.802	82.56
372.028	80.56
372.254	86.56
372.48	80.56
372.706	76.56
372.932	91.56
373.158	88.56
373.384	75.56
373.61	91.56
373.835	95.56
374.061	92.56
374.287	75.56
374.513	85.56
374.739	85.56
374.965	103.56
375.191	90.56
375.416	86.56
375.642	84.56
375.868	84.56
376.094	98.56
376.319	80.56
376.545	98.56
376.771	105.56
376.997	89.56
377.222	89.56
377.448	99.56
377.674	93.56
377.899	93.56
378.125	95.56
378.35	94.56
378.576	69.56
378.802	89.56
379.027	90.56
379.253	94.56
379.478	70.56
379.704	105.56
379.929	83.56
380.155	97.56
380.38	92.56
380.606	103.56
380.831	90.56
381.057	90.56
381.282	106.56
381.507	98.56
381.733	93.56
381.958	102.56
382.184	115.56
382.409	96.56
382.634	95.56
382.86	102.56
383.085	110.56
383.31	101.56
383.535	97.56
383.761	99.56
383.986	100.56
384.211	102.56
384.436	79.56
384.662	104.56
384.887	99.56
385.112	108.56
385.337	110.56
385.562	113.56
385.787	103.56
386.013	106.56
386.238	114.56
386.463	109.56
386.688	95.56
386.913	102.56
387.138	102.56
387.363	99.56
387.588	97.56
387.813	103.56
388.038	106.56
388.263	115.56
388.488	101.56
388.713	101.56
388.938	88.56
389.163	88.56
389.387	94.56
389.612	98.56
389.837	86.56
390.062	105.56
390.287	78.56
390.512	85.56
390.736	89.56
390.961	106.56
391.186	96.56
391.411	89.56
391.636	95.56
391.86	79.56
392.085	93.56
392.31	77.56
392.534	94.56
392.759	82.56
392.984	102.56
393.208	111.56
393.433	132.56
393.658	130.56
393.882	98.56
394.107	92.56
394.331	83.56
394.556	89.56
394.78	94.56
395.005	85.56
395.229	81.56
395.454	102.56
395.678	76.56
395.903	93.56
396.127	89.56
396.352	81.56
396.576	89.56
396.801	96.56
397.025	116.56
397.249	100.56
397.474	99.56
397.698	84.56
397.922	92.56
398.147	87.56
398.371	82.56
398.595	90.56
398.82	81.56
399.044	68.56
399.268	77.56
399.492	89.56
399.717	92.56
399.941	82.56
400.165	85.56
400.389	94.56
400.613	85.56
400.837	84.56
401.062	90.56
401.286	83.56
401.51	82.56
401.734	77.56
401.958	101.56
402.182	128.56
402.406	146.56
402.63	129.56
402.854	100.56
403.078	91.56
403.302	80.56
403.526	102.56
403.75	89.56
403.974	83.56
404.198	100.56
404.422	80.56
404.645	92.56
404.869	102.56
405.093	102.56
405.317	103.56
405.541	102.56
405.765	95.56
405.988	123.56
406.212	155.56
406.436	217.56
406.66	151.56
406.883	99.56
407.107	106.56
407.331	93.56
407.555	107.56
407.778	101.56
408.002	87.56
408.226	100.56
408.449	85.56
408.673	85.56
408.896	78.56
409.12	94.56
409.344	83.56
409.567	79.56
409.791	98.56
410.014	84.56
410.238	93.56
410.461	78.56
410.685	91.56
410.908	98.56
411.132	99.56
411.355	85.56
411.578	90.56
411.802	88.56
412.025	85.56
412.249	97.56
412.472	100.56
412.695	97.56
412.919	102.56
413.142	91.56
413.365	82.56
413.589	86.56
413.812	89.56
414.035	83.56
414.258	93.56
414.482	92.56
414.705	84.56
414.928	90.56
415.151	88.56
415.374	92.56
415.597	80.56
415.821	92.56
416.044	74.56
416.267	86.56
416.49	100.56
416.713	86.56
416.936	85.56
417.159	77.56
417.382	90.56
417.605	84.56
417.828	83.56
418.051	97.56
418.274	84.56
418.497	91.56
418.72	80.56
418.943	96.56
419.166	73.56
419.389	83.56
419.611	88.56
419.834	95.56
420.057	100.56
420.28	85.56
420.503	89.56
420.726	91.56
420.948	93.56
421.171	96.56
421.394	94.56
421.617	93.56
421.839	84.56
422.062	70.56
422.285	93.56
422.507	95.56
422.73	111.56
422.953	117.56
423.175	86.56
423.398	101.56
423.621	91.56
423.843	81.56
424.066	83.56
424.288	84.56
424.511	82.56
424.733	99.56
424.956	108.56
425.178	111.56
425.401	113.56
425.623	99.56
425.846	99.56
426.068	84.56
426.291	85.56
426.513	100.56
426.735	84.56
426.958	97.56
427.18	90.56
427.402	123.56
427.625	161.56
427.847	165.56
428.069	131.56
428.292	94.56
428.514	106.56
428.736	85.56
428.958	86.56
429.181	96.56
429.403	96.56
429.625	66.56
429.847	93.56
430.069	105.56
430.292	94.56
430.514	79.56
430.736	97.56
430.958	94.56
431.18	97.56
431.402	76.56
431.624	75.56
431.846	84.56
432.068	85.56
432.29	81.56
432.512	100.56
432.734	91.56
432.956	91.56
433.178	85.56
433.4	99.56
433.622	89.56
433.844	73.56
434.066	93.56
434.287	100.56
434.509	82.56
434.731	85.56
434.953	80.56
435.175	78.56
435.397	98.56
435.618	93.56
435.84	108.56
436.062	128.56
436.284	123.56
436.505	102.56
436.727	86.56
436.949	83.56
437.17	92.56
437.392	81.56
437.614	94.56
437.835	107.56
438.057	113.56
438.278	107.56
438.5	106.56
438.721	112.56
438.943	106.56
439.165	81.56
439.386	96.56
439.608	102.56
439.829	94.56
440.05	119.56
440.272	138.56
440.493	106.56
440.715	82.56
440.936	95.56
441.158	88.56
441.379	80.56
441.6	95.56
441.822	96.56
442.043	94.56
442.264	107.56
442.486	86.56
442.707	90.56
442.928	103.56
443.149	129.56
443.371	133.56
443.592	103.56
443.813	110.56
444.034	86.56
444.255	104.56
444.476	84.56
444.698	84.56
444.919	91.56
445.14	119.56
445.361	119.56
445.582	108.56
445.803	129.56
446.024	140.56
446.245	122.56
446.466	121.56
446.687	88.56
446.908	94.56
447.129	90.56
447.35	101.56
447.571	106.56
447.792	94.56
448.013	105.56
448.234	98.56
448.455	85.56
448.675	121.56
448.896	109.56
449.117	93.56
449.338	96.56
449.559	138.56
449.779	127.56
450	88.56
450.221	95.56
450.442	95.56
450.662	94.56
450.883	121.56
451.104	108.56
451.324	93.56
451.545	94.56
451.766	90.56
451.986	98.56
452.207	82.56
452.428	110.56
452.648	101.56
452.869	134.56
453.089	101.56
453.31	121.56
453.53	86.56
453.751	95.56
453.971	101.56
454.192	122.56
454.412	85.56
454.633	77.56
454.853	88.56
455.073	70.56
455.294	87.56
455.514	98.56
455.734	88.56
455.955	86.56
456.175	80.56
456.395	78.56
456.616	82.56
456.836	84.56
457.056	79.56
457.276	84.56
457.497	86.56
457.717	79.56
457.937	81.56
458.157	78.56
458.377	87.56
458.598	93.56
458.818	154.56
459.038	158.56
459.258	118.56
459.478	102.56
459.698	77.56
459.918	84.56
460.138	83.56
460.358	86.56
460.578	85.56
460.798	81.56
461.018	69.56
461.238	77.56
461.458	90.56
461.678	85.56
461.898	79.56
462.118	88.56
462.338	82.56
462.558	72.56
462.777	82.56
462.997	87.56
463.217	93.56
463.437	83.56
463.657	87.56
463.876	87.56
464.096	94.56
464.316	89.56
464.536	82.56
464.755	95.56
464.975	112.56
465.195	172.56
465.414	158.56
465.634	89.56
465.854	79.56
466.073	89.56
466.293	81.56
466.512	80.56
466.732	85.56
466.951	71.56
467.171	86.56
467.391	95.56
467.61	99.56
467.829	127.56
468.049	227.56
468.268	279.56
468.488	111.56
468.707	87.56
468.927	88.56
469.146	77.56
469.365	91.56
469.585	90.56
469.804	95.56
470.023	91.56
470.243	100.56
470.462	85.56
470.681	109.56
470.901	90.56
471.12	96.56
471.339	86.56
471.558	88.56
471.777	108.56
471.997	164.56
472.216	383.56
472.435	761.56
472.654	212.56
472.873	117.56
473.092	90.56
473.311	86.56
473.53	73.56
473.749	83.56
473.968	101.56
474.187	116.56
474.406	98.56
474.625	79.56
474.844	82.56
475.063	90.56
475.282	89.56
475.501	83.56
475.72	85.56
475.939	88.56
476.158	81.56
476.377	79.56
476.596	80.56
476.814	89.56
477.033	90.56
477.252	90.56
477.471	93.56
477.69	81.56
477.908	83.56
478.127	85.56
478.346	102.56
478.564	91.56
478.783	98.56
479.002	109.56
479.22	98.56
479.439	105.56
479.658	109.56
479.876	85.56
480.095	108.56
480.313	102.56
480.532	110.56
480.751	153.56
480.969	366.56
481.188	1291.56
481.406	755.56
481.624	164.56
481.843	91.56
482.061	79.56
482.28	89.56
482.498	78.56
482.717	88.56
482.935	75.56
483.153	89.56
483.372	92.56
483.59	84.56
483.808	88.56
484.027	82.56
484.245	81.56
484.463	82.56
484.681	108.56
484.9	97.56
485.118	96.56
485.336	93.56
485.554	110.56
485.772	101.56
485.99	112.56
486.209	92.56
486.427	99.56
486.645	84.56
486.863	115.56
487.081	84.56
487.299	91.56
487.517	97.56
487.735	93.56
487.953	76.56
488.171	95.56
488.389	102.56
488.607	97.56
488.825	82.56
489.043	73.56
489.261	85.56
489.479	84.56
489.696	98.56
489.914	78.56
490.132	89.56
490.35	81.56
490.568	98.56
490.786	92.56
491.003	117.56
491.221	92.56
491.439	99.56
491.657	97.56
491.874	107.56
492.092	92.56
492.31	92.56
492.527	82.56
492.745	82.56
492.963	83.56
493.18	83.56
493.398	91.56
493.615	89.56
493.833	95.56
494.05	102.56
494.268	96.56
494.485	76.56
494.703	80.56
494.92	80.56
495.138	74.56
495.355	88.56
495.573	81.56
495.79	94.56
496.008	81.56
496.225	79.56
496.442	85.56
496.66	79.56
496.877	99.56
497.094	85.56
497.312	78.56
497.529	85.56
497.746	79.56
497.963	100.56
498.181	87.56
498.398	99.56
498.615	99.56
498.832	104.56
499.049	81.56
499.267	84.56
499.484	91.56
499.701	93.56
499.918	89.56
500.135	66.56
500.352	89.56
500.569	96.56
500.786	89.56
501.003	90.56
501.22	83.56
501.437	85.56
501.654	99.56
501.871	104.56
502.088	89.56
502.305	98.56
502.522	96.56
502.739	94.56
502.956	92.56
503.172	91.56
503.389	95.56
503.606	94.56
503.823	95.56
504.04	91.56
504.256	79.56
504.473	78.56
504.69	77.56
504.907	89.56
505.123	86.56
505.34	76.56
505.557	76.56
505.773	90.56
505.99	83.56
506.207	98.56
506.423	92.56
506.64	89.56
506.856	87.56
507.073	97.56
507.289	89.56
507.506	90.56
507.722	113.56
507.939	108.56
508.155	98.56
508.372	102.56
508.588	81.56
508.805	100.56
509.021	94.56
509.238	105.56
509.454	102.56
509.67	97.56
509.887	108.56
510.103	134.56
510.319	206.56
510.536	755.56
510.752	2441.56
510.968	657.56
511.184	155.56
511.401	96.56
511.617	95.56
511.833	97.56
512.049	97.56
512.265	85.56
512.481	95.56
512.698	86.56
512.914	99.56
513.13	95.56
513.346	92.56
513.562	105.56
513.778	99.56
513.994	94.56
514.21	97.56
514.426	111.56
514.642	128.56
514.858	115.56
515.074	162.56
515.29	463.56
515.506	1558.56
