Data from Circ_1991_H10_HRD10591_00089.txt Node
Date: Wed Jan 03 11:51:59 EST 2024
User: Yrep
Spectrometer: HR+D1059
Trigger mode: 1
Integration Time (sec): 1.000000E-1
Scans to average: 1
Electric dark correction enabled: true
Nonlinearity correction enabled: false
Boxcar width: 0
XAxis mode: Wavelengths
Number of Pixels in Spectrum: 2048
>>>>>Begin Spectral Data<<<<<
223.165	-20.12
223.4	-20.12
223.635	-20.12
223.869	-19.12
224.104	-19.12
224.338	-16.12
224.573	-27.12
224.808	-8.12
225.042	-6.12
225.277	-11.12
225.511	3.88
225.746	2.88
225.98	1.88
226.215	10.88
226.449	9.88
226.683	29.88
226.918	32.88
227.152	34.88
227.387	37.88
227.621	28.88
227.856	43.88
228.09	52.88
228.324	36.88
228.559	63.88
228.793	61.88
229.027	57.88
229.262	60.88
229.496	59.88
229.73	64.88
229.964	75.88
230.199	75.88
230.433	71.88
230.667	87.88
230.901	86.88
231.136	80.88
231.37	77.88
231.604	73.88
231.838	62.88
232.072	83.88
232.306	73.88
232.541	74.88
232.775	91.88
233.009	88.88
233.243	84.88
233.477	95.88
233.711	87.88
233.945	79.88
234.179	95.88
234.413	76.88
234.647	75.88
234.881	68.88
235.115	81.88
235.349	72.88
235.583	75.88
235.817	78.88
236.051	68.88
236.285	73.88
236.519	77.88
236.753	68.88
236.987	68.88
237.221	84.88
237.455	81.88
237.689	86.88
237.922	57.88
238.156	84.88
238.39	82.88
238.624	67.88
238.858	63.88
239.091	71.88
239.325	81.88
239.559	67.88
239.793	73.88
240.027	71.88
240.26	73.88
240.494	84.88
240.728	67.88
240.961	62.88
241.195	75.88
241.429	67.88
241.662	75.88
241.896	72.88
242.13	71.88
242.363	60.88
242.597	77.88
242.83	69.88
243.064	71.88
243.298	71.88
243.531	67.88
243.765	82.88
243.998	88.88
244.232	69.88
244.465	77.88
244.699	76.88
244.932	71.88
245.166	87.88
245.399	68.88
245.633	76.88
245.866	79.88
246.099	67.88
246.333	81.88
246.566	76.88
246.8	79.88
247.033	88.88
247.266	79.88
247.5	71.88
247.733	83.88
247.966	67.88
248.2	79.88
248.433	75.88
248.666	69.88
248.899	93.88
249.133	87.88
249.366	92.88
249.599	90.88
249.832	91.88
250.066	81.88
250.299	96.88
250.532	82.88
250.765	66.88
250.998	74.88
251.231	90.88
251.465	85.88
251.698	71.88
251.931	86.88
252.164	72.88
252.397	76.88
252.63	88.88
252.863	64.88
253.096	75.88
253.329	77.88
253.562	91.88
253.795	73.88
254.028	83.88
254.261	91.88
254.494	77.88
254.727	80.88
254.96	91.88
255.193	76.88
255.426	77.88
255.659	91.88
255.892	85.88
256.124	73.88
256.357	74.88
256.59	84.88
256.823	68.88
257.056	82.88
257.289	79.88
257.521	74.88
257.754	88.88
257.987	67.88
258.22	80.88
258.452	87.88
258.685	84.88
258.918	85.88
259.151	88.88
259.383	78.88
259.616	82.88
259.849	88.88
260.081	69.88
260.314	81.88
260.547	87.88
260.779	89.88
261.012	93.88
261.244	88.88
261.477	95.88
261.71	98.88
261.942	107.88
262.175	116.88
262.407	83.88
262.64	82.88
262.872	82.88
263.105	89.88
263.337	87.88
263.57	80.88
263.802	93.88
264.035	71.88
264.267	73.88
264.499	77.88
264.732	85.88
264.964	75.88
265.197	84.88
265.429	80.88
265.661	79.88
265.894	85.88
266.126	88.88
266.358	95.88
266.591	87.88
266.823	75.88
267.055	76.88
267.287	62.88
267.52	84.88
267.752	75.88
267.984	80.88
268.216	80.88
268.448	80.88
268.681	94.88
268.913	93.88
269.145	78.88
269.377	97.88
269.609	73.88
269.841	79.88
270.073	89.88
270.306	88.88
270.538	69.88
270.77	82.88
271.002	75.88
271.234	111.88
271.466	95.88
271.698	89.88
271.93	88.88
272.162	81.88
272.394	89.88
272.626	79.88
272.858	93.88
273.09	96.88
273.322	87.88
273.553	65.88
273.785	82.88
274.017	81.88
274.249	81.88
274.481	78.88
274.713	87.88
274.945	75.88
275.176	84.88
275.408	87.88
275.64	91.88
275.872	100.88
276.104	96.88
276.335	88.88
276.567	92.88
276.799	122.88
277.031	126.88
277.262	101.88
277.494	111.88
277.726	90.88
277.957	93.88
278.189	92.88
278.421	85.88
278.652	73.88
278.884	91.88
279.115	78.88
279.347	95.88
279.579	90.88
279.81	105.88
280.042	115.88
280.273	141.88
280.505	120.88
280.736	90.88
280.968	88.88
281.199	85.88
281.431	83.88
281.662	87.88
281.894	96.88
282.125	99.88
282.356	104.88
282.588	135.88
282.819	120.88
283.051	83.88
283.282	80.88
283.513	96.88
283.745	87.88
283.976	80.88
284.207	94.88
284.439	86.88
284.67	82.88
284.901	75.88
285.132	87.88
285.364	82.88
285.595	92.88
285.826	100.88
286.057	85.88
286.288	76.88
286.52	88.88
286.751	87.88
286.982	92.88
287.213	87.88
287.444	98.88
287.675	100.88
287.906	89.88
288.138	81.88
288.369	93.88
288.6	91.88
288.831	96.88
289.062	81.88
289.293	85.88
289.524	79.88
289.755	89.88
289.986	91.88
290.217	77.88
290.448	88.88
290.679	95.88
290.91	97.88
291.141	79.88
291.371	87.88
291.602	83.88
291.833	82.88
292.064	80.88
292.295	94.88
292.526	82.88
292.757	76.88
292.987	71.88
293.218	80.88
293.449	92.88
293.68	94.88
293.91	88.88
294.141	100.88
294.372	89.88
294.603	98.88
294.833	82.88
295.064	78.88
295.295	83.88
295.525	88.88
295.756	100.88
295.987	114.88
296.217	131.88
296.448	121.88
296.679	84.88
296.909	81.88
297.14	83.88
297.37	88.88
297.601	105.88
297.831	85.88
298.062	94.88
298.292	78.88
298.523	84.88
298.753	85.88
298.984	83.88
299.214	94.88
299.445	91.88
299.675	83.88
299.905	103.88
300.136	98.88
300.366	71.88
300.597	86.88
300.827	100.88
301.057	98.88
301.288	95.88
301.518	89.88
301.748	92.88
301.979	113.88
302.209	92.88
302.439	87.88
302.669	99.88
302.9	83.88
303.13	89.88
303.36	95.88
303.59	117.88
303.82	98.88
304.051	87.88
304.281	91.88
304.511	89.88
304.741	93.88
304.971	84.88
305.201	91.88
305.431	91.88
305.661	82.88
305.891	90.88
306.121	82.88
306.352	106.88
306.582	100.88
306.812	89.88
307.042	90.88
307.272	123.88
307.502	140.88
307.731	129.88
307.961	96.88
308.191	102.88
308.421	91.88
308.651	83.88
308.881	100.88
309.111	78.88
309.341	78.88
309.571	96.88
309.8	87.88
310.03	95.88
310.26	99.88
310.49	104.88
310.72	105.88
310.949	94.88
311.179	96.88
311.409	100.88
311.639	105.88
311.868	88.88
312.098	100.88
312.328	94.88
312.557	92.88
312.787	95.88
313.017	98.88
313.246	102.88
313.476	88.88
313.706	90.88
313.935	88.88
314.165	101.88
314.394	98.88
314.624	78.88
314.853	97.88
315.083	92.88
315.312	94.88
315.542	85.88
315.771	88.88
316.001	94.88
316.23	98.88
316.46	90.88
316.689	94.88
316.919	82.88
317.148	91.88
317.377	89.88
317.607	87.88
317.836	88.88
318.065	81.88
318.295	83.88
318.524	79.88
318.753	83.88
318.983	91.88
319.212	94.88
319.441	99.88
319.67	101.88
319.9	88.88
320.129	87.88
320.358	82.88
320.587	91.88
320.816	100.88
321.046	107.88
321.275	90.88
321.504	94.88
321.733	95.88
321.962	102.88
322.191	96.88
322.42	112.88
322.649	108.88
322.878	114.88
323.108	105.88
323.337	113.88
323.566	128.88
323.795	141.88
324.024	207.88
324.253	414.88
324.482	889.88
324.71	1918.88
324.939	2604.88
325.168	900.88
325.397	257.88
325.626	168.88
325.855	137.88
326.084	120.88
326.313	123.88
326.542	135.88
326.77	257.88
326.999	457.88
327.228	1047.88
327.457	1953.88
327.686	1570.88
327.914	447.88
328.143	319.88
328.372	344.88
328.6	217.88
328.829	145.88
329.058	130.88
329.287	132.88
329.515	129.88
329.744	147.88
329.972	264.88
330.201	461.88
330.43	636.88
330.658	335.88
330.887	184.88
331.115	133.88
331.344	114.88
331.572	103.88
331.801	110.88
332.03	94.88
332.258	99.88
332.486	96.88
332.715	106.88
332.943	100.88
333.172	121.88
333.4	117.88
333.629	124.88
333.857	153.88
334.085	237.88
334.314	449.88
334.542	811.88
334.771	754.88
334.999	220.88
335.227	123.88
335.455	117.88
335.684	113.88
335.912	93.88
336.14	95.88
336.369	90.88
336.597	100.88
336.825	98.88
337.053	92.88
337.281	92.88
337.51	93.88
337.738	91.88
337.966	93.88
338.194	91.88
338.422	106.88
338.65	81.88
338.878	88.88
339.106	82.88
339.334	84.88
339.562	91.88
339.79	84.88
340.018	84.88
340.246	96.88
340.474	95.88
340.702	88.88
340.93	89.88
341.158	96.88
341.386	88.88
341.614	91.88
341.842	91.88
342.07	99.88
342.298	96.88
342.526	96.88
342.754	90.88
342.981	80.88
343.209	80.88
343.437	98.88
343.665	101.88
343.893	87.88
344.12	88.88
344.348	74.88
344.576	80.88
344.804	88.88
345.031	92.88
345.259	84.88
345.487	106.88
345.714	103.88
345.942	98.88
346.17	103.88
346.397	98.88
346.625	95.88
346.853	81.88
347.08	95.88
347.308	101.88
347.535	104.88
347.763	98.88
347.99	101.88
348.218	87.88
348.445	104.88
348.673	103.88
348.9	98.88
349.128	87.88
349.355	90.88
349.583	96.88
349.81	96.88
350.037	89.88
350.265	81.88
350.492	101.88
350.72	99.88
350.947	99.88
351.174	105.88
351.402	106.88
351.629	96.88
351.856	91.88
352.083	113.88
352.311	92.88
352.538	115.88
352.765	118.88
352.992	96.88
353.22	100.88
353.447	90.88
353.674	100.88
353.901	89.88
354.128	90.88
354.355	92.88
354.583	87.88
354.81	82.88
355.037	102.88
355.264	106.88
355.491	78.88
355.718	91.88
355.945	86.88
356.172	94.88
356.399	89.88
356.626	91.88
356.853	77.88
357.08	97.88
357.307	87.88
357.534	90.88
357.761	81.88
357.988	103.88
358.215	97.88
358.441	107.88
358.668	95.88
358.895	92.88
359.122	87.88
359.349	96.88
359.576	98.88
359.802	109.88
360.029	99.88
360.256	126.88
360.483	97.88
360.709	82.88
360.936	91.88
361.163	87.88
361.39	91.88
361.616	89.88
361.843	96.88
362.07	97.88
362.296	102.88
362.523	79.88
362.749	76.88
362.976	81.88
363.203	82.88
363.429	86.88
363.656	89.88
363.882	78.88
364.109	79.88
364.335	79.88
364.562	82.88
364.788	87.88
365.015	81.88
365.241	101.88
365.468	110.88
365.694	111.88
365.92	99.88
366.147	93.88
366.373	91.88
366.599	90.88
366.826	93.88
367.052	81.88
367.278	84.88
367.505	90.88
367.731	84.88
367.957	97.88
368.184	83.88
368.41	83.88
368.636	105.88
368.862	117.88
369.089	101.88
369.315	78.88
369.541	82.88
369.767	99.88
369.993	88.88
370.219	89.88
370.445	99.88
370.672	79.88
370.898	78.88
371.124	92.88
371.35	79.88
371.576	82.88
371.802	81.88
372.028	93.88
372.254	91.88
372.48	89.88
372.706	86.88
372.932	96.88
373.158	100.88
373.384	100.88
373.61	90.88
373.835	89.88
374.061	93.88
374.287	92.88
374.513	84.88
374.739	88.88
374.965	91.88
375.191	107.88
375.416	83.88
375.642	82.88
375.868	91.88
376.094	89.88
376.319	76.88
376.545	80.88
376.771	78.88
376.997	82.88
377.222	67.88
377.448	90.88
377.674	77.88
377.899	76.88
378.125	88.88
378.35	79.88
378.576	82.88
378.802	89.88
379.027	91.88
379.253	98.88
379.478	96.88
379.704	86.88
379.929	94.88
380.155	83.88
380.38	87.88
380.606	106.88
380.831	88.88
381.057	98.88
381.282	88.88
381.507	76.88
381.733	105.88
381.958	84.88
382.184	99.88
382.409	79.88
382.634	94.88
382.86	102.88
383.085	102.88
383.31	101.88
383.535	101.88
383.761	85.88
383.986	97.88
384.211	83.88
384.436	84.88
384.662	88.88
384.887	94.88
385.112	89.88
385.337	98.88
385.562	92.88
385.787	103.88
386.013	94.88
386.238	100.88
386.463	99.88
386.688	108.88
386.913	85.88
387.138	90.88
387.363	84.88
387.588	103.88
387.813	89.88
388.038	104.88
388.263	118.88
388.488	87.88
388.713	104.88
388.938	83.88
389.163	88.88
389.387	99.88
389.612	92.88
389.837	88.88
390.062	91.88
390.287	90.88
390.512	87.88
390.736	79.88
390.961	81.88
391.186	100.88
391.411	78.88
391.636	93.88
391.86	91.88
392.085	83.88
392.31	82.88
392.534	84.88
392.759	81.88
392.984	89.88
393.208	95.88
393.433	94.88
393.658	100.88
393.882	101.88
394.107	74.88
394.331	77.88
394.556	75.88
394.78	68.88
395.005	73.88
395.229	83.88
395.454	91.88
395.678	83.88
395.903	90.88
396.127	88.88
396.352	91.88
396.576	82.88
396.801	74.88
397.025	79.88
397.249	82.88
397.474	80.88
397.698	90.88
397.922	78.88
398.147	89.88
398.371	87.88
398.595	96.88
398.82	79.88
399.044	91.88
399.268	84.88
399.492	91.88
399.717	83.88
399.941	90.88
400.165	89.88
400.389	92.88
400.613	85.88
400.837	87.88
401.062	89.88
401.286	83.88
401.51	79.88
401.734	94.88
401.958	101.88
402.182	119.88
402.406	157.88
402.63	120.88
402.854	79.88
403.078	83.88
403.302	90.88
403.526	99.88
403.75	84.88
403.974	81.88
404.198	83.88
404.422	84.88
404.645	85.88
404.869	84.88
405.093	94.88
405.317	118.88
405.541	110.88
405.765	105.88
405.988	113.88
406.212	171.88
406.436	215.88
406.66	135.88
406.883	113.88
407.107	90.88
407.331	101.88
407.555	99.88
407.778	98.88
408.002	92.88
408.226	99.88
408.449	85.88
408.673	85.88
408.896	78.88
409.12	92.88
409.344	89.88
409.567	79.88
409.791	76.88
410.014	98.88
410.238	93.88
410.461	85.88
410.685	88.88
410.908	84.88
411.132	95.88
411.355	119.88
411.578	96.88
411.802	73.88
412.025	78.88
412.249	87.88
412.472	101.88
412.695	117.88
412.919	106.88
413.142	78.88
413.365	91.88
413.589	86.88
413.812	87.88
414.035	84.88
414.258	86.88
414.482	79.88
414.705	89.88
414.928	82.88
415.151	81.88
415.374	87.88
415.597	80.88
415.821	92.88
416.044	75.88
416.267	78.88
416.49	90.88
416.713	91.88
416.936	100.88
417.159	80.88
417.382	82.88
417.605	99.88
417.828	100.88
418.051	82.88
418.274	86.88
418.497	81.88
418.72	85.88
418.943	92.88
419.166	91.88
419.389	88.88
419.611	91.88
419.834	83.88
420.057	81.88
420.28	104.88
420.503	97.88
420.726	95.88
420.948	98.88
421.171	96.88
421.394	88.88
421.617	81.88
421.839	87.88
422.062	87.88
422.285	86.88
422.507	96.88
422.73	102.88
422.953	92.88
423.175	63.88
423.398	89.88
423.621	79.88
423.843	83.88
424.066	89.88
424.288	92.88
424.511	88.88
424.733	103.88
424.956	102.88
425.178	100.88
425.401	92.88
425.623	102.88
425.846	92.88
426.068	89.88
426.291	83.88
426.513	82.88
426.735	86.88
426.958	93.88
427.18	109.88
427.402	137.88
427.625	202.88
427.847	203.88
428.069	165.88
428.292	99.88
428.514	93.88
428.736	97.88
428.958	81.88
429.181	86.88
429.403	86.88
429.625	76.88
429.847	95.88
430.069	100.88
430.292	85.88
430.514	72.88
430.736	87.88
430.958	94.88
431.18	83.88
431.402	62.88
431.624	86.88
431.846	95.88
432.068	82.88
432.29	79.88
432.512	75.88
432.734	82.88
432.956	89.88
433.178	94.88
433.4	104.88
433.622	74.88
433.844	89.88
434.066	97.88
434.287	93.88
434.509	81.88
434.731	94.88
434.953	75.88
435.175	89.88
435.397	91.88
435.618	92.88
435.84	113.88
436.062	126.88
436.284	113.88
436.505	105.88
436.727	99.88
436.949	87.88
437.17	88.88
437.392	97.88
437.614	91.88
437.835	96.88
438.057	135.88
438.278	113.88
438.5	122.88
438.721	135.88
438.943	111.88
439.165	84.88
439.386	86.88
439.608	83.88
439.829	98.88
440.05	133.88
440.272	149.88
440.493	114.88
440.715	97.88
440.936	81.88
441.158	83.88
441.379	89.88
441.6	87.88
441.822	93.88
442.043	94.88
442.264	100.88
442.486	106.88
442.707	91.88
442.928	112.88
443.149	111.88
443.371	140.88
443.592	112.88
443.813	102.88
444.034	100.88
444.255	75.88
444.476	96.88
444.698	81.88
444.919	89.88
445.14	119.88
445.361	109.88
445.582	108.88
445.803	150.88
446.024	147.88
446.245	133.88
446.466	98.88
446.687	90.88
446.908	89.88
447.129	86.88
447.35	88.88
447.571	85.88
447.792	102.88
448.013	101.88
448.234	100.88
448.455	99.88
448.675	110.88
448.896	109.88
449.117	82.88
449.338	119.88
449.559	124.88
449.779	139.88
450	105.88
450.221	99.88
450.442	105.88
450.662	95.88
450.883	101.88
451.104	100.88
451.324	100.88
451.545	90.88
451.766	96.88
451.986	85.88
452.207	63.88
452.428	89.88
452.648	105.88
452.869	114.88
453.089	111.88
453.31	110.88
453.53	91.88
453.751	81.88
453.971	99.88
454.192	108.88
454.412	95.88
454.633	90.88
454.853	91.88
455.073	63.88
455.294	84.88
455.514	89.88
455.734	96.88
455.955	91.88
456.175	88.88
456.395	76.88
456.616	86.88
456.836	92.88
457.056	92.88
457.276	64.88
457.497	69.88
457.717	78.88
457.937	76.88
458.157	72.88
458.377	104.88
458.598	102.88
458.818	164.88
459.038	157.88
459.258	119.88
459.478	100.88
459.698	85.88
459.918	91.88
460.138	87.88
460.358	84.88
460.578	90.88
460.798	96.88
461.018	91.88
461.238	95.88
461.458	88.88
461.678	83.88
461.898	64.88
462.118	87.88
462.338	91.88
462.558	91.88
462.777	93.88
462.997	90.88
463.217	89.88
463.437	84.88
463.657	87.88
463.876	95.88
464.096	89.88
464.316	88.88
464.536	92.88
464.755	82.88
464.975	115.88
465.195	158.88
465.414	154.88
465.634	86.88
465.854	89.88
466.073	95.88
466.293	78.88
466.512	80.88
466.732	81.88
466.951	96.88
467.171	82.88
467.391	115.88
467.61	111.88
467.829	142.88
468.049	316.88
468.268	382.88
468.488	143.88
468.707	85.88
468.927	80.88
469.146	89.88
469.365	92.88
469.585	94.88
469.804	93.88
470.023	100.88
470.243	91.88
470.462	93.88
470.681	114.88
470.901	96.88
471.12	107.88
471.339	90.88
471.558	99.88
471.777	106.88
471.997	179.88
472.216	562.88
472.435	1185.88
472.654	307.88
472.873	100.88
473.092	87.88
473.311	96.88
473.53	93.88
473.749	96.88
473.968	92.88
474.187	105.88
474.406	100.88
474.625	91.88
474.844	96.88
475.063	85.88
475.282	91.88
475.501	87.88
475.72	98.88
475.939	94.88
476.158	98.88
476.377	84.88
476.596	80.88
476.814	112.88
477.033	80.88
477.252	87.88
477.471	79.88
477.69	84.88
477.908	89.88
478.127	75.88
478.346	79.88
478.564	82.88
478.783	98.88
479.002	95.88
479.22	84.88
479.439	123.88
479.658	107.88
479.876	103.88
480.095	102.88
480.313	101.88
480.532	122.88
480.751	183.88
480.969	511.88
481.188	2060.88
481.406	1211.88
481.624	217.88
481.843	102.88
482.061	85.88
482.28	82.88
482.498	90.88
482.717	91.88
482.935	92.88
483.153	90.88
483.372	90.88
483.59	90.88
483.808	92.88
484.027	88.88
484.245	87.88
484.463	98.88
484.681	93.88
484.9	85.88
485.118	89.88
485.336	95.88
485.554	87.88
485.772	104.88
485.99	104.88
486.209	89.88
486.427	87.88
486.645	105.88
486.863	100.88
487.081	102.88
487.299	112.88
487.517	110.88
487.735	89.88
487.953	85.88
488.171	85.88
488.389	93.88
488.607	95.88
488.825	87.88
489.043	85.88
489.261	98.88
489.479	89.88
489.696	83.88
489.914	91.88
490.132	95.88
490.35	101.88
490.568	103.88
490.786	76.88
491.003	87.88
491.221	95.88
491.439	85.88
491.657	84.88
491.874	87.88
492.092	83.88
492.31	87.88
492.527	87.88
492.745	84.88
492.963	89.88
493.18	74.88
493.398	86.88
493.615	90.88
493.833	88.88
494.05	88.88
494.268	93.88
494.485	110.88
494.703	91.88
494.92	95.88
495.138	91.88
495.355	87.88
495.573	82.88
495.79	94.88
496.008	97.88
496.225	100.88
496.442	87.88
496.66	90.88
496.877	89.88
497.094	88.88
497.312	89.88
497.529	92.88
497.746	75.88
497.963	81.88
498.181	87.88
498.398	100.88
498.615	121.88
498.832	101.88
499.049	94.88
499.267	99.88
499.484	96.88
499.701	88.88
499.918	83.88
500.135	93.88
500.352	92.88
500.569	104.88
500.786	99.88
501.003	86.88
501.22	81.88
501.437	89.88
501.654	78.88
501.871	97.88
502.088	78.88
502.305	90.88
502.522	91.88
502.739	90.88
502.956	85.88
503.172	91.88
503.389	88.88
503.606	112.88
503.823	93.88
504.04	101.88
504.256	80.88
504.473	92.88
504.69	88.88
504.907	93.88
505.123	97.88
505.34	103.88
505.557	98.88
505.773	86.88
505.99	82.88
506.207	87.88
506.423	78.88
506.64	72.88
506.856	66.88
507.073	81.88
507.289	81.88
507.506	100.88
507.722	109.88
507.939	115.88
508.155	87.88
508.372	98.88
508.588	90.88
508.805	87.88
509.021	103.88
509.238	98.88
509.454	87.88
509.67	100.88
509.887	88.88
510.103	122.88
510.319	200.88
510.536	736.88
510.752	2351.88
510.968	651.88
511.184	160.88
511.401	121.88
511.617	94.88
511.833	97.88
512.049	79.88
512.265	83.88
512.481	101.88
512.698	95.88
512.914	87.88
513.13	86.88
513.346	88.88
513.562	90.88
513.778	101.88
513.994	92.88
514.21	113.88
514.426	115.88
514.642	135.88
514.858	137.88
515.074	158.88
515.29	460.88
515.506	1579.88
515.721	580.88
