Data from Circ_1991_H10_HRD10591_00085.txt Node
Date: Wed Jan 03 11:51:58 EST 2024
User: Yrep
Spectrometer: HR+D1059
Trigger mode: 1
Integration Time (sec): 1.000000E-1
Scans to average: 1
Electric dark correction enabled: true
Nonlinearity correction enabled: false
Boxcar width: 0
XAxis mode: Wavelengths
Number of Pixels in Spectrum: 2048
>>>>>Begin Spectral Data<<<<<
223.165	-7.38
223.4	-7.38
223.635	-7.38
223.869	-35.38
224.104	-18.38
224.338	-11.38
224.573	-10.38
224.808	-10.38
225.042	-12.38
225.277	-14.38
225.511	-2.38
225.746	12.62
225.98	-3.38
226.215	4.62
226.449	16.62
226.683	25.62
226.918	31.62
227.152	34.62
227.387	28.62
227.621	31.62
227.856	37.62
228.09	38.62
228.324	43.62
228.559	47.62
228.793	58.62
229.027	65.62
229.262	77.62
229.496	65.62
229.73	87.62
229.964	83.62
230.199	70.62
230.433	73.62
230.667	72.62
230.901	67.62
231.136	67.62
231.37	78.62
231.604	70.62
231.838	85.62
232.072	81.62
232.306	74.62
232.541	69.62
232.775	93.62
233.009	86.62
233.243	75.62
233.477	85.62
233.711	69.62
233.945	64.62
234.179	82.62
234.413	68.62
234.647	83.62
234.881	78.62
235.115	77.62
235.349	67.62
235.583	83.62
235.817	73.62
236.051	86.62
236.285	85.62
236.519	76.62
236.753	81.62
236.987	78.62
237.221	83.62
237.455	77.62
237.689	80.62
237.922	74.62
238.156	76.62
238.39	66.62
238.624	75.62
238.858	73.62
239.091	70.62
239.325	65.62
239.559	82.62
239.793	76.62
240.027	78.62
240.26	77.62
240.494	77.62
240.728	69.62
240.961	75.62
241.195	77.62
241.429	80.62
241.662	64.62
241.896	69.62
242.13	68.62
242.363	81.62
242.597	66.62
242.83	85.62
243.064	79.62
243.298	76.62
243.531	76.62
243.765	62.62
243.998	82.62
244.232	76.62
244.465	79.62
244.699	88.62
244.932	79.62
245.166	70.62
245.399	77.62
245.633	81.62
245.866	70.62
246.099	74.62
246.333	83.62
246.566	60.62
246.8	78.62
247.033	77.62
247.266	60.62
247.5	76.62
247.733	78.62
247.966	71.62
248.2	77.62
248.433	89.62
248.666	71.62
248.899	85.62
249.133	81.62
249.366	111.62
249.599	92.62
249.832	91.62
250.066	84.62
250.299	87.62
250.532	78.62
250.765	69.62
250.998	86.62
251.231	80.62
251.465	85.62
251.698	84.62
251.931	75.62
252.164	72.62
252.397	77.62
252.63	74.62
252.863	86.62
253.096	88.62
253.329	72.62
253.562	75.62
253.795	71.62
254.028	70.62
254.261	81.62
254.494	80.62
254.727	79.62
254.96	83.62
255.193	89.62
255.426	82.62
255.659	66.62
255.892	94.62
256.124	80.62
256.357	90.62
256.59	84.62
256.823	67.62
257.056	92.62
257.289	79.62
257.521	97.62
257.754	88.62
257.987	88.62
258.22	92.62
258.452	90.62
258.685	79.62
258.918	83.62
259.151	83.62
259.383	89.62
259.616	90.62
259.849	101.62
260.081	77.62
260.314	82.62
260.547	78.62
260.779	81.62
261.012	89.62
261.244	100.62
261.477	73.62
261.71	91.62
261.942	102.62
262.175	103.62
262.407	90.62
262.64	85.62
262.872	61.62
263.105	80.62
263.337	84.62
263.57	76.62
263.802	76.62
264.035	79.62
264.267	79.62
264.499	95.62
264.732	90.62
264.964	68.62
265.197	80.62
265.429	77.62
265.661	90.62
265.894	69.62
266.126	75.62
266.358	79.62
266.591	67.62
266.823	72.62
267.055	94.62
267.287	91.62
267.52	83.62
267.752	87.62
267.984	95.62
268.216	66.62
268.448	67.62
268.681	96.62
268.913	86.62
269.145	89.62
269.377	78.62
269.609	79.62
269.841	90.62
270.073	77.62
270.306	75.62
270.538	85.62
270.77	92.62
271.002	75.62
271.234	87.62
271.466	102.62
271.698	94.62
271.93	84.62
272.162	82.62
272.394	79.62
272.626	93.62
272.858	84.62
273.09	100.62
273.322	82.62
273.553	95.62
273.785	91.62
274.017	89.62
274.249	85.62
274.481	93.62
274.713	89.62
274.945	94.62
275.176	94.62
275.408	89.62
275.64	100.62
275.872	85.62
276.104	82.62
276.335	99.62
276.567	94.62
276.799	106.62
277.031	117.62
277.262	117.62
277.494	110.62
277.726	95.62
277.957	83.62
278.189	83.62
278.421	79.62
278.652	73.62
278.884	73.62
279.115	92.62
279.347	81.62
279.579	88.62
279.81	95.62
280.042	127.62
280.273	129.62
280.505	120.62
280.736	98.62
280.968	97.62
281.199	88.62
281.431	75.62
281.662	90.62
281.894	99.62
282.125	98.62
282.356	104.62
282.588	134.62
282.819	116.62
283.051	98.62
283.282	77.62
283.513	92.62
283.745	84.62
283.976	97.62
284.207	85.62
284.439	89.62
284.67	94.62
284.901	69.62
285.132	85.62
285.364	78.62
285.595	102.62
285.826	79.62
286.057	94.62
286.288	84.62
286.52	102.62
286.751	88.62
286.982	81.62
287.213	90.62
287.444	86.62
287.675	94.62
287.906	96.62
288.138	93.62
288.369	88.62
288.6	94.62
288.831	83.62
289.062	93.62
289.293	89.62
289.524	82.62
289.755	87.62
289.986	82.62
290.217	88.62
290.448	73.62
290.679	89.62
290.91	86.62
291.141	78.62
291.371	95.62
291.602	104.62
291.833	98.62
292.064	82.62
292.295	89.62
292.526	84.62
292.757	93.62
292.987	84.62
293.218	82.62
293.449	79.62
293.68	89.62
293.91	88.62
294.141	99.62
294.372	88.62
294.603	84.62
294.833	85.62
295.064	83.62
295.295	81.62
295.525	95.62
295.756	103.62
295.987	118.62
296.217	129.62
296.448	115.62
296.679	90.62
296.909	83.62
297.14	90.62
297.37	100.62
297.601	86.62
297.831	79.62
298.062	89.62
298.292	92.62
298.523	91.62
298.753	85.62
298.984	89.62
299.214	88.62
299.445	83.62
299.675	93.62
299.905	93.62
300.136	79.62
300.366	74.62
300.597	84.62
300.827	90.62
301.057	95.62
301.288	106.62
301.518	80.62
301.748	100.62
301.979	101.62
302.209	100.62
302.439	98.62
302.669	81.62
302.9	83.62
303.13	93.62
303.36	75.62
303.59	112.62
303.82	112.62
304.051	108.62
304.281	82.62
304.511	86.62
304.741	104.62
304.971	83.62
305.201	79.62
305.431	82.62
305.661	102.62
305.891	111.62
306.121	94.62
306.352	102.62
306.582	97.62
306.812	92.62
307.042	92.62
307.272	111.62
307.502	111.62
307.731	127.62
307.961	116.62
308.191	97.62
308.421	94.62
308.651	87.62
308.881	100.62
309.111	87.62
309.341	96.62
309.571	102.62
309.8	83.62
310.03	105.62
310.26	102.62
310.49	93.62
310.72	100.62
310.949	121.62
311.179	107.62
311.409	90.62
311.639	102.62
311.868	95.62
312.098	86.62
312.328	99.62
312.557	96.62
312.787	110.62
313.017	104.62
313.246	90.62
313.476	91.62
313.706	82.62
313.935	86.62
314.165	90.62
314.394	100.62
314.624	96.62
314.853	93.62
315.083	102.62
315.312	87.62
315.542	103.62
315.771	97.62
316.001	98.62
316.23	94.62
316.46	94.62
316.689	95.62
316.919	98.62
317.148	85.62
317.377	91.62
317.607	93.62
317.836	92.62
318.065	96.62
318.295	94.62
318.524	100.62
318.753	107.62
318.983	92.62
319.212	103.62
319.441	115.62
319.67	116.62
319.9	103.62
320.129	103.62
320.358	87.62
320.587	84.62
320.816	107.62
321.046	99.62
321.275	83.62
321.504	91.62
321.733	92.62
321.962	97.62
322.191	102.62
322.42	99.62
322.649	102.62
322.878	105.62
323.108	116.62
323.337	122.62
323.566	129.62
323.795	162.62
324.024	217.62
324.253	413.62
324.482	886.62
324.71	1921.62
324.939	2667.62
325.168	919.62
325.397	249.62
325.626	149.62
325.855	140.62
326.084	131.62
326.313	144.62
326.542	168.62
326.77	249.62
326.999	493.62
327.228	1049.62
327.457	1976.62
327.686	1623.62
327.914	437.62
328.143	285.62
328.372	309.62
328.6	201.62
328.829	134.62
329.058	131.62
329.287	133.62
329.515	133.62
329.744	161.62
329.972	213.62
330.201	379.62
330.43	535.62
330.658	284.62
330.887	177.62
331.115	136.62
331.344	100.62
331.572	108.62
331.801	114.62
332.03	110.62
332.258	111.62
332.486	98.62
332.715	107.62
332.943	103.62
333.172	106.62
333.4	106.62
333.629	122.62
333.857	172.62
334.085	219.62
334.314	362.62
334.542	682.62
334.771	624.62
334.999	209.62
335.227	111.62
335.455	107.62
335.684	104.62
335.912	109.62
336.14	91.62
336.369	103.62
336.597	98.62
336.825	102.62
337.053	107.62
337.281	99.62
337.51	104.62
337.738	99.62
337.966	90.62
338.194	97.62
338.422	98.62
338.65	83.62
338.878	83.62
339.106	102.62
339.334	83.62
339.562	88.62
339.79	94.62
340.018	107.62
340.246	85.62
340.474	102.62
340.702	97.62
340.93	94.62
341.158	83.62
341.386	84.62
341.614	108.62
341.842	98.62
342.07	85.62
342.298	82.62
342.526	89.62
342.754	96.62
342.981	78.62
343.209	91.62
343.437	91.62
343.665	90.62
343.893	92.62
344.12	91.62
344.348	83.62
344.576	82.62
344.804	93.62
345.031	93.62
345.259	98.62
345.487	104.62
345.714	96.62
345.942	102.62
346.17	92.62
346.397	91.62
346.625	81.62
346.853	103.62
347.08	92.62
347.308	84.62
347.535	98.62
347.763	86.62
347.99	103.62
348.218	91.62
348.445	97.62
348.673	96.62
348.9	84.62
349.128	97.62
349.355	96.62
349.583	83.62
349.81	93.62
350.037	83.62
350.265	96.62
350.492	98.62
350.72	109.62
350.947	85.62
351.174	103.62
351.402	116.62
351.629	95.62
351.856	103.62
352.083	101.62
352.311	104.62
352.538	116.62
352.765	94.62
352.992	108.62
353.22	117.62
353.447	110.62
353.674	102.62
353.901	94.62
354.128	94.62
354.355	95.62
354.583	102.62
354.81	90.62
355.037	85.62
355.264	99.62
355.491	100.62
355.718	87.62
355.945	75.62
356.172	92.62
356.399	103.62
356.626	98.62
356.853	84.62
357.08	100.62
357.307	77.62
357.534	81.62
357.761	96.62
357.988	86.62
358.215	100.62
358.441	94.62
358.668	96.62
358.895	92.62
359.122	98.62
359.349	87.62
359.576	83.62
359.802	111.62
360.029	122.62
360.256	103.62
360.483	95.62
360.709	92.62
360.936	100.62
361.163	92.62
361.39	91.62
361.616	94.62
361.843	101.62
362.07	107.62
362.296	100.62
362.523	86.62
362.749	80.62
362.976	89.62
363.203	83.62
363.429	94.62
363.656	81.62
363.882	83.62
364.109	104.62
364.335	84.62
364.562	86.62
364.788	90.62
365.015	98.62
365.241	84.62
365.468	78.62
365.694	111.62
365.92	96.62
366.147	91.62
366.373	87.62
366.599	83.62
366.826	75.62
367.052	96.62
367.278	82.62
367.505	83.62
367.731	89.62
367.957	89.62
368.184	86.62
368.41	102.62
368.636	107.62
368.862	105.62
369.089	108.62
369.315	107.62
369.541	100.62
369.767	91.62
369.993	92.62
370.219	108.62
370.445	99.62
370.672	92.62
370.898	80.62
371.124	81.62
371.35	110.62
371.576	93.62
371.802	83.62
372.028	95.62
372.254	87.62
372.48	89.62
372.706	98.62
372.932	85.62
373.158	89.62
373.384	87.62
373.61	79.62
373.835	96.62
374.061	110.62
374.287	83.62
374.513	87.62
374.739	98.62
374.965	83.62
375.191	85.62
375.416	77.62
375.642	90.62
375.868	92.62
376.094	96.62
376.319	92.62
376.545	89.62
376.771	78.62
376.997	84.62
377.222	91.62
377.448	97.62
377.674	90.62
377.899	91.62
378.125	84.62
378.35	99.62
378.576	96.62
378.802	91.62
379.027	90.62
379.253	81.62
379.478	83.62
379.704	107.62
379.929	100.62
380.155	92.62
380.38	81.62
380.606	90.62
380.831	101.62
381.057	108.62
381.282	95.62
381.507	91.62
381.733	113.62
381.958	96.62
382.184	82.62
382.409	101.62
382.634	98.62
382.86	120.62
383.085	89.62
383.31	111.62
383.535	91.62
383.761	109.62
383.986	96.62
384.211	88.62
384.436	83.62
384.662	107.62
384.887	97.62
385.112	102.62
385.337	109.62
385.562	90.62
385.787	94.62
386.013	99.62
386.238	103.62
386.463	112.62
386.688	109.62
386.913	90.62
387.138	99.62
387.363	107.62
387.588	81.62
387.813	90.62
388.038	90.62
388.263	110.62
388.488	111.62
388.713	105.62
388.938	94.62
389.163	99.62
389.387	86.62
389.612	83.62
389.837	83.62
390.062	97.62
390.287	96.62
390.512	90.62
390.736	98.62
390.961	92.62
391.186	87.62
391.411	93.62
391.636	92.62
391.86	85.62
392.085	76.62
392.31	83.62
392.534	81.62
392.759	98.62
392.984	82.62
393.208	101.62
393.433	100.62
393.658	104.62
393.882	73.62
394.107	83.62
394.331	92.62
394.556	85.62
394.78	94.62
395.005	97.62
395.229	89.62
395.454	82.62
395.678	89.62
395.903	102.62
396.127	101.62
396.352	87.62
396.576	93.62
396.801	74.62
397.025	81.62
397.249	84.62
397.474	94.62
397.698	81.62
397.922	95.62
398.147	82.62
398.371	84.62
398.595	98.62
398.82	79.62
399.044	90.62
399.268	84.62
399.492	77.62
399.717	93.62
399.941	94.62
400.165	100.62
400.389	79.62
400.613	89.62
400.837	64.62
401.062	75.62
401.286	81.62
401.51	96.62
401.734	90.62
401.958	104.62
402.182	127.62
402.406	152.62
402.63	110.62
402.854	93.62
403.078	79.62
403.302	99.62
403.526	88.62
403.75	94.62
403.974	89.62
404.198	90.62
404.422	81.62
404.645	74.62
404.869	100.62
405.093	96.62
405.317	110.62
405.541	106.62
405.765	93.62
405.988	109.62
406.212	158.62
406.436	230.62
406.66	135.62
406.883	93.62
407.107	96.62
407.331	91.62
407.555	94.62
407.778	95.62
408.002	86.62
408.226	91.62
408.449	77.62
408.673	97.62
408.896	89.62
409.12	86.62
409.344	83.62
409.567	97.62
409.791	95.62
410.014	95.62
410.238	98.62
410.461	95.62
410.685	85.62
410.908	94.62
411.132	95.62
411.355	97.62
411.578	85.62
411.802	94.62
412.025	85.62
412.249	95.62
412.472	103.62
412.695	114.62
412.919	97.62
413.142	83.62
413.365	98.62
413.589	101.62
413.812	91.62
414.035	102.62
414.258	75.62
414.482	80.62
414.705	90.62
414.928	84.62
415.151	88.62
415.374	86.62
415.597	85.62
415.821	102.62
416.044	94.62
416.267	93.62
416.49	90.62
416.713	95.62
416.936	84.62
417.159	93.62
417.382	89.62
417.605	107.62
417.828	96.62
418.051	100.62
418.274	90.62
418.497	91.62
418.72	68.62
418.943	92.62
419.166	95.62
419.389	90.62
419.611	95.62
419.834	96.62
420.057	87.62
420.28	74.62
420.503	93.62
420.726	99.62
420.948	94.62
421.171	83.62
421.394	89.62
421.617	92.62
421.839	94.62
422.062	85.62
422.285	92.62
422.507	108.62
422.73	109.62
422.953	98.62
423.175	94.62
423.398	91.62
423.621	89.62
423.843	81.62
424.066	68.62
424.288	88.62
424.511	82.62
424.733	100.62
424.956	108.62
425.178	101.62
425.401	100.62
425.623	98.62
425.846	86.62
426.068	103.62
426.291	96.62
426.513	100.62
426.735	86.62
426.958	90.62
427.18	84.62
427.402	147.62
427.625	174.62
427.847	164.62
428.069	165.62
428.292	110.62
428.514	93.62
428.736	90.62
428.958	86.62
429.181	92.62
429.403	68.62
429.625	87.62
429.847	106.62
430.069	94.62
430.292	96.62
430.514	79.62
430.736	82.62
430.958	91.62
431.18	81.62
431.402	81.62
431.624	91.62
431.846	101.62
432.068	92.62
432.29	97.62
432.512	89.62
432.734	94.62
432.956	102.62
433.178	99.62
433.4	95.62
433.622	82.62
433.844	91.62
434.066	95.62
434.287	103.62
434.509	89.62
434.731	85.62
434.953	82.62
435.175	95.62
435.397	94.62
435.618	99.62
435.84	98.62
436.062	129.62
436.284	120.62
436.505	100.62
436.727	100.62
436.949	107.62
437.17	101.62
437.392	78.62
437.614	81.62
437.835	95.62
438.057	107.62
438.278	102.62
438.5	98.62
438.721	115.62
438.943	102.62
439.165	82.62
439.386	90.62
439.608	95.62
439.829	104.62
440.05	112.62
440.272	143.62
440.493	92.62
440.715	86.62
440.936	104.62
441.158	79.62
441.379	86.62
441.6	93.62
441.822	74.62
442.043	93.62
442.264	110.62
442.486	94.62
442.707	94.62
442.928	111.62
443.149	133.62
443.371	117.62
443.592	108.62
443.813	97.62
444.034	105.62
444.255	83.62
444.476	86.62
444.698	87.62
444.919	98.62
445.14	122.62
445.361	127.62
445.582	112.62
445.803	130.62
446.024	152.62
446.245	145.62
446.466	120.62
446.687	98.62
446.908	97.62
447.129	87.62
447.35	80.62
447.571	92.62
447.792	101.62
448.013	110.62
448.234	101.62
448.455	87.62
448.675	104.62
448.896	111.62
449.117	95.62
449.338	111.62
449.559	114.62
449.779	146.62
450	102.62
450.221	79.62
450.442	93.62
450.662	111.62
450.883	109.62
451.104	95.62
451.324	93.62
451.545	74.62
451.766	76.62
451.986	84.62
452.207	93.62
452.428	86.62
452.648	107.62
452.869	118.62
453.089	111.62
453.31	113.62
453.53	80.62
453.751	90.62
453.971	101.62
454.192	100.62
454.412	86.62
454.633	90.62
454.853	79.62
455.073	84.62
455.294	90.62
455.514	92.62
455.734	81.62
455.955	81.62
456.175	92.62
456.395	82.62
456.616	85.62
456.836	100.62
457.056	76.62
457.276	85.62
457.497	93.62
457.717	65.62
457.937	89.62
458.157	86.62
458.377	82.62
458.598	99.62
458.818	138.62
459.038	159.62
459.258	105.62
459.478	94.62
459.698	92.62
459.918	92.62
460.138	83.62
460.358	80.62
460.578	82.62
460.798	84.62
461.018	77.62
461.238	79.62
461.458	83.62
461.678	93.62
461.898	77.62
462.118	85.62
462.338	96.62
462.558	73.62
462.777	59.62
462.997	82.62
463.217	85.62
463.437	83.62
463.657	91.62
463.876	99.62
464.096	110.62
464.316	87.62
464.536	99.62
464.755	90.62
464.975	110.62
465.195	171.62
465.414	159.62
465.634	78.62
465.854	91.62
466.073	93.62
466.293	78.62
466.512	86.62
466.732	82.62
466.951	81.62
467.171	83.62
467.391	99.62
467.61	118.62
467.829	129.62
468.049	251.62
468.268	358.62
468.488	121.62
468.707	87.62
468.927	81.62
469.146	82.62
469.365	78.62
469.585	89.62
469.804	90.62
470.023	82.62
470.243	86.62
470.462	94.62
470.681	100.62
470.901	113.62
471.12	89.62
471.339	94.62
471.558	95.62
471.777	108.62
471.997	166.62
472.216	470.62
472.435	958.62
472.654	272.62
472.873	114.62
473.092	93.62
473.311	96.62
473.53	97.62
473.749	87.62
473.968	93.62
474.187	103.62
474.406	90.62
474.625	97.62
474.844	81.62
475.063	101.62
475.282	97.62
475.501	84.62
475.72	91.62
475.939	76.62
476.158	81.62
476.377	85.62
476.596	92.62
476.814	82.62
477.033	95.62
477.252	86.62
477.471	81.62
477.69	80.62
477.908	93.62
478.127	92.62
478.346	93.62
478.564	93.62
478.783	90.62
479.002	89.62
479.22	89.62
479.439	103.62
479.658	115.62
479.876	96.62
480.095	95.62
480.313	107.62
480.532	111.62
480.751	155.62
480.969	450.62
481.188	1697.62
481.406	973.62
481.624	194.62
481.843	107.62
482.061	90.62
482.28	75.62
482.498	89.62
482.717	92.62
482.935	94.62
483.153	75.62
483.372	73.62
483.59	84.62
483.808	88.62
484.027	82.62
484.245	98.62
484.463	81.62
484.681	84.62
484.9	90.62
485.118	100.62
485.336	92.62
485.554	85.62
485.772	109.62
485.99	103.62
486.209	95.62
486.427	99.62
486.645	100.62
486.863	97.62
487.081	87.62
487.299	94.62
487.517	85.62
487.735	95.62
487.953	81.62
488.171	92.62
488.389	92.62
488.607	83.62
488.825	95.62
489.043	74.62
489.261	92.62
489.479	84.62
489.696	88.62
489.914	78.62
490.132	84.62
490.35	92.62
490.568	95.62
490.786	82.62
491.003	85.62
491.221	91.62
491.439	93.62
491.657	85.62
491.874	81.62
492.092	74.62
492.31	85.62
492.527	105.62
492.745	80.62
492.963	93.62
493.18	98.62
493.398	80.62
493.615	103.62
493.833	91.62
494.05	77.62
494.268	94.62
494.485	94.62
494.703	93.62
494.92	93.62
495.138	89.62
495.355	93.62
495.573	73.62
495.79	89.62
496.008	86.62
496.225	86.62
496.442	98.62
496.66	86.62
496.877	91.62
497.094	89.62
497.312	93.62
497.529	103.62
497.746	77.62
497.963	92.62
498.181	89.62
498.398	87.62
498.615	111.62
498.832	89.62
499.049	99.62
499.267	87.62
499.484	76.62
499.701	86.62
499.918	82.62
500.135	83.62
500.352	85.62
500.569	91.62
500.786	87.62
501.003	98.62
501.22	91.62
501.437	78.62
501.654	77.62
501.871	109.62
502.088	87.62
502.305	93.62
502.522	96.62
502.739	85.62
502.956	101.62
503.172	79.62
503.389	87.62
503.606	92.62
503.823	102.62
504.04	78.62
504.256	74.62
504.473	97.62
504.69	98.62
504.907	64.62
505.123	93.62
505.34	80.62
505.557	89.62
505.773	93.62
505.99	76.62
506.207	73.62
506.423	91.62
506.64	82.62
506.856	81.62
507.073	92.62
507.289	79.62
507.506	99.62
507.722	124.62
507.939	118.62
508.155	101.62
508.372	93.62
508.588	88.62
508.805	90.62
509.021	96.62
509.238	96.62
509.454	102.62
509.67	87.62
509.887	106.62
510.103	123.62
510.319	216.62
510.536	706.62
510.752	2262.62
510.968	629.62
511.184	151.62
511.401	109.62
511.617	98.62
511.833	101.62
512.049	101.62
512.265	109.62
512.481	82.62
512.698	94.62
512.914	91.62
513.13	89.62
513.346	101.62
513.562	100.62
513.778	98.62
513.994	100.62
514.21	92.62
514.426	127.62
514.642	129.62
514.858	130.62
515.074	152.62
515.29	449.62
