Data from Circ_1991_H10_HRD10591_00065.txt Node
Date: Wed Jan 03 11:51:54 EST 2024
User: Yrep
Spectrometer: HR+D1059
Trigger mode: 1
Integration Time (sec): 1.000000E-1
Scans to average: 1
Electric dark correction enabled: true
Nonlinearity correction enabled: false
Boxcar width: 0
XAxis mode: Wavelengths
Number of Pixels in Spectrum: 2048
>>>>>Begin Spectral Data<<<<<
223.165	-20.94
223.4	-20.94
223.635	-20.94
223.869	-26.94
224.104	-26.94
224.338	-13.94
224.573	-8.94
224.808	-13.94
225.042	-8.94
225.277	-7.94
225.511	0.06
225.746	10.06
225.98	0.06
226.215	16.06
226.449	11.06
226.683	23.06
226.918	24.06
227.152	44.06
227.387	30.06
227.621	50.06
227.856	45.06
228.09	68.06
228.324	55.06
228.559	67.06
228.793	53.06
229.027	66.06
229.262	76.06
229.496	83.06
229.73	84.06
229.964	75.06
230.199	72.06
230.433	74.06
230.667	82.06
230.901	65.06
231.136	80.06
231.37	82.06
231.604	77.06
231.838	76.06
232.072	92.06
232.306	78.06
232.541	76.06
232.775	83.06
233.009	73.06
233.243	82.06
233.477	84.06
233.711	78.06
233.945	87.06
234.179	83.06
234.413	72.06
234.647	78.06
234.881	88.06
235.115	79.06
235.349	75.06
235.583	76.06
235.817	77.06
236.051	83.06
236.285	83.06
236.519	89.06
236.753	90.06
236.987	74.06
237.221	95.06
237.455	77.06
237.689	85.06
237.922	72.06
238.156	78.06
238.39	77.06
238.624	92.06
238.858	79.06
239.091	80.06
239.325	87.06
239.559	83.06
239.793	94.06
240.027	88.06
240.26	68.06
240.494	80.06
240.728	76.06
240.961	86.06
241.195	82.06
241.429	78.06
241.662	84.06
241.896	88.06
242.13	75.06
242.363	71.06
242.597	63.06
242.83	73.06
243.064	67.06
243.298	68.06
243.531	80.06
243.765	82.06
243.998	82.06
244.232	86.06
244.465	88.06
244.699	67.06
244.932	82.06
245.166	74.06
245.399	75.06
245.633	99.06
245.866	58.06
246.099	67.06
246.333	66.06
246.566	80.06
246.8	86.06
247.033	87.06
247.266	76.06
247.5	66.06
247.733	86.06
247.966	94.06
248.2	81.06
248.433	70.06
248.666	82.06
248.899	83.06
249.133	86.06
249.366	102.06
249.599	100.06
249.832	68.06
250.066	70.06
250.299	84.06
250.532	96.06
250.765	82.06
250.998	78.06
251.231	76.06
251.465	86.06
251.698	78.06
251.931	81.06
252.164	93.06
252.397	77.06
252.63	87.06
252.863	79.06
253.096	75.06
253.329	74.06
253.562	91.06
253.795	76.06
254.028	57.06
254.261	76.06
254.494	79.06
254.727	79.06
254.96	92.06
255.193	76.06
255.426	71.06
255.659	83.06
255.892	88.06
256.124	93.06
256.357	87.06
256.59	94.06
256.823	79.06
257.056	81.06
257.289	81.06
257.521	102.06
257.754	80.06
257.987	90.06
258.22	86.06
258.452	95.06
258.685	84.06
258.918	80.06
259.151	77.06
259.383	83.06
259.616	75.06
259.849	74.06
260.081	87.06
260.314	78.06
260.547	82.06
260.779	98.06
261.012	76.06
261.244	83.06
261.477	92.06
261.71	104.06
261.942	103.06
262.175	101.06
262.407	107.06
262.64	92.06
262.872	84.06
263.105	86.06
263.337	83.06
263.57	81.06
263.802	94.06
264.035	62.06
264.267	88.06
264.499	78.06
264.732	84.06
264.964	80.06
265.197	76.06
265.429	71.06
265.661	80.06
265.894	86.06
266.126	85.06
266.358	85.06
266.591	74.06
266.823	82.06
267.055	96.06
267.287	93.06
267.52	86.06
267.752	79.06
267.984	84.06
268.216	92.06
268.448	85.06
268.681	90.06
268.913	79.06
269.145	74.06
269.377	90.06
269.609	88.06
269.841	71.06
270.073	82.06
270.306	78.06
270.538	85.06
270.77	92.06
271.002	89.06
271.234	82.06
271.466	99.06
271.698	78.06
271.93	92.06
272.162	97.06
272.394	91.06
272.626	78.06
272.858	86.06
273.09	90.06
273.322	86.06
273.553	77.06
273.785	81.06
274.017	86.06
274.249	81.06
274.481	92.06
274.713	83.06
274.945	90.06
275.176	71.06
275.408	91.06
275.64	99.06
275.872	84.06
276.104	98.06
276.335	104.06
276.567	101.06
276.799	111.06
277.031	107.06
277.262	118.06
277.494	107.06
277.726	98.06
277.957	91.06
278.189	77.06
278.421	102.06
278.652	98.06
278.884	92.06
279.115	85.06
279.347	89.06
279.579	84.06
279.81	102.06
280.042	104.06
280.273	126.06
280.505	123.06
280.736	84.06
280.968	83.06
281.199	99.06
281.431	93.06
281.662	83.06
281.894	83.06
282.125	99.06
282.356	125.06
282.588	141.06
282.819	116.06
283.051	91.06
283.282	82.06
283.513	74.06
283.745	74.06
283.976	72.06
284.207	101.06
284.439	95.06
284.67	98.06
284.901	86.06
285.132	96.06
285.364	89.06
285.595	78.06
285.826	93.06
286.057	100.06
286.288	82.06
286.52	88.06
286.751	94.06
286.982	90.06
287.213	84.06
287.444	87.06
287.675	89.06
287.906	100.06
288.138	87.06
288.369	89.06
288.6	82.06
288.831	94.06
289.062	95.06
289.293	90.06
289.524	71.06
289.755	67.06
289.986	82.06
290.217	85.06
290.448	89.06
290.679	84.06
290.91	109.06
291.141	90.06
291.371	89.06
291.602	99.06
291.833	82.06
292.064	86.06
292.295	93.06
292.526	98.06
292.757	86.06
292.987	83.06
293.218	76.06
293.449	84.06
293.68	92.06
293.91	74.06
294.141	82.06
294.372	87.06
294.603	83.06
294.833	94.06
295.064	91.06
295.295	84.06
295.525	86.06
295.756	91.06
295.987	125.06
296.217	145.06
296.448	122.06
296.679	97.06
296.909	81.06
297.14	94.06
297.37	90.06
297.601	83.06
297.831	94.06
298.062	95.06
298.292	94.06
298.523	82.06
298.753	94.06
298.984	82.06
299.214	80.06
299.445	105.06
299.675	94.06
299.905	94.06
300.136	79.06
300.366	87.06
300.597	86.06
300.827	100.06
301.057	107.06
301.288	98.06
301.518	107.06
301.748	88.06
301.979	118.06
302.209	104.06
302.439	92.06
302.669	99.06
302.9	97.06
303.13	103.06
303.36	107.06
303.59	103.06
303.82	122.06
304.051	104.06
304.281	97.06
304.511	90.06
304.741	88.06
304.971	91.06
305.201	95.06
305.431	100.06
305.661	75.06
305.891	83.06
306.121	101.06
306.352	98.06
306.582	110.06
306.812	100.06
307.042	101.06
307.272	108.06
307.502	108.06
307.731	120.06
307.961	122.06
308.191	89.06
308.421	95.06
308.651	100.06
308.881	84.06
309.111	107.06
309.341	83.06
309.571	101.06
309.8	107.06
310.03	91.06
310.26	99.06
310.49	85.06
310.72	98.06
310.949	99.06
311.179	91.06
311.409	91.06
311.639	74.06
311.868	99.06
312.098	95.06
312.328	91.06
312.557	114.06
312.787	127.06
313.017	94.06
313.246	93.06
313.476	79.06
313.706	99.06
313.935	98.06
314.165	110.06
314.394	91.06
314.624	99.06
314.853	87.06
315.083	101.06
315.312	92.06
315.542	82.06
315.771	89.06
316.001	69.06
316.23	87.06
316.46	92.06
316.689	103.06
316.919	86.06
317.148	91.06
317.377	93.06
317.607	99.06
317.836	94.06
318.065	87.06
318.295	92.06
318.524	89.06
318.753	87.06
318.983	95.06
319.212	86.06
319.441	112.06
319.67	93.06
319.9	98.06
320.129	89.06
320.358	92.06
320.587	103.06
320.816	104.06
321.046	100.06
321.275	88.06
321.504	98.06
321.733	93.06
321.962	89.06
322.191	103.06
322.42	108.06
322.649	104.06
322.878	106.06
323.108	117.06
323.337	115.06
323.566	132.06
323.795	158.06
324.024	190.06
324.253	399.06
324.482	866.06
324.71	1836.06
324.939	2508.06
325.168	896.06
325.397	248.06
325.626	146.06
325.855	133.06
326.084	131.06
326.313	127.06
326.542	155.06
326.77	222.06
326.999	480.06
327.228	1002.06
327.457	1884.06
327.686	1523.06
327.914	430.06
328.143	303.06
328.372	307.06
328.6	193.06
328.829	140.06
329.058	136.06
329.287	140.06
329.515	125.06
329.744	164.06
329.972	239.06
330.201	386.06
330.43	564.06
330.658	295.06
330.887	167.06
331.115	125.06
331.344	94.06
331.572	108.06
331.801	109.06
332.03	101.06
332.258	111.06
332.486	86.06
332.715	101.06
332.943	87.06
333.172	101.06
333.4	97.06
333.629	127.06
333.857	138.06
334.085	215.06
334.314	383.06
334.542	716.06
334.771	703.06
334.999	226.06
335.227	111.06
335.455	105.06
335.684	100.06
335.912	101.06
336.14	102.06
336.369	102.06
336.597	81.06
336.825	99.06
337.053	92.06
337.281	106.06
337.51	85.06
337.738	99.06
337.966	99.06
338.194	107.06
338.422	98.06
338.65	97.06
338.878	100.06
339.106	90.06
339.334	88.06
339.562	92.06
339.79	103.06
340.018	91.06
340.246	87.06
340.474	93.06
340.702	97.06
340.93	72.06
341.158	85.06
341.386	90.06
341.614	91.06
341.842	93.06
342.07	82.06
342.298	91.06
342.526	89.06
342.754	85.06
342.981	81.06
343.209	100.06
343.437	98.06
343.665	82.06
343.893	93.06
344.12	88.06
344.348	95.06
344.576	87.06
344.804	82.06
345.031	88.06
345.259	95.06
345.487	92.06
345.714	87.06
345.942	98.06
346.17	100.06
346.397	82.06
346.625	95.06
346.853	90.06
347.08	94.06
347.308	98.06
347.535	94.06
347.763	102.06
347.99	98.06
348.218	91.06
348.445	79.06
348.673	87.06
348.9	88.06
349.128	87.06
349.355	83.06
349.583	88.06
349.81	87.06
350.037	86.06
350.265	95.06
350.492	109.06
350.72	97.06
350.947	99.06
351.174	101.06
351.402	114.06
351.629	94.06
351.856	92.06
352.083	98.06
352.311	105.06
352.538	120.06
352.765	109.06
352.992	103.06
353.22	107.06
353.447	111.06
353.674	91.06
353.901	97.06
354.128	104.06
354.355	99.06
354.583	108.06
354.81	109.06
355.037	91.06
355.264	92.06
355.491	95.06
355.718	71.06
355.945	88.06
356.172	94.06
356.399	88.06
356.626	98.06
356.853	97.06
357.08	86.06
357.307	89.06
357.534	95.06
357.761	79.06
357.988	92.06
358.215	93.06
358.441	92.06
358.668	90.06
358.895	93.06
359.122	91.06
359.349	90.06
359.576	92.06
359.802	91.06
360.029	109.06
360.256	122.06
360.483	103.06
360.709	92.06
360.936	81.06
361.163	72.06
361.39	92.06
361.616	100.06
361.843	86.06
362.07	94.06
362.296	98.06
362.523	92.06
362.749	92.06
362.976	103.06
363.203	97.06
363.429	90.06
363.656	69.06
363.882	84.06
364.109	92.06
364.335	99.06
364.562	87.06
364.788	81.06
365.015	106.06
365.241	94.06
365.468	101.06
365.694	98.06
365.92	94.06
366.147	86.06
366.373	88.06
366.599	91.06
366.826	94.06
367.052	111.06
367.278	98.06
367.505	94.06
367.731	99.06
367.957	69.06
368.184	86.06
368.41	106.06
368.636	110.06
368.862	112.06
369.089	126.06
369.315	104.06
369.541	93.06
369.767	86.06
369.993	80.06
370.219	92.06
370.445	102.06
370.672	96.06
370.898	85.06
371.124	92.06
371.35	90.06
371.576	86.06
371.802	74.06
372.028	93.06
372.254	94.06
372.48	80.06
372.706	82.06
372.932	96.06
373.158	90.06
373.384	94.06
373.61	95.06
373.835	88.06
374.061	95.06
374.287	83.06
374.513	103.06
374.739	90.06
374.965	76.06
375.191	83.06
375.416	91.06
375.642	75.06
375.868	80.06
376.094	89.06
376.319	86.06
376.545	84.06
376.771	95.06
376.997	106.06
377.222	91.06
377.448	86.06
377.674	62.06
377.899	67.06
378.125	95.06
378.35	96.06
378.576	95.06
378.802	96.06
379.027	91.06
379.253	102.06
379.478	81.06
379.704	92.06
379.929	104.06
380.155	83.06
380.38	104.06
380.606	90.06
380.831	105.06
381.057	108.06
381.282	87.06
381.507	80.06
381.733	75.06
381.958	101.06
382.184	102.06
382.409	85.06
382.634	110.06
382.86	101.06
383.085	99.06
383.31	104.06
383.535	97.06
383.761	100.06
383.986	78.06
384.211	95.06
384.436	93.06
384.662	86.06
384.887	102.06
385.112	104.06
385.337	102.06
385.562	98.06
385.787	108.06
386.013	121.06
386.238	110.06
386.463	92.06
386.688	95.06
386.913	93.06
387.138	97.06
387.363	83.06
387.588	92.06
387.813	91.06
388.038	96.06
388.263	110.06
388.488	108.06
388.713	100.06
388.938	89.06
389.163	90.06
389.387	100.06
389.612	98.06
389.837	90.06
390.062	104.06
390.287	90.06
390.512	84.06
390.736	86.06
390.961	86.06
391.186	87.06
391.411	107.06
391.636	89.06
391.86	70.06
392.085	80.06
392.31	86.06
392.534	87.06
392.759	90.06
392.984	83.06
393.208	93.06
393.433	113.06
393.658	111.06
393.882	80.06
394.107	79.06
394.331	88.06
394.556	89.06
394.78	83.06
395.005	107.06
395.229	78.06
395.454	95.06
395.678	78.06
395.903	100.06
396.127	83.06
396.352	93.06
396.576	91.06
396.801	94.06
397.025	102.06
397.249	102.06
397.474	94.06
397.698	82.06
397.922	95.06
398.147	86.06
398.371	94.06
398.595	108.06
398.82	93.06
399.044	91.06
399.268	72.06
399.492	84.06
399.717	86.06
399.941	91.06
400.165	95.06
400.389	99.06
400.613	88.06
400.837	79.06
401.062	84.06
401.286	90.06
401.51	72.06
401.734	90.06
401.958	108.06
402.182	119.06
402.406	155.06
402.63	115.06
402.854	98.06
403.078	91.06
403.302	91.06
403.526	98.06
403.75	75.06
403.974	86.06
404.198	75.06
404.422	70.06
404.645	93.06
404.869	94.06
405.093	99.06
405.317	122.06
405.541	110.06
405.765	112.06
405.988	98.06
406.212	160.06
406.436	229.06
406.66	144.06
406.883	111.06
407.107	109.06
407.331	86.06
407.555	109.06
407.778	110.06
408.002	95.06
408.226	87.06
408.449	90.06
408.673	86.06
408.896	90.06
409.12	89.06
409.344	76.06
409.567	86.06
409.791	110.06
410.014	91.06
410.238	95.06
410.461	89.06
410.685	80.06
410.908	70.06
411.132	99.06
411.355	114.06
411.578	98.06
411.802	84.06
412.025	85.06
412.249	101.06
412.472	101.06
412.695	108.06
412.919	90.06
413.142	110.06
413.365	80.06
413.589	91.06
413.812	99.06
414.035	101.06
414.258	89.06
414.482	91.06
414.705	84.06
414.928	88.06
415.151	94.06
415.374	84.06
415.597	85.06
415.821	82.06
416.044	86.06
416.267	93.06
416.49	88.06
416.713	85.06
416.936	99.06
417.159	92.06
417.382	90.06
417.605	83.06
417.828	92.06
418.051	99.06
418.274	84.06
418.497	96.06
418.72	92.06
418.943	94.06
419.166	87.06
419.389	91.06
419.611	95.06
419.834	84.06
420.057	88.06
420.28	80.06
420.503	79.06
420.726	70.06
420.948	88.06
421.171	104.06
421.394	98.06
421.617	95.06
421.839	90.06
422.062	90.06
422.285	88.06
422.507	110.06
422.73	103.06
422.953	86.06
423.175	94.06
423.398	94.06
423.621	96.06
423.843	91.06
424.066	92.06
424.288	73.06
424.511	91.06
424.733	82.06
424.956	102.06
425.178	109.06
425.401	102.06
425.623	91.06
425.846	102.06
426.068	90.06
426.291	97.06
426.513	83.06
426.735	78.06
426.958	88.06
427.18	104.06
427.402	130.06
427.625	179.06
427.847	186.06
428.069	161.06
428.292	108.06
428.514	100.06
428.736	76.06
428.958	75.06
429.181	95.06
429.403	86.06
429.625	90.06
429.847	107.06
430.069	120.06
430.292	90.06
430.514	80.06
430.736	78.06
430.958	75.06
431.18	86.06
431.402	88.06
431.624	87.06
431.846	73.06
432.068	91.06
432.29	89.06
432.512	82.06
432.734	101.06
432.956	94.06
433.178	91.06
433.4	109.06
433.622	84.06
433.844	89.06
434.066	103.06
434.287	92.06
434.509	84.06
434.731	79.06
434.953	89.06
435.175	90.06
435.397	88.06
435.618	91.06
435.84	100.06
436.062	116.06
436.284	116.06
436.505	103.06
436.727	97.06
436.949	76.06
437.17	86.06
437.392	90.06
437.614	102.06
437.835	113.06
438.057	136.06
438.278	123.06
438.5	118.06
438.721	123.06
438.943	100.06
439.165	90.06
439.386	90.06
439.608	97.06
439.829	116.06
440.05	136.06
440.272	147.06
440.493	104.06
440.715	91.06
440.936	89.06
441.158	104.06
441.379	92.06
441.6	92.06
441.822	93.06
442.043	100.06
442.264	100.06
442.486	96.06
442.707	103.06
442.928	106.06
443.149	127.06
443.371	135.06
443.592	105.06
443.813	116.06
444.034	115.06
444.255	78.06
444.476	76.06
444.698	104.06
444.919	80.06
445.14	140.06
445.361	114.06
445.582	108.06
445.803	147.06
446.024	157.06
446.245	129.06
446.466	115.06
446.687	91.06
446.908	98.06
447.129	94.06
447.35	92.06
447.571	76.06
447.792	97.06
448.013	108.06
448.234	117.06
448.455	100.06
448.675	118.06
448.896	104.06
449.117	96.06
449.338	107.06
449.559	121.06
449.779	124.06
450	108.06
450.221	85.06
450.442	91.06
450.662	86.06
450.883	99.06
451.104	96.06
451.324	96.06
451.545	84.06
451.766	80.06
451.986	76.06
452.207	82.06
452.428	87.06
452.648	114.06
452.869	105.06
453.089	115.06
453.31	106.06
453.53	91.06
453.751	99.06
453.971	107.06
454.192	111.06
454.412	86.06
454.633	90.06
454.853	100.06
455.073	82.06
455.294	74.06
455.514	92.06
455.734	100.06
455.955	94.06
456.175	88.06
456.395	83.06
456.616	86.06
456.836	82.06
457.056	84.06
457.276	87.06
457.497	101.06
457.717	96.06
457.937	94.06
458.157	96.06
458.377	94.06
458.598	96.06
458.818	151.06
459.038	157.06
459.258	122.06
459.478	96.06
459.698	88.06
459.918	85.06
460.138	80.06
460.358	89.06
460.578	83.06
460.798	89.06
461.018	91.06
461.238	95.06
461.458	88.06
461.678	85.06
461.898	82.06
462.118	83.06
462.338	95.06
462.558	92.06
462.777	99.06
462.997	93.06
463.217	99.06
463.437	71.06
463.657	77.06
463.876	86.06
464.096	80.06
464.316	104.06
464.536	93.06
464.755	98.06
464.975	96.06
465.195	168.06
465.414	154.06
465.634	95.06
465.854	102.06
466.073	96.06
466.293	84.06
466.512	96.06
466.732	90.06
466.951	90.06
467.171	86.06
467.391	87.06
467.61	112.06
467.829	138.06
468.049	280.06
468.268	357.06
468.488	124.06
468.707	89.06
468.927	100.06
469.146	93.06
469.365	96.06
469.585	85.06
469.804	83.06
470.023	110.06
470.243	99.06
470.462	113.06
470.681	123.06
470.901	97.06
471.12	92.06
471.339	101.06
471.558	102.06
471.777	115.06
471.997	177.06
472.216	481.06
472.435	980.06
472.654	283.06
472.873	120.06
473.092	100.06
473.311	92.06
473.53	94.06
473.749	77.06
473.968	96.06
474.187	115.06
474.406	95.06
474.625	92.06
474.844	92.06
475.063	91.06
475.282	85.06
475.501	93.06
475.72	92.06
475.939	83.06
476.158	84.06
476.377	89.06
476.596	81.06
476.814	96.06
477.033	82.06
477.252	103.06
477.471	74.06
477.69	77.06
477.908	89.06
478.127	98.06
478.346	85.06
478.564	90.06
478.783	91.06
479.002	97.06
479.22	103.06
479.439	116.06
479.658	108.06
479.876	105.06
480.095	96.06
480.313	109.06
480.532	107.06
480.751	164.06
480.969	463.06
481.188	1731.06
481.406	1010.06
481.624	204.06
481.843	95.06
482.061	103.06
482.28	84.06
482.498	93.06
482.717	93.06
482.935	82.06
483.153	99.06
483.372	94.06
483.59	88.06
483.808	105.06
484.027	96.06
484.245	76.06
484.463	80.06
484.681	96.06
484.9	92.06
485.118	99.06
485.336	89.06
485.554	86.06
485.772	102.06
485.99	107.06
486.209	99.06
486.427	111.06
486.645	96.06
486.863	109.06
487.081	91.06
487.299	87.06
487.517	94.06
487.735	100.06
487.953	96.06
488.171	100.06
488.389	96.06
488.607	108.06
488.825	90.06
489.043	69.06
489.261	84.06
489.479	94.06
489.696	78.06
489.914	90.06
490.132	91.06
490.35	95.06
490.568	87.06
490.786	81.06
491.003	93.06
491.221	88.06
491.439	94.06
491.657	93.06
491.874	100.06
492.092	89.06
492.31	88.06
492.527	87.06
492.745	100.06
492.963	88.06
493.18	95.06
493.398	91.06
493.615	106.06
493.833	96.06
494.05	91.06
494.268	83.06
494.485	83.06
494.703	87.06
494.92	90.06
495.138	84.06
495.355	98.06
495.573	84.06
495.79	103.06
496.008	86.06
496.225	95.06
496.442	78.06
496.66	97.06
496.877	92.06
497.094	89.06
497.312	90.06
497.529	81.06
497.746	93.06
497.963	95.06
498.181	96.06
498.398	96.06
498.615	122.06
498.832	92.06
499.049	84.06
499.267	99.06
499.484	96.06
499.701	89.06
499.918	98.06
500.135	83.06
500.352	97.06
500.569	100.06
500.786	87.06
501.003	83.06
501.22	95.06
501.437	92.06
501.654	107.06
501.871	107.06
502.088	87.06
502.305	96.06
502.522	98.06
502.739	77.06
502.956	90.06
503.172	87.06
503.389	101.06
503.606	101.06
503.823	76.06
504.04	88.06
504.256	94.06
504.473	92.06
504.69	90.06
504.907	80.06
505.123	86.06
505.34	88.06
505.557	87.06
505.773	93.06
505.99	79.06
506.207	89.06
506.423	77.06
506.64	95.06
506.856	81.06
507.073	84.06
507.289	96.06
507.506	95.06
507.722	113.06
507.939	118.06
508.155	86.06
508.372	93.06
508.588	87.06
508.805	102.06
509.021	88.06
509.238	91.06
509.454	94.06
509.67	102.06
509.887	117.06
510.103	122.06
510.319	188.06
510.536	676.06
510.752	2187.06
510.968	608.06
511.184	140.06
511.401	111.06
511.617	96.06
511.833	105.06
512.049	84.06
512.265	91.06
512.481	83.06
512.698	87.06
512.914	104.06
513.13	89.06
513.346	86.06
513.562	94.06
513.778	103.06
513.994	100.06
514.21	109.06
514.426	101.06
514.642	129.06
514.858	142.06
515.074	164.06
