Data from Circ_1991_H10_HRD10591_00046.txt Node
Date: Wed Jan 03 11:51:50 EST 2024
User: Yrep
Spectrometer: HR+D1059
Trigger mode: 1
Integration Time (sec): 1.000000E-1
Scans to average: 1
Electric dark correction enabled: true
Nonlinearity correction enabled: false
Boxcar width: 0
XAxis mode: Wavelengths
Number of Pixels in Spectrum: 2048
>>>>>Begin Spectral Data<<<<<
223.165	-7.56
223.4	-7.56
223.635	-7.56
223.869	-7.56
224.104	-16.56
224.338	-7.56
224.573	-14.56
224.808	-25.56
225.042	-8.56
225.277	-8.56
225.511	-16.56
225.746	18.44
225.98	6.44
226.215	-3.56
226.449	0.44
226.683	24.44
226.918	23.44
227.152	43.44
227.387	39.44
227.621	44.44
227.856	37.44
228.09	36.44
228.324	45.44
228.559	64.44
228.793	67.44
229.027	56.44
229.262	72.44
229.496	74.44
229.73	92.44
229.964	93.44
230.199	87.44
230.433	77.44
230.667	83.44
230.901	89.44
231.136	72.44
231.37	90.44
231.604	94.44
231.838	78.44
232.072	96.44
232.306	82.44
232.541	85.44
232.775	74.44
233.009	78.44
233.243	79.44
233.477	97.44
233.711	92.44
233.945	81.44
234.179	96.44
234.413	81.44
234.647	80.44
234.881	79.44
235.115	80.44
235.349	76.44
235.583	80.44
235.817	94.44
236.051	74.44
236.285	75.44
236.519	80.44
236.753	86.44
236.987	88.44
237.221	86.44
237.455	91.44
237.689	81.44
237.922	86.44
238.156	69.44
238.39	77.44
238.624	70.44
238.858	88.44
239.091	65.44
239.325	83.44
239.559	80.44
239.793	83.44
240.027	83.44
240.26	78.44
240.494	61.44
240.728	81.44
240.961	77.44
241.195	71.44
241.429	79.44
241.662	78.44
241.896	64.44
242.13	85.44
242.363	87.44
242.597	87.44
242.83	77.44
243.064	75.44
243.298	79.44
243.531	74.44
243.765	79.44
243.998	96.44
244.232	76.44
244.465	87.44
244.699	78.44
244.932	82.44
245.166	84.44
245.399	80.44
245.633	83.44
245.866	82.44
246.099	88.44
246.333	91.44
246.566	87.44
246.8	61.44
247.033	91.44
247.266	87.44
247.5	77.44
247.733	72.44
247.966	91.44
248.2	74.44
248.433	64.44
248.666	87.44
248.899	63.44
249.133	107.44
249.366	91.44
249.599	98.44
249.832	93.44
250.066	102.44
250.299	72.44
250.532	79.44
250.765	79.44
250.998	91.44
251.231	96.44
251.465	86.44
251.698	87.44
251.931	91.44
252.164	81.44
252.397	82.44
252.63	94.44
252.863	83.44
253.096	67.44
253.329	79.44
253.562	81.44
253.795	94.44
254.028	91.44
254.261	85.44
254.494	84.44
254.727	84.44
254.96	81.44
255.193	91.44
255.426	74.44
255.659	86.44
255.892	110.44
256.124	94.44
256.357	76.44
256.59	80.44
256.823	93.44
257.056	96.44
257.289	80.44
257.521	89.44
257.754	81.44
257.987	97.44
258.22	86.44
258.452	81.44
258.685	88.44
258.918	76.44
259.151	103.44
259.383	85.44
259.616	77.44
259.849	91.44
260.081	80.44
260.314	79.44
260.547	102.44
260.779	82.44
261.012	73.44
261.244	89.44
261.477	73.44
261.71	91.44
261.942	109.44
262.175	116.44
262.407	83.44
262.64	81.44
262.872	91.44
263.105	91.44
263.337	110.44
263.57	90.44
263.802	100.44
264.035	94.44
264.267	96.44
264.499	85.44
264.732	81.44
264.964	80.44
265.197	91.44
265.429	97.44
265.661	91.44
265.894	72.44
266.126	75.44
266.358	81.44
266.591	83.44
266.823	86.44
267.055	94.44
267.287	83.44
267.52	70.44
267.752	86.44
267.984	95.44
268.216	89.44
268.448	97.44
268.681	89.44
268.913	96.44
269.145	91.44
269.377	85.44
269.609	84.44
269.841	95.44
270.073	80.44
270.306	70.44
270.538	91.44
270.77	87.44
271.002	86.44
271.234	89.44
271.466	99.44
271.698	102.44
271.93	94.44
272.162	92.44
272.394	95.44
272.626	86.44
272.858	88.44
273.09	98.44
273.322	93.44
273.553	87.44
273.785	86.44
274.017	82.44
274.249	86.44
274.481	94.44
274.713	83.44
274.945	80.44
275.176	77.44
275.408	99.44
275.64	81.44
275.872	79.44
276.104	85.44
276.335	80.44
276.567	93.44
276.799	123.44
277.031	127.44
277.262	123.44
277.494	106.44
277.726	99.44
277.957	96.44
278.189	85.44
278.421	83.44
278.652	91.44
278.884	82.44
279.115	88.44
279.347	94.44
279.579	99.44
279.81	115.44
280.042	107.44
280.273	125.44
280.505	104.44
280.736	96.44
280.968	90.44
281.199	89.44
281.431	85.44
281.662	93.44
281.894	95.44
282.125	106.44
282.356	118.44
282.588	148.44
282.819	104.44
283.051	101.44
283.282	95.44
283.513	94.44
283.745	89.44
283.976	96.44
284.207	86.44
284.439	84.44
284.67	78.44
284.901	104.44
285.132	79.44
285.364	95.44
285.595	74.44
285.826	94.44
286.057	77.44
286.288	89.44
286.52	85.44
286.751	86.44
286.982	99.44
287.213	79.44
287.444	97.44
287.675	101.44
287.906	86.44
288.138	101.44
288.369	90.44
288.6	99.44
288.831	91.44
289.062	87.44
289.293	104.44
289.524	91.44
289.755	95.44
289.986	89.44
290.217	101.44
290.448	83.44
290.679	89.44
290.91	95.44
291.141	94.44
291.371	95.44
291.602	107.44
291.833	105.44
292.064	89.44
292.295	88.44
292.526	90.44
292.757	100.44
292.987	79.44
293.218	89.44
293.449	93.44
293.68	98.44
293.91	97.44
294.141	100.44
294.372	92.44
294.603	87.44
294.833	94.44
295.064	81.44
295.295	96.44
295.525	90.44
295.756	98.44
295.987	119.44
296.217	142.44
296.448	125.44
296.679	99.44
296.909	92.44
297.14	102.44
297.37	83.44
297.601	78.44
297.831	85.44
298.062	97.44
298.292	86.44
298.523	98.44
298.753	106.44
298.984	87.44
299.214	98.44
299.445	100.44
299.675	85.44
299.905	118.44
300.136	117.44
300.366	98.44
300.597	101.44
300.827	98.44
301.057	92.44
301.288	102.44
301.518	85.44
301.748	93.44
301.979	104.44
302.209	97.44
302.439	95.44
302.669	98.44
302.9	82.44
303.13	89.44
303.36	96.44
303.59	109.44
303.82	107.44
304.051	99.44
304.281	94.44
304.511	104.44
304.741	96.44
304.971	74.44
305.201	84.44
305.431	93.44
305.661	88.44
305.891	93.44
306.121	101.44
306.352	106.44
306.582	102.44
306.812	102.44
307.042	117.44
307.272	131.44
307.502	122.44
307.731	128.44
307.961	111.44
308.191	98.44
308.421	97.44
308.651	107.44
308.881	84.44
309.111	99.44
309.341	95.44
309.571	91.44
309.8	86.44
310.03	96.44
310.26	111.44
310.49	99.44
310.72	98.44
310.949	114.44
311.179	107.44
311.409	99.44
311.639	102.44
311.868	98.44
312.098	100.44
312.328	96.44
312.557	109.44
312.787	125.44
313.017	105.44
313.246	106.44
313.476	81.44
313.706	83.44
313.935	101.44
314.165	106.44
314.394	93.44
314.624	91.44
314.853	102.44
315.083	93.44
315.312	86.44
315.542	94.44
315.771	106.44
316.001	95.44
316.23	100.44
316.46	97.44
316.689	101.44
316.919	105.44
317.148	119.44
317.377	89.44
317.607	93.44
317.836	100.44
318.065	93.44
318.295	102.44
318.524	97.44
318.753	94.44
318.983	87.44
319.212	95.44
319.441	109.44
319.67	108.44
319.9	102.44
320.129	93.44
320.358	91.44
320.587	89.44
320.816	98.44
321.046	113.44
321.275	103.44
321.504	102.44
321.733	110.44
321.962	98.44
322.191	103.44
322.42	112.44
322.649	106.44
322.878	128.44
323.108	119.44
323.337	117.44
323.566	158.44
323.795	174.44
324.024	226.44
324.253	411.44
324.482	849.44
324.71	1813.44
324.939	2506.44
325.168	886.44
325.397	259.44
325.626	148.44
325.855	127.44
326.084	142.44
326.313	130.44
326.542	165.44
326.77	249.44
326.999	480.44
327.228	1006.44
327.457	1866.44
327.686	1535.44
327.914	440.44
328.143	275.44
328.372	282.44
328.6	189.44
328.829	135.44
329.058	134.44
329.287	146.44
329.515	113.44
329.744	144.44
329.972	198.44
330.201	363.44
330.43	519.44
330.658	279.44
330.887	177.44
331.115	139.44
331.344	123.44
331.572	105.44
331.801	112.44
332.03	100.44
332.258	103.44
332.486	96.44
332.715	100.44
332.943	110.44
333.172	102.44
333.4	87.44
333.629	108.44
333.857	147.44
334.085	214.44
334.314	352.44
334.542	628.44
334.771	598.44
334.999	212.44
335.227	118.44
335.455	103.44
335.684	105.44
335.912	98.44
336.14	104.44
336.369	88.44
336.597	106.44
336.825	98.44
337.053	109.44
337.281	96.44
337.51	96.44
337.738	91.44
337.966	101.44
338.194	109.44
338.422	104.44
338.65	88.44
338.878	106.44
339.106	104.44
339.334	93.44
339.562	88.44
339.79	89.44
340.018	90.44
340.246	96.44
340.474	84.44
340.702	98.44
340.93	83.44
341.158	100.44
341.386	109.44
341.614	92.44
341.842	103.44
342.07	104.44
342.298	95.44
342.526	111.44
342.754	97.44
342.981	93.44
343.209	91.44
343.437	92.44
343.665	100.44
343.893	82.44
344.12	86.44
344.348	103.44
344.576	109.44
344.804	94.44
345.031	103.44
345.259	108.44
345.487	94.44
345.714	109.44
345.942	106.44
346.17	96.44
346.397	95.44
346.625	103.44
346.853	108.44
347.08	94.44
347.308	106.44
347.535	106.44
347.763	115.44
347.99	101.44
348.218	107.44
348.445	116.44
348.673	112.44
348.9	107.44
349.128	104.44
349.355	97.44
349.583	94.44
349.81	102.44
350.037	102.44
350.265	87.44
350.492	95.44
350.72	98.44
350.947	112.44
351.174	109.44
351.402	93.44
351.629	99.44
351.856	103.44
352.083	107.44
352.311	107.44
352.538	96.44
352.765	111.44
352.992	121.44
353.22	127.44
353.447	112.44
353.674	110.44
353.901	110.44
354.128	95.44
354.355	92.44
354.583	105.44
354.81	113.44
355.037	106.44
355.264	97.44
355.491	96.44
355.718	99.44
355.945	93.44
356.172	100.44
356.399	87.44
356.626	102.44
356.853	88.44
357.08	102.44
357.307	107.44
357.534	104.44
357.761	93.44
357.988	93.44
358.215	91.44
358.441	94.44
358.668	95.44
358.895	105.44
359.122	89.44
359.349	91.44
359.576	99.44
359.802	93.44
360.029	101.44
360.256	114.44
360.483	91.44
360.709	83.44
360.936	102.44
361.163	99.44
361.39	93.44
361.616	95.44
361.843	97.44
362.07	93.44
362.296	100.44
362.523	98.44
362.749	92.44
362.976	94.44
363.203	110.44
363.429	89.44
363.656	96.44
363.882	86.44
364.109	96.44
364.335	89.44
364.562	95.44
364.788	96.44
365.015	104.44
365.241	98.44
365.468	123.44
365.694	101.44
365.92	97.44
366.147	79.44
366.373	82.44
366.599	97.44
366.826	105.44
367.052	92.44
367.278	111.44
367.505	97.44
367.731	104.44
367.957	90.44
368.184	92.44
368.41	110.44
368.636	104.44
368.862	119.44
369.089	113.44
369.315	107.44
369.541	90.44
369.767	100.44
369.993	102.44
370.219	94.44
370.445	90.44
370.672	84.44
370.898	85.44
371.124	88.44
371.35	102.44
371.576	95.44
371.802	73.44
372.028	101.44
372.254	102.44
372.48	97.44
372.706	85.44
372.932	89.44
373.158	89.44
373.384	86.44
373.61	107.44
373.835	105.44
374.061	86.44
374.287	99.44
374.513	77.44
374.739	97.44
374.965	86.44
375.191	102.44
375.416	98.44
375.642	88.44
375.868	96.44
376.094	93.44
376.319	87.44
376.545	82.44
376.771	86.44
376.997	93.44
377.222	106.44
377.448	82.44
377.674	86.44
377.899	106.44
378.125	83.44
378.35	97.44
378.576	85.44
378.802	86.44
379.027	93.44
379.253	94.44
379.478	98.44
379.704	107.44
379.929	110.44
380.155	90.44
380.38	99.44
380.606	91.44
380.831	93.44
381.057	88.44
381.282	90.44
381.507	90.44
381.733	107.44
381.958	94.44
382.184	98.44
382.409	101.44
382.634	113.44
382.86	74.44
383.085	98.44
383.31	98.44
383.535	98.44
383.761	102.44
383.986	108.44
384.211	91.44
384.436	96.44
384.662	108.44
384.887	93.44
385.112	101.44
385.337	103.44
385.562	102.44
385.787	107.44
386.013	113.44
386.238	112.44
386.463	104.44
386.688	109.44
386.913	98.44
387.138	110.44
387.363	110.44
387.588	110.44
387.813	98.44
388.038	101.44
388.263	108.44
388.488	116.44
388.713	102.44
388.938	93.44
389.163	107.44
389.387	112.44
389.612	89.44
389.837	93.44
390.062	90.44
390.287	96.44
390.512	101.44
390.736	81.44
390.961	89.44
391.186	95.44
391.411	100.44
391.636	88.44
391.86	81.44
392.085	92.44
392.31	90.44
392.534	89.44
392.759	85.44
392.984	87.44
393.208	105.44
393.433	124.44
393.658	111.44
393.882	74.44
394.107	81.44
394.331	91.44
394.556	86.44
394.78	98.44
395.005	96.44
395.229	95.44
395.454	100.44
395.678	98.44
395.903	100.44
396.127	97.44
396.352	78.44
396.576	94.44
396.801	88.44
397.025	107.44
397.249	93.44
397.474	83.44
397.698	87.44
397.922	99.44
398.147	99.44
398.371	86.44
398.595	87.44
398.82	78.44
399.044	94.44
399.268	99.44
399.492	104.44
399.717	104.44
399.941	88.44
400.165	90.44
400.389	94.44
400.613	90.44
400.837	89.44
401.062	90.44
401.286	97.44
401.51	97.44
401.734	91.44
401.958	100.44
402.182	134.44
402.406	159.44
402.63	115.44
402.854	115.44
403.078	98.44
403.302	98.44
403.526	98.44
403.75	91.44
403.974	92.44
404.198	85.44
404.422	100.44
404.645	93.44
404.869	102.44
405.093	96.44
405.317	119.44
405.541	111.44
405.765	109.44
405.988	122.44
406.212	160.44
406.436	219.44
406.66	149.44
406.883	105.44
407.107	108.44
407.331	93.44
407.555	102.44
407.778	109.44
408.002	80.44
408.226	95.44
408.449	85.44
408.673	97.44
408.896	93.44
409.12	103.44
409.344	95.44
409.567	100.44
409.791	71.44
410.014	84.44
410.238	101.44
410.461	103.44
410.685	90.44
410.908	100.44
411.132	119.44
411.355	106.44
411.578	107.44
411.802	95.44
412.025	82.44
412.249	98.44
412.472	109.44
412.695	107.44
412.919	93.44
413.142	101.44
413.365	93.44
413.589	98.44
413.812	83.44
414.035	96.44
414.258	95.44
414.482	96.44
414.705	104.44
414.928	91.44
415.151	96.44
415.374	90.44
415.597	82.44
415.821	88.44
416.044	96.44
416.267	103.44
416.49	82.44
416.713	88.44
416.936	70.44
417.159	95.44
417.382	83.44
417.605	102.44
417.828	91.44
418.051	87.44
418.274	97.44
418.497	83.44
418.72	86.44
418.943	89.44
419.166	98.44
419.389	78.44
419.611	101.44
419.834	90.44
420.057	91.44
420.28	83.44
420.503	82.44
420.726	95.44
420.948	98.44
421.171	101.44
421.394	111.44
421.617	86.44
421.839	88.44
422.062	91.44
422.285	102.44
422.507	106.44
422.73	111.44
422.953	102.44
423.175	96.44
423.398	90.44
423.621	94.44
423.843	89.44
424.066	91.44
424.288	83.44
424.511	98.44
424.733	101.44
424.956	100.44
425.178	103.44
425.401	98.44
425.623	107.44
425.846	98.44
426.068	103.44
426.291	99.44
426.513	99.44
426.735	106.44
426.958	85.44
427.18	98.44
427.402	143.44
427.625	173.44
427.847	172.44
428.069	159.44
428.292	113.44
428.514	95.44
428.736	97.44
428.958	89.44
429.181	92.44
429.403	86.44
429.625	99.44
429.847	92.44
430.069	95.44
430.292	94.44
430.514	94.44
430.736	95.44
430.958	80.44
431.18	81.44
431.402	77.44
431.624	97.44
431.846	87.44
432.068	99.44
432.29	93.44
432.512	87.44
432.734	77.44
432.956	101.44
433.178	99.44
433.4	114.44
433.622	104.44
433.844	105.44
434.066	113.44
434.287	96.44
434.509	86.44
434.731	94.44
434.953	89.44
435.175	91.44
435.397	99.44
435.618	104.44
435.84	118.44
436.062	129.44
436.284	128.44
436.505	120.44
436.727	96.44
436.949	79.44
437.17	85.44
437.392	101.44
437.614	97.44
437.835	113.44
438.057	118.44
438.278	114.44
438.5	106.44
438.721	114.44
438.943	102.44
439.165	98.44
439.386	81.44
439.608	103.44
439.829	97.44
440.05	126.44
440.272	149.44
440.493	98.44
440.715	83.44
440.936	84.44
441.158	72.44
441.379	90.44
441.6	83.44
441.822	107.44
442.043	93.44
442.264	100.44
442.486	113.44
442.707	106.44
442.928	106.44
443.149	133.44
443.371	115.44
443.592	106.44
443.813	122.44
444.034	111.44
444.255	87.44
444.476	95.44
444.698	93.44
444.919	89.44
445.14	127.44
445.361	126.44
445.582	129.44
445.803	143.44
446.024	149.44
446.245	141.44
446.466	113.44
446.687	90.44
446.908	81.44
447.129	83.44
447.35	106.44
447.571	102.44
447.792	102.44
448.013	107.44
448.234	111.44
448.455	106.44
448.675	114.44
448.896	126.44
449.117	105.44
449.338	121.44
449.559	147.44
449.779	145.44
450	97.44
450.221	99.44
450.442	105.44
450.662	99.44
450.883	104.44
451.104	118.44
451.324	101.44
451.545	77.44
451.766	82.44
451.986	91.44
452.207	84.44
452.428	93.44
452.648	99.44
452.869	127.44
453.089	107.44
453.31	110.44
453.53	89.44
453.751	91.44
453.971	118.44
454.192	129.44
454.412	88.44
454.633	86.44
454.853	88.44
455.073	89.44
455.294	93.44
455.514	105.44
455.734	103.44
455.955	80.44
456.175	102.44
456.395	87.44
456.616	87.44
456.836	84.44
457.056	88.44
457.276	83.44
457.497	100.44
457.717	87.44
457.937	99.44
458.157	94.44
458.377	81.44
458.598	100.44
458.818	145.44
459.038	170.44
459.258	114.44
459.478	84.44
459.698	83.44
459.918	93.44
460.138	81.44
460.358	79.44
460.578	91.44
460.798	98.44
461.018	98.44
461.238	87.44
461.458	86.44
461.678	91.44
461.898	89.44
462.118	92.44
462.338	101.44
462.558	77.44
462.777	85.44
462.997	99.44
463.217	115.44
463.437	91.44
463.657	102.44
463.876	81.44
464.096	109.44
464.316	102.44
464.536	94.44
464.755	103.44
464.975	99.44
465.195	169.44
465.414	173.44
465.634	103.44
465.854	88.44
466.073	88.44
466.293	95.44
466.512	80.44
466.732	77.44
466.951	86.44
467.171	97.44
467.391	96.44
467.61	117.44
467.829	121.44
468.049	255.44
468.268	337.44
468.488	125.44
468.707	92.44
468.927	84.44
469.146	89.44
469.365	96.44
469.585	111.44
469.804	95.44
470.023	107.44
470.243	111.44
470.462	107.44
470.681	100.44
470.901	93.44
471.12	96.44
471.339	91.44
471.558	93.44
471.777	107.44
471.997	156.44
472.216	442.44
472.435	881.44
472.654	255.44
472.873	112.44
473.092	105.44
473.311	103.44
473.53	99.44
473.749	97.44
473.968	105.44
474.187	108.44
474.406	100.44
474.625	89.44
474.844	88.44
475.063	89.44
475.282	84.44
475.501	93.44
475.72	78.44
475.939	89.44
476.158	86.44
476.377	98.44
476.596	89.44
476.814	103.44
477.033	102.44
477.252	86.44
477.471	99.44
477.69	94.44
477.908	92.44
478.127	84.44
478.346	83.44
478.564	84.44
478.783	89.44
479.002	107.44
479.22	106.44
479.439	116.44
479.658	98.44
479.876	89.44
480.095	93.44
480.313	114.44
480.532	116.44
480.751	158.44
480.969	416.44
481.188	1539.44
481.406	910.44
481.624	182.44
481.843	99.44
482.061	106.44
482.28	88.44
482.498	98.44
482.717	100.44
482.935	88.44
483.153	96.44
483.372	94.44
483.59	82.44
483.808	110.44
484.027	91.44
484.245	100.44
484.463	86.44
484.681	102.44
484.9	95.44
485.118	100.44
485.336	95.44
485.554	97.44
485.772	104.44
485.99	97.44
486.209	114.44
486.427	96.44
486.645	120.44
486.863	116.44
487.081	112.44
487.299	104.44
487.517	99.44
487.735	82.44
487.953	97.44
488.171	105.44
488.389	104.44
488.607	97.44
488.825	98.44
489.043	87.44
489.261	97.44
489.479	102.44
489.696	86.44
489.914	96.44
490.132	78.44
490.35	91.44
490.568	102.44
490.786	85.44
491.003	73.44
491.221	82.44
491.439	96.44
491.657	94.44
491.874	86.44
492.092	108.44
492.31	86.44
492.527	104.44
492.745	95.44
492.963	93.44
493.18	100.44
493.398	99.44
493.615	99.44
493.833	104.44
494.05	99.44
494.268	85.44
494.485	97.44
494.703	97.44
494.92	95.44
495.138	84.44
495.355	104.44
495.573	102.44
495.79	69.44
496.008	90.44
496.225	95.44
496.442	94.44
496.66	99.44
496.877	117.44
497.094	86.44
497.312	102.44
497.529	90.44
497.746	90.44
497.963	92.44
498.181	99.44
498.398	96.44
498.615	107.44
498.832	100.44
499.049	91.44
499.267	103.44
499.484	104.44
499.701	88.44
499.918	109.44
500.135	104.44
500.352	101.44
500.569	87.44
500.786	86.44
501.003	77.44
501.22	101.44
501.437	106.44
501.654	109.44
501.871	111.44
502.088	100.44
502.305	90.44
502.522	99.44
502.739	105.44
502.956	83.44
503.172	91.44
503.389	96.44
503.606	114.44
503.823	92.44
504.04	105.44
504.256	111.44
504.473	79.44
504.69	78.44
504.907	89.44
505.123	95.44
505.34	80.44
505.557	93.44
505.773	88.44
505.99	86.44
506.207	97.44
506.423	88.44
506.64	93.44
506.856	100.44
507.073	95.44
507.289	81.44
507.506	106.44
507.722	113.44
507.939	114.44
508.155	92.44
508.372	99.44
508.588	98.44
508.805	94.44
509.021	94.44
509.238	111.44
509.454	100.44
509.67	104.44
509.887	104.44
510.103	134.44
510.319	200.44
510.536	676.44
510.752	2239.44
510.968	610.44
511.184	160.44
511.401	107.44
511.617	97.44
511.833	106.44
512.049	102.44
512.265	96.44
512.481	95.44
512.698	90.44
512.914	101.44
513.13	109.44
513.346	91.44
