Data from Circ_1991_H10_HRD10591_00022.txt Node
Date: Wed Jan 03 11:51:45 EST 2024
User: Yrep
Spectrometer: HR+D1059
Trigger mode: 1
Integration Time (sec): 1.000000E-1
Scans to average: 1
Electric dark correction enabled: true
Nonlinearity correction enabled: false
Boxcar width: 0
XAxis mode: Wavelengths
Number of Pixels in Spectrum: 2048
>>>>>Begin Spectral Data<<<<<
223.165	-14.25
223.4	-14.25
223.635	-14.25
223.869	-27.25
224.104	-13.25
224.338	-15.25
224.573	-15.25
224.808	-5.25
225.042	-11.25
225.277	0.75
225.511	-11.25
225.746	4.75
225.98	5.75
226.215	6.75
226.449	12.75
226.683	32.75
226.918	17.75
227.152	31.75
227.387	27.75
227.621	34.75
227.856	49.75
228.09	30.75
228.324	44.75
228.559	58.75
228.793	48.75
229.027	58.75
229.262	63.75
229.496	71.75
229.73	94.75
229.964	73.75
230.199	66.75
230.433	86.75
230.667	86.75
230.901	96.75
231.136	79.75
231.37	73.75
231.604	58.75
231.838	71.75
232.072	84.75
232.306	84.75
232.541	87.75
232.775	73.75
233.009	79.75
233.243	77.75
233.477	94.75
233.711	84.75
233.945	67.75
234.179	82.75
234.413	78.75
234.647	75.75
234.881	82.75
235.115	82.75
235.349	80.75
235.583	71.75
235.817	75.75
236.051	87.75
236.285	76.75
236.519	72.75
236.753	90.75
236.987	80.75
237.221	57.75
237.455	81.75
237.689	90.75
237.922	90.75
238.156	93.75
238.39	78.75
238.624	78.75
238.858	84.75
239.091	90.75
239.325	60.75
239.559	86.75
239.793	85.75
240.027	77.75
240.26	89.75
240.494	82.75
240.728	82.75
240.961	72.75
241.195	79.75
241.429	76.75
241.662	63.75
241.896	81.75
242.13	88.75
242.363	76.75
242.597	64.75
242.83	75.75
243.064	82.75
243.298	76.75
243.531	75.75
243.765	73.75
243.998	71.75
244.232	79.75
244.465	84.75
244.699	84.75
244.932	87.75
245.166	84.75
245.399	73.75
245.633	69.75
245.866	75.75
246.099	71.75
246.333	85.75
246.566	75.75
246.8	73.75
247.033	72.75
247.266	74.75
247.5	73.75
247.733	66.75
247.966	85.75
248.2	70.75
248.433	90.75
248.666	72.75
248.899	61.75
249.133	82.75
249.366	107.75
249.599	97.75
249.832	72.75
250.066	75.75
250.299	77.75
250.532	95.75
250.765	64.75
250.998	78.75
251.231	75.75
251.465	86.75
251.698	88.75
251.931	77.75
252.164	84.75
252.397	86.75
252.63	75.75
252.863	59.75
253.096	64.75
253.329	81.75
253.562	95.75
253.795	78.75
254.028	83.75
254.261	73.75
254.494	84.75
254.727	74.75
254.96	84.75
255.193	83.75
255.426	94.75
255.659	85.75
255.892	84.75
256.124	87.75
256.357	84.75
256.59	89.75
256.823	75.75
257.056	77.75
257.289	79.75
257.521	78.75
257.754	94.75
257.987	98.75
258.22	99.75
258.452	89.75
258.685	84.75
258.918	81.75
259.151	74.75
259.383	82.75
259.616	73.75
259.849	83.75
260.081	79.75
260.314	79.75
260.547	77.75
260.779	77.75
261.012	87.75
261.244	72.75
261.477	77.75
261.71	101.75
261.942	105.75
262.175	108.75
262.407	89.75
262.64	72.75
262.872	67.75
263.105	94.75
263.337	65.75
263.57	77.75
263.802	82.75
264.035	74.75
264.267	71.75
264.499	81.75
264.732	87.75
264.964	68.75
265.197	84.75
265.429	75.75
265.661	79.75
265.894	84.75
266.126	85.75
266.358	86.75
266.591	80.75
266.823	80.75
267.055	79.75
267.287	71.75
267.52	76.75
267.752	80.75
267.984	78.75
268.216	89.75
268.448	81.75
268.681	80.75
268.913	87.75
269.145	61.75
269.377	59.75
269.609	73.75
269.841	77.75
270.073	88.75
270.306	95.75
270.538	90.75
270.77	83.75
271.002	79.75
271.234	69.75
271.466	93.75
271.698	91.75
271.93	74.75
272.162	88.75
272.394	77.75
272.626	90.75
272.858	78.75
273.09	87.75
273.322	85.75
273.553	84.75
273.785	79.75
274.017	76.75
274.249	78.75
274.481	95.75
274.713	80.75
274.945	89.75
275.176	87.75
275.408	94.75
275.64	88.75
275.872	100.75
276.104	95.75
276.335	96.75
276.567	97.75
276.799	107.75
277.031	90.75
277.262	101.75
277.494	96.75
277.726	85.75
277.957	87.75
278.189	84.75
278.421	87.75
278.652	80.75
278.884	106.75
279.115	91.75
279.347	75.75
279.579	90.75
279.81	90.75
280.042	110.75
280.273	104.75
280.505	91.75
280.736	95.75
280.968	87.75
281.199	74.75
281.431	91.75
281.662	82.75
281.894	88.75
282.125	99.75
282.356	128.75
282.588	132.75
282.819	116.75
283.051	102.75
283.282	71.75
283.513	92.75
283.745	88.75
283.976	92.75
284.207	91.75
284.439	89.75
284.67	85.75
284.901	83.75
285.132	79.75
285.364	65.75
285.595	100.75
285.826	91.75
286.057	78.75
286.288	83.75
286.52	85.75
286.751	89.75
286.982	84.75
287.213	85.75
287.444	89.75
287.675	79.75
287.906	100.75
288.138	89.75
288.369	100.75
288.6	88.75
288.831	95.75
289.062	91.75
289.293	79.75
289.524	89.75
289.755	98.75
289.986	83.75
290.217	85.75
290.448	87.75
290.679	89.75
290.91	85.75
291.141	95.75
291.371	80.75
291.602	80.75
291.833	90.75
292.064	69.75
292.295	101.75
292.526	89.75
292.757	93.75
292.987	91.75
293.218	92.75
293.449	95.75
293.68	75.75
293.91	80.75
294.141	85.75
294.372	79.75
294.603	89.75
294.833	87.75
295.064	88.75
295.295	80.75
295.525	86.75
295.756	95.75
295.987	115.75
296.217	138.75
296.448	115.75
296.679	97.75
296.909	87.75
297.14	94.75
297.37	76.75
297.601	76.75
297.831	80.75
298.062	82.75
298.292	76.75
298.523	80.75
298.753	83.75
298.984	85.75
299.214	77.75
299.445	75.75
299.675	90.75
299.905	86.75
300.136	75.75
300.366	81.75
300.597	73.75
300.827	90.75
301.057	92.75
301.288	116.75
301.518	101.75
301.748	75.75
301.979	101.75
302.209	85.75
302.439	76.75
302.669	89.75
302.9	84.75
303.13	93.75
303.36	95.75
303.59	101.75
303.82	104.75
304.051	100.75
304.281	80.75
304.511	72.75
304.741	84.75
304.971	86.75
305.201	82.75
305.431	80.75
305.661	93.75
305.891	93.75
306.121	89.75
306.352	101.75
306.582	104.75
306.812	97.75
307.042	97.75
307.272	106.75
307.502	101.75
307.731	108.75
307.961	84.75
308.191	89.75
308.421	75.75
308.651	78.75
308.881	88.75
309.111	95.75
309.341	83.75
309.571	106.75
309.8	94.75
310.03	98.75
310.26	96.75
310.49	87.75
310.72	89.75
310.949	108.75
311.179	105.75
311.409	97.75
311.639	100.75
311.868	88.75
312.098	81.75
312.328	88.75
312.557	100.75
312.787	98.75
313.017	84.75
313.246	92.75
313.476	95.75
313.706	94.75
313.935	87.75
314.165	84.75
314.394	91.75
314.624	96.75
314.853	101.75
315.083	85.75
315.312	110.75
315.542	102.75
315.771	90.75
316.001	89.75
316.23	87.75
316.46	69.75
316.689	99.75
316.919	81.75
317.148	98.75
317.377	93.75
317.607	93.75
317.836	95.75
318.065	96.75
318.295	87.75
318.524	96.75
318.753	90.75
318.983	90.75
319.212	104.75
319.441	102.75
319.67	114.75
319.9	92.75
320.129	78.75
320.358	90.75
320.587	91.75
320.816	88.75
321.046	100.75
321.275	90.75
321.504	83.75
321.733	84.75
321.962	85.75
322.191	100.75
322.42	101.75
322.649	100.75
322.878	115.75
323.108	114.75
323.337	116.75
323.566	137.75
323.795	146.75
324.024	190.75
324.253	382.75
324.482	807.75
324.71	1700.75
324.939	2233.75
325.168	837.75
325.397	242.75
325.626	159.75
325.855	127.75
326.084	116.75
326.313	130.75
326.542	143.75
326.77	212.75
326.999	431.75
327.228	938.75
327.457	1725.75
327.686	1362.75
327.914	378.75
328.143	235.75
328.372	229.75
328.6	163.75
328.829	127.75
329.058	110.75
329.287	127.75
329.515	101.75
329.744	133.75
329.972	175.75
330.201	287.75
330.43	342.75
330.658	215.75
330.887	157.75
331.115	119.75
331.344	106.75
331.572	111.75
331.801	109.75
332.03	94.75
332.258	107.75
332.486	101.75
332.715	89.75
332.943	107.75
333.172	111.75
333.4	93.75
333.629	109.75
333.857	132.75
334.085	171.75
334.314	261.75
334.542	444.75
334.771	411.75
334.999	169.75
335.227	114.75
335.455	87.75
335.684	98.75
335.912	94.75
336.14	100.75
336.369	109.75
336.597	112.75
336.825	97.75
337.053	89.75
337.281	93.75
337.51	83.75
337.738	92.75
337.966	88.75
338.194	94.75
338.422	84.75
338.65	103.75
338.878	97.75
339.106	82.75
339.334	84.75
339.562	95.75
339.79	90.75
340.018	87.75
340.246	95.75
340.474	85.75
340.702	101.75
340.93	91.75
341.158	91.75
341.386	107.75
341.614	100.75
341.842	93.75
342.07	99.75
342.298	87.75
342.526	99.75
342.754	94.75
342.981	90.75
343.209	90.75
343.437	91.75
343.665	93.75
343.893	90.75
344.12	92.75
344.348	81.75
344.576	97.75
344.804	76.75
345.031	98.75
345.259	94.75
345.487	80.75
345.714	83.75
345.942	85.75
346.17	89.75
346.397	86.75
346.625	83.75
346.853	92.75
347.08	85.75
347.308	102.75
347.535	107.75
347.763	96.75
347.99	83.75
348.218	87.75
348.445	89.75
348.673	101.75
348.9	90.75
349.128	90.75
349.355	91.75
349.583	84.75
349.81	86.75
350.037	89.75
350.265	97.75
350.492	92.75
350.72	102.75
350.947	102.75
351.174	122.75
351.402	107.75
351.629	96.75
351.856	104.75
352.083	107.75
352.311	119.75
352.538	96.75
352.765	97.75
352.992	98.75
353.22	121.75
353.447	95.75
353.674	93.75
353.901	91.75
354.128	97.75
354.355	105.75
354.583	93.75
354.81	93.75
355.037	88.75
355.264	100.75
355.491	95.75
355.718	96.75
355.945	91.75
356.172	83.75
356.399	87.75
356.626	84.75
356.853	84.75
357.08	95.75
357.307	93.75
357.534	84.75
357.761	87.75
357.988	98.75
358.215	93.75
358.441	109.75
358.668	84.75
358.895	101.75
359.122	102.75
359.349	87.75
359.576	97.75
359.802	90.75
360.029	105.75
360.256	111.75
360.483	102.75
360.709	76.75
360.936	93.75
361.163	88.75
361.39	86.75
361.616	95.75
361.843	85.75
362.07	85.75
362.296	98.75
362.523	93.75
362.749	89.75
362.976	94.75
363.203	88.75
363.429	99.75
363.656	90.75
363.882	88.75
364.109	80.75
364.335	103.75
364.562	73.75
364.788	91.75
365.015	96.75
365.241	92.75
365.468	91.75
365.694	95.75
365.92	77.75
366.147	89.75
366.373	94.75
366.599	86.75
366.826	74.75
367.052	108.75
367.278	83.75
367.505	80.75
367.731	112.75
367.957	88.75
368.184	92.75
368.41	93.75
368.636	117.75
368.862	114.75
369.089	103.75
369.315	103.75
369.541	94.75
369.767	91.75
369.993	93.75
370.219	100.75
370.445	92.75
370.672	77.75
370.898	84.75
371.124	95.75
371.35	81.75
371.576	84.75
371.802	91.75
372.028	71.75
372.254	89.75
372.48	97.75
372.706	90.75
372.932	93.75
373.158	103.75
373.384	82.75
373.61	100.75
373.835	85.75
374.061	88.75
374.287	88.75
374.513	82.75
374.739	97.75
374.965	84.75
375.191	92.75
375.416	79.75
375.642	79.75
375.868	92.75
376.094	87.75
376.319	62.75
376.545	91.75
376.771	71.75
376.997	90.75
377.222	88.75
377.448	83.75
377.674	83.75
377.899	89.75
378.125	87.75
378.35	95.75
378.576	92.75
378.802	99.75
379.027	100.75
379.253	95.75
379.478	90.75
379.704	105.75
379.929	85.75
380.155	95.75
380.38	103.75
380.606	100.75
380.831	95.75
381.057	100.75
381.282	106.75
381.507	102.75
381.733	96.75
381.958	109.75
382.184	94.75
382.409	108.75
382.634	97.75
382.86	105.75
383.085	116.75
383.31	104.75
383.535	94.75
383.761	87.75
383.986	109.75
384.211	96.75
384.436	96.75
384.662	91.75
384.887	111.75
385.112	107.75
385.337	116.75
385.562	117.75
385.787	105.75
386.013	112.75
386.238	112.75
386.463	108.75
386.688	106.75
386.913	120.75
387.138	105.75
387.363	104.75
387.588	109.75
387.813	96.75
388.038	99.75
388.263	120.75
388.488	132.75
388.713	92.75
388.938	95.75
389.163	100.75
389.387	88.75
389.612	95.75
389.837	78.75
390.062	84.75
390.287	83.75
390.512	88.75
390.736	85.75
390.961	88.75
391.186	77.75
391.411	95.75
391.636	87.75
391.86	95.75
392.085	80.75
392.31	86.75
392.534	88.75
392.759	100.75
392.984	88.75
393.208	117.75
393.433	179.75
393.658	147.75
393.882	98.75
394.107	78.75
394.331	75.75
394.556	98.75
394.78	81.75
395.005	94.75
395.229	87.75
395.454	90.75
395.678	76.75
395.903	93.75
396.127	85.75
396.352	85.75
396.576	102.75
396.801	113.75
397.025	130.75
397.249	108.75
397.474	98.75
397.698	88.75
397.922	91.75
398.147	92.75
398.371	86.75
398.595	80.75
398.82	90.75
399.044	79.75
399.268	90.75
399.492	89.75
399.717	86.75
399.941	98.75
400.165	95.75
400.389	82.75
400.613	88.75
400.837	79.75
401.062	87.75
401.286	79.75
401.51	89.75
401.734	85.75
401.958	79.75
402.182	112.75
402.406	163.75
402.63	123.75
402.854	80.75
403.078	87.75
403.302	93.75
403.526	81.75
403.75	90.75
403.974	90.75
404.198	85.75
404.422	88.75
404.645	82.75
404.869	95.75
405.093	96.75
405.317	111.75
405.541	113.75
405.765	103.75
405.988	123.75
406.212	155.75
406.436	203.75
406.66	156.75
406.883	88.75
407.107	98.75
407.331	83.75
407.555	95.75
407.778	99.75
408.002	77.75
408.226	86.75
408.449	84.75
408.673	79.75
408.896	97.75
409.12	92.75
409.344	77.75
409.567	81.75
409.791	92.75
410.014	92.75
410.238	80.75
410.461	92.75
410.685	92.75
410.908	90.75
411.132	100.75
411.355	107.75
411.578	87.75
411.802	82.75
412.025	81.75
412.249	89.75
412.472	90.75
412.695	99.75
412.919	86.75
413.142	82.75
413.365	87.75
413.589	81.75
413.812	77.75
414.035	105.75
414.258	84.75
414.482	79.75
414.705	100.75
414.928	91.75
415.151	82.75
415.374	96.75
415.597	87.75
415.821	93.75
416.044	92.75
416.267	89.75
416.49	89.75
416.713	83.75
416.936	84.75
417.159	85.75
417.382	76.75
417.605	93.75
417.828	96.75
418.051	91.75
418.274	93.75
418.497	90.75
418.72	84.75
418.943	93.75
419.166	90.75
419.389	65.75
419.611	96.75
419.834	93.75
420.057	88.75
420.28	79.75
420.503	90.75
420.726	80.75
420.948	83.75
421.171	85.75
421.394	85.75
421.617	97.75
421.839	91.75
422.062	83.75
422.285	98.75
422.507	111.75
422.73	115.75
422.953	104.75
423.175	81.75
423.398	91.75
423.621	84.75
423.843	87.75
424.066	89.75
424.288	92.75
424.511	88.75
424.733	96.75
424.956	95.75
425.178	95.75
425.401	78.75
425.623	88.75
425.846	87.75
426.068	89.75
426.291	90.75
426.513	89.75
426.735	90.75
426.958	84.75
427.18	95.75
427.402	143.75
427.625	163.75
427.847	155.75
428.069	132.75
428.292	108.75
428.514	87.75
428.736	84.75
428.958	73.75
429.181	89.75
429.403	79.75
429.625	75.75
429.847	94.75
430.069	96.75
430.292	80.75
430.514	88.75
430.736	77.75
430.958	84.75
431.18	76.75
431.402	72.75
431.624	84.75
431.846	82.75
432.068	79.75
432.29	90.75
432.512	84.75
432.734	88.75
432.956	91.75
433.178	101.75
433.4	111.75
433.622	98.75
433.844	66.75
434.066	87.75
434.287	80.75
434.509	80.75
434.731	86.75
434.953	74.75
435.175	93.75
435.397	97.75
435.618	92.75
435.84	98.75
436.062	130.75
436.284	109.75
436.505	91.75
436.727	83.75
436.949	88.75
437.17	83.75
437.392	88.75
437.614	83.75
437.835	109.75
438.057	117.75
438.278	103.75
438.5	99.75
438.721	124.75
438.943	98.75
439.165	89.75
439.386	72.75
439.608	84.75
439.829	102.75
440.05	114.75
440.272	119.75
440.493	89.75
440.715	95.75
440.936	95.75
441.158	88.75
441.379	85.75
441.6	83.75
441.822	96.75
442.043	91.75
442.264	101.75
442.486	100.75
442.707	96.75
442.928	104.75
443.149	130.75
443.371	120.75
443.592	96.75
443.813	103.75
444.034	109.75
444.255	79.75
444.476	83.75
444.698	82.75
444.919	91.75
445.14	117.75
445.361	124.75
445.582	103.75
445.803	135.75
446.024	121.75
446.245	134.75
446.466	93.75
446.687	88.75
446.908	98.75
447.129	89.75
447.35	91.75
447.571	84.75
447.792	97.75
448.013	100.75
448.234	105.75
448.455	95.75
448.675	101.75
448.896	123.75
449.117	93.75
449.338	96.75
449.559	116.75
449.779	138.75
450	81.75
450.221	79.75
450.442	87.75
450.662	80.75
450.883	94.75
451.104	111.75
451.324	89.75
451.545	97.75
451.766	99.75
451.986	94.75
452.207	90.75
452.428	92.75
452.648	98.75
452.869	106.75
453.089	104.75
453.31	107.75
453.53	97.75
453.751	84.75
453.971	91.75
454.192	92.75
454.412	100.75
454.633	75.75
454.853	87.75
455.073	82.75
455.294	90.75
455.514	93.75
455.734	91.75
455.955	86.75
456.175	75.75
456.395	103.75
456.616	89.75
456.836	86.75
457.056	89.75
457.276	80.75
457.497	81.75
457.717	80.75
457.937	91.75
458.157	77.75
458.377	89.75
458.598	101.75
458.818	157.75
459.038	157.75
459.258	102.75
459.478	89.75
459.698	78.75
459.918	79.75
460.138	83.75
460.358	90.75
460.578	82.75
460.798	90.75
461.018	75.75
461.238	88.75
461.458	78.75
461.678	88.75
461.898	92.75
462.118	88.75
462.338	82.75
462.558	87.75
462.777	71.75
462.997	99.75
463.217	93.75
463.437	71.75
463.657	76.75
463.876	86.75
464.096	84.75
464.316	89.75
464.536	91.75
464.755	98.75
464.975	101.75
465.195	154.75
465.414	147.75
465.634	100.75
465.854	83.75
466.073	76.75
466.293	91.75
466.512	76.75
466.732	84.75
466.951	73.75
467.171	99.75
467.391	101.75
467.61	117.75
467.829	128.75
468.049	199.75
468.268	264.75
468.488	109.75
468.707	83.75
468.927	73.75
469.146	77.75
469.365	89.75
469.585	75.75
469.804	88.75
470.023	94.75
470.243	92.75
470.462	101.75
470.681	118.75
470.901	97.75
471.12	84.75
471.339	92.75
471.558	81.75
471.777	92.75
471.997	132.75
472.216	335.75
472.435	601.75
472.654	193.75
472.873	98.75
473.092	89.75
473.311	87.75
473.53	74.75
473.749	79.75
473.968	97.75
474.187	91.75
474.406	97.75
474.625	86.75
474.844	80.75
475.063	77.75
475.282	83.75
475.501	71.75
475.72	96.75
475.939	81.75
476.158	76.75
476.377	84.75
476.596	98.75
476.814	89.75
477.033	103.75
477.252	84.75
477.471	87.75
477.69	83.75
477.908	88.75
478.127	100.75
478.346	98.75
478.564	88.75
478.783	99.75
479.002	97.75
479.22	93.75
479.439	90.75
479.658	94.75
479.876	94.75
480.095	99.75
480.313	110.75
480.532	103.75
480.751	137.75
480.969	301.75
481.188	1112.75
481.406	651.75
481.624	137.75
481.843	97.75
482.061	89.75
482.28	84.75
482.498	85.75
482.717	79.75
482.935	74.75
483.153	92.75
483.372	88.75
483.59	92.75
483.808	92.75
484.027	92.75
484.245	84.75
484.463	87.75
484.681	90.75
484.9	93.75
485.118	81.75
485.336	75.75
485.554	93.75
485.772	75.75
485.99	87.75
486.209	86.75
486.427	95.75
486.645	98.75
486.863	107.75
487.081	96.75
487.299	104.75
487.517	83.75
487.735	101.75
487.953	95.75
488.171	83.75
488.389	97.75
488.607	108.75
488.825	82.75
489.043	89.75
489.261	79.75
489.479	88.75
489.696	90.75
489.914	76.75
490.132	69.75
490.35	81.75
490.568	77.75
490.786	94.75
491.003	87.75
491.221	78.75
491.439	96.75
491.657	82.75
491.874	91.75
492.092	91.75
492.31	96.75
492.527	78.75
492.745	65.75
492.963	78.75
493.18	87.75
493.398	95.75
493.615	87.75
493.833	97.75
494.05	72.75
494.268	85.75
494.485	85.75
494.703	72.75
494.92	84.75
495.138	88.75
495.355	79.75
495.573	95.75
495.79	75.75
496.008	87.75
496.225	78.75
496.442	84.75
496.66	90.75
496.877	89.75
497.094	97.75
497.312	82.75
497.529	82.75
497.746	80.75
497.963	100.75
498.181	103.75
498.398	103.75
498.615	105.75
498.832	101.75
499.049	93.75
499.267	87.75
499.484	63.75
499.701	76.75
499.918	77.75
500.135	88.75
500.352	91.75
500.569	73.75
500.786	86.75
501.003	89.75
501.22	84.75
501.437	104.75
501.654	91.75
501.871	110.75
502.088	79.75
502.305	96.75
502.522	84.75
502.739	84.75
502.956	89.75
503.172	88.75
503.389	82.75
503.606	96.75
503.823	93.75
504.04	79.75
504.256	89.75
504.473	76.75
504.69	92.75
504.907	93.75
505.123	99.75
505.34	88.75
505.557	82.75
505.773	98.75
505.99	80.75
506.207	89.75
506.423	77.75
506.64	71.75
506.856	90.75
507.073	89.75
507.289	98.75
507.506	101.75
507.722	108.75
507.939	97.75
508.155	103.75
508.372	89.75
508.588	75.75
508.805	88.75
509.021	94.75
509.238	94.75
509.454	81.75
509.67	91.75
509.887	91.75
510.103	117.75
510.319	194.75
510.536	698.75
510.752	2354.75
510.968	640.75
511.184	154.75
511.401	99.75
511.617	84.75
511.833	87.75
512.049	81.75
512.265	96.75
512.481	77.75
512.698	95.75
512.914	93.75
513.13	89.75
513.346	92.75
513.562	84.75
513.778	89.75
513.994	103.75
514.21	114.75
514.426	126.75
514.642	134.75
514.858	128.75
515.074	159.75
515.29	431.75
515.506	1451.75
515.721	531.75
515.937	137.75
