Data from Circ_1991_H10_HRD10591_00051.txt Node
Date: Wed Jan 03 11:51:51 EST 2024
User: Yrep
Spectrometer: HR+D1059
Trigger mode: 1
Integration Time (sec): 1.000000E-1
Scans to average: 1
Electric dark correction enabled: true
Nonlinearity correction enabled: false
Boxcar width: 0
XAxis mode: Wavelengths
Number of Pixels in Spectrum: 2048
>>>>>Begin Spectral Data<<<<<
223.165	-7.88
223.4	-7.88
223.635	-7.88
223.869	-27.88
224.104	-22.88
224.338	-29.88
224.573	-8.88
224.808	-13.88
225.042	-4.88
225.277	-4.88
225.511	9.12
225.746	2.12
225.98	16.12
226.215	-0.88
226.449	5.12
226.683	32.12
226.918	21.12
227.152	36.12
227.387	40.12
227.621	46.12
227.856	46.12
228.09	45.12
228.324	58.12
228.559	76.12
228.793	57.12
229.027	71.12
229.262	62.12
229.496	83.12
229.73	70.12
229.964	80.12
230.199	84.12
230.433	72.12
230.667	79.12
230.901	86.12
231.136	99.12
231.37	67.12
231.604	85.12
231.838	73.12
232.072	83.12
232.306	86.12
232.541	100.12
232.775	84.12
233.009	94.12
233.243	66.12
233.477	91.12
233.711	89.12
233.945	84.12
234.179	78.12
234.413	76.12
234.647	80.12
234.881	82.12
235.115	84.12
235.349	61.12
235.583	89.12
235.817	84.12
236.051	73.12
236.285	98.12
236.519	78.12
236.753	69.12
236.987	82.12
237.221	88.12
237.455	92.12
237.689	91.12
237.922	68.12
238.156	73.12
238.39	81.12
238.624	72.12
238.858	77.12
239.091	70.12
239.325	77.12
239.559	80.12
239.793	92.12
240.027	61.12
240.26	84.12
240.494	73.12
240.728	80.12
240.961	76.12
241.195	76.12
241.429	81.12
241.662	81.12
241.896	78.12
242.13	80.12
242.363	70.12
242.597	72.12
242.83	70.12
243.064	96.12
243.298	72.12
243.531	91.12
243.765	81.12
243.998	74.12
244.232	80.12
244.465	72.12
244.699	89.12
244.932	80.12
245.166	85.12
245.399	64.12
245.633	84.12
245.866	76.12
246.099	90.12
246.333	89.12
246.566	84.12
246.8	96.12
247.033	85.12
247.266	76.12
247.5	86.12
247.733	95.12
247.966	80.12
248.2	79.12
248.433	85.12
248.666	93.12
248.899	76.12
249.133	87.12
249.366	104.12
249.599	104.12
249.832	84.12
250.066	103.12
250.299	83.12
250.532	70.12
250.765	92.12
250.998	86.12
251.231	83.12
251.465	89.12
251.698	73.12
251.931	79.12
252.164	74.12
252.397	78.12
252.63	69.12
252.863	69.12
253.096	72.12
253.329	80.12
253.562	84.12
253.795	83.12
254.028	85.12
254.261	87.12
254.494	97.12
254.727	86.12
254.96	92.12
255.193	80.12
255.426	61.12
255.659	86.12
255.892	93.12
256.124	86.12
256.357	93.12
256.59	86.12
256.823	77.12
257.056	97.12
257.289	73.12
257.521	80.12
257.754	94.12
257.987	98.12
258.22	84.12
258.452	69.12
258.685	82.12
258.918	72.12
259.151	87.12
259.383	72.12
259.616	84.12
259.849	82.12
260.081	86.12
260.314	84.12
260.547	87.12
260.779	84.12
261.012	76.12
261.244	83.12
261.477	93.12
261.71	89.12
261.942	112.12
262.175	118.12
262.407	101.12
262.64	104.12
262.872	90.12
263.105	83.12
263.337	80.12
263.57	92.12
263.802	92.12
264.035	82.12
264.267	97.12
264.499	76.12
264.732	80.12
264.964	88.12
265.197	99.12
265.429	71.12
265.661	74.12
265.894	76.12
266.126	89.12
266.358	89.12
266.591	93.12
266.823	86.12
267.055	80.12
267.287	81.12
267.52	84.12
267.752	106.12
267.984	77.12
268.216	83.12
268.448	85.12
268.681	84.12
268.913	87.12
269.145	85.12
269.377	91.12
269.609	87.12
269.841	95.12
270.073	94.12
270.306	81.12
270.538	80.12
270.77	88.12
271.002	93.12
271.234	96.12
271.466	96.12
271.698	94.12
271.93	82.12
272.162	73.12
272.394	83.12
272.626	86.12
272.858	80.12
273.09	81.12
273.322	87.12
273.553	92.12
273.785	90.12
274.017	77.12
274.249	92.12
274.481	81.12
274.713	86.12
274.945	80.12
275.176	73.12
275.408	87.12
275.64	82.12
275.872	99.12
276.104	96.12
276.335	98.12
276.567	95.12
276.799	113.12
277.031	124.12
277.262	100.12
277.494	90.12
277.726	93.12
277.957	82.12
278.189	87.12
278.421	96.12
278.652	91.12
278.884	93.12
279.115	74.12
279.347	83.12
279.579	93.12
279.81	106.12
280.042	122.12
280.273	133.12
280.505	120.12
280.736	92.12
280.968	82.12
281.199	103.12
281.431	92.12
281.662	93.12
281.894	99.12
282.125	102.12
282.356	136.12
282.588	133.12
282.819	115.12
283.051	97.12
283.282	73.12
283.513	70.12
283.745	98.12
283.976	77.12
284.207	100.12
284.439	98.12
284.67	94.12
284.901	86.12
285.132	85.12
285.364	90.12
285.595	87.12
285.826	89.12
286.057	83.12
286.288	94.12
286.52	97.12
286.751	85.12
286.982	89.12
287.213	94.12
287.444	85.12
287.675	77.12
287.906	90.12
288.138	92.12
288.369	98.12
288.6	89.12
288.831	84.12
289.062	87.12
289.293	93.12
289.524	104.12
289.755	88.12
289.986	86.12
290.217	97.12
290.448	95.12
290.679	90.12
290.91	78.12
291.141	103.12
291.371	93.12
291.602	94.12
291.833	89.12
292.064	80.12
292.295	93.12
292.526	90.12
292.757	107.12
292.987	85.12
293.218	86.12
293.449	80.12
293.68	90.12
293.91	94.12
294.141	88.12
294.372	99.12
294.603	96.12
294.833	88.12
295.064	100.12
295.295	90.12
295.525	84.12
295.756	91.12
295.987	119.12
296.217	148.12
296.448	117.12
296.679	90.12
296.909	101.12
297.14	87.12
297.37	73.12
297.601	88.12
297.831	91.12
298.062	105.12
298.292	93.12
298.523	80.12
298.753	100.12
298.984	102.12
299.214	97.12
299.445	104.12
299.675	99.12
299.905	104.12
300.136	101.12
300.366	89.12
300.597	99.12
300.827	89.12
301.057	97.12
301.288	106.12
301.518	112.12
301.748	85.12
301.979	108.12
302.209	111.12
302.439	94.12
302.669	86.12
302.9	90.12
303.13	94.12
303.36	101.12
303.59	104.12
303.82	116.12
304.051	98.12
304.281	110.12
304.511	102.12
304.741	83.12
304.971	101.12
305.201	88.12
305.431	91.12
305.661	90.12
305.891	99.12
306.121	90.12
306.352	103.12
306.582	120.12
306.812	83.12
307.042	96.12
307.272	109.12
307.502	116.12
307.731	105.12
307.961	101.12
308.191	91.12
308.421	93.12
308.651	93.12
308.881	87.12
309.111	96.12
309.341	107.12
309.571	104.12
309.8	98.12
310.03	105.12
310.26	110.12
310.49	110.12
310.72	92.12
310.949	109.12
311.179	115.12
311.409	97.12
311.639	88.12
311.868	100.12
312.098	101.12
312.328	101.12
312.557	104.12
312.787	108.12
313.017	105.12
313.246	100.12
313.476	93.12
313.706	100.12
313.935	103.12
314.165	112.12
314.394	100.12
314.624	106.12
314.853	97.12
315.083	109.12
315.312	93.12
315.542	96.12
315.771	116.12
316.001	93.12
316.23	82.12
316.46	94.12
316.689	88.12
316.919	89.12
317.148	89.12
317.377	88.12
317.607	86.12
317.836	83.12
318.065	94.12
318.295	104.12
318.524	98.12
318.753	78.12
318.983	103.12
319.212	110.12
319.441	110.12
319.67	99.12
319.9	103.12
320.129	97.12
320.358	107.12
320.587	94.12
320.816	96.12
321.046	102.12
321.275	92.12
321.504	96.12
321.733	93.12
321.962	93.12
322.191	102.12
322.42	104.12
322.649	131.12
322.878	110.12
323.108	127.12
323.337	119.12
323.566	142.12
323.795	180.12
324.024	218.12
324.253	419.12
324.482	904.12
324.71	1927.12
324.939	2602.12
325.168	938.12
325.397	262.12
325.626	149.12
325.855	133.12
326.084	134.12
326.313	138.12
326.542	157.12
326.77	250.12
326.999	514.12
327.228	1081.12
327.457	1952.12
327.686	1541.12
327.914	430.12
328.143	272.12
328.372	287.12
328.6	186.12
328.829	143.12
329.058	129.12
329.287	130.12
329.515	122.12
329.744	131.12
329.972	217.12
330.201	354.12
330.43	506.12
330.658	268.12
330.887	164.12
331.115	131.12
331.344	114.12
331.572	110.12
331.801	117.12
332.03	112.12
332.258	103.12
332.486	97.12
332.715	103.12
332.943	107.12
333.172	107.12
333.4	109.12
333.629	116.12
333.857	143.12
334.085	222.12
334.314	330.12
334.542	606.12
334.771	574.12
334.999	210.12
335.227	116.12
335.455	101.12
335.684	102.12
335.912	93.12
336.14	111.12
336.369	100.12
336.597	108.12
336.825	103.12
337.053	90.12
337.281	94.12
337.51	111.12
337.738	96.12
337.966	83.12
338.194	96.12
338.422	96.12
338.65	95.12
338.878	93.12
339.106	89.12
339.334	88.12
339.562	101.12
339.79	89.12
340.018	97.12
340.246	96.12
340.474	105.12
340.702	102.12
340.93	86.12
341.158	97.12
341.386	98.12
341.614	97.12
341.842	99.12
342.07	102.12
342.298	101.12
342.526	105.12
342.754	89.12
342.981	98.12
343.209	102.12
343.437	115.12
343.665	83.12
343.893	93.12
344.12	88.12
344.348	86.12
344.576	88.12
344.804	95.12
345.031	96.12
345.259	93.12
345.487	103.12
345.714	94.12
345.942	91.12
346.17	104.12
346.397	88.12
346.625	104.12
346.853	85.12
347.08	94.12
347.308	106.12
347.535	107.12
347.763	91.12
347.99	103.12
348.218	105.12
348.445	111.12
348.673	103.12
348.9	97.12
349.128	92.12
349.355	100.12
349.583	96.12
349.81	96.12
350.037	91.12
350.265	95.12
350.492	94.12
350.72	86.12
350.947	106.12
351.174	120.12
351.402	112.12
351.629	117.12
351.856	106.12
352.083	103.12
352.311	110.12
352.538	108.12
352.765	113.12
352.992	106.12
353.22	117.12
353.447	107.12
353.674	98.12
353.901	114.12
354.128	101.12
354.355	89.12
354.583	104.12
354.81	104.12
355.037	103.12
355.264	106.12
355.491	101.12
355.718	98.12
355.945	103.12
356.172	104.12
356.399	105.12
356.626	94.12
356.853	95.12
357.08	89.12
357.307	89.12
357.534	86.12
357.761	106.12
357.988	94.12
358.215	101.12
358.441	93.12
358.668	92.12
358.895	82.12
359.122	105.12
359.349	89.12
359.576	93.12
359.802	96.12
360.029	106.12
360.256	109.12
360.483	115.12
360.709	98.12
360.936	96.12
361.163	104.12
361.39	91.12
361.616	89.12
361.843	98.12
362.07	106.12
362.296	93.12
362.523	94.12
362.749	91.12
362.976	96.12
363.203	107.12
363.429	96.12
363.656	97.12
363.882	95.12
364.109	90.12
364.335	91.12
364.562	98.12
364.788	107.12
365.015	91.12
365.241	106.12
365.468	113.12
365.694	103.12
365.92	105.12
366.147	82.12
366.373	98.12
366.599	87.12
366.826	97.12
367.052	95.12
367.278	88.12
367.505	98.12
367.731	95.12
367.957	82.12
368.184	94.12
368.41	105.12
368.636	100.12
368.862	117.12
369.089	102.12
369.315	89.12
369.541	86.12
369.767	94.12
369.993	98.12
370.219	96.12
370.445	102.12
370.672	96.12
370.898	95.12
371.124	102.12
371.35	90.12
371.576	82.12
371.802	86.12
372.028	82.12
372.254	96.12
372.48	83.12
372.706	88.12
372.932	95.12
373.158	90.12
373.384	105.12
373.61	93.12
373.835	104.12
374.061	93.12
374.287	87.12
374.513	96.12
374.739	99.12
374.965	83.12
375.191	95.12
375.416	88.12
375.642	87.12
375.868	94.12
376.094	96.12
376.319	105.12
376.545	95.12
376.771	96.12
376.997	97.12
377.222	94.12
377.448	88.12
377.674	96.12
377.899	99.12
378.125	92.12
378.35	92.12
378.576	92.12
378.802	93.12
379.027	89.12
379.253	88.12
379.478	85.12
379.704	81.12
379.929	111.12
380.155	95.12
380.38	101.12
380.606	105.12
380.831	94.12
381.057	100.12
381.282	106.12
381.507	108.12
381.733	102.12
381.958	105.12
382.184	102.12
382.409	90.12
382.634	104.12
382.86	112.12
383.085	77.12
383.31	94.12
383.535	119.12
383.761	110.12
383.986	87.12
384.211	100.12
384.436	109.12
384.662	99.12
384.887	98.12
385.112	98.12
385.337	106.12
385.562	100.12
385.787	99.12
386.013	107.12
386.238	129.12
386.463	127.12
386.688	108.12
386.913	89.12
387.138	106.12
387.363	108.12
387.588	106.12
387.813	106.12
388.038	103.12
388.263	113.12
388.488	118.12
388.713	111.12
388.938	110.12
389.163	85.12
389.387	97.12
389.612	93.12
389.837	91.12
390.062	105.12
390.287	101.12
390.512	85.12
390.736	89.12
390.961	101.12
391.186	101.12
391.411	86.12
391.636	104.12
391.86	89.12
392.085	92.12
392.31	90.12
392.534	94.12
392.759	100.12
392.984	90.12
393.208	119.12
393.433	141.12
393.658	134.12
393.882	97.12
394.107	92.12
394.331	97.12
394.556	96.12
394.78	97.12
395.005	85.12
395.229	83.12
395.454	85.12
395.678	92.12
395.903	104.12
396.127	97.12
396.352	95.12
396.576	91.12
396.801	117.12
397.025	117.12
397.249	82.12
397.474	100.12
397.698	78.12
397.922	94.12
398.147	92.12
398.371	103.12
398.595	81.12
398.82	96.12
399.044	86.12
399.268	97.12
399.492	95.12
399.717	95.12
399.941	80.12
400.165	92.12
400.389	96.12
400.613	103.12
400.837	90.12
401.062	97.12
401.286	68.12
401.51	92.12
401.734	91.12
401.958	97.12
402.182	126.12
402.406	162.12
402.63	126.12
402.854	90.12
403.078	85.12
403.302	89.12
403.526	89.12
403.75	91.12
403.974	101.12
404.198	85.12
404.422	92.12
404.645	100.12
404.869	102.12
405.093	109.12
405.317	119.12
405.541	112.12
405.765	118.12
405.988	124.12
406.212	180.12
406.436	251.12
406.66	163.12
406.883	110.12
407.107	94.12
407.331	112.12
407.555	118.12
407.778	119.12
408.002	93.12
408.226	86.12
408.449	93.12
408.673	76.12
408.896	99.12
409.12	104.12
409.344	87.12
409.567	72.12
409.791	102.12
410.014	107.12
410.238	93.12
410.461	98.12
410.685	98.12
410.908	113.12
411.132	94.12
411.355	105.12
411.578	98.12
411.802	98.12
412.025	95.12
412.249	95.12
412.472	96.12
412.695	114.12
412.919	104.12
413.142	114.12
413.365	96.12
413.589	103.12
413.812	92.12
414.035	88.12
414.258	80.12
414.482	95.12
414.705	104.12
414.928	85.12
415.151	84.12
415.374	102.12
415.597	96.12
415.821	81.12
416.044	91.12
416.267	101.12
416.49	101.12
416.713	81.12
416.936	77.12
417.159	89.12
417.382	103.12
417.605	94.12
417.828	96.12
418.051	106.12
418.274	105.12
418.497	89.12
418.72	85.12
418.943	74.12
419.166	100.12
419.389	91.12
419.611	91.12
419.834	81.12
420.057	99.12
420.28	99.12
420.503	95.12
420.726	92.12
420.948	87.12
421.171	102.12
421.394	92.12
421.617	89.12
421.839	93.12
422.062	90.12
422.285	99.12
422.507	102.12
422.73	126.12
422.953	97.12
423.175	92.12
423.398	97.12
423.621	95.12
423.843	99.12
424.066	95.12
424.288	97.12
424.511	96.12
424.733	94.12
424.956	100.12
425.178	97.12
425.401	86.12
425.623	94.12
425.846	100.12
426.068	102.12
426.291	92.12
426.513	95.12
426.735	95.12
426.958	80.12
427.18	124.12
427.402	142.12
427.625	197.12
427.847	177.12
428.069	153.12
428.292	100.12
428.514	97.12
428.736	92.12
428.958	89.12
429.181	98.12
429.403	95.12
429.625	86.12
429.847	97.12
430.069	100.12
430.292	105.12
430.514	90.12
430.736	82.12
430.958	85.12
431.18	88.12
431.402	95.12
431.624	78.12
431.846	93.12
432.068	86.12
432.29	102.12
432.512	86.12
432.734	95.12
432.956	90.12
433.178	94.12
433.4	114.12
433.622	93.12
433.844	88.12
434.066	89.12
434.287	112.12
434.509	82.12
434.731	107.12
434.953	101.12
435.175	97.12
435.397	109.12
435.618	97.12
435.84	110.12
436.062	139.12
436.284	114.12
436.505	92.12
436.727	95.12
436.949	81.12
437.17	88.12
437.392	100.12
437.614	103.12
437.835	115.12
438.057	135.12
438.278	110.12
438.5	118.12
438.721	127.12
438.943	118.12
439.165	97.12
439.386	93.12
439.608	82.12
439.829	86.12
440.05	128.12
440.272	148.12
440.493	98.12
440.715	89.12
440.936	95.12
441.158	94.12
441.379	99.12
441.6	113.12
441.822	98.12
442.043	97.12
442.264	118.12
442.486	97.12
442.707	92.12
442.928	119.12
443.149	143.12
443.371	143.12
443.592	122.12
443.813	131.12
444.034	108.12
444.255	88.12
444.476	85.12
444.698	79.12
444.919	106.12
445.14	140.12
445.361	114.12
445.582	140.12
445.803	148.12
446.024	136.12
446.245	134.12
446.466	112.12
446.687	101.12
446.908	99.12
447.129	103.12
447.35	98.12
447.571	107.12
447.792	98.12
448.013	100.12
448.234	113.12
448.455	109.12
448.675	128.12
448.896	127.12
449.117	120.12
449.338	104.12
449.559	151.12
449.779	144.12
450	101.12
450.221	86.12
450.442	95.12
450.662	100.12
450.883	99.12
451.104	115.12
451.324	77.12
451.545	92.12
451.766	82.12
451.986	100.12
452.207	94.12
452.428	94.12
452.648	86.12
452.869	104.12
453.089	119.12
453.31	120.12
453.53	97.12
453.751	94.12
453.971	99.12
454.192	100.12
454.412	96.12
454.633	88.12
454.853	87.12
455.073	76.12
455.294	92.12
455.514	102.12
455.734	93.12
455.955	85.12
456.175	90.12
456.395	93.12
456.616	86.12
456.836	76.12
457.056	89.12
457.276	93.12
457.497	88.12
457.717	86.12
457.937	91.12
458.157	85.12
458.377	98.12
458.598	113.12
458.818	151.12
459.038	157.12
459.258	114.12
459.478	83.12
459.698	85.12
459.918	85.12
460.138	98.12
460.358	85.12
460.578	84.12
460.798	93.12
461.018	103.12
461.238	79.12
461.458	95.12
461.678	96.12
461.898	97.12
462.118	78.12
462.338	81.12
462.558	89.12
462.777	92.12
462.997	97.12
463.217	108.12
463.437	84.12
463.657	89.12
463.876	88.12
464.096	98.12
464.316	99.12
464.536	102.12
464.755	87.12
464.975	103.12
465.195	164.12
465.414	167.12
465.634	99.12
465.854	83.12
466.073	98.12
466.293	88.12
466.512	92.12
466.732	78.12
466.951	89.12
467.171	98.12
467.391	95.12
467.61	112.12
467.829	136.12
468.049	253.12
468.268	312.12
468.488	115.12
468.707	89.12
468.927	98.12
469.146	83.12
469.365	98.12
469.585	104.12
469.804	98.12
470.023	108.12
470.243	88.12
470.462	116.12
470.681	116.12
470.901	104.12
471.12	90.12
471.339	80.12
471.558	113.12
471.777	109.12
471.997	175.12
472.216	451.12
472.435	890.12
472.654	247.12
472.873	106.12
473.092	93.12
473.311	103.12
473.53	100.12
473.749	90.12
473.968	108.12
474.187	103.12
474.406	105.12
474.625	95.12
474.844	91.12
475.063	83.12
475.282	95.12
475.501	71.12
475.72	111.12
475.939	96.12
476.158	86.12
476.377	100.12
476.596	94.12
476.814	90.12
477.033	96.12
477.252	93.12
477.471	82.12
477.69	101.12
477.908	89.12
478.127	92.12
478.346	94.12
478.564	90.12
478.783	96.12
479.002	97.12
479.22	78.12
479.439	106.12
479.658	104.12
479.876	100.12
480.095	103.12
480.313	89.12
480.532	107.12
480.751	176.12
480.969	428.12
481.188	1564.12
481.406	893.12
481.624	184.12
481.843	107.12
482.061	104.12
482.28	86.12
482.498	103.12
482.717	105.12
482.935	91.12
483.153	81.12
483.372	84.12
483.59	93.12
483.808	102.12
484.027	95.12
484.245	94.12
484.463	93.12
484.681	96.12
484.9	94.12
485.118	88.12
485.336	102.12
485.554	101.12
485.772	81.12
485.99	90.12
486.209	103.12
486.427	97.12
486.645	102.12
486.863	113.12
487.081	99.12
487.299	92.12
487.517	118.12
487.735	98.12
487.953	91.12
488.171	92.12
488.389	86.12
488.607	79.12
488.825	89.12
489.043	104.12
489.261	108.12
489.479	83.12
489.696	100.12
489.914	100.12
490.132	98.12
490.35	88.12
490.568	100.12
490.786	80.12
491.003	101.12
491.221	101.12
491.439	97.12
491.657	88.12
491.874	88.12
492.092	92.12
492.31	91.12
492.527	87.12
492.745	84.12
492.963	97.12
493.18	101.12
493.398	94.12
493.615	100.12
493.833	86.12
494.05	89.12
494.268	101.12
494.485	83.12
494.703	84.12
494.92	97.12
495.138	95.12
495.355	89.12
495.573	112.12
495.79	105.12
496.008	84.12
496.225	106.12
496.442	96.12
496.66	98.12
496.877	96.12
497.094	103.12
497.312	85.12
497.529	93.12
497.746	98.12
497.963	84.12
498.181	95.12
498.398	87.12
498.615	109.12
498.832	100.12
499.049	97.12
499.267	94.12
499.484	100.12
499.701	89.12
499.918	90.12
500.135	99.12
500.352	88.12
500.569	81.12
500.786	99.12
501.003	86.12
501.22	94.12
501.437	102.12
501.654	92.12
501.871	106.12
502.088	95.12
502.305	84.12
502.522	89.12
502.739	97.12
502.956	86.12
503.172	84.12
503.389	100.12
503.606	97.12
503.823	106.12
504.04	89.12
504.256	101.12
504.473	85.12
504.69	96.12
504.907	98.12
505.123	98.12
505.34	97.12
505.557	79.12
505.773	96.12
505.99	96.12
506.207	86.12
506.423	101.12
506.64	93.12
506.856	88.12
507.073	90.12
507.289	88.12
507.506	96.12
507.722	115.12
507.939	107.12
508.155	98.12
508.372	105.12
508.588	80.12
508.805	97.12
509.021	94.12
509.238	93.12
509.454	100.12
509.67	97.12
509.887	108.12
510.103	117.12
510.319	208.12
510.536	755.12
510.752	2527.12
510.968	660.12
511.184	140.12
511.401	110.12
511.617	101.12
511.833	110.12
512.049	100.12
512.265	91.12
512.481	95.12
512.698	95.12
512.914	92.12
513.13	103.12
513.346	91.12
513.562	94.12
