Data from Circ_1991_H10_HRD10591_00023.txt Node
Date: Wed Jan 03 11:51:45 EST 2024
User: Yrep
Spectrometer: HR+D1059
Trigger mode: 1
Integration Time (sec): 1.000000E-1
Scans to average: 1
Electric dark correction enabled: true
Nonlinearity correction enabled: false
Boxcar width: 0
XAxis mode: Wavelengths
Number of Pixels in Spectrum: 2048
>>>>>Begin Spectral Data<<<<<
223.165	-27.44
223.4	-27.44
223.635	-27.44
223.869	-18.44
224.104	-29.44
224.338	-11.44
224.573	-29.44
224.808	-24.44
225.042	-1.44
225.277	-8.44
225.511	7.56
225.746	9.56
225.98	8.56
226.215	11.56
226.449	21.56
226.683	23.56
226.918	24.56
227.152	43.56
227.387	26.56
227.621	28.56
227.856	47.56
228.09	39.56
228.324	56.56
228.559	61.56
228.793	43.56
229.027	49.56
229.262	55.56
229.496	65.56
229.73	83.56
229.964	71.56
230.199	62.56
230.433	57.56
230.667	74.56
230.901	83.56
231.136	75.56
231.37	83.56
231.604	84.56
231.838	74.56
232.072	67.56
232.306	70.56
232.541	75.56
232.775	77.56
233.009	75.56
233.243	86.56
233.477	79.56
233.711	97.56
233.945	77.56
234.179	71.56
234.413	81.56
234.647	84.56
234.881	75.56
235.115	83.56
235.349	83.56
235.583	75.56
235.817	71.56
236.051	67.56
236.285	71.56
236.519	77.56
236.753	79.56
236.987	73.56
237.221	93.56
237.455	76.56
237.689	77.56
237.922	75.56
238.156	68.56
238.39	71.56
238.624	86.56
238.858	87.56
239.091	60.56
239.325	68.56
239.559	71.56
239.793	79.56
240.027	77.56
240.26	86.56
240.494	81.56
240.728	79.56
240.961	77.56
241.195	67.56
241.429	79.56
241.662	63.56
241.896	81.56
242.13	57.56
242.363	65.56
242.597	77.56
242.83	80.56
243.064	72.56
243.298	73.56
243.531	75.56
243.765	81.56
243.998	64.56
244.232	92.56
244.465	84.56
244.699	67.56
244.932	73.56
245.166	78.56
245.399	76.56
245.633	79.56
245.866	84.56
246.099	78.56
246.333	84.56
246.566	79.56
246.8	75.56
247.033	77.56
247.266	78.56
247.5	72.56
247.733	72.56
247.966	89.56
248.2	74.56
248.433	64.56
248.666	85.56
248.899	84.56
249.133	81.56
249.366	89.56
249.599	80.56
249.832	79.56
250.066	76.56
250.299	77.56
250.532	88.56
250.765	82.56
250.998	72.56
251.231	91.56
251.465	67.56
251.698	73.56
251.931	82.56
252.164	81.56
252.397	77.56
252.63	71.56
252.863	89.56
253.096	69.56
253.329	85.56
253.562	67.56
253.795	92.56
254.028	84.56
254.261	81.56
254.494	76.56
254.727	67.56
254.96	90.56
255.193	73.56
255.426	88.56
255.659	84.56
255.892	81.56
256.124	80.56
256.357	70.56
256.59	92.56
256.823	76.56
257.056	98.56
257.289	70.56
257.521	74.56
257.754	88.56
257.987	86.56
258.22	86.56
258.452	80.56
258.685	61.56
258.918	71.56
259.151	98.56
259.383	77.56
259.616	84.56
259.849	75.56
260.081	72.56
260.314	76.56
260.547	75.56
260.779	80.56
261.012	87.56
261.244	89.56
261.477	79.56
261.71	87.56
261.942	106.56
262.175	114.56
262.407	96.56
262.64	91.56
262.872	76.56
263.105	64.56
263.337	89.56
263.57	83.56
263.802	75.56
264.035	77.56
264.267	82.56
264.499	76.56
264.732	72.56
264.964	73.56
265.197	77.56
265.429	84.56
265.661	95.56
265.894	75.56
266.126	76.56
266.358	68.56
266.591	83.56
266.823	69.56
267.055	80.56
267.287	85.56
267.52	73.56
267.752	81.56
267.984	89.56
268.216	72.56
268.448	78.56
268.681	81.56
268.913	80.56
269.145	77.56
269.377	89.56
269.609	90.56
269.841	85.56
270.073	79.56
270.306	78.56
270.538	98.56
270.77	75.56
271.002	68.56
271.234	82.56
271.466	77.56
271.698	78.56
271.93	87.56
272.162	90.56
272.394	73.56
272.626	79.56
272.858	86.56
273.09	82.56
273.322	80.56
273.553	82.56
273.785	90.56
274.017	82.56
274.249	76.56
274.481	71.56
274.713	90.56
274.945	79.56
275.176	84.56
275.408	81.56
275.64	91.56
275.872	79.56
276.104	82.56
276.335	85.56
276.567	94.56
276.799	114.56
277.031	107.56
277.262	89.56
277.494	91.56
277.726	96.56
277.957	84.56
278.189	80.56
278.421	80.56
278.652	80.56
278.884	88.56
279.115	71.56
279.347	87.56
279.579	90.56
279.81	91.56
280.042	90.56
280.273	97.56
280.505	93.56
280.736	81.56
280.968	91.56
281.199	77.56
281.431	71.56
281.662	92.56
281.894	91.56
282.125	77.56
282.356	97.56
282.588	113.56
282.819	109.56
283.051	92.56
283.282	89.56
283.513	79.56
283.745	71.56
283.976	84.56
284.207	95.56
284.439	90.56
284.67	92.56
284.901	87.56
285.132	96.56
285.364	74.56
285.595	75.56
285.826	90.56
286.057	71.56
286.288	81.56
286.52	89.56
286.751	89.56
286.982	75.56
287.213	82.56
287.444	74.56
287.675	92.56
287.906	75.56
288.138	72.56
288.369	85.56
288.6	85.56
288.831	74.56
289.062	97.56
289.293	93.56
289.524	81.56
289.755	88.56
289.986	80.56
290.217	89.56
290.448	95.56
290.679	87.56
290.91	88.56
291.141	80.56
291.371	78.56
291.602	94.56
291.833	72.56
292.064	85.56
292.295	88.56
292.526	78.56
292.757	82.56
292.987	75.56
293.218	83.56
293.449	98.56
293.68	79.56
293.91	98.56
294.141	81.56
294.372	98.56
294.603	97.56
294.833	96.56
295.064	91.56
295.295	75.56
295.525	99.56
295.756	89.56
295.987	100.56
296.217	124.56
296.448	113.56
296.679	85.56
296.909	82.56
297.14	77.56
297.37	85.56
297.601	83.56
297.831	70.56
298.062	82.56
298.292	92.56
298.523	73.56
298.753	77.56
298.984	81.56
299.214	92.56
299.445	76.56
299.675	101.56
299.905	93.56
300.136	90.56
300.366	67.56
300.597	88.56
300.827	104.56
301.057	98.56
301.288	101.56
301.518	90.56
301.748	96.56
301.979	97.56
302.209	89.56
302.439	80.56
302.669	87.56
302.9	83.56
303.13	95.56
303.36	93.56
303.59	92.56
303.82	107.56
304.051	91.56
304.281	87.56
304.511	87.56
304.741	84.56
304.971	88.56
305.201	88.56
305.431	91.56
305.661	95.56
305.891	86.56
306.121	96.56
306.352	114.56
306.582	108.56
306.812	99.56
307.042	90.56
307.272	107.56
307.502	84.56
307.731	94.56
307.961	79.56
308.191	71.56
308.421	85.56
308.651	91.56
308.881	84.56
309.111	100.56
309.341	101.56
309.571	90.56
309.8	99.56
310.03	98.56
310.26	105.56
310.49	98.56
310.72	103.56
310.949	93.56
311.179	107.56
311.409	89.56
311.639	80.56
311.868	103.56
312.098	95.56
312.328	79.56
312.557	98.56
312.787	94.56
313.017	99.56
313.246	102.56
313.476	91.56
313.706	90.56
313.935	91.56
314.165	96.56
314.394	100.56
314.624	89.56
314.853	88.56
315.083	87.56
315.312	93.56
315.542	92.56
315.771	88.56
316.001	102.56
316.23	66.56
316.46	79.56
316.689	100.56
316.919	100.56
317.148	111.56
317.377	100.56
317.607	105.56
317.836	75.56
318.065	97.56
318.295	94.56
318.524	95.56
318.753	90.56
318.983	100.56
319.212	99.56
319.441	99.56
319.67	96.56
319.9	91.56
320.129	96.56
320.358	85.56
320.587	89.56
320.816	100.56
321.046	97.56
321.275	96.56
321.504	84.56
321.733	79.56
321.962	93.56
322.191	99.56
322.42	105.56
322.649	114.56
322.878	94.56
323.108	98.56
323.337	124.56
323.566	124.56
323.795	137.56
324.024	192.56
324.253	331.56
324.482	723.56
324.71	1439.56
324.939	1931.56
325.168	720.56
325.397	212.56
325.626	128.56
325.855	116.56
326.084	100.56
326.313	117.56
326.542	140.56
326.77	195.56
326.999	372.56
327.228	810.56
327.457	1471.56
327.686	1179.56
327.914	331.56
328.143	220.56
328.372	188.56
328.6	147.56
328.829	115.56
329.058	108.56
329.287	121.56
329.515	116.56
329.744	119.56
329.972	156.56
330.201	231.56
330.43	287.56
330.658	179.56
330.887	140.56
331.115	114.56
331.344	98.56
331.572	86.56
331.801	94.56
332.03	111.56
332.258	82.56
332.486	92.56
332.715	96.56
332.943	101.56
333.172	84.56
333.4	82.56
333.629	98.56
333.857	112.56
334.085	147.56
334.314	206.56
334.542	345.56
334.771	299.56
334.999	137.56
335.227	105.56
335.455	95.56
335.684	90.56
335.912	91.56
336.14	95.56
336.369	96.56
336.597	90.56
336.825	92.56
337.053	94.56
337.281	90.56
337.51	101.56
337.738	108.56
337.966	103.56
338.194	99.56
338.422	95.56
338.65	98.56
338.878	107.56
339.106	79.56
339.334	80.56
339.562	83.56
339.79	72.56
340.018	90.56
340.246	101.56
340.474	89.56
340.702	104.56
340.93	97.56
341.158	77.56
341.386	84.56
341.614	93.56
341.842	89.56
342.07	76.56
342.298	91.56
342.526	89.56
342.754	81.56
342.981	77.56
343.209	87.56
343.437	98.56
343.665	79.56
343.893	78.56
344.12	74.56
344.348	83.56
344.576	87.56
344.804	81.56
345.031	97.56
345.259	97.56
345.487	91.56
345.714	67.56
345.942	89.56
346.17	99.56
346.397	91.56
346.625	90.56
346.853	80.56
347.08	91.56
347.308	101.56
347.535	89.56
347.763	91.56
347.99	102.56
348.218	92.56
348.445	97.56
348.673	92.56
348.9	90.56
349.128	94.56
349.355	92.56
349.583	97.56
349.81	92.56
350.037	95.56
350.265	79.56
350.492	88.56
350.72	100.56
350.947	86.56
351.174	93.56
351.402	91.56
351.629	96.56
351.856	98.56
352.083	90.56
352.311	88.56
352.538	93.56
352.765	97.56
352.992	115.56
353.22	112.56
353.447	104.56
353.674	96.56
353.901	111.56
354.128	101.56
354.355	91.56
354.583	101.56
354.81	97.56
355.037	90.56
355.264	81.56
355.491	95.56
355.718	80.56
355.945	92.56
356.172	84.56
356.399	92.56
356.626	87.56
356.853	108.56
357.08	94.56
357.307	86.56
357.534	92.56
357.761	89.56
357.988	100.56
358.215	99.56
358.441	91.56
358.668	73.56
358.895	84.56
359.122	94.56
359.349	71.56
359.576	85.56
359.802	84.56
360.029	101.56
360.256	84.56
360.483	80.56
360.709	84.56
360.936	83.56
361.163	93.56
361.39	88.56
361.616	78.56
361.843	86.56
362.07	85.56
362.296	86.56
362.523	95.56
362.749	90.56
362.976	89.56
363.203	87.56
363.429	94.56
363.656	88.56
363.882	98.56
364.109	73.56
364.335	89.56
364.562	89.56
364.788	89.56
365.015	99.56
365.241	88.56
365.468	98.56
365.694	81.56
365.92	104.56
366.147	85.56
366.373	90.56
366.599	85.56
366.826	105.56
367.052	85.56
367.278	94.56
367.505	91.56
367.731	95.56
367.957	86.56
368.184	91.56
368.41	88.56
368.636	104.56
368.862	97.56
369.089	95.56
369.315	77.56
369.541	89.56
369.767	93.56
369.993	81.56
370.219	79.56
370.445	92.56
370.672	76.56
370.898	76.56
371.124	72.56
371.35	88.56
371.576	88.56
371.802	91.56
372.028	67.56
372.254	89.56
372.48	75.56
372.706	92.56
372.932	90.56
373.158	89.56
373.384	80.56
373.61	93.56
373.835	86.56
374.061	87.56
374.287	78.56
374.513	92.56
374.739	91.56
374.965	89.56
375.191	96.56
375.416	78.56
375.642	88.56
375.868	100.56
376.094	78.56
376.319	76.56
376.545	79.56
376.771	100.56
376.997	84.56
377.222	93.56
377.448	91.56
377.674	88.56
377.899	84.56
378.125	87.56
378.35	85.56
378.576	79.56
378.802	82.56
379.027	86.56
379.253	97.56
379.478	84.56
379.704	93.56
379.929	77.56
380.155	101.56
380.38	103.56
380.606	96.56
380.831	89.56
381.057	107.56
381.282	88.56
381.507	85.56
381.733	91.56
381.958	108.56
382.184	106.56
382.409	97.56
382.634	98.56
382.86	111.56
383.085	99.56
383.31	99.56
383.535	105.56
383.761	97.56
383.986	87.56
384.211	95.56
384.436	100.56
384.662	94.56
384.887	112.56
385.112	122.56
385.337	93.56
385.562	111.56
385.787	106.56
386.013	108.56
386.238	114.56
386.463	109.56
386.688	117.56
386.913	115.56
387.138	105.56
387.363	106.56
387.588	107.56
387.813	98.56
388.038	112.56
388.263	116.56
388.488	116.56
388.713	91.56
388.938	98.56
389.163	93.56
389.387	99.56
389.612	85.56
389.837	93.56
390.062	83.56
390.287	84.56
390.512	90.56
390.736	86.56
390.961	80.56
391.186	80.56
391.411	82.56
391.636	88.56
391.86	100.56
392.085	100.56
392.31	87.56
392.534	84.56
392.759	85.56
392.984	99.56
393.208	122.56
393.433	164.56
393.658	134.56
393.882	101.56
394.107	95.56
394.331	69.56
394.556	82.56
394.78	87.56
395.005	75.56
395.229	75.56
395.454	68.56
395.678	79.56
395.903	84.56
396.127	88.56
396.352	89.56
396.576	94.56
396.801	112.56
397.025	130.56
397.249	85.56
397.474	92.56
397.698	61.56
397.922	81.56
398.147	79.56
398.371	89.56
398.595	82.56
398.82	82.56
399.044	96.56
399.268	76.56
399.492	77.56
399.717	93.56
399.941	89.56
400.165	97.56
400.389	69.56
400.613	75.56
400.837	85.56
401.062	89.56
401.286	95.56
401.51	94.56
401.734	108.56
401.958	100.56
402.182	101.56
402.406	140.56
402.63	95.56
402.854	88.56
403.078	75.56
403.302	85.56
403.526	95.56
403.75	86.56
403.974	68.56
404.198	82.56
404.422	80.56
404.645	78.56
404.869	107.56
405.093	95.56
405.317	104.56
405.541	84.56
405.765	87.56
405.988	111.56
406.212	158.56
406.436	190.56
406.66	132.56
406.883	100.56
407.107	88.56
407.331	87.56
407.555	84.56
407.778	89.56
408.002	87.56
408.226	81.56
408.449	87.56
408.673	91.56
408.896	87.56
409.12	91.56
409.344	76.56
409.567	100.56
409.791	85.56
410.014	78.56
410.238	90.56
410.461	83.56
410.685	77.56
410.908	99.56
411.132	99.56
411.355	81.56
411.578	96.56
411.802	83.56
412.025	76.56
412.249	80.56
412.472	109.56
412.695	91.56
412.919	73.56
413.142	93.56
413.365	95.56
413.589	74.56
413.812	81.56
414.035	79.56
414.258	86.56
414.482	93.56
414.705	96.56
414.928	111.56
415.151	78.56
415.374	99.56
415.597	71.56
415.821	84.56
416.044	87.56
416.267	96.56
416.49	97.56
416.713	88.56
416.936	83.56
417.159	79.56
417.382	66.56
417.605	85.56
417.828	92.56
418.051	89.56
418.274	100.56
418.497	93.56
418.72	78.56
418.943	91.56
419.166	76.56
419.389	92.56
419.611	91.56
419.834	82.56
420.057	72.56
420.28	72.56
420.503	84.56
420.726	96.56
420.948	90.56
421.171	91.56
421.394	82.56
421.617	97.56
421.839	91.56
422.062	81.56
422.285	85.56
422.507	84.56
422.73	114.56
422.953	108.56
423.175	85.56
423.398	84.56
423.621	90.56
423.843	67.56
424.066	81.56
424.288	82.56
424.511	89.56
424.733	103.56
424.956	88.56
425.178	81.56
425.401	100.56
425.623	79.56
425.846	81.56
426.068	94.56
426.291	88.56
426.513	77.56
426.735	81.56
426.958	76.56
427.18	108.56
427.402	112.56
427.625	143.56
427.847	136.56
428.069	130.56
428.292	85.56
428.514	79.56
428.736	76.56
428.958	87.56
429.181	71.56
429.403	72.56
429.625	89.56
429.847	96.56
430.069	87.56
430.292	102.56
430.514	92.56
430.736	92.56
430.958	72.56
431.18	79.56
431.402	90.56
431.624	80.56
431.846	89.56
432.068	93.56
432.29	87.56
432.512	74.56
432.734	75.56
432.956	90.56
433.178	93.56
433.4	106.56
433.622	89.56
433.844	91.56
434.066	101.56
434.287	90.56
434.509	95.56
434.731	95.56
434.953	75.56
435.175	89.56
435.397	68.56
435.618	75.56
435.84	98.56
436.062	112.56
436.284	106.56
436.505	86.56
436.727	101.56
436.949	78.56
437.17	92.56
437.392	73.56
437.614	89.56
437.835	100.56
438.057	92.56
438.278	82.56
438.5	95.56
438.721	105.56
438.943	96.56
439.165	103.56
439.386	96.56
439.608	84.56
439.829	98.56
440.05	112.56
440.272	116.56
440.493	89.56
440.715	83.56
440.936	76.56
441.158	81.56
441.379	81.56
441.6	88.56
441.822	96.56
442.043	90.56
442.264	103.56
442.486	95.56
442.707	89.56
442.928	92.56
443.149	117.56
443.371	112.56
443.592	101.56
443.813	99.56
444.034	101.56
444.255	92.56
444.476	76.56
444.698	81.56
444.919	78.56
445.14	135.56
445.361	126.56
445.582	112.56
445.803	108.56
446.024	119.56
446.245	112.56
446.466	94.56
446.687	77.56
446.908	97.56
447.129	83.56
447.35	81.56
447.571	83.56
447.792	85.56
448.013	87.56
448.234	100.56
448.455	91.56
448.675	91.56
448.896	98.56
449.117	97.56
449.338	96.56
449.559	119.56
449.779	104.56
450	84.56
450.221	82.56
450.442	71.56
450.662	81.56
450.883	92.56
451.104	91.56
451.324	81.56
451.545	82.56
451.766	80.56
451.986	88.56
452.207	78.56
452.428	91.56
452.648	101.56
452.869	112.56
453.089	100.56
453.31	112.56
453.53	92.56
453.751	91.56
453.971	106.56
454.192	98.56
454.412	83.56
454.633	89.56
454.853	83.56
455.073	88.56
455.294	86.56
455.514	92.56
455.734	78.56
455.955	90.56
456.175	80.56
456.395	84.56
456.616	77.56
456.836	73.56
457.056	78.56
457.276	81.56
457.497	76.56
457.717	73.56
457.937	89.56
458.157	83.56
458.377	92.56
458.598	102.56
458.818	123.56
459.038	135.56
459.258	96.56
459.478	83.56
459.698	88.56
459.918	83.56
460.138	84.56
460.358	68.56
460.578	83.56
460.798	88.56
461.018	83.56
461.238	100.56
461.458	94.56
461.678	88.56
461.898	83.56
462.118	77.56
462.338	69.56
462.558	84.56
462.777	77.56
462.997	87.56
463.217	84.56
463.437	87.56
463.657	73.56
463.876	79.56
464.096	100.56
464.316	86.56
464.536	94.56
464.755	85.56
464.975	105.56
465.195	135.56
465.414	135.56
465.634	86.56
465.854	82.56
466.073	79.56
466.293	88.56
466.512	81.56
466.732	98.56
466.951	76.56
467.171	100.56
467.391	98.56
467.61	107.56
467.829	111.56
468.049	144.56
468.268	195.56
468.488	87.56
468.707	79.56
468.927	91.56
469.146	84.56
469.365	91.56
469.585	88.56
469.804	73.56
470.023	86.56
470.243	80.56
470.462	79.56
470.681	90.56
470.901	91.56
471.12	85.56
471.339	78.56
471.558	90.56
471.777	92.56
471.997	109.56
472.216	235.56
472.435	468.56
472.654	147.56
472.873	97.56
473.092	75.56
473.311	80.56
473.53	83.56
473.749	85.56
473.968	95.56
474.187	107.56
474.406	92.56
474.625	73.56
474.844	91.56
475.063	71.56
475.282	88.56
475.501	85.56
475.72	89.56
475.939	76.56
476.158	80.56
476.377	78.56
476.596	90.56
476.814	87.56
477.033	85.56
477.252	86.56
477.471	89.56
477.69	64.56
477.908	66.56
478.127	69.56
478.346	99.56
478.564	88.56
478.783	106.56
479.002	88.56
479.22	86.56
479.439	86.56
479.658	107.56
479.876	88.56
480.095	96.56
480.313	99.56
480.532	111.56
480.751	124.56
480.969	260.56
481.188	795.56
481.406	468.56
481.624	122.56
481.843	104.56
482.061	99.56
482.28	92.56
482.498	85.56
482.717	97.56
482.935	94.56
483.153	78.56
483.372	83.56
483.59	99.56
483.808	74.56
484.027	92.56
484.245	99.56
484.463	91.56
484.681	97.56
484.9	95.56
485.118	98.56
485.336	86.56
485.554	99.56
485.772	101.56
485.99	106.56
486.209	92.56
486.427	96.56
486.645	98.56
486.863	99.56
487.081	105.56
487.299	95.56
487.517	87.56
487.735	91.56
487.953	85.56
488.171	99.56
488.389	93.56
488.607	93.56
488.825	92.56
489.043	81.56
489.261	74.56
489.479	88.56
489.696	81.56
489.914	73.56
490.132	87.56
490.35	97.56
490.568	98.56
490.786	79.56
491.003	87.56
491.221	87.56
491.439	88.56
491.657	98.56
491.874	92.56
492.092	100.56
492.31	92.56
492.527	75.56
492.745	87.56
492.963	76.56
493.18	81.56
493.398	89.56
493.615	83.56
493.833	93.56
494.05	89.56
494.268	91.56
494.485	84.56
494.703	77.56
494.92	95.56
495.138	92.56
495.355	108.56
495.573	95.56
495.79	99.56
496.008	84.56
496.225	85.56
496.442	104.56
496.66	84.56
496.877	96.56
497.094	88.56
497.312	87.56
497.529	86.56
497.746	80.56
497.963	88.56
498.181	101.56
498.398	107.56
498.615	96.56
498.832	100.56
499.049	94.56
499.267	91.56
499.484	95.56
499.701	76.56
499.918	89.56
500.135	83.56
500.352	74.56
500.569	84.56
500.786	95.56
501.003	85.56
501.22	92.56
501.437	89.56
501.654	93.56
501.871	107.56
502.088	111.56
502.305	85.56
502.522	91.56
502.739	75.56
502.956	87.56
503.172	89.56
503.389	81.56
503.606	106.56
503.823	91.56
504.04	87.56
504.256	78.56
504.473	83.56
504.69	86.56
504.907	87.56
505.123	89.56
505.34	99.56
505.557	89.56
505.773	80.56
505.99	85.56
506.207	92.56
506.423	83.56
506.64	106.56
506.856	90.56
507.073	95.56
507.289	100.56
507.506	91.56
507.722	92.56
507.939	89.56
508.155	89.56
508.372	84.56
508.588	75.56
508.805	75.56
509.021	88.56
509.238	92.56
509.454	96.56
509.67	89.56
509.887	107.56
510.103	120.56
510.319	201.56
510.536	627.56
510.752	1968.56
510.968	547.56
511.184	145.56
511.401	98.56
511.617	93.56
511.833	85.56
512.049	84.56
512.265	86.56
512.481	98.56
512.698	83.56
512.914	83.56
513.13	82.56
513.346	88.56
513.562	88.56
513.778	85.56
513.994	83.56
514.21	101.56
514.426	116.56
514.642	129.56
514.858	130.56
515.074	141.56
515.29	355.56
515.506	1123.56
515.721	428.56
515.937	131.56
516.153	100.56
516.369	86.56
516.585	87.56
