Data from Circ_1991_H10_HRD10591_00035.txt Node
Date: Wed Jan 03 11:51:48 EST 2024
User: Yrep
Spectrometer: HR+D1059
Trigger mode: 1
Integration Time (sec): 1.000000E-1
Scans to average: 1
Electric dark correction enabled: true
Nonlinearity correction enabled: false
Boxcar width: 0
XAxis mode: Wavelengths
Number of Pixels in Spectrum: 2048
>>>>>Begin Spectral Data<<<<<
223.165	-18.44
223.4	-18.44
223.635	-18.44
223.869	-19.44
224.104	-14.44
224.338	-6.44
224.573	-12.44
224.808	-0.44
225.042	-4.44
225.277	3.56
225.511	0.56
225.746	6.56
225.98	2.56
226.215	17.56
226.449	4.56
226.683	4.56
226.918	14.56
227.152	21.56
227.387	38.56
227.621	25.56
227.856	48.56
228.09	57.56
228.324	48.56
228.559	52.56
228.793	64.56
229.027	73.56
229.262	75.56
229.496	82.56
229.73	75.56
229.964	90.56
230.199	78.56
230.433	71.56
230.667	83.56
230.901	83.56
231.136	65.56
231.37	62.56
231.604	77.56
231.838	79.56
232.072	88.56
232.306	86.56
232.541	91.56
232.775	80.56
233.009	93.56
233.243	79.56
233.477	76.56
233.711	67.56
233.945	77.56
234.179	90.56
234.413	89.56
234.647	79.56
234.881	78.56
235.115	73.56
235.349	80.56
235.583	87.56
235.817	66.56
236.051	78.56
236.285	72.56
236.519	83.56
236.753	81.56
236.987	99.56
237.221	75.56
237.455	80.56
237.689	78.56
237.922	72.56
238.156	79.56
238.39	91.56
238.624	89.56
238.858	74.56
239.091	68.56
239.325	103.56
239.559	80.56
239.793	81.56
240.027	82.56
240.26	81.56
240.494	82.56
240.728	87.56
240.961	90.56
241.195	76.56
241.429	68.56
241.662	75.56
241.896	72.56
242.13	79.56
242.363	83.56
242.597	76.56
242.83	79.56
243.064	79.56
243.298	71.56
243.531	68.56
243.765	83.56
243.998	71.56
244.232	73.56
244.465	86.56
244.699	89.56
244.932	73.56
245.166	72.56
245.399	82.56
245.633	70.56
245.866	70.56
246.099	72.56
246.333	72.56
246.566	75.56
246.8	75.56
247.033	72.56
247.266	93.56
247.5	77.56
247.733	74.56
247.966	92.56
248.2	90.56
248.433	84.56
248.666	91.56
248.899	78.56
249.133	91.56
249.366	95.56
249.599	96.56
249.832	101.56
250.066	80.56
250.299	84.56
250.532	89.56
250.765	91.56
250.998	81.56
251.231	73.56
251.465	83.56
251.698	81.56
251.931	79.56
252.164	90.56
252.397	95.56
252.63	62.56
252.863	65.56
253.096	82.56
253.329	78.56
253.562	78.56
253.795	85.56
254.028	87.56
254.261	94.56
254.494	91.56
254.727	84.56
254.96	81.56
255.193	86.56
255.426	81.56
255.659	79.56
255.892	77.56
256.124	81.56
256.357	86.56
256.59	92.56
256.823	103.56
257.056	88.56
257.289	89.56
257.521	82.56
257.754	88.56
257.987	83.56
258.22	88.56
258.452	80.56
258.685	86.56
258.918	92.56
259.151	85.56
259.383	92.56
259.616	93.56
259.849	72.56
260.081	72.56
260.314	87.56
260.547	82.56
260.779	73.56
261.012	97.56
261.244	89.56
261.477	80.56
261.71	93.56
261.942	111.56
262.175	106.56
262.407	88.56
262.64	79.56
262.872	90.56
263.105	80.56
263.337	77.56
263.57	96.56
263.802	95.56
264.035	67.56
264.267	87.56
264.499	72.56
264.732	97.56
264.964	71.56
265.197	96.56
265.429	80.56
265.661	85.56
265.894	83.56
266.126	88.56
266.358	81.56
266.591	82.56
266.823	92.56
267.055	91.56
267.287	91.56
267.52	88.56
267.752	89.56
267.984	97.56
268.216	77.56
268.448	68.56
268.681	88.56
268.913	86.56
269.145	95.56
269.377	96.56
269.609	87.56
269.841	87.56
270.073	88.56
270.306	78.56
270.538	89.56
270.77	87.56
271.002	79.56
271.234	89.56
271.466	97.56
271.698	86.56
271.93	88.56
272.162	81.56
272.394	87.56
272.626	80.56
272.858	93.56
273.09	87.56
273.322	80.56
273.553	78.56
273.785	85.56
274.017	70.56
274.249	77.56
274.481	87.56
274.713	88.56
274.945	85.56
275.176	83.56
275.408	76.56
275.64	109.56
275.872	85.56
276.104	83.56
276.335	93.56
276.567	105.56
276.799	108.56
277.031	117.56
277.262	112.56
277.494	92.56
277.726	74.56
277.957	81.56
278.189	91.56
278.421	76.56
278.652	80.56
278.884	97.56
279.115	91.56
279.347	87.56
279.579	86.56
279.81	85.56
280.042	114.56
280.273	115.56
280.505	106.56
280.736	75.56
280.968	87.56
281.199	89.56
281.431	92.56
281.662	86.56
281.894	93.56
282.125	89.56
282.356	120.56
282.588	130.56
282.819	109.56
283.051	93.56
283.282	87.56
283.513	89.56
283.745	92.56
283.976	81.56
284.207	96.56
284.439	89.56
284.67	89.56
284.901	92.56
285.132	91.56
285.364	95.56
285.595	89.56
285.826	71.56
286.057	102.56
286.288	65.56
286.52	79.56
286.751	83.56
286.982	91.56
287.213	97.56
287.444	93.56
287.675	95.56
287.906	87.56
288.138	88.56
288.369	96.56
288.6	97.56
288.831	85.56
289.062	97.56
289.293	80.56
289.524	99.56
289.755	90.56
289.986	87.56
290.217	84.56
290.448	86.56
290.679	96.56
290.91	102.56
291.141	95.56
291.371	90.56
291.602	76.56
291.833	87.56
292.064	72.56
292.295	91.56
292.526	99.56
292.757	79.56
292.987	85.56
293.218	96.56
293.449	97.56
293.68	96.56
293.91	88.56
294.141	89.56
294.372	88.56
294.603	93.56
294.833	93.56
295.064	94.56
295.295	82.56
295.525	94.56
295.756	107.56
295.987	100.56
296.217	144.56
296.448	116.56
296.679	89.56
296.909	90.56
297.14	84.56
297.37	106.56
297.601	99.56
297.831	97.56
298.062	102.56
298.292	101.56
298.523	80.56
298.753	89.56
298.984	95.56
299.214	119.56
299.445	98.56
299.675	92.56
299.905	88.56
300.136	79.56
300.366	88.56
300.597	83.56
300.827	89.56
301.057	98.56
301.288	110.56
301.518	104.56
301.748	99.56
301.979	87.56
302.209	102.56
302.439	99.56
302.669	109.56
302.9	92.56
303.13	108.56
303.36	96.56
303.59	84.56
303.82	118.56
304.051	103.56
304.281	81.56
304.511	98.56
304.741	75.56
304.971	89.56
305.201	105.56
305.431	92.56
305.661	98.56
305.891	104.56
306.121	100.56
306.352	105.56
306.582	91.56
306.812	93.56
307.042	98.56
307.272	123.56
307.502	124.56
307.731	125.56
307.961	106.56
308.191	98.56
308.421	91.56
308.651	89.56
308.881	91.56
309.111	101.56
309.341	97.56
309.571	107.56
309.8	107.56
310.03	97.56
310.26	86.56
310.49	78.56
310.72	79.56
310.949	100.56
311.179	100.56
311.409	94.56
311.639	96.56
311.868	95.56
312.098	97.56
312.328	95.56
312.557	108.56
312.787	103.56
313.017	93.56
313.246	95.56
313.476	94.56
313.706	79.56
313.935	108.56
314.165	104.56
314.394	110.56
314.624	92.56
314.853	94.56
315.083	76.56
315.312	78.56
315.542	98.56
315.771	76.56
316.001	102.56
316.23	103.56
316.46	80.56
316.689	91.56
316.919	95.56
317.148	105.56
317.377	81.56
317.607	95.56
317.836	91.56
318.065	88.56
318.295	94.56
318.524	79.56
318.753	87.56
318.983	90.56
319.212	86.56
319.441	116.56
319.67	114.56
319.9	91.56
320.129	91.56
320.358	98.56
320.587	106.56
320.816	98.56
321.046	104.56
321.275	100.56
321.504	80.56
321.733	106.56
321.962	100.56
322.191	107.56
322.42	97.56
322.649	123.56
322.878	128.56
323.108	124.56
323.337	136.56
323.566	140.56
323.795	139.56
324.024	208.56
324.253	384.56
324.482	879.56
324.71	1825.56
324.939	2461.56
325.168	871.56
325.397	249.56
325.626	166.56
325.855	123.56
326.084	132.56
326.313	133.56
326.542	153.56
326.77	240.56
326.999	463.56
327.228	1000.56
327.457	1882.56
327.686	1483.56
327.914	416.56
328.143	275.56
328.372	266.56
328.6	176.56
328.829	127.56
329.058	129.56
329.287	131.56
329.515	111.56
329.744	128.56
329.972	175.56
330.201	319.56
330.43	417.56
330.658	237.56
330.887	167.56
331.115	125.56
331.344	103.56
331.572	101.56
331.801	111.56
332.03	104.56
332.258	100.56
332.486	105.56
332.715	101.56
332.943	97.56
333.172	99.56
333.4	104.56
333.629	118.56
333.857	133.56
334.085	174.56
334.314	295.56
334.542	500.56
334.771	475.56
334.999	175.56
335.227	117.56
335.455	110.56
335.684	107.56
335.912	112.56
336.14	120.56
336.369	101.56
336.597	98.56
336.825	101.56
337.053	95.56
337.281	92.56
337.51	99.56
337.738	97.56
337.966	89.56
338.194	97.56
338.422	102.56
338.65	98.56
338.878	93.56
339.106	83.56
339.334	93.56
339.562	88.56
339.79	88.56
340.018	84.56
340.246	101.56
340.474	104.56
340.702	98.56
340.93	94.56
341.158	96.56
341.386	99.56
341.614	82.56
341.842	106.56
342.07	97.56
342.298	96.56
342.526	89.56
342.754	104.56
342.981	88.56
343.209	79.56
343.437	119.56
343.665	101.56
343.893	77.56
344.12	91.56
344.348	87.56
344.576	83.56
344.804	91.56
345.031	105.56
345.259	109.56
345.487	103.56
345.714	87.56
345.942	95.56
346.17	84.56
346.397	90.56
346.625	93.56
346.853	86.56
347.08	94.56
347.308	91.56
347.535	97.56
347.763	98.56
347.99	102.56
348.218	112.56
348.445	106.56
348.673	92.56
348.9	94.56
349.128	99.56
349.355	87.56
349.583	94.56
349.81	89.56
350.037	94.56
350.265	109.56
350.492	102.56
350.72	98.56
350.947	105.56
351.174	104.56
351.402	112.56
351.629	105.56
351.856	112.56
352.083	103.56
352.311	102.56
352.538	110.56
352.765	96.56
352.992	104.56
353.22	111.56
353.447	102.56
353.674	112.56
353.901	95.56
354.128	86.56
354.355	98.56
354.583	95.56
354.81	97.56
355.037	89.56
355.264	96.56
355.491	113.56
355.718	111.56
355.945	94.56
356.172	97.56
356.399	91.56
356.626	107.56
356.853	107.56
357.08	81.56
357.307	86.56
357.534	96.56
357.761	96.56
357.988	108.56
358.215	98.56
358.441	96.56
358.668	98.56
358.895	99.56
359.122	82.56
359.349	98.56
359.576	92.56
359.802	98.56
360.029	113.56
360.256	104.56
360.483	113.56
360.709	89.56
360.936	98.56
361.163	109.56
361.39	96.56
361.616	92.56
361.843	110.56
362.07	95.56
362.296	101.56
362.523	94.56
362.749	91.56
362.976	93.56
363.203	83.56
363.429	98.56
363.656	81.56
363.882	80.56
364.109	92.56
364.335	87.56
364.562	83.56
364.788	96.56
365.015	82.56
365.241	101.56
365.468	106.56
365.694	115.56
365.92	99.56
366.147	102.56
366.373	93.56
366.599	87.56
366.826	89.56
367.052	98.56
367.278	94.56
367.505	87.56
367.731	94.56
367.957	85.56
368.184	95.56
368.41	87.56
368.636	110.56
368.862	125.56
369.089	103.56
369.315	103.56
369.541	104.56
369.767	95.56
369.993	93.56
370.219	100.56
370.445	101.56
370.672	107.56
370.898	98.56
371.124	104.56
371.35	68.56
371.576	67.56
371.802	83.56
372.028	101.56
372.254	101.56
372.48	108.56
372.706	87.56
372.932	88.56
373.158	89.56
373.384	92.56
373.61	103.56
373.835	104.56
374.061	105.56
374.287	92.56
374.513	93.56
374.739	80.56
374.965	79.56
375.191	97.56
375.416	107.56
375.642	91.56
375.868	104.56
376.094	96.56
376.319	83.56
376.545	85.56
376.771	94.56
376.997	86.56
377.222	92.56
377.448	93.56
377.674	83.56
377.899	83.56
378.125	89.56
378.35	100.56
378.576	89.56
378.802	83.56
379.027	84.56
379.253	109.56
379.478	100.56
379.704	83.56
379.929	105.56
380.155	104.56
380.38	90.56
380.606	101.56
380.831	100.56
381.057	95.56
381.282	113.56
381.507	104.56
381.733	103.56
381.958	116.56
382.184	102.56
382.409	81.56
382.634	115.56
382.86	104.56
383.085	97.56
383.31	98.56
383.535	103.56
383.761	125.56
383.986	102.56
384.211	91.56
384.436	121.56
384.662	95.56
384.887	111.56
385.112	104.56
385.337	103.56
385.562	108.56
385.787	123.56
386.013	117.56
386.238	110.56
386.463	111.56
386.688	111.56
386.913	110.56
387.138	118.56
387.363	111.56
387.588	98.56
387.813	110.56
388.038	108.56
388.263	122.56
388.488	104.56
388.713	89.56
388.938	93.56
389.163	95.56
389.387	87.56
389.612	81.56
389.837	87.56
390.062	87.56
390.287	103.56
390.512	103.56
390.736	100.56
390.961	89.56
391.186	89.56
391.411	110.56
391.636	103.56
391.86	89.56
392.085	81.56
392.31	85.56
392.534	95.56
392.759	84.56
392.984	90.56
393.208	113.56
393.433	154.56
393.658	130.56
393.882	93.56
394.107	85.56
394.331	96.56
394.556	80.56
394.78	84.56
395.005	88.56
395.229	91.56
395.454	102.56
395.678	94.56
395.903	91.56
396.127	88.56
396.352	90.56
396.576	91.56
396.801	111.56
397.025	104.56
397.249	95.56
397.474	97.56
397.698	87.56
397.922	80.56
398.147	83.56
398.371	93.56
398.595	89.56
398.82	89.56
399.044	100.56
399.268	85.56
399.492	102.56
399.717	95.56
399.941	91.56
400.165	81.56
400.389	93.56
400.613	91.56
400.837	92.56
401.062	88.56
401.286	80.56
401.51	83.56
401.734	96.56
401.958	100.56
402.182	107.56
402.406	167.56
402.63	131.56
402.854	93.56
403.078	82.56
403.302	97.56
403.526	92.56
403.75	82.56
403.974	88.56
404.198	91.56
404.422	90.56
404.645	103.56
404.869	89.56
405.093	99.56
405.317	116.56
405.541	111.56
405.765	88.56
405.988	112.56
406.212	155.56
406.436	224.56
406.66	156.56
406.883	103.56
407.107	98.56
407.331	98.56
407.555	98.56
407.778	101.56
408.002	92.56
408.226	82.56
408.449	75.56
408.673	81.56
408.896	104.56
409.12	95.56
409.344	101.56
409.567	85.56
409.791	89.56
410.014	104.56
410.238	101.56
410.461	101.56
410.685	95.56
410.908	100.56
411.132	101.56
411.355	105.56
411.578	101.56
411.802	86.56
412.025	84.56
412.249	90.56
412.472	88.56
412.695	138.56
412.919	107.56
413.142	82.56
413.365	91.56
413.589	97.56
413.812	80.56
414.035	86.56
414.258	95.56
414.482	92.56
414.705	91.56
414.928	101.56
415.151	81.56
415.374	105.56
415.597	81.56
415.821	89.56
416.044	89.56
416.267	96.56
416.49	84.56
416.713	89.56
416.936	93.56
417.159	91.56
417.382	91.56
417.605	89.56
417.828	80.56
418.051	92.56
418.274	90.56
418.497	77.56
418.72	93.56
418.943	85.56
419.166	88.56
419.389	85.56
419.611	83.56
419.834	95.56
420.057	88.56
420.28	93.56
420.503	86.56
420.726	76.56
420.948	101.56
421.171	94.56
421.394	96.56
421.617	102.56
421.839	79.56
422.062	92.56
422.285	81.56
422.507	103.56
422.73	113.56
422.953	94.56
423.175	83.56
423.398	101.56
423.621	91.56
423.843	97.56
424.066	99.56
424.288	96.56
424.511	101.56
424.733	104.56
424.956	113.56
425.178	94.56
425.401	94.56
425.623	93.56
425.846	98.56
426.068	86.56
426.291	108.56
426.513	100.56
426.735	92.56
426.958	104.56
427.18	105.56
427.402	142.56
427.625	159.56
427.847	147.56
428.069	158.56
428.292	115.56
428.514	85.56
428.736	87.56
428.958	86.56
429.181	84.56
429.403	88.56
429.625	96.56
429.847	95.56
430.069	104.56
430.292	86.56
430.514	88.56
430.736	81.56
430.958	88.56
431.18	78.56
431.402	84.56
431.624	90.56
431.846	90.56
432.068	76.56
432.29	93.56
432.512	91.56
432.734	89.56
432.956	95.56
433.178	93.56
433.4	102.56
433.622	94.56
433.844	89.56
434.066	83.56
434.287	97.56
434.509	90.56
434.731	95.56
434.953	98.56
435.175	88.56
435.397	78.56
435.618	95.56
435.84	108.56
436.062	122.56
436.284	116.56
436.505	110.56
436.727	117.56
436.949	97.56
437.17	91.56
437.392	86.56
437.614	98.56
437.835	105.56
438.057	121.56
438.278	109.56
438.5	99.56
438.721	121.56
438.943	100.56
439.165	94.56
439.386	97.56
439.608	92.56
439.829	100.56
440.05	115.56
440.272	145.56
440.493	103.56
440.715	70.56
440.936	82.56
441.158	83.56
441.379	93.56
441.6	97.56
441.822	102.56
442.043	98.56
442.264	89.56
442.486	111.56
442.707	87.56
442.928	104.56
443.149	130.56
443.371	121.56
443.592	103.56
443.813	109.56
444.034	105.56
444.255	79.56
444.476	97.56
444.698	89.56
444.919	89.56
445.14	132.56
445.361	116.56
445.582	117.56
445.803	128.56
446.024	144.56
446.245	135.56
446.466	112.56
446.687	102.56
446.908	88.56
447.129	93.56
447.35	96.56
447.571	102.56
447.792	82.56
448.013	98.56
448.234	93.56
448.455	103.56
448.675	99.56
448.896	100.56
449.117	100.56
449.338	104.56
449.559	129.56
449.779	129.56
450	93.56
450.221	93.56
450.442	94.56
450.662	79.56
450.883	108.56
451.104	101.56
451.324	107.56
451.545	89.56
451.766	90.56
451.986	105.56
452.207	83.56
452.428	79.56
452.648	104.56
452.869	119.56
453.089	117.56
453.31	103.56
453.53	88.56
453.751	96.56
453.971	109.56
454.192	100.56
454.412	95.56
454.633	83.56
454.853	71.56
455.073	80.56
455.294	111.56
455.514	103.56
455.734	105.56
455.955	78.56
456.175	96.56
456.395	85.56
456.616	85.56
456.836	80.56
457.056	87.56
457.276	90.56
457.497	97.56
457.717	81.56
457.937	94.56
458.157	87.56
458.377	89.56
458.598	112.56
458.818	140.56
459.038	155.56
459.258	111.56
459.478	99.56
459.698	84.56
459.918	78.56
460.138	83.56
460.358	83.56
460.578	100.56
460.798	104.56
461.018	95.56
461.238	98.56
461.458	89.56
461.678	83.56
461.898	88.56
462.118	87.56
462.338	87.56
462.558	80.56
462.777	95.56
462.997	84.56
463.217	86.56
463.437	99.56
463.657	91.56
463.876	83.56
464.096	97.56
464.316	104.56
464.536	91.56
464.755	80.56
464.975	112.56
465.195	178.56
465.414	153.56
465.634	83.56
465.854	89.56
466.073	81.56
466.293	86.56
466.512	94.56
466.732	95.56
466.951	88.56
467.171	99.56
467.391	102.56
467.61	118.56
467.829	132.56
468.049	211.56
468.268	277.56
468.488	119.56
468.707	91.56
468.927	92.56
469.146	97.56
469.365	102.56
469.585	90.56
469.804	104.56
470.023	102.56
470.243	99.56
470.462	105.56
470.681	122.56
470.901	102.56
471.12	96.56
471.339	98.56
471.558	105.56
471.777	103.56
471.997	145.56
472.216	365.56
472.435	726.56
472.654	216.56
472.873	114.56
473.092	94.56
473.311	100.56
473.53	96.56
473.749	86.56
473.968	105.56
474.187	91.56
474.406	97.56
474.625	88.56
474.844	91.56
475.063	103.56
475.282	92.56
475.501	89.56
475.72	92.56
475.939	73.56
476.158	87.56
476.377	85.56
476.596	87.56
476.814	101.56
477.033	100.56
477.252	102.56
477.471	83.56
477.69	111.56
477.908	91.56
478.127	76.56
478.346	86.56
478.564	97.56
478.783	98.56
479.002	108.56
479.22	104.56
479.439	99.56
479.658	111.56
479.876	99.56
480.095	96.56
480.313	98.56
480.532	105.56
480.751	159.56
480.969	367.56
481.188	1274.56
481.406	744.56
481.624	167.56
481.843	102.56
482.061	92.56
482.28	79.56
482.498	88.56
482.717	93.56
482.935	88.56
483.153	95.56
483.372	95.56
483.59	90.56
483.808	87.56
484.027	90.56
484.245	84.56
484.463	93.56
484.681	109.56
484.9	82.56
485.118	91.56
485.336	86.56
485.554	89.56
485.772	91.56
485.99	110.56
486.209	100.56
486.427	100.56
486.645	135.56
486.863	119.56
487.081	93.56
487.299	92.56
487.517	100.56
487.735	87.56
487.953	89.56
488.171	97.56
488.389	100.56
488.607	99.56
488.825	80.56
489.043	71.56
489.261	63.56
489.479	88.56
489.696	100.56
489.914	87.56
490.132	85.56
490.35	76.56
490.568	95.56
490.786	96.56
491.003	101.56
491.221	91.56
491.439	97.56
491.657	103.56
491.874	86.56
492.092	89.56
492.31	95.56
492.527	89.56
492.745	106.56
492.963	79.56
493.18	99.56
493.398	101.56
493.615	96.56
493.833	92.56
494.05	88.56
494.268	97.56
494.485	99.56
494.703	82.56
494.92	91.56
495.138	91.56
495.355	95.56
495.573	88.56
495.79	91.56
496.008	97.56
496.225	98.56
496.442	90.56
496.66	83.56
496.877	110.56
497.094	110.56
497.312	89.56
497.529	72.56
497.746	86.56
497.963	89.56
498.181	79.56
498.398	101.56
498.615	95.56
498.832	100.56
499.049	107.56
499.267	95.56
499.484	89.56
499.701	81.56
499.918	88.56
500.135	87.56
500.352	87.56
500.569	84.56
500.786	93.56
501.003	100.56
501.22	92.56
501.437	97.56
501.654	85.56
501.871	110.56
502.088	89.56
502.305	92.56
502.522	94.56
502.739	98.56
502.956	93.56
503.172	86.56
503.389	75.56
503.606	110.56
503.823	103.56
504.04	88.56
504.256	87.56
504.473	95.56
504.69	75.56
504.907	93.56
505.123	96.56
505.34	79.56
505.557	99.56
505.773	95.56
505.99	79.56
506.207	94.56
506.423	95.56
506.64	82.56
506.856	89.56
507.073	91.56
507.289	87.56
507.506	85.56
507.722	100.56
507.939	101.56
508.155	93.56
508.372	88.56
508.588	89.56
508.805	98.56
509.021	95.56
509.238	93.56
509.454	92.56
509.67	104.56
509.887	113.56
510.103	122.56
510.319	213.56
510.536	746.56
510.752	2470.56
510.968	671.56
511.184	151.56
511.401	117.56
511.617	112.56
511.833	80.56
512.049	100.56
512.265	94.56
512.481	83.56
512.698	84.56
512.914	99.56
513.13	92.56
513.346	102.56
513.562	94.56
513.778	98.56
513.994	93.56
514.21	109.56
514.426	124.56
