Data from Circ_1991_H10_HRD10591_00060.txt Node
Date: Wed Jan 03 11:51:53 EST 2024
User: Yrep
Spectrometer: HR+D1059
Trigger mode: 1
Integration Time (sec): 1.000000E-1
Scans to average: 1
Electric dark correction enabled: true
Nonlinearity correction enabled: false
Boxcar width: 0
XAxis mode: Wavelengths
Number of Pixels in Spectrum: 2048
>>>>>Begin Spectral Data<<<<<
223.165	-16.06
223.4	-16.06
223.635	-16.06
223.869	-8.06
224.104	-8.06
224.338	-15.06
224.573	-7.06
224.808	-33.06
225.042	-6.06
225.277	2.94
225.511	6.94
225.746	-11.06
225.98	-0.06
226.215	0.94
226.449	19.94
226.683	29.94
226.918	14.94
227.152	28.94
227.387	50.94
227.621	40.94
227.856	42.94
228.09	45.94
228.324	48.94
228.559	45.94
228.793	161.94
229.027	417.94
229.262	516.94
229.496	592.94
229.73	751.94
229.964	782.94
230.199	513.94
230.433	467.94
230.667	480.94
230.901	466.94
231.136	462.94
231.37	464.94
231.604	468.94
231.838	472.94
232.072	468.94
232.306	465.94
232.541	483.94
232.775	494.94
233.009	481.94
233.243	470.94
233.477	477.94
233.711	512.94
233.945	500.94
234.179	525.94
234.413	512.94
234.647	509.94
234.881	500.94
235.115	540.94
235.349	553.94
235.583	568.94
235.817	598.94
236.051	641.94
236.285	613.94
236.519	629.94
236.753	681.94
236.987	893.94
237.221	1298.94
237.455	1418.94
237.689	860.94
237.922	745.94
238.156	707.94
238.39	682.94
238.624	657.94
238.858	693.94
239.091	662.94
239.325	697.94
239.559	735.94
239.793	734.94
240.027	791.94
240.26	885.94
240.494	953.94
240.728	969.94
240.961	891.94
241.195	813.94
241.429	812.94
241.662	813.94
241.896	805.94
242.13	802.94
242.363	824.94
242.597	840.94
242.83	872.94
243.064	871.94
243.298	929.94
243.531	907.94
243.765	890.94
243.998	903.94
244.232	917.94
244.465	938.94
244.699	932.94
244.932	968.94
245.166	982.94
245.399	953.94
245.633	961.94
245.866	992.94
246.099	960.94
246.333	995.94
246.566	1035.94
246.8	1017.94
247.033	1080.94
247.266	1132.94
247.5	1139.94
247.733	1153.94
247.966	1204.94
248.2	1180.94
248.433	1209.94
248.666	1271.94
248.899	1383.94
249.133	1502.94
249.366	1498.94
249.599	1456.94
249.832	1431.94
250.066	1550.94
250.299	1936.94
250.532	2486.94
250.765	2472.94
250.998	2165.94
251.231	1889.94
251.465	1688.94
251.698	1543.94
251.931	1544.94
252.164	1485.94
252.397	1546.94
252.63	1555.94
252.863	1635.94
253.096	1704.94
253.329	1754.94
253.562	1678.94
253.795	1620.94
254.028	1626.94
254.261	1680.94
254.494	1857.94
254.727	2177.94
254.96	2256.94
255.193	2108.94
255.426	2098.94
255.659	2427.94
255.892	3272.94
256.124	4317.94
256.357	3726.94
256.59	2740.94
256.823	2296.94
257.056	2052.94
257.289	1933.94
257.521	1858.94
257.754	1842.94
257.987	1741.94
258.22	1763.94
258.452	1742.94
258.685	1724.94
258.918	1731.94
259.151	1749.94
259.383	1801.94
259.616	1768.94
259.849	1839.94
260.081	1967.94
260.314	2092.94
260.547	2031.94
260.779	1845.94
261.012	1842.94
261.244	1786.94
261.477	1775.94
261.71	1785.94
261.942	1835.94
262.175	1847.94
262.407	1744.94
262.64	1740.94
262.872	1692.94
263.105	1736.94
263.337	1702.94
263.57	1765.94
263.802	1782.94
264.035	1732.94
264.267	1754.94
264.499	1725.94
264.732	1785.94
264.964	1780.94
265.197	1822.94
265.429	1789.94
265.661	1812.94
265.894	1816.94
266.126	1803.94
266.358	1818.94
266.591	1859.94
266.823	1947.94
267.055	1959.94
267.287	1955.94
267.52	1896.94
267.752	1913.94
267.984	1951.94
268.216	1983.94
268.448	1971.94
268.681	2047.94
268.913	2145.94
269.145	2350.94
269.377	2372.94
269.609	2251.94
269.841	2265.94
270.073	2381.94
270.306	2580.94
270.538	2724.94
270.77	2603.94
271.002	2449.94
271.234	2460.94
271.466	2567.94
271.698	2636.94
271.93	2616.94
272.162	2684.94
272.394	2594.94
272.626	2488.94
272.858	2393.94
273.09	2358.94
273.322	2387.94
273.553	2326.94
273.785	2331.94
274.017	2357.94
274.249	2342.94
274.481	2366.94
274.713	2383.94
274.945	2379.94
275.176	2429.94
275.408	2451.94
275.64	2456.94
275.872	2488.94
276.104	2526.94
276.335	2513.94
276.567	2625.94
276.799	2729.94
277.031	3056.94
277.262	3160.94
277.494	2950.94
277.726	2816.94
277.957	2721.94
278.189	2683.94
278.421	2563.94
278.652	2601.94
278.884	2561.94
279.115	2580.94
279.347	2595.94
279.579	2608.94
279.81	2685.94
280.042	2770.94
280.273	2920.94
280.505	2853.94
280.736	2730.94
280.968	2672.94
281.199	2685.94
281.431	2658.94
281.662	2671.94
281.894	2685.94
282.125	2732.94
282.356	2821.94
282.588	2972.94
282.819	2802.94
283.051	2650.94
283.282	2644.94
283.513	2688.94
283.745	2726.94
283.976	2762.94
284.207	2700.94
284.439	2746.94
284.67	2700.94
284.901	2778.94
285.132	2710.94
285.364	2721.94
285.595	2739.94
285.826	2837.94
286.057	2784.94
286.288	2804.94
286.52	2795.94
286.751	2777.94
286.982	2825.94
287.213	2779.94
287.444	2836.94
287.675	2940.94
287.906	2998.94
288.138	2998.94
288.369	3038.94
288.6	3002.94
288.831	2953.94
289.062	2908.94
289.293	2948.94
289.524	2940.94
289.755	2915.94
289.986	2929.94
290.217	2917.94
290.448	2923.94
290.679	2941.94
290.91	2936.94
291.141	2906.94
291.371	2941.94
291.602	2937.94
291.833	2874.94
292.064	2911.94
292.295	2886.94
292.526	2919.94
292.757	2888.94
292.987	2889.94
293.218	2848.94
293.449	2938.94
293.68	2914.94
293.91	2885.94
294.141	2987.94
294.372	2947.94
294.603	2934.94
294.833	2963.94
295.064	2969.94
295.295	2931.94
295.525	2971.94
295.756	3035.94
295.987	3098.94
296.217	3224.94
296.448	3186.94
296.679	3096.94
296.909	3001.94
297.14	3023.94
297.37	3104.94
297.601	3138.94
297.831	3155.94
298.062	3149.94
298.292	3167.94
298.523	3177.94
298.753	3254.94
298.984	3211.94
299.214	3155.94
299.445	3171.94
299.675	3193.94
299.905	3251.94
300.136	3226.94
300.366	3188.94
300.597	3319.94
300.827	3357.94
301.057	3384.94
301.288	3480.94
301.518	3464.94
301.748	3444.94
301.979	3493.94
302.209	3476.94
302.439	3502.94
302.669	3425.94
302.9	3390.94
303.13	3387.94
303.36	3434.94
303.59	3545.94
303.82	3583.94
304.051	3510.94
304.281	3493.94
304.511	3389.94
304.741	3354.94
304.971	3383.94
305.201	3369.94
305.431	3333.94
305.661	3389.94
305.891	3384.94
306.121	3340.94
306.352	3402.94
306.582	3397.94
306.812	3345.94
307.042	3395.94
307.272	3450.94
307.502	3555.94
307.731	3572.94
307.961	3446.94
308.191	3379.94
308.421	3384.94
308.651	3419.94
308.881	3392.94
309.111	3436.94
309.341	3444.94
309.571	3516.94
309.8	3578.94
310.03	3678.94
310.26	3654.94
310.49	3750.94
310.72	3771.94
310.949	3833.94
311.179	3862.94
311.409	3696.94
311.639	3787.94
311.868	3717.94
312.098	3787.94
312.328	3787.94
312.557	3979.94
312.787	4102.94
313.017	3973.94
313.246	3876.94
313.476	3806.94
313.706	3868.94
313.935	3949.94
314.165	4032.94
314.394	4065.94
314.624	3988.94
314.853	3886.94
315.083	3901.94
315.312	3830.94
315.542	3806.94
315.771	3761.94
316.001	3786.94
316.23	3817.94
316.46	3730.94
316.689	3905.94
316.919	3889.94
317.148	3866.94
317.377	3943.94
317.607	3846.94
317.836	3822.94
318.065	3821.94
318.295	3815.94
318.524	3797.94
318.753	3808.94
318.983	3820.94
319.212	3821.94
319.441	3873.94
319.67	3879.94
319.9	3821.94
320.129	3822.94
320.358	3834.94
320.587	3914.94
320.816	3945.94
321.046	4021.94
321.275	3991.94
321.504	3939.94
321.733	3917.94
321.962	4075.94
322.191	4191.94
322.42	4311.94
322.649	4367.94
322.878	4399.94
323.108	4526.94
323.337	4810.94
323.566	4861.94
323.795	5161.94
324.024	5753.94
324.253	7376.94
324.482	10926.94
324.71	15269.94
324.939	15622.94
325.168	13025.94
325.397	6633.94
325.626	5517.94
325.855	5075.94
326.084	5142.94
326.313	5109.94
326.542	5240.94
326.77	5912.94
326.999	7390.94
327.228	10660.94
327.457	14635.94
327.686	14090.94
327.914	8546.94
328.143	7868.94
328.372	8149.94
328.6	6980.94
328.829	6376.94
329.058	6476.94
329.287	6482.94
329.515	6456.94
329.744	6953.94
329.972	8354.94
330.201	10480.94
330.43	11684.94
330.658	8944.94
330.887	7532.94
331.115	6593.94
331.344	6022.94
331.572	5769.94
331.801	5840.94
332.03	5870.94
332.258	5714.94
332.486	5809.94
332.715	5962.94
332.943	6168.94
333.172	6485.94
333.4	6859.94
333.629	7276.94
333.857	8227.94
334.085	9636.94
334.314	11990.94
334.542	14164.94
334.771	13486.94
334.999	8899.94
335.227	7159.94
335.455	6527.94
335.684	6077.94
335.912	5781.94
336.14	5646.94
336.369	5560.94
336.597	5578.94
336.825	5436.94
337.053	5244.94
337.281	5153.94
337.51	5092.94
337.738	4995.94
337.966	4989.94
338.194	4955.94
338.422	4817.94
338.65	4778.94
338.878	4746.94
339.106	4715.94
339.334	4673.94
339.562	4690.94
339.79	4542.94
340.018	4581.94
340.246	4588.94
340.474	4591.94
340.702	4568.94
340.93	4580.94
341.158	4584.94
341.386	4505.94
341.614	4533.94
341.842	4481.94
342.07	4420.94
342.298	4430.94
342.526	4422.94
342.754	4458.94
342.981	4411.94
343.209	4517.94
343.437	4741.94
343.665	4979.94
343.893	5244.94
344.12	5277.94
344.348	5064.94
344.576	4877.94
344.804	4853.94
345.031	4744.94
345.259	4630.94
345.487	4595.94
345.714	4449.94
345.942	4411.94
346.17	4328.94
346.397	4295.94
346.625	4298.94
346.853	4265.94
347.08	4317.94
347.308	4266.94
347.535	4371.94
347.763	4417.94
347.99	4366.94
348.218	4340.94
348.445	4390.94
348.673	4308.94
348.9	4248.94
349.128	4192.94
349.355	4105.94
349.583	4122.94
349.81	4170.94
350.037	4131.94
350.265	4148.94
350.492	4157.94
350.72	4162.94
350.947	4196.94
351.174	4285.94
351.402	4359.94
351.629	4258.94
351.856	4276.94
352.083	4328.94
352.311	4292.94
352.538	4332.94
352.765	4304.94
352.992	4211.94
353.22	4186.94
353.447	4187.94
353.674	4101.94
353.901	4085.94
354.128	4008.94
354.355	4070.94
354.583	4081.94
354.81	3967.94
355.037	4092.94
355.264	4021.94
355.491	4042.94
355.718	4038.94
355.945	4005.94
356.172	4036.94
356.399	4025.94
356.626	4028.94
356.853	4094.94
357.08	4071.94
357.307	3979.94
357.534	4035.94
357.761	3973.94
357.988	4084.94
358.215	4019.94
358.441	4008.94
358.668	4083.94
358.895	4056.94
359.122	4163.94
359.349	4246.94
359.576	4359.94
359.802	4506.94
360.029	4697.94
360.256	4650.94
360.483	4427.94
360.709	4264.94
360.936	4279.94
361.163	4314.94
361.39	4234.94
361.616	4373.94
361.843	4277.94
362.07	4224.94
362.296	4277.94
362.523	4216.94
362.749	4257.94
362.976	4272.94
363.203	4197.94
363.429	4133.94
363.656	4207.94
363.882	4160.94
364.109	4159.94
364.335	4099.94
364.562	4140.94
364.788	4128.94
365.015	4122.94
365.241	4101.94
365.468	4204.94
365.694	4187.94
365.92	4193.94
366.147	4140.94
366.373	4085.94
366.599	4087.94
366.826	4087.94
367.052	4062.94
367.278	4154.94
367.505	4125.94
367.731	4132.94
367.957	4110.94
368.184	4199.94
368.41	4197.94
368.636	4365.94
368.862	4375.94
369.089	4252.94
369.315	4277.94
369.541	4238.94
369.767	4324.94
369.993	4259.94
370.219	4248.94
370.445	4296.94
370.672	4307.94
370.898	4407.94
371.124	4369.94
371.35	4390.94
371.576	4362.94
371.802	4352.94
372.028	4313.94
372.254	4365.94
372.48	4419.94
372.706	4528.94
372.932	4544.94
373.158	4505.94
373.384	4417.94
373.61	4345.94
373.835	4401.94
374.061	4416.94
374.287	4451.94
374.513	4564.94
374.739	4700.94
374.965	4728.94
375.191	4763.94
375.416	4693.94
375.642	4542.94
375.868	4526.94
376.094	4513.94
376.319	4520.94
376.545	4426.94
376.771	4428.94
376.997	4355.94
377.222	4360.94
377.448	4337.94
377.674	4352.94
377.899	4261.94
378.125	4289.94
378.35	4334.94
378.576	4305.94
378.802	4283.94
379.027	4316.94
379.253	4284.94
379.478	4253.94
379.704	4307.94
379.929	4303.94
380.155	4306.94
380.38	4346.94
380.606	4382.94
380.831	4316.94
381.057	4432.94
381.282	4326.94
381.507	4399.94
381.733	4380.94
381.958	4415.94
382.184	4496.94
382.409	4562.94
382.634	4602.94
382.86	4623.94
383.085	4644.94
383.31	4710.94
383.535	4770.94
383.761	4768.94
383.986	4976.94
384.211	5040.94
384.436	5069.94
384.662	5146.94
384.887	5263.94
385.112	5209.94
385.337	5248.94
385.562	5296.94
385.787	5331.94
386.013	5432.94
386.238	5353.94
386.463	5351.94
386.688	5299.94
386.913	5228.94
387.138	5266.94
387.363	5167.94
387.588	5090.94
387.813	5171.94
388.038	5160.94
388.263	5204.94
388.488	5193.94
388.713	5226.94
388.938	5173.94
389.163	5129.94
389.387	5095.94
389.612	5106.94
389.837	5093.94
390.062	5105.94
390.287	5112.94
390.512	5091.94
390.736	5245.94
390.961	5279.94
391.186	5423.94
391.411	5516.94
391.636	5592.94
391.86	5780.94
392.085	5841.94
392.31	5734.94
392.534	5645.94
392.759	5553.94
392.984	5418.94
393.208	5421.94
393.433	5507.94
393.658	5410.94
393.882	5385.94
394.107	5438.94
394.331	5483.94
394.556	5415.94
394.78	5532.94
395.005	5548.94
395.229	5528.94
395.454	5737.94
395.678	5848.94
395.903	5921.94
396.127	5921.94
396.352	5794.94
396.576	5544.94
396.801	5490.94
397.025	5595.94
397.249	5765.94
397.474	5837.94
397.698	5941.94
397.922	6088.94
398.147	6089.94
398.371	6285.94
398.595	6378.94
398.82	6653.94
399.044	7241.94
399.268	7960.94
399.492	9070.94
399.717	9619.94
399.941	9384.94
400.165	8767.94
400.389	8163.94
400.613	7358.94
400.837	6886.94
401.062	6730.94
401.286	6654.94
401.51	6627.94
401.734	6563.94
401.958	6736.94
402.182	6830.94
402.406	6912.94
402.63	7006.94
402.854	7166.94
403.078	7192.94
403.302	7355.94
403.526	7480.94
403.75	7526.94
403.974	7637.94
404.198	7678.94
404.422	7883.94
404.645	7946.94
404.869	8149.94
405.093	8723.94
405.317	9132.94
405.541	9082.94
405.765	8166.94
405.988	7796.94
406.212	7822.94
406.436	7919.94
406.66	7980.94
406.883	7764.94
407.107	8421.94
407.331	8914.94
407.555	9512.94
407.778	9045.94
408.002	8350.94
408.226	8018.94
408.449	7939.94
408.673	7745.94
408.896	7821.94
409.12	7985.94
409.344	7547.94
409.567	7308.94
409.791	7143.94
410.014	7226.94
410.238	7166.94
410.461	7140.94
410.685	7142.94
410.908	7238.94
411.132	7448.94
411.355	7558.94
411.578	7152.94
411.802	7082.94
412.025	7307.94
412.249	7780.94
412.472	8352.94
412.695	8938.94
412.919	8306.94
413.142	7766.94
413.365	7420.94
413.589	7156.94
413.812	6883.94
414.035	6719.94
414.258	6746.94
414.482	6792.94
414.705	6782.94
414.928	6695.94
415.151	6673.94
415.374	6580.94
415.597	6570.94
415.821	6502.94
416.044	6554.94
416.267	6480.94
416.49	6434.94
416.713	6329.94
416.936	6493.94
417.159	6478.94
417.382	6633.94
417.605	6721.94
417.828	6864.94
418.051	6877.94
418.274	6681.94
418.497	6562.94
418.72	6737.94
418.943	6676.94
419.166	7164.94
419.389	7524.94
419.611	7514.94
419.834	7493.94
420.057	7626.94
420.28	7888.94
420.503	7741.94
420.726	7449.94
420.948	7329.94
421.171	7547.94
421.394	7328.94
421.617	6800.94
421.839	6741.94
422.062	6849.94
422.285	6913.94
422.507	7596.94
422.73	8076.94
422.953	7327.94
423.175	7115.94
423.398	7055.94
423.621	7074.94
423.843	7300.94
424.066	7326.94
424.288	7121.94
424.511	7381.94
424.733	7923.94
424.956	8138.94
425.178	7732.94
425.401	7840.94
425.623	7757.94
425.846	6845.94
426.068	6800.94
426.291	6636.94
426.513	6618.94
426.735	6756.94
426.958	7129.94
427.18	7916.94
427.402	9225.94
427.625	9593.94
427.847	8695.94
428.069	8477.94
428.292	7273.94
428.514	6450.94
428.736	6164.94
428.958	6159.94
429.181	5903.94
429.403	5940.94
429.625	6089.94
429.847	6257.94
430.069	6896.94
430.292	6442.94
430.514	5854.94
430.736	5957.94
430.958	5773.94
431.18	5708.94
431.402	5786.94
431.624	5724.94
431.846	5830.94
432.068	5757.94
432.29	5941.94
432.512	5792.94
432.734	5872.94
432.956	5784.94
433.178	5843.94
433.4	5893.94
433.622	5866.94
433.844	5848.94
434.066	5857.94
434.287	5917.94
434.509	6096.94
434.731	6362.94
434.953	6491.94
435.175	6652.94
435.397	6776.94
435.618	6565.94
435.84	6948.94
436.062	7862.94
436.284	7737.94
436.505	6523.94
436.727	6226.94
436.949	6055.94
437.17	5920.94
437.392	5851.94
437.614	6053.94
437.835	6378.94
438.057	7314.94
438.278	7945.94
438.5	7712.94
438.721	8657.94
438.943	7546.94
439.165	6314.94
439.386	6205.94
439.608	6217.94
439.829	6379.94
440.05	6690.94
440.272	7092.94
440.493	6454.94
440.715	6133.94
440.936	6092.94
441.158	6118.94
441.379	6276.94
441.6	6595.94
441.822	6910.94
442.043	7183.94
442.264	8064.94
442.486	7740.94
442.707	6918.94
442.928	6675.94
443.149	6958.94
443.371	7150.94
443.592	7597.94
443.813	8673.94
444.034	8573.94
444.255	7518.94
444.476	7339.94
444.698	7517.94
444.919	7660.94
445.14	7438.94
445.361	7363.94
445.582	7399.94
445.803	8060.94
446.024	8640.94
446.245	8270.94
446.466	7300.94
446.687	6455.94
446.908	6060.94
447.129	5760.94
447.35	5702.94
447.571	5743.94
447.792	5579.94
448.013	5624.94
448.234	5804.94
448.455	6480.94
448.675	7670.94
448.896	8114.94
449.117	6641.94
449.338	6896.94
449.559	8216.94
449.779	8432.94
450	6444.94
450.221	5787.94
450.442	5550.94
450.662	5452.94
450.883	5572.94
451.104	5683.94
451.324	5462.94
451.545	5357.94
451.766	5257.94
451.986	5177.94
452.207	5136.94
452.428	5039.94
452.648	5141.94
452.869	5165.94
453.089	5173.94
453.31	5261.94
453.53	5102.94
453.751	5067.94
453.971	5093.94
454.192	5302.94
454.412	5094.94
454.633	4946.94
454.853	4918.94
455.073	5025.94
455.294	5381.94
455.514	5876.94
455.734	5345.94
455.955	4838.94
456.175	4730.94
456.395	4726.94
456.616	4680.94
456.836	4747.94
457.056	4738.94
457.276	4680.94
457.497	4830.94
457.717	4770.94
457.937	4858.94
458.157	4971.94
458.377	5016.94
458.598	5478.94
458.818	6046.94
459.038	6814.94
459.258	6692.94
459.478	6032.94
459.698	5964.94
459.918	5987.94
460.138	6192.94
460.358	6351.94
460.578	6448.94
460.798	6482.94
461.018	6432.94
461.238	6356.94
461.458	6359.94
461.678	6249.94
461.898	6537.94
462.118	6501.94
462.338	6848.94
462.558	6889.94
462.777	7304.94
462.997	7834.94
463.217	8290.94
463.437	7985.94
463.657	7392.94
463.876	7243.94
464.096	7277.94
464.316	7327.94
464.536	7313.94
464.755	7068.94
464.975	6989.94
465.195	7153.94
465.414	7143.94
465.634	6401.94
465.854	6067.94
466.073	5772.94
466.293	5615.94
466.512	5460.94
466.732	5295.94
466.951	5379.94
467.171	5376.94
467.391	5580.94
467.61	5557.94
467.829	5712.94
468.049	6379.94
468.268	6973.94
468.488	6050.94
468.707	5565.94
468.927	5457.94
469.146	5337.94
469.365	5395.94
469.585	5347.94
469.804	5508.94
470.023	5653.94
470.243	5642.94
470.462	5809.94
470.681	5905.94
470.901	5705.94
471.12	5660.94
471.339	5658.94
471.558	5660.94
471.777	5656.94
471.997	5998.94
472.216	7791.94
472.435	11011.94
472.654	8560.94
472.873	6762.94
473.092	6076.94
473.311	5842.94
473.53	5757.94
473.749	5664.94
473.968	6078.94
474.187	7000.94
474.406	6486.94
474.625	5659.94
474.844	5373.94
475.063	5341.94
475.282	5323.94
475.501	5380.94
475.72	5388.94
475.939	5433.94
476.158	5389.94
476.377	5441.94
476.596	5478.94
476.814	5640.94
477.033	5668.94
477.252	5692.94
477.471	5748.94
477.69	5909.94
477.908	6075.94
478.127	6191.94
478.346	6205.94
478.564	6413.94
478.783	6414.94
479.002	6614.94
479.22	6714.94
479.439	6787.94
479.658	6804.94
479.876	6998.94
480.095	7231.94
480.313	7765.94
480.532	7843.94
480.751	8124.94
480.969	9717.94
481.188	14696.94
481.406	14627.94
481.624	10454.94
481.843	8720.94
482.061	7858.94
482.28	7300.94
482.498	7096.94
482.717	6801.94
482.935	6690.94
483.153	6591.94
483.372	6481.94
483.59	6494.94
483.808	6402.94
484.027	6446.94
484.245	6490.94
484.463	6425.94
484.681	6522.94
484.9	6595.94
485.118	6493.94
485.336	6613.94
485.554	6662.94
485.772	6681.94
485.99	6671.94
486.209	6786.94
486.427	6748.94
486.645	6788.94
486.863	6934.94
487.081	6837.94
487.299	6837.94
487.517	6904.94
487.735	6815.94
