Data from Circ_1991_H10_HRD10591_00032.txt Node
Date: Wed Jan 03 11:51:47 EST 2024
User: Yrep
Spectrometer: HR+D1059
Trigger mode: 1
Integration Time (sec): 1.000000E-1
Scans to average: 1
Electric dark correction enabled: true
Nonlinearity correction enabled: false
Boxcar width: 0
XAxis mode: Wavelengths
Number of Pixels in Spectrum: 2048
>>>>>Begin Spectral Data<<<<<
223.165	-14.06
223.4	-14.06
223.635	-14.06
223.869	-20.06
224.104	-13.06
224.338	-20.06
224.573	-29.06
224.808	-3.06
225.042	-12.06
225.277	-8.06
225.511	-15.06
225.746	0.94
225.98	12.94
226.215	21.94
226.449	9.94
226.683	17.94
226.918	32.94
227.152	37.94
227.387	33.94
227.621	34.94
227.856	52.94
228.09	48.94
228.324	59.94
228.559	68.94
228.793	63.94
229.027	55.94
229.262	56.94
229.496	69.94
229.73	86.94
229.964	85.94
230.199	69.94
230.433	73.94
230.667	69.94
230.901	74.94
231.136	89.94
231.37	74.94
231.604	77.94
231.838	81.94
232.072	80.94
232.306	80.94
232.541	70.94
232.775	83.94
233.009	79.94
233.243	78.94
233.477	82.94
233.711	69.94
233.945	75.94
234.179	74.94
234.413	81.94
234.647	79.94
234.881	85.94
235.115	68.94
235.349	75.94
235.583	80.94
235.817	66.94
236.051	77.94
236.285	75.94
236.519	81.94
236.753	87.94
236.987	80.94
237.221	83.94
237.455	99.94
237.689	88.94
237.922	75.94
238.156	86.94
238.39	70.94
238.624	77.94
238.858	84.94
239.091	71.94
239.325	81.94
239.559	81.94
239.793	81.94
240.027	78.94
240.26	87.94
240.494	83.94
240.728	87.94
240.961	77.94
241.195	81.94
241.429	81.94
241.662	69.94
241.896	81.94
242.13	67.94
242.363	67.94
242.597	78.94
242.83	81.94
243.064	61.94
243.298	86.94
243.531	66.94
243.765	63.94
243.998	65.94
244.232	77.94
244.465	81.94
244.699	74.94
244.932	79.94
245.166	81.94
245.399	77.94
245.633	94.94
245.866	98.94
246.099	67.94
246.333	81.94
246.566	85.94
246.8	76.94
247.033	84.94
247.266	90.94
247.5	85.94
247.733	84.94
247.966	60.94
248.2	77.94
248.433	56.94
248.666	76.94
248.899	86.94
249.133	92.94
249.366	110.94
249.599	94.94
249.832	90.94
250.066	83.94
250.299	86.94
250.532	81.94
250.765	76.94
250.998	91.94
251.231	96.94
251.465	89.94
251.698	82.94
251.931	76.94
252.164	77.94
252.397	83.94
252.63	80.94
252.863	76.94
253.096	77.94
253.329	70.94
253.562	76.94
253.795	77.94
254.028	83.94
254.261	74.94
254.494	82.94
254.727	81.94
254.96	82.94
255.193	95.94
255.426	82.94
255.659	73.94
255.892	79.94
256.124	74.94
256.357	93.94
256.59	78.94
256.823	75.94
257.056	85.94
257.289	87.94
257.521	71.94
257.754	80.94
257.987	83.94
258.22	77.94
258.452	84.94
258.685	82.94
258.918	75.94
259.151	83.94
259.383	86.94
259.616	83.94
259.849	83.94
260.081	87.94
260.314	79.94
260.547	71.94
260.779	79.94
261.012	97.94
261.244	73.94
261.477	86.94
261.71	103.94
261.942	103.94
262.175	97.94
262.407	90.94
262.64	68.94
262.872	89.94
263.105	86.94
263.337	85.94
263.57	84.94
263.802	82.94
264.035	89.94
264.267	81.94
264.499	89.94
264.732	92.94
264.964	91.94
265.197	71.94
265.429	83.94
265.661	78.94
265.894	82.94
266.126	84.94
266.358	83.94
266.591	85.94
266.823	85.94
267.055	80.94
267.287	96.94
267.52	89.94
267.752	83.94
267.984	84.94
268.216	73.94
268.448	82.94
268.681	84.94
268.913	88.94
269.145	86.94
269.377	97.94
269.609	79.94
269.841	84.94
270.073	83.94
270.306	73.94
270.538	69.94
270.77	83.94
271.002	78.94
271.234	82.94
271.466	85.94
271.698	85.94
271.93	94.94
272.162	92.94
272.394	89.94
272.626	76.94
272.858	89.94
273.09	75.94
273.322	89.94
273.553	78.94
273.785	71.94
274.017	81.94
274.249	97.94
274.481	83.94
274.713	79.94
274.945	90.94
275.176	87.94
275.408	83.94
275.64	99.94
275.872	96.94
276.104	92.94
276.335	94.94
276.567	113.94
276.799	97.94
277.031	112.94
277.262	94.94
277.494	98.94
277.726	92.94
277.957	95.94
278.189	74.94
278.421	83.94
278.652	77.94
278.884	84.94
279.115	74.94
279.347	90.94
279.579	100.94
279.81	89.94
280.042	88.94
280.273	112.94
280.505	94.94
280.736	76.94
280.968	97.94
281.199	83.94
281.431	93.94
281.662	93.94
281.894	99.94
282.125	105.94
282.356	118.94
282.588	133.94
282.819	115.94
283.051	92.94
283.282	83.94
283.513	84.94
283.745	80.94
283.976	83.94
284.207	101.94
284.439	93.94
284.67	95.94
284.901	87.94
285.132	89.94
285.364	84.94
285.595	94.94
285.826	88.94
286.057	93.94
286.288	100.94
286.52	76.94
286.751	77.94
286.982	93.94
287.213	82.94
287.444	94.94
287.675	88.94
287.906	88.94
288.138	95.94
288.369	91.94
288.6	89.94
288.831	90.94
289.062	82.94
289.293	92.94
289.524	90.94
289.755	102.94
289.986	81.94
290.217	80.94
290.448	82.94
290.679	95.94
290.91	84.94
291.141	96.94
291.371	102.94
291.602	101.94
291.833	82.94
292.064	82.94
292.295	90.94
292.526	97.94
292.757	93.94
292.987	102.94
293.218	95.94
293.449	78.94
293.68	84.94
293.91	94.94
294.141	99.94
294.372	85.94
294.603	91.94
294.833	83.94
295.064	78.94
295.295	80.94
295.525	89.94
295.756	103.94
295.987	114.94
296.217	139.94
296.448	121.94
296.679	90.94
296.909	90.94
297.14	86.94
297.37	83.94
297.601	88.94
297.831	81.94
298.062	89.94
298.292	90.94
298.523	82.94
298.753	79.94
298.984	90.94
299.214	80.94
299.445	92.94
299.675	90.94
299.905	109.94
300.136	70.94
300.366	99.94
300.597	91.94
300.827	83.94
301.057	97.94
301.288	94.94
301.518	90.94
301.748	82.94
301.979	97.94
302.209	95.94
302.439	108.94
302.669	85.94
302.9	98.94
303.13	92.94
303.36	85.94
303.59	92.94
303.82	113.94
304.051	89.94
304.281	89.94
304.511	88.94
304.741	81.94
304.971	72.94
305.201	75.94
305.431	93.94
305.661	91.94
305.891	85.94
306.121	111.94
306.352	106.94
306.582	111.94
306.812	90.94
307.042	97.94
307.272	105.94
307.502	108.94
307.731	122.94
307.961	104.94
308.191	93.94
308.421	99.94
308.651	99.94
308.881	78.94
309.111	87.94
309.341	105.94
309.571	103.94
309.8	86.94
310.03	96.94
310.26	98.94
310.49	109.94
310.72	93.94
310.949	108.94
311.179	97.94
311.409	99.94
311.639	107.94
311.868	102.94
312.098	93.94
312.328	88.94
312.557	99.94
312.787	102.94
313.017	103.94
313.246	91.94
313.476	88.94
313.706	95.94
313.935	108.94
314.165	109.94
314.394	100.94
314.624	114.94
314.853	103.94
315.083	85.94
315.312	96.94
315.542	73.94
315.771	85.94
316.001	94.94
316.23	86.94
316.46	90.94
316.689	81.94
316.919	84.94
317.148	93.94
317.377	81.94
317.607	94.94
317.836	95.94
318.065	97.94
318.295	89.94
318.524	92.94
318.753	83.94
318.983	94.94
319.212	105.94
319.441	111.94
319.67	110.94
319.9	103.94
320.129	89.94
320.358	98.94
320.587	98.94
320.816	93.94
321.046	95.94
321.275	92.94
321.504	93.94
321.733	95.94
321.962	96.94
322.191	98.94
322.42	92.94
322.649	100.94
322.878	110.94
323.108	118.94
323.337	118.94
323.566	139.94
323.795	159.94
324.024	201.94
324.253	394.94
324.482	860.94
324.71	1811.94
324.939	2415.94
325.168	863.94
325.397	265.94
325.626	161.94
325.855	141.94
326.084	131.94
326.313	132.94
326.542	177.94
326.77	255.94
326.999	489.94
327.228	979.94
327.457	1891.94
327.686	1485.94
327.914	417.94
328.143	245.94
328.372	261.94
328.6	173.94
328.829	124.94
329.058	140.94
329.287	140.94
329.515	129.94
329.744	129.94
329.972	176.94
330.201	306.94
330.43	390.94
330.658	220.94
330.887	175.94
331.115	127.94
331.344	103.94
331.572	110.94
331.801	103.94
332.03	110.94
332.258	97.94
332.486	89.94
332.715	105.94
332.943	106.94
333.172	95.94
333.4	92.94
333.629	129.94
333.857	131.94
334.085	189.94
334.314	289.94
334.542	508.94
334.771	467.94
334.999	179.94
335.227	118.94
335.455	102.94
335.684	94.94
335.912	91.94
336.14	91.94
336.369	110.94
336.597	88.94
336.825	102.94
337.053	95.94
337.281	87.94
337.51	86.94
337.738	81.94
337.966	87.94
338.194	98.94
338.422	80.94
338.65	93.94
338.878	103.94
339.106	95.94
339.334	97.94
339.562	83.94
339.79	95.94
340.018	98.94
340.246	85.94
340.474	91.94
340.702	99.94
340.93	95.94
341.158	83.94
341.386	94.94
341.614	103.94
341.842	113.94
342.07	95.94
342.298	92.94
342.526	84.94
342.754	86.94
342.981	96.94
343.209	89.94
343.437	96.94
343.665	86.94
343.893	74.94
344.12	88.94
344.348	93.94
344.576	86.94
344.804	103.94
345.031	94.94
345.259	93.94
345.487	91.94
345.714	78.94
345.942	101.94
346.17	88.94
346.397	89.94
346.625	97.94
346.853	95.94
347.08	91.94
347.308	84.94
347.535	98.94
347.763	101.94
347.99	92.94
348.218	103.94
348.445	101.94
348.673	86.94
348.9	97.94
349.128	94.94
349.355	68.94
349.583	93.94
349.81	91.94
350.037	102.94
350.265	103.94
350.492	94.94
350.72	95.94
350.947	105.94
351.174	96.94
351.402	105.94
351.629	106.94
351.856	96.94
352.083	93.94
352.311	107.94
352.538	117.94
352.765	100.94
352.992	101.94
353.22	114.94
353.447	102.94
353.674	93.94
353.901	99.94
354.128	104.94
354.355	96.94
354.583	112.94
354.81	91.94
355.037	94.94
355.264	99.94
355.491	82.94
355.718	94.94
355.945	97.94
356.172	83.94
356.399	71.94
356.626	82.94
356.853	80.94
357.08	79.94
357.307	85.94
357.534	93.94
357.761	82.94
357.988	81.94
358.215	98.94
358.441	92.94
358.668	99.94
358.895	95.94
359.122	89.94
359.349	79.94
359.576	80.94
359.802	85.94
360.029	100.94
360.256	107.94
360.483	101.94
360.709	90.94
360.936	85.94
361.163	91.94
361.39	94.94
361.616	91.94
361.843	99.94
362.07	89.94
362.296	91.94
362.523	98.94
362.749	98.94
362.976	90.94
363.203	81.94
363.429	76.94
363.656	84.94
363.882	86.94
364.109	78.94
364.335	97.94
364.562	92.94
364.788	97.94
365.015	90.94
365.241	90.94
365.468	104.94
365.694	114.94
365.92	111.94
366.147	95.94
366.373	90.94
366.599	83.94
366.826	91.94
367.052	83.94
367.278	84.94
367.505	91.94
367.731	95.94
367.957	89.94
368.184	100.94
368.41	100.94
368.636	111.94
368.862	107.94
369.089	113.94
369.315	93.94
369.541	90.94
369.767	97.94
369.993	90.94
370.219	81.94
370.445	91.94
370.672	81.94
370.898	86.94
371.124	114.94
371.35	86.94
371.576	89.94
371.802	93.94
372.028	84.94
372.254	81.94
372.48	93.94
372.706	71.94
372.932	99.94
373.158	86.94
373.384	86.94
373.61	97.94
373.835	75.94
374.061	80.94
374.287	102.94
374.513	104.94
374.739	99.94
374.965	87.94
375.191	88.94
375.416	81.94
375.642	94.94
375.868	81.94
376.094	93.94
376.319	94.94
376.545	86.94
376.771	90.94
376.997	83.94
377.222	86.94
377.448	84.94
377.674	89.94
377.899	96.94
378.125	90.94
378.35	92.94
378.576	96.94
378.802	90.94
379.027	94.94
379.253	96.94
379.478	106.94
379.704	95.94
379.929	95.94
380.155	108.94
380.38	99.94
380.606	93.94
380.831	108.94
381.057	91.94
381.282	92.94
381.507	101.94
381.733	108.94
381.958	78.94
382.184	87.94
382.409	95.94
382.634	97.94
382.86	104.94
383.085	108.94
383.31	108.94
383.535	93.94
383.761	105.94
383.986	97.94
384.211	95.94
384.436	94.94
384.662	122.94
384.887	103.94
385.112	94.94
385.337	104.94
385.562	100.94
385.787	105.94
386.013	109.94
386.238	114.94
386.463	98.94
386.688	106.94
386.913	99.94
387.138	116.94
387.363	115.94
387.588	107.94
387.813	98.94
388.038	98.94
388.263	109.94
388.488	108.94
388.713	98.94
388.938	91.94
389.163	103.94
389.387	89.94
389.612	77.94
389.837	89.94
390.062	102.94
390.287	103.94
390.512	90.94
390.736	95.94
390.961	89.94
391.186	78.94
391.411	107.94
391.636	81.94
391.86	83.94
392.085	92.94
392.31	82.94
392.534	62.94
392.759	94.94
392.984	99.94
393.208	117.94
393.433	159.94
393.658	119.94
393.882	81.94
394.107	92.94
394.331	95.94
394.556	77.94
394.78	78.94
395.005	67.94
395.229	76.94
395.454	87.94
395.678	79.94
395.903	82.94
396.127	95.94
396.352	98.94
396.576	98.94
396.801	125.94
397.025	125.94
397.249	92.94
397.474	93.94
397.698	96.94
397.922	84.94
398.147	92.94
398.371	90.94
398.595	78.94
398.82	79.94
399.044	86.94
399.268	77.94
399.492	95.94
399.717	95.94
399.941	84.94
400.165	95.94
400.389	73.94
400.613	89.94
400.837	94.94
401.062	85.94
401.286	86.94
401.51	81.94
401.734	87.94
401.958	89.94
402.182	126.94
402.406	148.94
402.63	113.94
402.854	88.94
403.078	101.94
403.302	102.94
403.526	69.94
403.75	81.94
403.974	83.94
404.198	86.94
404.422	89.94
404.645	89.94
404.869	93.94
405.093	97.94
405.317	100.94
405.541	107.94
405.765	98.94
405.988	123.94
406.212	158.94
406.436	239.94
406.66	147.94
406.883	101.94
407.107	92.94
407.331	98.94
407.555	101.94
407.778	98.94
408.002	102.94
408.226	96.94
408.449	95.94
408.673	94.94
408.896	91.94
409.12	93.94
409.344	94.94
409.567	93.94
409.791	78.94
410.014	94.94
410.238	95.94
410.461	79.94
410.685	96.94
410.908	95.94
411.132	96.94
411.355	101.94
411.578	92.94
411.802	101.94
412.025	109.94
412.249	82.94
412.472	105.94
412.695	109.94
412.919	87.94
413.142	86.94
413.365	82.94
413.589	74.94
413.812	91.94
414.035	97.94
414.258	102.94
414.482	73.94
414.705	83.94
414.928	94.94
415.151	83.94
415.374	99.94
415.597	97.94
415.821	77.94
416.044	74.94
416.267	89.94
416.49	76.94
416.713	89.94
416.936	86.94
417.159	82.94
417.382	79.94
417.605	77.94
417.828	94.94
418.051	86.94
418.274	77.94
418.497	93.94
418.72	84.94
418.943	86.94
419.166	85.94
419.389	77.94
419.611	79.94
419.834	90.94
420.057	96.94
420.28	82.94
420.503	80.94
420.726	94.94
420.948	82.94
421.171	98.94
421.394	100.94
421.617	93.94
421.839	98.94
422.062	88.94
422.285	99.94
422.507	90.94
422.73	107.94
422.953	94.94
423.175	77.94
423.398	77.94
423.621	86.94
423.843	87.94
424.066	77.94
424.288	83.94
424.511	84.94
424.733	103.94
424.956	108.94
425.178	101.94
425.401	101.94
425.623	94.94
425.846	77.94
426.068	100.94
426.291	93.94
426.513	85.94
426.735	82.94
426.958	100.94
427.18	103.94
427.402	133.94
427.625	171.94
427.847	163.94
428.069	146.94
428.292	103.94
428.514	77.94
428.736	97.94
428.958	75.94
429.181	89.94
429.403	95.94
429.625	85.94
429.847	80.94
430.069	92.94
430.292	83.94
430.514	90.94
430.736	98.94
430.958	82.94
431.18	88.94
431.402	80.94
431.624	82.94
431.846	80.94
432.068	71.94
432.29	89.94
432.512	83.94
432.734	87.94
432.956	102.94
433.178	87.94
433.4	100.94
433.622	93.94
433.844	82.94
434.066	94.94
434.287	91.94
434.509	87.94
434.731	100.94
434.953	94.94
435.175	80.94
435.397	79.94
435.618	90.94
435.84	96.94
436.062	124.94
436.284	133.94
436.505	95.94
436.727	102.94
436.949	91.94
437.17	85.94
437.392	79.94
437.614	90.94
437.835	103.94
438.057	115.94
438.278	112.94
438.5	104.94
438.721	110.94
438.943	115.94
439.165	90.94
439.386	73.94
439.608	86.94
439.829	94.94
440.05	116.94
440.272	150.94
440.493	92.94
440.715	106.94
440.936	86.94
441.158	91.94
441.379	79.94
441.6	90.94
441.822	92.94
442.043	102.94
442.264	102.94
442.486	86.94
442.707	81.94
442.928	110.94
443.149	134.94
443.371	126.94
443.592	113.94
443.813	117.94
444.034	111.94
444.255	94.94
444.476	94.94
444.698	97.94
444.919	89.94
445.14	125.94
445.361	118.94
445.582	105.94
445.803	130.94
446.024	131.94
446.245	128.94
446.466	105.94
446.687	89.94
446.908	84.94
447.129	81.94
447.35	77.94
447.571	81.94
447.792	100.94
448.013	100.94
448.234	101.94
448.455	86.94
448.675	107.94
448.896	115.94
449.117	112.94
449.338	108.94
449.559	127.94
449.779	135.94
450	83.94
450.221	81.94
450.442	82.94
450.662	95.94
450.883	88.94
451.104	106.94
451.324	78.94
451.545	92.94
451.766	76.94
451.986	89.94
452.207	88.94
452.428	76.94
452.648	93.94
452.869	116.94
453.089	113.94
453.31	109.94
453.53	76.94
453.751	89.94
453.971	104.94
454.192	113.94
454.412	94.94
454.633	86.94
454.853	80.94
455.073	70.94
455.294	91.94
455.514	90.94
455.734	85.94
455.955	74.94
456.175	99.94
456.395	85.94
456.616	85.94
456.836	81.94
457.056	76.94
457.276	89.94
457.497	81.94
457.717	87.94
457.937	85.94
458.157	100.94
458.377	89.94
458.598	97.94
458.818	144.94
459.038	146.94
459.258	117.94
459.478	85.94
459.698	81.94
459.918	91.94
460.138	77.94
460.358	75.94
460.578	87.94
460.798	86.94
461.018	81.94
461.238	89.94
461.458	86.94
461.678	89.94
461.898	83.94
462.118	81.94
462.338	81.94
462.558	71.94
462.777	95.94
462.997	79.94
463.217	97.94
463.437	83.94
463.657	94.94
463.876	97.94
464.096	88.94
464.316	82.94
464.536	94.94
464.755	93.94
464.975	99.94
465.195	170.94
465.414	154.94
465.634	98.94
465.854	83.94
466.073	82.94
466.293	90.94
466.512	84.94
466.732	86.94
466.951	97.94
467.171	86.94
467.391	101.94
467.61	112.94
467.829	117.94
468.049	217.94
468.268	266.94
468.488	115.94
468.707	90.94
468.927	78.94
469.146	89.94
469.365	83.94
469.585	84.94
469.804	92.94
470.023	85.94
470.243	92.94
470.462	107.94
470.681	109.94
470.901	86.94
471.12	100.94
471.339	89.94
471.558	91.94
471.777	94.94
471.997	145.94
472.216	378.94
472.435	716.94
472.654	218.94
472.873	100.94
473.092	74.94
473.311	79.94
473.53	84.94
473.749	89.94
473.968	108.94
474.187	99.94
474.406	91.94
474.625	91.94
474.844	82.94
475.063	83.94
475.282	99.94
475.501	83.94
475.72	86.94
475.939	85.94
476.158	77.94
476.377	74.94
476.596	81.94
476.814	89.94
477.033	95.94
477.252	84.94
477.471	83.94
477.69	92.94
477.908	98.94
478.127	82.94
478.346	85.94
478.564	86.94
478.783	82.94
479.002	94.94
479.22	91.94
479.439	90.94
479.658	108.94
479.876	100.94
480.095	75.94
480.313	90.94
480.532	103.94
480.751	145.94
480.969	356.94
481.188	1245.94
481.406	748.94
481.624	151.94
481.843	97.94
482.061	91.94
482.28	96.94
482.498	84.94
482.717	77.94
482.935	86.94
483.153	98.94
483.372	79.94
483.59	73.94
483.808	74.94
484.027	91.94
484.245	85.94
484.463	100.94
484.681	93.94
484.9	80.94
485.118	96.94
485.336	86.94
485.554	82.94
485.772	94.94
485.99	78.94
486.209	94.94
486.427	98.94
486.645	103.94
486.863	108.94
487.081	90.94
487.299	80.94
487.517	83.94
487.735	85.94
487.953	100.94
488.171	96.94
488.389	87.94
488.607	93.94
488.825	96.94
489.043	77.94
489.261	94.94
489.479	81.94
489.696	83.94
489.914	84.94
490.132	85.94
490.35	86.94
490.568	84.94
490.786	94.94
491.003	87.94
491.221	93.94
491.439	82.94
491.657	81.94
491.874	85.94
492.092	89.94
492.31	94.94
492.527	81.94
492.745	94.94
492.963	83.94
493.18	90.94
493.398	95.94
493.615	94.94
493.833	86.94
494.05	81.94
494.268	90.94
494.485	82.94
494.703	92.94
494.92	90.94
495.138	81.94
495.355	93.94
495.573	83.94
495.79	79.94
496.008	90.94
496.225	95.94
496.442	93.94
496.66	102.94
496.877	83.94
497.094	95.94
497.312	99.94
497.529	93.94
497.746	89.94
497.963	84.94
498.181	91.94
498.398	98.94
498.615	105.94
498.832	111.94
499.049	93.94
499.267	90.94
499.484	85.94
499.701	85.94
499.918	96.94
500.135	94.94
500.352	84.94
500.569	88.94
500.786	84.94
501.003	105.94
501.22	96.94
501.437	92.94
501.654	80.94
501.871	103.94
502.088	77.94
502.305	94.94
502.522	97.94
502.739	99.94
502.956	89.94
503.172	91.94
503.389	90.94
503.606	108.94
503.823	106.94
504.04	95.94
504.256	94.94
504.473	85.94
504.69	83.94
504.907	98.94
505.123	90.94
505.34	89.94
505.557	85.94
505.773	91.94
505.99	94.94
506.207	85.94
506.423	92.94
506.64	87.94
506.856	87.94
507.073	86.94
507.289	84.94
507.506	98.94
507.722	103.94
507.939	113.94
508.155	94.94
508.372	86.94
508.588	93.94
508.805	99.94
509.021	97.94
509.238	85.94
509.454	119.94
509.67	93.94
509.887	103.94
510.103	137.94
510.319	191.94
510.536	729.94
510.752	2300.94
510.968	644.94
511.184	157.94
511.401	110.94
511.617	101.94
511.833	96.94
512.049	88.94
512.265	107.94
512.481	81.94
512.698	99.94
512.914	98.94
513.13	87.94
513.346	99.94
513.562	110.94
513.778	98.94
513.994	97.94
514.21	106.94
514.426	107.94
514.642	127.94
514.858	133.94
515.074	175.94
515.29	446.94
515.506	1493.94
515.721	529.94
