Data from Circ_1991_H10_HRD10591_00099.txt Node
Date: Wed Jan 03 11:52:01 EST 2024
User: Yrep
Spectrometer: HR+D1059
Trigger mode: 1
Integration Time (sec): 1.000000E-1
Scans to average: 1
Electric dark correction enabled: true
Nonlinearity correction enabled: false
Boxcar width: 0
XAxis mode: Wavelengths
Number of Pixels in Spectrum: 2048
>>>>>Begin Spectral Data<<<<<
223.165	-29
223.4	-29
223.635	-29
223.869	-20
224.104	-12
224.338	-19
224.573	-5
224.808	-17
225.042	-14
225.277	-5
225.511	5
225.746	15
225.98	12
226.215	16
226.449	17
226.683	11
226.918	19
227.152	26
227.387	22
227.621	41
227.856	35
228.09	48
228.324	35
228.559	52
228.793	72
229.027	69
229.262	68
229.496	61
229.73	75
229.964	81
230.199	81
230.433	74
230.667	63
230.901	82
231.136	68
231.37	88
231.604	85
231.838	70
232.072	83
232.306	75
232.541	77
232.775	78
233.009	76
233.243	86
233.477	79
233.711	84
233.945	92
234.179	85
234.413	66
234.647	85
234.881	76
235.115	83
235.349	85
235.583	73
235.817	74
236.051	61
236.285	77
236.519	69
236.753	80
236.987	79
237.221	78
237.455	86
237.689	76
237.922	70
238.156	68
238.39	70
238.624	73
238.858	89
239.091	80
239.325	72
239.559	84
239.793	77
240.027	82
240.26	73
240.494	81
240.728	58
240.961	94
241.195	72
241.429	79
241.662	74
241.896	81
242.13	88
242.363	72
242.597	67
242.83	68
243.064	84
243.298	80
243.531	68
243.765	73
243.998	77
244.232	66
244.465	82
244.699	83
244.932	75
245.166	73
245.399	74
245.633	58
245.866	92
246.099	72
246.333	67
246.566	92
246.8	72
247.033	62
247.266	69
247.5	76
247.733	84
247.966	78
248.2	97
248.433	90
248.666	67
248.899	82
249.133	85
249.366	88
249.599	79
249.832	90
250.066	82
250.299	86
250.532	78
250.765	85
250.998	81
251.231	75
251.465	78
251.698	78
251.931	77
252.164	69
252.397	86
252.63	89
252.863	86
253.096	76
253.329	85
253.562	82
253.795	73
254.028	81
254.261	69
254.494	99
254.727	78
254.96	70
255.193	62
255.426	83
255.659	88
255.892	83
256.124	89
256.357	84
256.59	82
256.823	76
257.056	78
257.289	73
257.521	68
257.754	76
257.987	76
258.22	89
258.452	85
258.685	77
258.918	89
259.151	76
259.383	82
259.616	72
259.849	86
260.081	81
260.314	88
260.547	81
260.779	74
261.012	96
261.244	79
261.477	83
261.71	93
261.942	115
262.175	111
262.407	90
262.64	88
262.872	70
263.105	78
263.337	72
263.57	81
263.802	83
264.035	76
264.267	90
264.499	87
264.732	83
264.964	69
265.197	70
265.429	77
265.661	79
265.894	93
266.126	80
266.358	83
266.591	80
266.823	70
267.055	84
267.287	96
267.52	81
267.752	71
267.984	77
268.216	75
268.448	82
268.681	70
268.913	94
269.145	69
269.377	81
269.609	77
269.841	81
270.073	77
270.306	79
270.538	86
270.77	81
271.002	72
271.234	61
271.466	84
271.698	88
271.93	78
272.162	93
272.394	79
272.626	86
272.858	88
273.09	84
273.322	77
273.553	81
273.785	90
274.017	87
274.249	86
274.481	84
274.713	90
274.945	92
275.176	82
275.408	88
275.64	87
275.872	91
276.104	92
276.335	103
276.567	99
276.799	122
277.031	123
277.262	138
277.494	98
277.726	90
277.957	91
278.189	72
278.421	91
278.652	83
278.884	95
279.115	80
279.347	87
279.579	81
279.81	100
280.042	128
280.273	143
280.505	112
280.736	90
280.968	86
281.199	98
281.431	91
281.662	72
281.894	97
282.125	88
282.356	97
282.588	127
282.819	110
283.051	88
283.282	82
283.513	80
283.745	78
283.976	91
284.207	73
284.439	85
284.67	94
284.901	87
285.132	82
285.364	92
285.595	100
285.826	89
286.057	89
286.288	84
286.52	96
286.751	86
286.982	86
287.213	94
287.444	75
287.675	94
287.906	89
288.138	86
288.369	94
288.6	96
288.831	92
289.062	99
289.293	76
289.524	92
289.755	95
289.986	89
290.217	79
290.448	78
290.679	79
290.91	89
291.141	89
291.371	93
291.602	90
291.833	89
292.064	92
292.295	83
292.526	78
292.757	89
292.987	89
293.218	90
293.449	81
293.68	82
293.91	85
294.141	99
294.372	93
294.603	81
294.833	89
295.064	92
295.295	88
295.525	84
295.756	81
295.987	106
296.217	122
296.448	115
296.679	89
296.909	89
297.14	77
297.37	76
297.601	78
297.831	89
298.062	75
298.292	82
298.523	70
298.753	86
298.984	81
299.214	95
299.445	88
299.675	82
299.905	89
300.136	90
300.366	111
300.597	84
300.827	82
301.057	101
301.288	103
301.518	95
301.748	83
301.979	106
302.209	81
302.439	88
302.669	92
302.9	81
303.13	84
303.36	98
303.59	100
303.82	109
304.051	100
304.281	87
304.511	84
304.741	79
304.971	91
305.201	112
305.431	96
305.661	94
305.891	93
306.121	99
306.352	105
306.582	117
306.812	95
307.042	108
307.272	112
307.502	113
307.731	118
307.961	108
308.191	90
308.421	88
308.651	94
308.881	92
309.111	93
309.341	93
309.571	94
309.8	96
310.03	94
310.26	91
310.49	93
310.72	98
310.949	113
311.179	96
311.409	95
311.639	94
311.868	106
312.098	83
312.328	106
312.557	101
312.787	104
313.017	105
313.246	93
313.476	99
313.706	69
313.935	90
314.165	99
314.394	101
314.624	112
314.853	106
315.083	97
315.312	94
315.542	94
315.771	82
316.001	77
316.23	91
316.46	84
316.689	97
316.919	85
317.148	92
317.377	79
317.607	98
317.836	90
318.065	80
318.295	76
318.524	84
318.753	101
318.983	101
319.212	99
319.441	103
319.67	112
319.9	88
320.129	86
320.358	92
320.587	101
320.816	83
321.046	94
321.275	80
321.504	93
321.733	89
321.962	98
322.191	89
322.42	94
322.649	114
322.878	116
323.108	117
323.337	124
323.566	132
323.795	148
324.024	227
324.253	420
324.482	906
324.71	1893
324.939	2598
325.168	908
325.397	264
325.626	159
325.855	140
326.084	117
326.313	125
326.542	149
326.77	253
326.999	494
327.228	1043
327.457	1980
327.686	1602
327.914	431
328.143	307
328.372	326
328.6	228
328.829	142
329.058	140
329.287	146
329.515	140
329.744	162
329.972	265
330.201	458
330.43	628
330.658	300
330.887	184
331.115	140
331.344	109
331.572	100
331.801	103
332.03	101
332.258	96
332.486	93
332.715	81
332.943	86
333.172	101
333.4	115
333.629	114
333.857	160
334.085	237
334.314	428
334.542	810
334.771	744
334.999	250
335.227	132
335.455	107
335.684	106
335.912	93
336.14	93
336.369	111
336.597	102
336.825	88
337.053	91
337.281	88
337.51	91
337.738	103
337.966	86
338.194	89
338.422	92
338.65	89
338.878	95
339.106	89
339.334	73
339.562	91
339.79	93
340.018	88
340.246	91
340.474	97
340.702	98
340.93	92
341.158	98
341.386	95
341.614	92
341.842	101
342.07	93
342.298	98
342.526	89
342.754	70
342.981	108
343.209	88
343.437	85
343.665	88
343.893	86
344.12	76
344.348	85
344.576	101
344.804	100
345.031	103
345.259	94
345.487	83
345.714	82
345.942	79
346.17	82
346.397	90
346.625	80
346.853	80
347.08	87
347.308	98
347.535	99
347.763	95
347.99	84
348.218	102
348.445	93
348.673	99
348.9	96
349.128	104
349.355	98
349.583	83
349.81	92
350.037	80
350.265	100
350.492	95
350.72	80
350.947	110
351.174	101
351.402	96
351.629	109
351.856	113
352.083	106
352.311	107
352.538	103
352.765	113
352.992	114
353.22	93
353.447	100
353.674	78
353.901	83
354.128	98
354.355	103
354.583	100
354.81	80
355.037	103
355.264	92
355.491	85
355.718	70
355.945	90
356.172	89
356.399	88
356.626	90
356.853	91
357.08	83
357.307	99
357.534	94
357.761	108
357.988	92
358.215	95
358.441	96
358.668	85
358.895	91
359.122	95
359.349	88
359.576	94
359.802	98
360.029	116
360.256	117
360.483	95
360.709	88
360.936	100
361.163	84
361.39	100
361.616	90
361.843	91
362.07	78
362.296	89
362.523	88
362.749	91
362.976	89
363.203	90
363.429	81
363.656	94
363.882	74
364.109	99
364.335	93
364.562	88
364.788	84
365.015	97
365.241	94
365.468	86
365.694	94
365.92	89
366.147	90
366.373	96
366.599	86
366.826	92
367.052	85
367.278	95
367.505	105
367.731	109
367.957	91
368.184	93
368.41	91
368.636	101
368.862	116
369.089	101
369.315	80
369.541	87
369.767	89
369.993	75
370.219	89
370.445	90
370.672	80
370.898	87
371.124	94
371.35	92
371.576	79
371.802	83
372.028	94
372.254	100
372.48	84
372.706	71
372.932	106
373.158	86
373.384	82
373.61	83
373.835	96
374.061	82
374.287	83
374.513	86
374.739	88
374.965	83
375.191	91
375.416	93
375.642	102
375.868	95
376.094	100
376.319	92
376.545	101
376.771	100
376.997	89
377.222	81
377.448	90
377.674	82
377.899	86
378.125	92
378.35	79
378.576	94
378.802	78
379.027	85
379.253	82
379.478	82
379.704	94
379.929	91
380.155	88
380.38	93
380.606	106
380.831	97
381.057	91
381.282	98
381.507	94
381.733	84
381.958	85
382.184	96
382.409	88
382.634	93
382.86	98
383.085	107
383.31	98
383.535	86
383.761	92
383.986	92
384.211	91
384.436	89
384.662	82
384.887	96
385.112	89
385.337	109
385.562	111
385.787	97
386.013	86
386.238	105
386.463	106
386.688	93
386.913	94
387.138	105
387.363	106
387.588	85
387.813	89
388.038	101
388.263	108
388.488	97
388.713	90
388.938	86
389.163	94
389.387	85
389.612	84
389.837	84
390.062	84
390.287	86
390.512	87
390.736	88
390.961	96
391.186	84
391.411	85
391.636	84
391.86	89
392.085	80
392.31	77
392.534	94
392.759	93
392.984	85
393.208	88
393.433	109
393.658	99
393.882	72
394.107	74
394.331	74
394.556	84
394.78	94
395.005	82
395.229	70
395.454	86
395.678	86
395.903	90
396.127	85
396.352	96
396.576	85
396.801	76
397.025	79
397.249	76
397.474	95
397.698	90
397.922	83
398.147	98
398.371	87
398.595	90
398.82	73
399.044	82
399.268	94
399.492	98
399.717	79
399.941	85
400.165	94
400.389	93
400.613	83
400.837	86
401.062	85
401.286	90
401.51	81
401.734	89
401.958	96
402.182	110
402.406	131
402.63	114
402.854	97
403.078	80
403.302	93
403.526	66
403.75	104
403.974	83
404.198	85
404.422	93
404.645	77
404.869	83
405.093	104
405.317	117
405.541	109
405.765	95
405.988	117
406.212	166
406.436	202
406.66	153
406.883	106
407.107	94
407.331	89
407.555	108
407.778	98
408.002	76
408.226	101
408.449	90
408.673	90
408.896	100
409.12	95
409.344	94
409.567	94
409.791	94
410.014	98
410.238	89
410.461	89
410.685	89
410.908	101
411.132	98
411.355	96
411.578	89
411.802	79
412.025	78
412.249	87
412.472	98
412.695	118
412.919	94
413.142	89
413.365	89
413.589	96
413.812	89
414.035	95
414.258	86
414.482	83
414.705	101
414.928	75
415.151	88
415.374	93
415.597	87
415.821	101
416.044	95
416.267	90
416.49	79
416.713	81
416.936	80
417.159	92
417.382	83
417.605	93
417.828	85
418.051	76
418.274	69
418.497	84
418.72	80
418.943	83
419.166	82
419.389	91
419.611	93
419.834	75
420.057	72
420.28	80
420.503	73
420.726	80
420.948	87
421.171	74
421.394	91
421.617	92
421.839	88
422.062	88
422.285	94
422.507	93
422.73	114
422.953	98
423.175	86
423.398	94
423.621	79
423.843	92
424.066	76
424.288	96
424.511	105
424.733	96
424.956	94
425.178	93
425.401	105
425.623	109
425.846	96
426.068	97
426.291	92
426.513	89
426.735	87
426.958	99
427.18	110
427.402	150
427.625	194
427.847	174
428.069	182
428.292	97
428.514	88
428.736	95
428.958	99
429.181	91
429.403	87
429.625	92
429.847	98
430.069	113
430.292	97
430.514	85
430.736	80
430.958	80
431.18	82
431.402	87
431.624	75
431.846	81
432.068	83
432.29	82
432.512	84
432.734	77
432.956	83
433.178	78
433.4	105
433.622	82
433.844	100
434.066	79
434.287	91
434.509	77
434.731	86
434.953	79
435.175	91
435.397	93
435.618	91
435.84	114
436.062	125
436.284	117
436.505	104
436.727	86
436.949	106
437.17	90
437.392	69
437.614	97
437.835	94
438.057	106
438.278	120
438.5	93
438.721	117
438.943	88
439.165	94
439.386	87
439.608	88
439.829	99
440.05	115
440.272	160
440.493	99
440.715	80
440.936	90
441.158	81
441.379	89
441.6	86
441.822	89
442.043	90
442.264	115
442.486	102
442.707	96
442.928	116
443.149	128
443.371	138
443.592	109
443.813	117
444.034	120
444.255	90
444.476	90
444.698	96
444.919	86
445.14	125
445.361	117
445.582	127
445.803	139
446.024	132
446.245	144
446.466	129
446.687	83
446.908	88
447.129	88
447.35	89
447.571	106
447.792	85
448.013	92
448.234	97
448.455	107
448.675	117
448.896	132
449.117	95
449.338	112
449.559	120
449.779	126
450	97
450.221	91
450.442	89
450.662	84
450.883	93
451.104	120
451.324	93
451.545	96
451.766	102
451.986	87
452.207	79
452.428	90
452.648	105
452.869	112
453.089	110
453.31	116
453.53	80
453.751	94
453.971	90
454.192	85
454.412	88
454.633	82
454.853	88
455.073	81
455.294	91
455.514	111
455.734	106
455.955	97
456.175	88
456.395	92
456.616	76
456.836	74
457.056	68
457.276	74
457.497	73
457.717	82
457.937	88
458.157	86
458.377	90
458.598	96
458.818	136
459.038	160
459.258	122
459.478	78
459.698	89
459.918	93
460.138	84
460.358	83
460.578	89
460.798	74
461.018	91
461.238	96
461.458	79
461.678	84
461.898	85
462.118	74
462.338	78
462.558	76
462.777	87
462.997	84
463.217	106
463.437	83
463.657	77
463.876	89
464.096	84
464.316	97
464.536	90
464.755	101
464.975	94
465.195	178
465.414	147
465.634	91
465.854	94
466.073	102
466.293	87
466.512	88
466.732	90
466.951	91
467.171	84
467.391	100
467.61	114
467.829	133
468.049	292
468.268	370
468.488	150
468.707	92
468.927	74
469.146	105
469.365	81
469.585	83
469.804	102
470.023	98
470.243	105
470.462	100
470.681	90
470.901	99
471.12	92
471.339	93
471.558	95
471.777	105
471.997	173
472.216	560
472.435	1141
472.654	292
472.873	114
473.092	100
473.311	92
473.53	88
473.749	87
473.968	84
474.187	109
474.406	102
474.625	83
474.844	84
475.063	67
475.282	84
475.501	81
475.72	95
475.939	108
476.158	93
476.377	86
476.596	91
476.814	81
477.033	86
477.252	86
477.471	93
477.69	89
477.908	96
478.127	85
478.346	101
478.564	78
478.783	90
479.002	96
479.22	98
479.439	101
479.658	107
479.876	100
480.095	92
480.313	100
480.532	123
480.751	186
480.969	502
481.188	2033
481.406	1157
481.624	212
481.843	109
482.061	101
482.28	98
482.498	107
482.717	97
482.935	91
483.153	78
483.372	94
483.59	92
483.808	84
484.027	102
484.245	94
484.463	98
484.681	91
484.9	84
485.118	93
485.336	82
485.554	76
485.772	106
485.99	98
486.209	102
486.427	114
486.645	116
486.863	105
487.081	84
487.299	88
487.517	84
487.735	84
487.953	74
488.171	88
488.389	76
488.607	97
488.825	95
489.043	100
489.261	90
489.479	68
489.696	77
489.914	84
490.132	94
490.35	95
490.568	86
490.786	88
491.003	97
491.221	99
491.439	96
491.657	102
491.874	90
492.092	76
492.31	95
492.527	93
492.745	68
492.963	93
493.18	90
493.398	89
493.615	85
493.833	82
494.05	97
494.268	90
494.485	83
494.703	80
494.92	93
495.138	92
495.355	92
495.573	81
495.79	98
496.008	93
496.225	81
496.442	102
496.66	84
496.877	91
497.094	84
497.312	83
497.529	84
497.746	89
497.963	82
498.181	87
498.398	97
498.615	115
498.832	90
499.049	92
499.267	98
499.484	89
499.701	91
499.918	85
500.135	85
500.352	100
500.569	97
500.786	84
501.003	86
501.22	77
501.437	92
501.654	87
501.871	105
502.088	93
502.305	90
502.522	89
502.739	81
502.956	87
503.172	103
503.389	84
503.606	108
503.823	95
504.04	93
504.256	96
504.473	82
504.69	70
504.907	84
505.123	83
505.34	83
505.557	87
505.773	82
505.99	88
506.207	80
506.423	94
506.64	106
506.856	75
507.073	91
507.289	87
507.506	94
507.722	110
507.939	99
508.155	95
508.372	79
508.588	80
508.805	101
509.021	86
509.238	96
509.454	84
509.67	97
509.887	112
510.103	118
510.319	187
510.536	643
510.752	2086
510.968	614
511.184	150
511.401	97
511.617	91
511.833	99
512.049	99
512.265	77
512.481	90
512.698	88
512.914	104
513.13	92
513.346	88
513.562	91
513.778	101
513.994	89
514.21	101
514.426	114
514.642	128
514.858	142
515.074	179
515.29	422
515.506	1392
515.721	517
515.937	148
516.153	102
516.369	105
516.585	98
516.801	99
517.016	91
517.232	88
517.448	97
517.664	93
517.879	96
518.095	92
518.311	90
518.527	98
518.742	102
518.958	93
519.173	90
519.389	93
519.605	99
519.82	96
520.036	93
520.251	116
520.467	124
520.682	107
520.898	89
521.113	96
521.329	142
521.544	210
521.76	554
521.975	2364
522.19	1418
522.406	308
522.621	136
522.836	94
523.052	99
523.267	97
523.482	93
523.698	98
523.913	111
524.128	102
524.343	100
524.559	79
524.774	86
524.989	102
525.204	102
525.419	107
525.634	86
525.849	83
526.064	80
526.28	96
526.495	82
526.71	85
526.925	80
527.14	98
527.355	89
527.57	80
527.785	97
527.999	78
528.214	98
528.429	89
528.644	97
528.859	72
529.074	95
529.289	116
529.503	182
529.718	112
529.933	76
530.148	82
530.363	97
530.577	95
530.792	97
531.007	89
531.221	99
531.436	100
531.651	88
531.865	80
532.08	79
532.295	106
532.509	89
532.724	81
532.938	103
533.153	92
533.367	99
533.582	83
533.796	97
534.011	74
534.225	67
534.44	89
534.654	101
534.868	88
535.083	87
535.297	94
535.511	96
535.726	92
535.94	91
536.154	87
536.369	98
536.583	90
536.797	80
537.011	85
537.225	82
537.44	82
537.654	91
537.868	93
538.082	67
538.296	83
538.51	93
538.724	86
538.938	77
539.153	92
539.367	92
539.581	78
539.795	106
540.009	94
540.222	85
540.436	83
540.65	96
540.864	85
541.078	108
541.292	101
541.506	92
541.72	86
541.934	81
542.147	75
542.361	89
542.575	85
542.789	94
543.002	100
543.216	83
543.43	75
543.644	103
543.857	80
544.071	92
544.285	91
544.498	92
544.712	80
544.925	84
545.139	95
545.352	80
545.566	81
545.779	70
545.993	94
546.206	90
546.42	81
546.633	89
546.847	72
547.06	89
547.274	96
547.487	94
547.7	89
547.914	74
548.127	84
548.34	80
548.554	78
548.767	89
548.98	91
549.193	89
549.407	83
549.62	80
549.833	94
550.046	92
550.259	87
550.473	97
550.686	94
550.899	86
551.112	84
551.325	88
551.538	74
551.751	93
551.964	85
552.177	100
552.39	84
552.603	80
552.816	100
553.029	97
553.242	86
553.455	84
553.667	110
553.88	98
554.093	98
554.306	84
554.519	88
554.732	93
554.944	88
555.157	84
555.37	100
555.583	93
555.795	96
556.008	89
556.221	86
556.433	101
556.646	89
556.859	101
557.071	97
557.284	90
557.496	86
557.709	89
557.921	96
558.134	84
558.346	85
558.559	77
558.771	100
558.984	97
559.196	90
559.409	86
559.621	89
559.833	105
560.046	84
560.258	96
560.47	99
560.683	93
560.895	81
561.107	89
561.32	86
561.532	82
561.744	102
561.956	88
562.168	99
562.381	94
562.593	84
562.805	81
563.017	92
563.229	85
563.441	82
563.653	72
563.865	76
564.077	86
564.289	92
564.501	81
564.713	103
564.925	94
565.137	100
565.349	100
565.561	88
565.773	84
565.985	88
566.197	77
566.408	85
566.62	74
566.832	86
567.044	95
567.255	91
567.467	74
567.679	84
567.891	97
568.102	83
568.314	90
568.526	91
568.737	93
568.949	84
569.161	84
569.372	85
569.584	88
569.795	88
570.007	109
570.218	221
570.43	122
570.641	96
570.853	87
571.064	91
571.276	81
571.487	78
571.698	76
571.91	88
572.121	96
572.333	90
572.544	75
572.755	79
572.966	93
573.178	74
573.389	86
573.6	92
573.811	81
574.023	84
574.234	80
574.445	90
574.656	84
574.867	73
575.078	81
575.289	88
575.501	88
575.712	77
575.923	80
576.134	80
576.345	90
576.556	88
576.767	87
576.978	100
577.188	97
577.399	105
577.61	93
577.821	104
578.032	119
578.243	236
578.454	664
578.665	198
578.875	106
579.086	97
579.297	90
579.508	92
579.718	91
579.929	96
580.14	88
580.35	80
580.561	82
580.772	76
580.982	84
581.193	80
581.403	89
581.614	92
581.825	68
582.035	89
582.246	88
582.456	75
582.667	93
582.877	102
583.087	96
583.298	86
583.508	102
583.719	96
583.929	94
584.139	99
584.35	78
584.56	91
