Data from Circ_1991_H10_HRD10591_00071.txt Node
Date: Wed Jan 03 11:51:55 EST 2024
User: Yrep
Spectrometer: HR+D1059
Trigger mode: 1
Integration Time (sec): 1.000000E-1
Scans to average: 1
Electric dark correction enabled: true
Nonlinearity correction enabled: false
Boxcar width: 0
XAxis mode: Wavelengths
Number of Pixels in Spectrum: 2048
>>>>>Begin Spectral Data<<<<<
223.165	-9.94
223.4	-9.94
223.635	-9.94
223.869	-14.94
224.104	-19.94
224.338	-24.94
224.573	-6.94
224.808	-19.94
225.042	-4.94
225.277	-6.94
225.511	6.06
225.746	1.06
225.98	1.06
226.215	12.06
226.449	14.06
226.683	14.06
226.918	31.06
227.152	29.06
227.387	49.06
227.621	26.06
227.856	38.06
228.09	46.06
228.324	45.06
228.559	64.06
228.793	67.06
229.027	58.06
229.262	65.06
229.496	69.06
229.73	74.06
229.964	61.06
230.199	75.06
230.433	69.06
230.667	78.06
230.901	80.06
231.136	78.06
231.37	66.06
231.604	72.06
231.838	82.06
232.072	65.06
232.306	77.06
232.541	79.06
232.775	76.06
233.009	80.06
233.243	75.06
233.477	76.06
233.711	72.06
233.945	84.06
234.179	77.06
234.413	88.06
234.647	75.06
234.881	81.06
235.115	85.06
235.349	68.06
235.583	81.06
235.817	80.06
236.051	62.06
236.285	77.06
236.519	73.06
236.753	83.06
236.987	72.06
237.221	82.06
237.455	87.06
237.689	78.06
237.922	80.06
238.156	75.06
238.39	73.06
238.624	84.06
238.858	86.06
239.091	64.06
239.325	75.06
239.559	75.06
239.793	81.06
240.027	76.06
240.26	68.06
240.494	67.06
240.728	64.06
240.961	66.06
241.195	82.06
241.429	88.06
241.662	66.06
241.896	68.06
242.13	86.06
242.363	60.06
242.597	68.06
242.83	84.06
243.064	78.06
243.298	86.06
243.531	73.06
243.765	84.06
243.998	89.06
244.232	78.06
244.465	83.06
244.699	78.06
244.932	77.06
245.166	73.06
245.399	69.06
245.633	74.06
245.866	82.06
246.099	75.06
246.333	76.06
246.566	65.06
246.8	69.06
247.033	78.06
247.266	76.06
247.5	66.06
247.733	78.06
247.966	69.06
248.2	83.06
248.433	69.06
248.666	85.06
248.899	76.06
249.133	88.06
249.366	80.06
249.599	89.06
249.832	93.06
250.066	70.06
250.299	71.06
250.532	72.06
250.765	83.06
250.998	73.06
251.231	73.06
251.465	96.06
251.698	81.06
251.931	82.06
252.164	82.06
252.397	83.06
252.63	84.06
252.863	85.06
253.096	78.06
253.329	84.06
253.562	80.06
253.795	86.06
254.028	87.06
254.261	69.06
254.494	82.06
254.727	82.06
254.96	69.06
255.193	76.06
255.426	81.06
255.659	91.06
255.892	82.06
256.124	80.06
256.357	61.06
256.59	79.06
256.823	73.06
257.056	84.06
257.289	76.06
257.521	80.06
257.754	67.06
257.987	70.06
258.22	86.06
258.452	77.06
258.685	81.06
258.918	54.06
259.151	77.06
259.383	80.06
259.616	79.06
259.849	84.06
260.081	91.06
260.314	74.06
260.547	91.06
260.779	77.06
261.012	99.06
261.244	93.06
261.477	99.06
261.71	94.06
261.942	96.06
262.175	126.06
262.407	91.06
262.64	87.06
262.872	99.06
263.105	79.06
263.337	84.06
263.57	82.06
263.802	83.06
264.035	86.06
264.267	89.06
264.499	68.06
264.732	82.06
264.964	78.06
265.197	93.06
265.429	93.06
265.661	71.06
265.894	90.06
266.126	77.06
266.358	94.06
266.591	81.06
266.823	82.06
267.055	89.06
267.287	73.06
267.52	88.06
267.752	85.06
267.984	79.06
268.216	81.06
268.448	89.06
268.681	82.06
268.913	83.06
269.145	94.06
269.377	91.06
269.609	87.06
269.841	80.06
270.073	83.06
270.306	83.06
270.538	73.06
270.77	72.06
271.002	88.06
271.234	99.06
271.466	84.06
271.698	85.06
271.93	85.06
272.162	76.06
272.394	96.06
272.626	80.06
272.858	83.06
273.09	89.06
273.322	78.06
273.553	67.06
273.785	88.06
274.017	80.06
274.249	80.06
274.481	85.06
274.713	80.06
274.945	82.06
275.176	86.06
275.408	92.06
275.64	92.06
275.872	90.06
276.104	93.06
276.335	90.06
276.567	91.06
276.799	125.06
277.031	110.06
277.262	102.06
277.494	106.06
277.726	96.06
277.957	78.06
278.189	75.06
278.421	87.06
278.652	74.06
278.884	84.06
279.115	79.06
279.347	87.06
279.579	86.06
279.81	105.06
280.042	125.06
280.273	141.06
280.505	115.06
280.736	92.06
280.968	77.06
281.199	91.06
281.431	87.06
281.662	86.06
281.894	90.06
282.125	97.06
282.356	117.06
282.588	137.06
282.819	109.06
283.051	85.06
283.282	86.06
283.513	89.06
283.745	92.06
283.976	85.06
284.207	83.06
284.439	80.06
284.67	95.06
284.901	82.06
285.132	75.06
285.364	91.06
285.595	91.06
285.826	86.06
286.057	92.06
286.288	79.06
286.52	98.06
286.751	79.06
286.982	78.06
287.213	78.06
287.444	78.06
287.675	83.06
287.906	80.06
288.138	87.06
288.369	87.06
288.6	92.06
288.831	94.06
289.062	80.06
289.293	91.06
289.524	82.06
289.755	83.06
289.986	92.06
290.217	81.06
290.448	97.06
290.679	85.06
290.91	85.06
291.141	83.06
291.371	88.06
291.602	90.06
291.833	69.06
292.064	83.06
292.295	89.06
292.526	84.06
292.757	81.06
292.987	94.06
293.218	81.06
293.449	81.06
293.68	81.06
293.91	89.06
294.141	87.06
294.372	89.06
294.603	90.06
294.833	79.06
295.064	84.06
295.295	88.06
295.525	85.06
295.756	100.06
295.987	110.06
296.217	118.06
296.448	123.06
296.679	96.06
296.909	93.06
297.14	82.06
297.37	79.06
297.601	83.06
297.831	93.06
298.062	99.06
298.292	97.06
298.523	88.06
298.753	85.06
298.984	89.06
299.214	82.06
299.445	93.06
299.675	86.06
299.905	89.06
300.136	84.06
300.366	91.06
300.597	101.06
300.827	96.06
301.057	102.06
301.288	88.06
301.518	101.06
301.748	101.06
301.979	113.06
302.209	90.06
302.439	70.06
302.669	81.06
302.9	85.06
303.13	86.06
303.36	106.06
303.59	100.06
303.82	114.06
304.051	100.06
304.281	92.06
304.511	94.06
304.741	94.06
304.971	99.06
305.201	97.06
305.431	92.06
305.661	77.06
305.891	90.06
306.121	102.06
306.352	89.06
306.582	103.06
306.812	77.06
307.042	97.06
307.272	109.06
307.502	129.06
307.731	120.06
307.961	102.06
308.191	88.06
308.421	105.06
308.651	90.06
308.881	85.06
309.111	92.06
309.341	92.06
309.571	94.06
309.8	88.06
310.03	100.06
310.26	102.06
310.49	114.06
310.72	99.06
310.949	95.06
311.179	100.06
311.409	90.06
311.639	94.06
311.868	106.06
312.098	100.06
312.328	98.06
312.557	84.06
312.787	105.06
313.017	101.06
313.246	95.06
313.476	82.06
313.706	78.06
313.935	92.06
314.165	89.06
314.394	95.06
314.624	94.06
314.853	94.06
315.083	110.06
315.312	88.06
315.542	94.06
315.771	82.06
316.001	82.06
316.23	82.06
316.46	78.06
316.689	88.06
316.919	93.06
317.148	88.06
317.377	100.06
317.607	88.06
317.836	92.06
318.065	83.06
318.295	98.06
318.524	85.06
318.753	98.06
318.983	89.06
319.212	97.06
319.441	102.06
319.67	106.06
319.9	86.06
320.129	97.06
320.358	94.06
320.587	99.06
320.816	86.06
321.046	91.06
321.275	106.06
321.504	96.06
321.733	98.06
321.962	96.06
322.191	98.06
322.42	116.06
322.649	119.06
322.878	128.06
323.108	104.06
323.337	118.06
323.566	119.06
323.795	156.06
324.024	202.06
324.253	385.06
324.482	852.06
324.71	1848.06
324.939	2499.06
325.168	894.06
325.397	250.06
325.626	171.06
325.855	121.06
326.084	131.06
326.313	132.06
326.542	171.06
326.77	236.06
326.999	472.06
327.228	1013.06
327.457	1900.06
327.686	1500.06
327.914	424.06
328.143	298.06
328.372	309.06
328.6	217.06
328.829	150.06
329.058	131.06
329.287	133.06
329.515	128.06
329.744	155.06
329.972	235.06
330.201	393.06
330.43	559.06
330.658	302.06
330.887	174.06
331.115	152.06
331.344	102.06
331.572	102.06
331.801	97.06
332.03	113.06
332.258	90.06
332.486	105.06
332.715	105.06
332.943	106.06
333.172	95.06
333.4	107.06
333.629	108.06
333.857	151.06
334.085	225.06
334.314	399.06
334.542	724.06
334.771	673.06
334.999	232.06
335.227	117.06
335.455	89.06
335.684	102.06
335.912	90.06
336.14	99.06
336.369	108.06
336.597	108.06
336.825	105.06
337.053	89.06
337.281	86.06
337.51	89.06
337.738	87.06
337.966	96.06
338.194	91.06
338.422	101.06
338.65	92.06
338.878	97.06
339.106	84.06
339.334	98.06
339.562	79.06
339.79	89.06
340.018	85.06
340.246	92.06
340.474	89.06
340.702	80.06
340.93	81.06
341.158	94.06
341.386	109.06
341.614	96.06
341.842	82.06
342.07	103.06
342.298	88.06
342.526	90.06
342.754	84.06
342.981	75.06
343.209	81.06
343.437	96.06
343.665	77.06
343.893	87.06
344.12	104.06
344.348	98.06
344.576	86.06
344.804	99.06
345.031	93.06
345.259	98.06
345.487	93.06
345.714	102.06
345.942	84.06
346.17	99.06
346.397	108.06
346.625	104.06
346.853	94.06
347.08	93.06
347.308	84.06
347.535	110.06
347.763	87.06
347.99	106.06
348.218	100.06
348.445	96.06
348.673	103.06
348.9	93.06
349.128	96.06
349.355	86.06
349.583	79.06
349.81	90.06
350.037	92.06
350.265	88.06
350.492	85.06
350.72	80.06
350.947	97.06
351.174	101.06
351.402	112.06
351.629	93.06
351.856	100.06
352.083	100.06
352.311	91.06
352.538	98.06
352.765	112.06
352.992	99.06
353.22	107.06
353.447	105.06
353.674	99.06
353.901	90.06
354.128	83.06
354.355	93.06
354.583	93.06
354.81	90.06
355.037	107.06
355.264	96.06
355.491	86.06
355.718	84.06
355.945	87.06
356.172	81.06
356.399	83.06
356.626	87.06
356.853	94.06
357.08	95.06
357.307	89.06
357.534	80.06
357.761	84.06
357.988	88.06
358.215	96.06
358.441	78.06
358.668	81.06
358.895	83.06
359.122	104.06
359.349	90.06
359.576	100.06
359.802	102.06
360.029	109.06
360.256	109.06
360.483	106.06
360.709	85.06
360.936	114.06
361.163	90.06
361.39	103.06
361.616	82.06
361.843	95.06
362.07	92.06
362.296	94.06
362.523	86.06
362.749	89.06
362.976	86.06
363.203	97.06
363.429	78.06
363.656	92.06
363.882	95.06
364.109	88.06
364.335	87.06
364.562	102.06
364.788	93.06
365.015	83.06
365.241	102.06
365.468	106.06
365.694	109.06
365.92	104.06
366.147	82.06
366.373	96.06
366.599	91.06
366.826	103.06
367.052	88.06
367.278	92.06
367.505	80.06
367.731	82.06
367.957	92.06
368.184	102.06
368.41	98.06
368.636	112.06
368.862	118.06
369.089	107.06
369.315	83.06
369.541	95.06
369.767	87.06
369.993	91.06
370.219	91.06
370.445	92.06
370.672	85.06
370.898	92.06
371.124	94.06
371.35	84.06
371.576	91.06
371.802	94.06
372.028	86.06
372.254	82.06
372.48	90.06
372.706	87.06
372.932	84.06
373.158	80.06
373.384	86.06
373.61	84.06
373.835	74.06
374.061	96.06
374.287	76.06
374.513	78.06
374.739	95.06
374.965	93.06
375.191	84.06
375.416	87.06
375.642	87.06
375.868	85.06
376.094	73.06
376.319	93.06
376.545	89.06
376.771	94.06
376.997	83.06
377.222	86.06
377.448	76.06
377.674	87.06
377.899	80.06
378.125	89.06
378.35	76.06
378.576	82.06
378.802	83.06
379.027	93.06
379.253	94.06
379.478	95.06
379.704	92.06
379.929	95.06
380.155	81.06
380.38	95.06
380.606	101.06
380.831	81.06
381.057	87.06
381.282	98.06
381.507	83.06
381.733	81.06
381.958	101.06
382.184	86.06
382.409	96.06
382.634	101.06
382.86	99.06
383.085	94.06
383.31	101.06
383.535	99.06
383.761	98.06
383.986	90.06
384.211	77.06
384.436	92.06
384.662	112.06
384.887	119.06
385.112	94.06
385.337	109.06
385.562	83.06
385.787	101.06
386.013	116.06
386.238	121.06
386.463	100.06
386.688	104.06
386.913	102.06
387.138	93.06
387.363	109.06
387.588	93.06
387.813	92.06
388.038	85.06
388.263	110.06
388.488	113.06
388.713	90.06
388.938	91.06
389.163	92.06
389.387	75.06
389.612	90.06
389.837	85.06
390.062	85.06
390.287	95.06
390.512	102.06
390.736	93.06
390.961	88.06
391.186	88.06
391.411	90.06
391.636	80.06
391.86	80.06
392.085	92.06
392.31	94.06
392.534	89.06
392.759	81.06
392.984	87.06
393.208	93.06
393.433	106.06
393.658	102.06
393.882	98.06
394.107	88.06
394.331	77.06
394.556	80.06
394.78	78.06
395.005	77.06
395.229	88.06
395.454	89.06
395.678	75.06
395.903	90.06
396.127	79.06
396.352	91.06
396.576	102.06
396.801	89.06
397.025	90.06
397.249	74.06
397.474	81.06
397.698	81.06
397.922	77.06
398.147	88.06
398.371	78.06
398.595	87.06
398.82	83.06
399.044	82.06
399.268	89.06
399.492	83.06
399.717	102.06
399.941	95.06
400.165	97.06
400.389	92.06
400.613	97.06
400.837	89.06
401.062	91.06
401.286	89.06
401.51	103.06
401.734	100.06
401.958	96.06
402.182	111.06
402.406	158.06
402.63	115.06
402.854	89.06
403.078	84.06
403.302	69.06
403.526	94.06
403.75	92.06
403.974	107.06
404.198	91.06
404.422	89.06
404.645	73.06
404.869	80.06
405.093	115.06
405.317	118.06
405.541	109.06
405.765	87.06
405.988	113.06
406.212	172.06
406.436	241.06
406.66	144.06
406.883	96.06
407.107	78.06
407.331	96.06
407.555	99.06
407.778	108.06
408.002	82.06
408.226	80.06
408.449	74.06
408.673	83.06
408.896	75.06
409.12	85.06
409.344	84.06
409.567	78.06
409.791	89.06
410.014	96.06
410.238	100.06
410.461	75.06
410.685	106.06
410.908	90.06
411.132	116.06
411.355	100.06
411.578	83.06
411.802	88.06
412.025	83.06
412.249	104.06
412.472	101.06
412.695	112.06
412.919	80.06
413.142	83.06
413.365	79.06
413.589	84.06
413.812	96.06
414.035	91.06
414.258	82.06
414.482	94.06
414.705	77.06
414.928	84.06
415.151	92.06
415.374	72.06
415.597	85.06
415.821	84.06
416.044	77.06
416.267	94.06
416.49	103.06
416.713	86.06
416.936	90.06
417.159	91.06
417.382	98.06
417.605	93.06
417.828	101.06
418.051	98.06
418.274	96.06
418.497	79.06
418.72	75.06
418.943	72.06
419.166	84.06
419.389	88.06
419.611	69.06
419.834	90.06
420.057	90.06
420.28	80.06
420.503	100.06
420.726	73.06
420.948	76.06
421.171	91.06
421.394	74.06
421.617	80.06
421.839	90.06
422.062	98.06
422.285	85.06
422.507	103.06
422.73	100.06
422.953	99.06
423.175	88.06
423.398	86.06
423.621	91.06
423.843	78.06
424.066	77.06
424.288	68.06
424.511	94.06
424.733	76.06
424.956	108.06
425.178	92.06
425.401	104.06
425.623	88.06
425.846	85.06
426.068	94.06
426.291	93.06
426.513	92.06
426.735	71.06
426.958	94.06
427.18	109.06
427.402	153.06
427.625	184.06
427.847	162.06
428.069	178.06
428.292	108.06
428.514	84.06
428.736	78.06
428.958	85.06
429.181	95.06
429.403	84.06
429.625	92.06
429.847	86.06
430.069	107.06
430.292	90.06
430.514	70.06
430.736	74.06
430.958	90.06
431.18	94.06
431.402	86.06
431.624	83.06
431.846	92.06
432.068	84.06
432.29	84.06
432.512	88.06
432.734	85.06
432.956	90.06
433.178	98.06
433.4	101.06
433.622	83.06
433.844	85.06
434.066	99.06
434.287	87.06
434.509	69.06
434.731	84.06
434.953	81.06
435.175	89.06
435.397	90.06
435.618	85.06
435.84	82.06
436.062	141.06
436.284	113.06
436.505	95.06
436.727	107.06
436.949	88.06
437.17	92.06
437.392	93.06
437.614	63.06
437.835	93.06
438.057	130.06
438.278	92.06
438.5	98.06
438.721	122.06
438.943	97.06
439.165	83.06
439.386	82.06
439.608	92.06
439.829	101.06
440.05	126.06
440.272	149.06
440.493	102.06
440.715	80.06
440.936	76.06
441.158	91.06
441.379	86.06
441.6	93.06
441.822	92.06
442.043	86.06
442.264	93.06
442.486	100.06
442.707	94.06
442.928	96.06
443.149	114.06
443.371	131.06
443.592	108.06
443.813	113.06
444.034	108.06
444.255	91.06
444.476	84.06
444.698	77.06
444.919	88.06
445.14	133.06
445.361	126.06
445.582	112.06
445.803	138.06
446.024	130.06
446.245	129.06
446.466	102.06
446.687	86.06
446.908	88.06
447.129	93.06
447.35	85.06
447.571	97.06
447.792	97.06
448.013	107.06
448.234	111.06
448.455	101.06
448.675	121.06
448.896	109.06
449.117	97.06
449.338	102.06
449.559	130.06
449.779	138.06
450	102.06
450.221	94.06
450.442	76.06
450.662	97.06
450.883	102.06
451.104	110.06
451.324	90.06
451.545	84.06
451.766	97.06
451.986	98.06
452.207	98.06
452.428	91.06
452.648	98.06
452.869	111.06
453.089	108.06
453.31	121.06
453.53	93.06
453.751	92.06
453.971	100.06
454.192	113.06
454.412	86.06
454.633	90.06
454.853	74.06
455.073	84.06
455.294	83.06
455.514	106.06
455.734	83.06
455.955	76.06
456.175	81.06
456.395	68.06
456.616	76.06
456.836	85.06
457.056	75.06
457.276	90.06
457.497	86.06
457.717	82.06
457.937	80.06
458.157	83.06
458.377	94.06
458.598	108.06
458.818	153.06
459.038	170.06
459.258	100.06
459.478	104.06
459.698	88.06
459.918	81.06
460.138	80.06
460.358	89.06
460.578	85.06
460.798	81.06
461.018	88.06
461.238	77.06
461.458	83.06
461.678	73.06
461.898	78.06
462.118	69.06
462.338	85.06
462.558	84.06
462.777	68.06
462.997	90.06
463.217	88.06
463.437	83.06
463.657	91.06
463.876	85.06
464.096	78.06
464.316	80.06
464.536	74.06
464.755	102.06
464.975	117.06
465.195	182.06
465.414	175.06
465.634	109.06
465.854	86.06
466.073	82.06
466.293	77.06
466.512	85.06
466.732	85.06
466.951	96.06
467.171	81.06
467.391	91.06
467.61	102.06
467.829	140.06
468.049	265.06
468.268	358.06
468.488	126.06
468.707	95.06
468.927	75.06
469.146	75.06
469.365	99.06
469.585	91.06
469.804	101.06
470.023	86.06
470.243	102.06
470.462	96.06
470.681	121.06
470.901	86.06
471.12	88.06
471.339	94.06
471.558	99.06
471.777	110.06
471.997	188.06
472.216	523.06
472.435	1058.06
472.654	272.06
472.873	106.06
473.092	82.06
473.311	86.06
473.53	88.06
473.749	89.06
473.968	85.06
474.187	102.06
474.406	92.06
474.625	89.06
474.844	85.06
475.063	100.06
475.282	74.06
475.501	84.06
475.72	80.06
475.939	68.06
476.158	82.06
476.377	82.06
476.596	91.06
476.814	83.06
477.033	93.06
477.252	96.06
477.471	94.06
477.69	83.06
477.908	96.06
478.127	80.06
478.346	92.06
478.564	93.06
478.783	86.06
479.002	85.06
479.22	93.06
479.439	94.06
479.658	104.06
479.876	101.06
480.095	104.06
480.313	108.06
480.532	113.06
480.751	168.06
480.969	492.06
481.188	1837.06
481.406	1050.06
481.624	201.06
481.843	100.06
482.061	86.06
482.28	88.06
482.498	92.06
482.717	82.06
482.935	89.06
483.153	102.06
483.372	81.06
483.59	101.06
483.808	80.06
484.027	84.06
484.245	97.06
484.463	83.06
484.681	97.06
484.9	88.06
485.118	84.06
485.336	84.06
485.554	84.06
485.772	92.06
485.99	96.06
486.209	91.06
486.427	100.06
486.645	105.06
486.863	103.06
487.081	97.06
487.299	86.06
487.517	91.06
487.735	90.06
487.953	99.06
488.171	93.06
488.389	90.06
488.607	102.06
488.825	94.06
489.043	88.06
489.261	92.06
489.479	90.06
489.696	101.06
489.914	67.06
490.132	84.06
490.35	77.06
490.568	76.06
490.786	79.06
491.003	85.06
491.221	88.06
491.439	90.06
491.657	86.06
491.874	92.06
492.092	92.06
492.31	86.06
492.527	94.06
492.745	87.06
492.963	94.06
493.18	80.06
493.398	75.06
493.615	95.06
493.833	88.06
494.05	84.06
494.268	89.06
494.485	76.06
494.703	84.06
494.92	86.06
495.138	89.06
495.355	86.06
495.573	88.06
495.79	78.06
496.008	92.06
496.225	93.06
496.442	84.06
496.66	98.06
496.877	81.06
497.094	88.06
497.312	75.06
497.529	87.06
497.746	96.06
497.963	100.06
498.181	98.06
498.398	100.06
498.615	102.06
498.832	105.06
499.049	85.06
499.267	80.06
499.484	86.06
499.701	88.06
499.918	82.06
500.135	97.06
500.352	90.06
500.569	80.06
500.786	87.06
501.003	93.06
501.22	82.06
501.437	84.06
501.654	94.06
501.871	90.06
502.088	85.06
502.305	94.06
502.522	90.06
502.739	92.06
502.956	82.06
503.172	85.06
503.389	97.06
503.606	94.06
503.823	81.06
504.04	99.06
504.256	73.06
504.473	96.06
504.69	92.06
504.907	90.06
505.123	95.06
505.34	92.06
505.557	98.06
505.773	80.06
505.99	89.06
506.207	79.06
506.423	70.06
506.64	95.06
506.856	70.06
507.073	95.06
507.289	96.06
507.506	90.06
507.722	95.06
507.939	112.06
508.155	104.06
508.372	99.06
508.588	89.06
508.805	90.06
509.021	95.06
509.238	92.06
509.454	100.06
509.67	94.06
509.887	100.06
510.103	129.06
510.319	208.06
510.536	738.06
510.752	2450.06
510.968	689.06
511.184	156.06
511.401	112.06
511.617	94.06
511.833	90.06
512.049	94.06
512.265	84.06
512.481	86.06
512.698	96.06
512.914	84.06
513.13	92.06
513.346	90.06
513.562	104.06
513.778	99.06
513.994	93.06
514.21	99.06
514.426	113.06
514.642	133.06
514.858	110.06
515.074	154.06
515.29	464.06
515.506	1596.06
515.721	574.06
