Data from Circ_1991_H10_HRD10591_00003.txt Node
Date: Wed Jan 03 11:51:41 EST 2024
User: Yrep
Spectrometer: HR+D1059
Trigger mode: 1
Integration Time (sec): 1.000000E-1
Scans to average: 1
Electric dark correction enabled: true
Nonlinearity correction enabled: false
Boxcar width: 0
XAxis mode: Wavelengths
Number of Pixels in Spectrum: 2048
>>>>>Begin Spectral Data<<<<<
223.165	-13.62
223.4	-13.62
223.635	-13.62
223.869	-17.62
224.104	-14.62
224.338	-10.62
224.573	-20.62
224.808	-14.62
225.042	-7.62
225.277	8.38
225.511	-14.62
225.746	7.38
225.98	2.38
226.215	3.38
226.449	11.38
226.683	30.38
226.918	20.38
227.152	30.38
227.387	26.38
227.621	28.38
227.856	53.38
228.09	38.38
228.324	48.38
228.559	63.38
228.793	62.38
229.027	50.38
229.262	64.38
229.496	72.38
229.73	88.38
229.964	80.38
230.199	79.38
230.433	74.38
230.667	64.38
230.901	76.38
231.136	83.38
231.37	86.38
231.604	78.38
231.838	67.38
232.072	83.38
232.306	67.38
232.541	75.38
232.775	78.38
233.009	74.38
233.243	83.38
233.477	91.38
233.711	89.38
233.945	72.38
234.179	76.38
234.413	77.38
234.647	64.38
234.881	81.38
235.115	90.38
235.349	79.38
235.583	81.38
235.817	74.38
236.051	58.38
236.285	67.38
236.519	77.38
236.753	69.38
236.987	76.38
237.221	70.38
237.455	79.38
237.689	74.38
237.922	64.38
238.156	72.38
238.39	79.38
238.624	71.38
238.858	65.38
239.091	70.38
239.325	89.38
239.559	76.38
239.793	58.38
240.027	88.38
240.26	66.38
240.494	77.38
240.728	78.38
240.961	68.38
241.195	68.38
241.429	65.38
241.662	67.38
241.896	68.38
242.13	76.38
242.363	73.38
242.597	47.38
242.83	67.38
243.064	74.38
243.298	81.38
243.531	79.38
243.765	82.38
243.998	74.38
244.232	68.38
244.465	93.38
244.699	76.38
244.932	71.38
245.166	66.38
245.399	72.38
245.633	72.38
245.866	64.38
246.099	78.38
246.333	72.38
246.566	84.38
246.8	78.38
247.033	72.38
247.266	60.38
247.5	74.38
247.733	76.38
247.966	79.38
248.2	86.38
248.433	79.38
248.666	76.38
248.899	67.38
249.133	70.38
249.366	95.38
249.599	80.38
249.832	78.38
250.066	81.38
250.299	70.38
250.532	72.38
250.765	73.38
250.998	68.38
251.231	84.38
251.465	92.38
251.698	65.38
251.931	71.38
252.164	77.38
252.397	82.38
252.63	70.38
252.863	83.38
253.096	80.38
253.329	86.38
253.562	89.38
253.795	74.38
254.028	82.38
254.261	74.38
254.494	91.38
254.727	89.38
254.96	80.38
255.193	67.38
255.426	86.38
255.659	77.38
255.892	70.38
256.124	73.38
256.357	67.38
256.59	79.38
256.823	93.38
257.056	82.38
257.289	77.38
257.521	76.38
257.754	77.38
257.987	77.38
258.22	81.38
258.452	83.38
258.685	87.38
258.918	89.38
259.151	72.38
259.383	75.38
259.616	75.38
259.849	86.38
260.081	73.38
260.314	85.38
260.547	74.38
260.779	75.38
261.012	73.38
261.244	81.38
261.477	82.38
261.71	81.38
261.942	94.38
262.175	105.38
262.407	97.38
262.64	87.38
262.872	74.38
263.105	82.38
263.337	87.38
263.57	76.38
263.802	88.38
264.035	79.38
264.267	82.38
264.499	90.38
264.732	89.38
264.964	79.38
265.197	82.38
265.429	92.38
265.661	87.38
265.894	82.38
266.126	82.38
266.358	79.38
266.591	80.38
266.823	70.38
267.055	94.38
267.287	58.38
267.52	87.38
267.752	90.38
267.984	79.38
268.216	80.38
268.448	83.38
268.681	59.38
268.913	75.38
269.145	83.38
269.377	64.38
269.609	82.38
269.841	74.38
270.073	72.38
270.306	80.38
270.538	83.38
270.77	68.38
271.002	93.38
271.234	80.38
271.466	76.38
271.698	77.38
271.93	77.38
272.162	73.38
272.394	89.38
272.626	82.38
272.858	76.38
273.09	83.38
273.322	79.38
273.553	74.38
273.785	79.38
274.017	76.38
274.249	70.38
274.481	87.38
274.713	90.38
274.945	82.38
275.176	82.38
275.408	79.38
275.64	82.38
275.872	79.38
276.104	88.38
276.335	99.38
276.567	90.38
276.799	101.38
277.031	97.38
277.262	83.38
277.494	89.38
277.726	94.38
277.957	80.38
278.189	84.38
278.421	94.38
278.652	91.38
278.884	78.38
279.115	79.38
279.347	86.38
279.579	79.38
279.81	79.38
280.042	82.38
280.273	86.38
280.505	84.38
280.736	86.38
280.968	80.38
281.199	88.38
281.431	82.38
281.662	72.38
281.894	91.38
282.125	85.38
282.356	104.38
282.588	123.38
282.819	102.38
283.051	83.38
283.282	92.38
283.513	76.38
283.745	86.38
283.976	92.38
284.207	81.38
284.439	78.38
284.67	87.38
284.901	82.38
285.132	74.38
285.364	85.38
285.595	72.38
285.826	72.38
286.057	60.38
286.288	84.38
286.52	83.38
286.751	89.38
286.982	76.38
287.213	74.38
287.444	84.38
287.675	89.38
287.906	74.38
288.138	80.38
288.369	87.38
288.6	89.38
288.831	89.38
289.062	76.38
289.293	100.38
289.524	83.38
289.755	70.38
289.986	66.38
290.217	91.38
290.448	83.38
290.679	80.38
290.91	92.38
291.141	75.38
291.371	89.38
291.602	97.38
291.833	72.38
292.064	62.38
292.295	97.38
292.526	85.38
292.757	80.38
292.987	82.38
293.218	80.38
293.449	82.38
293.68	78.38
293.91	90.38
294.141	91.38
294.372	73.38
294.603	84.38
294.833	88.38
295.064	97.38
295.295	83.38
295.525	96.38
295.756	103.38
295.987	101.38
296.217	105.38
296.448	105.38
296.679	82.38
296.909	90.38
297.14	80.38
297.37	91.38
297.601	77.38
297.831	88.38
298.062	79.38
298.292	72.38
298.523	78.38
298.753	72.38
298.984	89.38
299.214	74.38
299.445	105.38
299.675	90.38
299.905	74.38
300.136	93.38
300.366	93.38
300.597	77.38
300.827	95.38
301.057	96.38
301.288	94.38
301.518	70.38
301.748	84.38
301.979	95.38
302.209	88.38
302.439	77.38
302.669	84.38
302.9	79.38
303.13	98.38
303.36	80.38
303.59	100.38
303.82	96.38
304.051	83.38
304.281	104.38
304.511	93.38
304.741	81.38
304.971	74.38
305.201	87.38
305.431	77.38
305.661	85.38
305.891	75.38
306.121	84.38
306.352	86.38
306.582	94.38
306.812	88.38
307.042	86.38
307.272	87.38
307.502	99.38
307.731	103.38
307.961	89.38
308.191	81.38
308.421	72.38
308.651	86.38
308.881	82.38
309.111	79.38
309.341	94.38
309.571	106.38
309.8	94.38
310.03	92.38
310.26	84.38
310.49	96.38
310.72	80.38
310.949	99.38
311.179	100.38
311.409	78.38
311.639	82.38
311.868	94.38
312.098	83.38
312.328	91.38
312.557	90.38
312.787	94.38
313.017	108.38
313.246	92.38
313.476	94.38
313.706	83.38
313.935	92.38
314.165	89.38
314.394	90.38
314.624	87.38
314.853	99.38
315.083	95.38
315.312	90.38
315.542	91.38
315.771	96.38
316.001	98.38
316.23	100.38
316.46	94.38
316.689	99.38
316.919	75.38
317.148	93.38
317.377	104.38
317.607	88.38
317.836	78.38
318.065	86.38
318.295	84.38
318.524	98.38
318.753	83.38
318.983	96.38
319.212	97.38
319.441	115.38
319.67	106.38
319.9	84.38
320.129	83.38
320.358	88.38
320.587	90.38
320.816	106.38
321.046	84.38
321.275	81.38
321.504	100.38
321.733	93.38
321.962	79.38
322.191	92.38
322.42	91.38
322.649	101.38
322.878	98.38
323.108	106.38
323.337	111.38
323.566	134.38
323.795	126.38
324.024	180.38
324.253	323.38
324.482	701.38
324.71	1393.38
324.939	1886.38
325.168	694.38
325.397	206.38
325.626	132.38
325.855	119.38
326.084	119.38
326.313	120.38
326.542	151.38
326.77	195.38
326.999	380.38
327.228	816.38
327.457	1521.38
327.686	1196.38
327.914	328.38
328.143	183.38
328.372	166.38
328.6	126.38
328.829	118.38
329.058	113.38
329.287	118.38
329.515	104.38
329.744	112.38
329.972	144.38
330.201	189.38
330.43	217.38
330.658	163.38
330.887	121.38
331.115	116.38
331.344	102.38
331.572	104.38
331.801	99.38
332.03	91.38
332.258	78.38
332.486	97.38
332.715	90.38
332.943	85.38
333.172	75.38
333.4	86.38
333.629	110.38
333.857	108.38
334.085	146.38
334.314	170.38
334.542	295.38
334.771	268.38
334.999	125.38
335.227	99.38
335.455	88.38
335.684	87.38
335.912	96.38
336.14	105.38
336.369	107.38
336.597	84.38
336.825	98.38
337.053	92.38
337.281	95.38
337.51	95.38
337.738	97.38
337.966	88.38
338.194	95.38
338.422	94.38
338.65	77.38
338.878	99.38
339.106	84.38
339.334	83.38
339.562	72.38
339.79	94.38
340.018	66.38
340.246	90.38
340.474	88.38
340.702	80.38
340.93	79.38
341.158	76.38
341.386	91.38
341.614	88.38
341.842	88.38
342.07	78.38
342.298	95.38
342.526	75.38
342.754	87.38
342.981	86.38
343.209	90.38
343.437	100.38
343.665	76.38
343.893	88.38
344.12	88.38
344.348	87.38
344.576	74.38
344.804	85.38
345.031	93.38
345.259	91.38
345.487	93.38
345.714	70.38
345.942	89.38
346.17	95.38
346.397	78.38
346.625	99.38
346.853	86.38
347.08	97.38
347.308	96.38
347.535	91.38
347.763	108.38
347.99	87.38
348.218	98.38
348.445	105.38
348.673	95.38
348.9	85.38
349.128	90.38
349.355	86.38
349.583	99.38
349.81	81.38
350.037	85.38
350.265	90.38
350.492	87.38
350.72	99.38
350.947	100.38
351.174	89.38
351.402	111.38
351.629	100.38
351.856	105.38
352.083	100.38
352.311	105.38
352.538	102.38
352.765	104.38
352.992	92.38
353.22	101.38
353.447	115.38
353.674	86.38
353.901	83.38
354.128	98.38
354.355	99.38
354.583	82.38
354.81	95.38
355.037	91.38
355.264	91.38
355.491	88.38
355.718	89.38
355.945	99.38
356.172	93.38
356.399	96.38
356.626	87.38
356.853	85.38
357.08	78.38
357.307	82.38
357.534	94.38
357.761	98.38
357.988	99.38
358.215	115.38
358.441	117.38
358.668	106.38
358.895	103.38
359.122	82.38
359.349	84.38
359.576	89.38
359.802	100.38
360.029	97.38
360.256	98.38
360.483	86.38
360.709	87.38
360.936	79.38
361.163	100.38
361.39	86.38
361.616	86.38
361.843	80.38
362.07	83.38
362.296	87.38
362.523	81.38
362.749	77.38
362.976	83.38
363.203	99.38
363.429	88.38
363.656	85.38
363.882	71.38
364.109	78.38
364.335	103.38
364.562	96.38
364.788	91.38
365.015	93.38
365.241	101.38
365.468	93.38
365.694	94.38
365.92	101.38
366.147	68.38
366.373	84.38
366.599	87.38
366.826	82.38
367.052	74.38
367.278	81.38
367.505	81.38
367.731	74.38
367.957	87.38
368.184	74.38
368.41	88.38
368.636	114.38
368.862	102.38
369.089	94.38
369.315	76.38
369.541	92.38
369.767	79.38
369.993	84.38
370.219	82.38
370.445	92.38
370.672	80.38
370.898	96.38
371.124	85.38
371.35	92.38
371.576	89.38
371.802	85.38
372.028	86.38
372.254	85.38
372.48	81.38
372.706	86.38
372.932	84.38
373.158	83.38
373.384	85.38
373.61	75.38
373.835	93.38
374.061	70.38
374.287	86.38
374.513	75.38
374.739	83.38
374.965	92.38
375.191	86.38
375.416	90.38
375.642	87.38
375.868	82.38
376.094	94.38
376.319	82.38
376.545	78.38
376.771	82.38
376.997	96.38
377.222	83.38
377.448	104.38
377.674	87.38
377.899	77.38
378.125	104.38
378.35	100.38
378.576	107.38
378.802	88.38
379.027	105.38
379.253	79.38
379.478	92.38
379.704	97.38
379.929	94.38
380.155	93.38
380.38	98.38
380.606	89.38
380.831	113.38
381.057	98.38
381.282	94.38
381.507	104.38
381.733	119.38
381.958	119.38
382.184	110.38
382.409	110.38
382.634	115.38
382.86	104.38
383.085	125.38
383.31	106.38
383.535	106.38
383.761	99.38
383.986	118.38
384.211	112.38
384.436	121.38
384.662	120.38
384.887	122.38
385.112	141.38
385.337	126.38
385.562	123.38
385.787	134.38
386.013	143.38
386.238	132.38
386.463	107.38
386.688	134.38
386.913	133.38
387.138	136.38
387.363	133.38
387.588	107.38
387.813	126.38
388.038	119.38
388.263	175.38
388.488	141.38
388.713	98.38
388.938	91.38
389.163	109.38
389.387	98.38
389.612	92.38
389.837	95.38
390.062	88.38
390.287	77.38
390.512	91.38
390.736	83.38
390.961	102.38
391.186	90.38
391.411	104.38
391.636	83.38
391.86	86.38
392.085	100.38
392.31	74.38
392.534	82.38
392.759	79.38
392.984	107.38
393.208	121.38
393.433	177.38
393.658	134.38
393.882	90.38
394.107	94.38
394.331	89.38
394.556	75.38
394.78	95.38
395.005	82.38
395.229	81.38
395.454	95.38
395.678	89.38
395.903	70.38
396.127	88.38
396.352	89.38
396.576	82.38
396.801	118.38
397.025	120.38
397.249	95.38
397.474	78.38
397.698	71.38
397.922	78.38
398.147	76.38
398.371	83.38
398.595	92.38
398.82	91.38
399.044	86.38
399.268	72.38
399.492	73.38
399.717	94.38
399.941	93.38
400.165	91.38
400.389	96.38
400.613	75.38
400.837	74.38
401.062	87.38
401.286	82.38
401.51	83.38
401.734	80.38
401.958	93.38
402.182	96.38
402.406	111.38
402.63	95.38
402.854	97.38
403.078	98.38
403.302	90.38
403.526	76.38
403.75	100.38
403.974	75.38
404.198	70.38
404.422	86.38
404.645	82.38
404.869	92.38
405.093	91.38
405.317	106.38
405.541	104.38
405.765	82.38
405.988	96.38
406.212	130.38
406.436	162.38
406.66	110.38
406.883	89.38
407.107	90.38
407.331	89.38
407.555	82.38
407.778	98.38
408.002	96.38
408.226	86.38
408.449	93.38
408.673	91.38
408.896	90.38
409.12	90.38
409.344	80.38
409.567	75.38
409.791	78.38
410.014	89.38
410.238	79.38
410.461	71.38
410.685	96.38
410.908	84.38
411.132	102.38
411.355	95.38
411.578	97.38
411.802	83.38
412.025	80.38
412.249	94.38
412.472	103.38
412.695	103.38
412.919	87.38
413.142	88.38
413.365	98.38
413.589	87.38
413.812	102.38
414.035	94.38
414.258	81.38
414.482	91.38
414.705	74.38
414.928	87.38
415.151	108.38
415.374	93.38
415.597	78.38
415.821	89.38
416.044	93.38
416.267	82.38
416.49	91.38
416.713	90.38
416.936	88.38
417.159	79.38
417.382	74.38
417.605	86.38
417.828	82.38
418.051	90.38
418.274	103.38
418.497	84.38
418.72	98.38
418.943	94.38
419.166	83.38
419.389	86.38
419.611	78.38
419.834	103.38
420.057	98.38
420.28	80.38
420.503	93.38
420.726	88.38
420.948	77.38
421.171	98.38
421.394	85.38
421.617	88.38
421.839	77.38
422.062	74.38
422.285	74.38
422.507	121.38
422.73	114.38
422.953	108.38
423.175	80.38
423.398	83.38
423.621	92.38
423.843	90.38
424.066	79.38
424.288	83.38
424.511	80.38
424.733	91.38
424.956	90.38
425.178	72.38
425.401	84.38
425.623	85.38
425.846	84.38
426.068	82.38
426.291	82.38
426.513	75.38
426.735	81.38
426.958	90.38
427.18	98.38
427.402	115.38
427.625	126.38
427.847	123.38
428.069	114.38
428.292	107.38
428.514	76.38
428.736	85.38
428.958	80.38
429.181	86.38
429.403	67.38
429.625	83.38
429.847	88.38
430.069	107.38
430.292	95.38
430.514	72.38
430.736	88.38
430.958	81.38
431.18	88.38
431.402	91.38
431.624	58.38
431.846	82.38
432.068	92.38
432.29	79.38
432.512	89.38
432.734	74.38
432.956	83.38
433.178	77.38
433.4	70.38
433.622	82.38
433.844	96.38
434.066	82.38
434.287	84.38
434.509	94.38
434.731	78.38
434.953	95.38
435.175	97.38
435.397	88.38
435.618	82.38
435.84	105.38
436.062	114.38
436.284	110.38
436.505	102.38
436.727	112.38
436.949	96.38
437.17	88.38
437.392	92.38
437.614	96.38
437.835	97.38
438.057	116.38
438.278	94.38
438.5	95.38
438.721	99.38
438.943	84.38
439.165	88.38
439.386	75.38
439.608	81.38
439.829	93.38
440.05	100.38
440.272	105.38
440.493	108.38
440.715	104.38
440.936	97.38
441.158	67.38
441.379	70.38
441.6	92.38
441.822	80.38
442.043	79.38
442.264	93.38
442.486	90.38
442.707	84.38
442.928	83.38
443.149	107.38
443.371	104.38
443.592	86.38
443.813	99.38
444.034	98.38
444.255	99.38
444.476	86.38
444.698	72.38
444.919	82.38
445.14	118.38
445.361	124.38
445.582	110.38
445.803	123.38
446.024	124.38
446.245	111.38
446.466	95.38
446.687	88.38
446.908	72.38
447.129	86.38
447.35	80.38
447.571	85.38
447.792	82.38
448.013	99.38
448.234	87.38
448.455	93.38
448.675	111.38
448.896	102.38
449.117	90.38
449.338	96.38
449.559	100.38
449.779	123.38
450	86.38
450.221	86.38
450.442	87.38
450.662	84.38
450.883	95.38
451.104	94.38
451.324	79.38
451.545	86.38
451.766	69.38
451.986	81.38
452.207	82.38
452.428	84.38
452.648	75.38
452.869	96.38
453.089	83.38
453.31	89.38
453.53	85.38
453.751	82.38
453.971	95.38
454.192	87.38
454.412	86.38
454.633	89.38
454.853	75.38
455.073	80.38
455.294	90.38
455.514	84.38
455.734	82.38
455.955	71.38
456.175	64.38
456.395	87.38
456.616	80.38
456.836	74.38
457.056	65.38
457.276	78.38
457.497	86.38
457.717	82.38
457.937	87.38
458.157	91.38
458.377	96.38
458.598	100.38
458.818	108.38
459.038	120.38
459.258	83.38
459.478	98.38
459.698	76.38
459.918	68.38
460.138	83.38
460.358	72.38
460.578	89.38
460.798	89.38
461.018	88.38
461.238	82.38
461.458	80.38
461.678	71.38
461.898	68.38
462.118	68.38
462.338	80.38
462.558	81.38
462.777	89.38
462.997	87.38
463.217	80.38
463.437	74.38
463.657	79.38
463.876	92.38
464.096	84.38
464.316	86.38
464.536	92.38
464.755	100.38
464.975	95.38
465.195	112.38
465.414	132.38
465.634	84.38
465.854	93.38
466.073	67.38
466.293	84.38
466.512	75.38
466.732	75.38
466.951	83.38
467.171	83.38
467.391	96.38
467.61	92.38
467.829	84.38
468.049	150.38
468.268	186.38
468.488	106.38
468.707	66.38
468.927	95.38
469.146	81.38
469.365	80.38
469.585	86.38
469.804	78.38
470.023	75.38
470.243	83.38
470.462	94.38
470.681	94.38
470.901	85.38
471.12	83.38
471.339	84.38
471.558	89.38
471.777	77.38
471.997	97.38
472.216	232.38
472.435	388.38
472.654	132.38
472.873	93.38
473.092	82.38
473.311	63.38
473.53	84.38
473.749	70.38
473.968	84.38
474.187	99.38
474.406	91.38
474.625	80.38
474.844	92.38
475.063	75.38
475.282	77.38
475.501	71.38
475.72	80.38
475.939	76.38
476.158	81.38
476.377	86.38
476.596	62.38
476.814	91.38
477.033	88.38
477.252	81.38
477.471	83.38
477.69	79.38
477.908	72.38
478.127	82.38
478.346	83.38
478.564	84.38
478.783	78.38
479.002	95.38
479.22	73.38
479.439	96.38
479.658	92.38
479.876	107.38
480.095	81.38
480.313	87.38
480.532	105.38
480.751	109.38
480.969	228.38
481.188	654.38
481.406	377.38
481.624	127.38
481.843	90.38
482.061	88.38
482.28	95.38
482.498	76.38
482.717	95.38
482.935	75.38
483.153	100.38
483.372	82.38
483.59	87.38
483.808	96.38
484.027	78.38
484.245	78.38
484.463	86.38
484.681	85.38
484.9	89.38
485.118	87.38
485.336	95.38
485.554	106.38
485.772	94.38
485.99	99.38
486.209	92.38
486.427	90.38
486.645	98.38
486.863	109.38
487.081	104.38
487.299	108.38
487.517	93.38
487.735	83.38
487.953	78.38
488.171	89.38
488.389	87.38
488.607	91.38
488.825	80.38
489.043	74.38
489.261	106.38
489.479	94.38
489.696	77.38
489.914	93.38
490.132	75.38
490.35	88.38
490.568	73.38
490.786	80.38
491.003	88.38
491.221	88.38
491.439	80.38
491.657	89.38
491.874	85.38
492.092	82.38
492.31	86.38
492.527	64.38
492.745	84.38
492.963	95.38
493.18	81.38
493.398	78.38
493.615	85.38
493.833	90.38
494.05	81.38
494.268	76.38
494.485	79.38
494.703	94.38
494.92	86.38
495.138	83.38
495.355	79.38
495.573	94.38
495.79	84.38
496.008	96.38
496.225	96.38
496.442	94.38
496.66	99.38
496.877	82.38
497.094	79.38
497.312	80.38
497.529	90.38
497.746	78.38
497.963	69.38
498.181	91.38
498.398	110.38
498.615	92.38
498.832	92.38
499.049	83.38
499.267	98.38
499.484	82.38
499.701	76.38
499.918	89.38
500.135	85.38
500.352	95.38
500.569	93.38
500.786	90.38
501.003	82.38
501.22	78.38
501.437	73.38
501.654	82.38
501.871	92.38
502.088	85.38
502.305	111.38
502.522	92.38
502.739	91.38
502.956	95.38
503.172	81.38
503.389	82.38
503.606	91.38
503.823	81.38
504.04	76.38
504.256	97.38
504.473	86.38
504.69	86.38
504.907	92.38
505.123	79.38
505.34	87.38
505.557	78.38
505.773	88.38
505.99	84.38
506.207	89.38
506.423	87.38
506.64	84.38
506.856	82.38
507.073	83.38
507.289	90.38
507.506	85.38
507.722	104.38
507.939	99.38
508.155	84.38
508.372	96.38
508.588	87.38
508.805	92.38
509.021	91.38
509.238	93.38
509.454	90.38
509.67	81.38
509.887	91.38
510.103	101.38
510.319	158.38
510.536	526.38
510.752	1650.38
510.968	468.38
511.184	123.38
511.401	107.38
511.617	87.38
511.833	90.38
512.049	92.38
512.265	84.38
512.481	84.38
512.698	99.38
512.914	76.38
513.13	75.38
513.346	78.38
513.562	96.38
513.778	89.38
513.994	104.38
514.21	91.38
514.426	94.38
514.642	100.38
514.858	104.38
515.074	129.38
515.29	306.38
515.506	915.38
515.721	351.38
515.937	115.38
516.153	92.38
516.369	86.38
516.585	87.38
516.801	90.38
