Data from Circ_1991_H10_HRD10591_00050.txt Node
Date: Wed Jan 03 11:51:51 EST 2024
User: Yrep
Spectrometer: HR+D1059
Trigger mode: 1
Integration Time (sec): 1.000000E-1
Scans to average: 1
Electric dark correction enabled: true
Nonlinearity correction enabled: false
Boxcar width: 0
XAxis mode: Wavelengths
Number of Pixels in Spectrum: 2048
>>>>>Begin Spectral Data<<<<<
223.165	-29.12
223.4	-29.12
223.635	-29.12
223.869	-6.12
224.104	-14.12
224.338	-21.12
224.573	-22.12
224.808	-1.12
225.042	3.88
225.277	-5.12
225.511	-3.12
225.746	1.88
225.98	3.88
226.215	8.88
226.449	12.88
226.683	11.88
226.918	32.88
227.152	25.88
227.387	42.88
227.621	38.88
227.856	36.88
228.09	51.88
228.324	35.88
228.559	35.88
228.793	42.88
229.027	42.88
229.262	80.88
229.496	73.88
229.73	71.88
229.964	68.88
230.199	60.88
230.433	76.88
230.667	71.88
230.901	63.88
231.136	73.88
231.37	71.88
231.604	83.88
231.838	77.88
232.072	87.88
232.306	73.88
232.541	79.88
232.775	74.88
233.009	71.88
233.243	79.88
233.477	71.88
233.711	75.88
233.945	76.88
234.179	85.88
234.413	77.88
234.647	75.88
234.881	80.88
235.115	78.88
235.349	85.88
235.583	75.88
235.817	76.88
236.051	77.88
236.285	63.88
236.519	85.88
236.753	60.88
236.987	90.88
237.221	72.88
237.455	88.88
237.689	78.88
237.922	78.88
238.156	83.88
238.39	82.88
238.624	84.88
238.858	73.88
239.091	74.88
239.325	75.88
239.559	77.88
239.793	64.88
240.027	91.88
240.26	80.88
240.494	81.88
240.728	67.88
240.961	76.88
241.195	81.88
241.429	71.88
241.662	74.88
241.896	77.88
242.13	64.88
242.363	79.88
242.597	73.88
242.83	73.88
243.064	76.88
243.298	82.88
243.531	76.88
243.765	75.88
243.998	58.88
244.232	68.88
244.465	87.88
244.699	75.88
244.932	81.88
245.166	83.88
245.399	66.88
245.633	73.88
245.866	85.88
246.099	79.88
246.333	81.88
246.566	89.88
246.8	79.88
247.033	73.88
247.266	66.88
247.5	71.88
247.733	73.88
247.966	73.88
248.2	91.88
248.433	65.88
248.666	52.88
248.899	84.88
249.133	80.88
249.366	94.88
249.599	87.88
249.832	83.88
250.066	83.88
250.299	84.88
250.532	79.88
250.765	66.88
250.998	75.88
251.231	83.88
251.465	77.88
251.698	74.88
251.931	77.88
252.164	90.88
252.397	84.88
252.63	77.88
252.863	80.88
253.096	82.88
253.329	74.88
253.562	96.88
253.795	76.88
254.028	82.88
254.261	96.88
254.494	67.88
254.727	93.88
254.96	82.88
255.193	82.88
255.426	88.88
255.659	89.88
255.892	95.88
256.124	74.88
256.357	91.88
256.59	82.88
256.823	94.88
257.056	90.88
257.289	99.88
257.521	79.88
257.754	69.88
257.987	81.88
258.22	83.88
258.452	77.88
258.685	81.88
258.918	96.88
259.151	78.88
259.383	80.88
259.616	76.88
259.849	71.88
260.081	81.88
260.314	79.88
260.547	93.88
260.779	91.88
261.012	83.88
261.244	81.88
261.477	83.88
261.71	92.88
261.942	95.88
262.175	101.88
262.407	85.88
262.64	87.88
262.872	87.88
263.105	87.88
263.337	93.88
263.57	88.88
263.802	85.88
264.035	89.88
264.267	80.88
264.499	73.88
264.732	79.88
264.964	73.88
265.197	67.88
265.429	91.88
265.661	79.88
265.894	76.88
266.126	101.88
266.358	81.88
266.591	89.88
266.823	96.88
267.055	76.88
267.287	76.88
267.52	92.88
267.752	77.88
267.984	80.88
268.216	80.88
268.448	72.88
268.681	79.88
268.913	93.88
269.145	82.88
269.377	83.88
269.609	74.88
269.841	72.88
270.073	88.88
270.306	74.88
270.538	87.88
270.77	81.88
271.002	88.88
271.234	81.88
271.466	82.88
271.698	92.88
271.93	78.88
272.162	79.88
272.394	78.88
272.626	76.88
272.858	73.88
273.09	90.88
273.322	77.88
273.553	88.88
273.785	68.88
274.017	89.88
274.249	89.88
274.481	88.88
274.713	82.88
274.945	87.88
275.176	77.88
275.408	89.88
275.64	93.88
275.872	101.88
276.104	86.88
276.335	105.88
276.567	115.88
276.799	112.88
277.031	115.88
277.262	126.88
277.494	95.88
277.726	79.88
277.957	89.88
278.189	92.88
278.421	92.88
278.652	91.88
278.884	80.88
279.115	93.88
279.347	88.88
279.579	86.88
279.81	94.88
280.042	104.88
280.273	124.88
280.505	101.88
280.736	90.88
280.968	91.88
281.199	92.88
281.431	84.88
281.662	80.88
281.894	78.88
282.125	79.88
282.356	100.88
282.588	130.88
282.819	109.88
283.051	80.88
283.282	93.88
283.513	85.88
283.745	92.88
283.976	87.88
284.207	73.88
284.439	75.88
284.67	92.88
284.901	70.88
285.132	68.88
285.364	87.88
285.595	91.88
285.826	89.88
286.057	91.88
286.288	87.88
286.52	84.88
286.751	77.88
286.982	84.88
287.213	87.88
287.444	75.88
287.675	84.88
287.906	68.88
288.138	95.88
288.369	81.88
288.6	94.88
288.831	83.88
289.062	95.88
289.293	94.88
289.524	80.88
289.755	70.88
289.986	91.88
290.217	76.88
290.448	81.88
290.679	83.88
290.91	88.88
291.141	92.88
291.371	85.88
291.602	84.88
291.833	88.88
292.064	92.88
292.295	88.88
292.526	90.88
292.757	101.88
292.987	99.88
293.218	92.88
293.449	95.88
293.68	89.88
293.91	67.88
294.141	81.88
294.372	91.88
294.603	93.88
294.833	90.88
295.064	83.88
295.295	88.88
295.525	95.88
295.756	97.88
295.987	114.88
296.217	132.88
296.448	121.88
296.679	100.88
296.909	85.88
297.14	91.88
297.37	101.88
297.601	78.88
297.831	86.88
298.062	86.88
298.292	85.88
298.523	85.88
298.753	80.88
298.984	88.88
299.214	83.88
299.445	78.88
299.675	82.88
299.905	81.88
300.136	91.88
300.366	87.88
300.597	82.88
300.827	107.88
301.057	101.88
301.288	100.88
301.518	90.88
301.748	76.88
301.979	108.88
302.209	79.88
302.439	81.88
302.669	90.88
302.9	95.88
303.13	92.88
303.36	89.88
303.59	98.88
303.82	93.88
304.051	87.88
304.281	91.88
304.511	88.88
304.741	75.88
304.971	87.88
305.201	73.88
305.431	84.88
305.661	81.88
305.891	89.88
306.121	102.88
306.352	91.88
306.582	88.88
306.812	105.88
307.042	102.88
307.272	125.88
307.502	117.88
307.731	121.88
307.961	105.88
308.191	90.88
308.421	93.88
308.651	98.88
308.881	94.88
309.111	80.88
309.341	101.88
309.571	99.88
309.8	94.88
310.03	89.88
310.26	88.88
310.49	91.88
310.72	106.88
310.949	101.88
311.179	99.88
311.409	101.88
311.639	90.88
311.868	96.88
312.098	96.88
312.328	94.88
312.557	92.88
312.787	104.88
313.017	99.88
313.246	95.88
313.476	83.88
313.706	89.88
313.935	106.88
314.165	98.88
314.394	93.88
314.624	90.88
314.853	99.88
315.083	95.88
315.312	88.88
315.542	94.88
315.771	78.88
316.001	88.88
316.23	105.88
316.46	83.88
316.689	69.88
316.919	95.88
317.148	97.88
317.377	83.88
317.607	92.88
317.836	98.88
318.065	93.88
318.295	89.88
318.524	78.88
318.753	81.88
318.983	104.88
319.212	112.88
319.441	114.88
319.67	116.88
319.9	91.88
320.129	84.88
320.358	92.88
320.587	96.88
320.816	112.88
321.046	94.88
321.275	104.88
321.504	83.88
321.733	106.88
321.962	108.88
322.191	97.88
322.42	104.88
322.649	120.88
322.878	113.88
323.108	95.88
323.337	145.88
323.566	140.88
323.795	165.88
324.024	199.88
324.253	396.88
324.482	848.88
324.71	1837.88
324.939	2439.88
325.168	862.88
325.397	254.88
325.626	147.88
325.855	118.88
326.084	122.88
326.313	126.88
326.542	159.88
326.77	222.88
326.999	469.88
327.228	984.88
327.457	1855.88
327.686	1465.88
327.914	425.88
328.143	277.88
328.372	270.88
328.6	169.88
328.829	119.88
329.058	133.88
329.287	136.88
329.515	127.88
329.744	137.88
329.972	201.88
330.201	365.88
330.43	467.88
330.658	260.88
330.887	168.88
331.115	122.88
331.344	96.88
331.572	106.88
331.801	117.88
332.03	95.88
332.258	95.88
332.486	80.88
332.715	97.88
332.943	96.88
333.172	100.88
333.4	116.88
333.629	102.88
333.857	132.88
334.085	189.88
334.314	349.88
334.542	601.88
334.771	570.88
334.999	201.88
335.227	105.88
335.455	95.88
335.684	97.88
335.912	92.88
336.14	93.88
336.369	91.88
336.597	104.88
336.825	98.88
337.053	95.88
337.281	84.88
337.51	84.88
337.738	96.88
337.966	88.88
338.194	87.88
338.422	97.88
338.65	93.88
338.878	78.88
339.106	88.88
339.334	110.88
339.562	80.88
339.79	93.88
340.018	78.88
340.246	95.88
340.474	106.88
340.702	100.88
340.93	88.88
341.158	90.88
341.386	86.88
341.614	91.88
341.842	100.88
342.07	90.88
342.298	85.88
342.526	91.88
342.754	89.88
342.981	90.88
343.209	89.88
343.437	88.88
343.665	85.88
343.893	83.88
344.12	100.88
344.348	83.88
344.576	81.88
344.804	93.88
345.031	75.88
345.259	96.88
345.487	89.88
345.714	89.88
345.942	89.88
346.17	100.88
346.397	83.88
346.625	75.88
346.853	79.88
347.08	86.88
347.308	97.88
347.535	98.88
347.763	94.88
347.99	100.88
348.218	100.88
348.445	88.88
348.673	86.88
348.9	93.88
349.128	105.88
349.355	83.88
349.583	91.88
349.81	89.88
350.037	87.88
350.265	100.88
350.492	98.88
350.72	83.88
350.947	88.88
351.174	88.88
351.402	93.88
351.629	91.88
351.856	93.88
352.083	76.88
352.311	97.88
352.538	98.88
352.765	106.88
352.992	122.88
353.22	97.88
353.447	99.88
353.674	98.88
353.901	88.88
354.128	106.88
354.355	87.88
354.583	99.88
354.81	90.88
355.037	96.88
355.264	89.88
355.491	96.88
355.718	94.88
355.945	95.88
356.172	88.88
356.399	98.88
356.626	96.88
356.853	97.88
357.08	101.88
357.307	84.88
357.534	92.88
357.761	88.88
357.988	92.88
358.215	89.88
358.441	99.88
358.668	82.88
358.895	108.88
359.122	89.88
359.349	88.88
359.576	78.88
359.802	92.88
360.029	83.88
360.256	93.88
360.483	89.88
360.709	95.88
360.936	87.88
361.163	88.88
361.39	91.88
361.616	94.88
361.843	89.88
362.07	85.88
362.296	96.88
362.523	91.88
362.749	94.88
362.976	80.88
363.203	98.88
363.429	75.88
363.656	91.88
363.882	86.88
364.109	94.88
364.335	88.88
364.562	86.88
364.788	91.88
365.015	94.88
365.241	99.88
365.468	89.88
365.694	101.88
365.92	85.88
366.147	81.88
366.373	75.88
366.599	87.88
366.826	83.88
367.052	76.88
367.278	77.88
367.505	88.88
367.731	97.88
367.957	91.88
368.184	88.88
368.41	87.88
368.636	93.88
368.862	114.88
369.089	113.88
369.315	98.88
369.541	99.88
369.767	91.88
369.993	88.88
370.219	85.88
370.445	83.88
370.672	68.88
370.898	87.88
371.124	94.88
371.35	99.88
371.576	95.88
371.802	72.88
372.028	87.88
372.254	88.88
372.48	73.88
372.706	84.88
372.932	88.88
373.158	83.88
373.384	89.88
373.61	91.88
373.835	89.88
374.061	83.88
374.287	82.88
374.513	96.88
374.739	83.88
374.965	100.88
375.191	95.88
375.416	103.88
375.642	73.88
375.868	82.88
376.094	82.88
376.319	90.88
376.545	90.88
376.771	88.88
376.997	79.88
377.222	85.88
377.448	81.88
377.674	83.88
377.899	81.88
378.125	79.88
378.35	91.88
378.576	82.88
378.802	81.88
379.027	84.88
379.253	108.88
379.478	93.88
379.704	92.88
379.929	85.88
380.155	77.88
380.38	88.88
380.606	81.88
380.831	91.88
381.057	96.88
381.282	97.88
381.507	84.88
381.733	89.88
381.958	101.88
382.184	96.88
382.409	98.88
382.634	80.88
382.86	83.88
383.085	108.88
383.31	105.88
383.535	101.88
383.761	94.88
383.986	100.88
384.211	83.88
384.436	81.88
384.662	93.88
384.887	96.88
385.112	98.88
385.337	92.88
385.562	102.88
385.787	104.88
386.013	106.88
386.238	104.88
386.463	99.88
386.688	108.88
386.913	98.88
387.138	103.88
387.363	95.88
387.588	93.88
387.813	92.88
388.038	108.88
388.263	101.88
388.488	109.88
388.713	95.88
388.938	104.88
389.163	74.88
389.387	98.88
389.612	97.88
389.837	79.88
390.062	87.88
390.287	88.88
390.512	98.88
390.736	95.88
390.961	94.88
391.186	80.88
391.411	77.88
391.636	94.88
391.86	101.88
392.085	84.88
392.31	81.88
392.534	88.88
392.759	81.88
392.984	88.88
393.208	106.88
393.433	130.88
393.658	117.88
393.882	73.88
394.107	89.88
394.331	79.88
394.556	79.88
394.78	87.88
395.005	86.88
395.229	88.88
395.454	68.88
395.678	76.88
395.903	76.88
396.127	89.88
396.352	91.88
396.576	94.88
396.801	95.88
397.025	119.88
397.249	79.88
397.474	95.88
397.698	83.88
397.922	78.88
398.147	85.88
398.371	79.88
398.595	79.88
398.82	90.88
399.044	73.88
399.268	75.88
399.492	86.88
399.717	88.88
399.941	83.88
400.165	87.88
400.389	71.88
400.613	73.88
400.837	73.88
401.062	73.88
401.286	87.88
401.51	97.88
401.734	104.88
401.958	109.88
402.182	135.88
402.406	166.88
402.63	100.88
402.854	87.88
403.078	85.88
403.302	86.88
403.526	84.88
403.75	76.88
403.974	79.88
404.198	84.88
404.422	92.88
404.645	76.88
404.869	91.88
405.093	100.88
405.317	102.88
405.541	102.88
405.765	106.88
405.988	91.88
406.212	154.88
406.436	226.88
406.66	134.88
406.883	104.88
407.107	84.88
407.331	95.88
407.555	100.88
407.778	89.88
408.002	92.88
408.226	83.88
408.449	88.88
408.673	86.88
408.896	96.88
409.12	89.88
409.344	89.88
409.567	82.88
409.791	81.88
410.014	75.88
410.238	96.88
410.461	92.88
410.685	94.88
410.908	91.88
411.132	103.88
411.355	95.88
411.578	80.88
411.802	83.88
412.025	89.88
412.249	91.88
412.472	79.88
412.695	112.88
412.919	102.88
413.142	90.88
413.365	87.88
413.589	68.88
413.812	62.88
414.035	94.88
414.258	80.88
414.482	96.88
414.705	91.88
414.928	90.88
415.151	93.88
415.374	84.88
415.597	76.88
415.821	94.88
416.044	91.88
416.267	96.88
416.49	81.88
416.713	78.88
416.936	81.88
417.159	74.88
417.382	88.88
417.605	87.88
417.828	89.88
418.051	91.88
418.274	94.88
418.497	85.88
418.72	88.88
418.943	85.88
419.166	77.88
419.389	88.88
419.611	83.88
419.834	80.88
420.057	84.88
420.28	85.88
420.503	83.88
420.726	98.88
420.948	83.88
421.171	93.88
421.394	88.88
421.617	77.88
421.839	65.88
422.062	76.88
422.285	90.88
422.507	101.88
422.73	105.88
422.953	79.88
423.175	95.88
423.398	95.88
423.621	68.88
423.843	83.88
424.066	84.88
424.288	89.88
424.511	90.88
424.733	77.88
424.956	96.88
425.178	98.88
425.401	108.88
425.623	106.88
425.846	92.88
426.068	90.88
426.291	92.88
426.513	83.88
426.735	79.88
426.958	94.88
427.18	100.88
427.402	149.88
427.625	167.88
427.847	158.88
428.069	150.88
428.292	92.88
428.514	78.88
428.736	84.88
428.958	90.88
429.181	68.88
429.403	83.88
429.625	84.88
429.847	83.88
430.069	92.88
430.292	89.88
430.514	79.88
430.736	89.88
430.958	98.88
431.18	84.88
431.402	88.88
431.624	76.88
431.846	95.88
432.068	89.88
432.29	92.88
432.512	78.88
432.734	84.88
432.956	85.88
433.178	77.88
433.4	100.88
433.622	103.88
433.844	91.88
434.066	88.88
434.287	90.88
434.509	92.88
434.731	75.88
434.953	91.88
435.175	93.88
435.397	94.88
435.618	72.88
435.84	87.88
436.062	131.88
436.284	94.88
436.505	92.88
436.727	80.88
436.949	76.88
437.17	76.88
437.392	76.88
437.614	93.88
437.835	97.88
438.057	119.88
438.278	114.88
438.5	108.88
438.721	130.88
438.943	85.88
439.165	76.88
439.386	88.88
439.608	106.88
439.829	95.88
440.05	117.88
440.272	140.88
440.493	94.88
440.715	87.88
440.936	77.88
441.158	83.88
441.379	87.88
441.6	90.88
441.822	88.88
442.043	85.88
442.264	83.88
442.486	97.88
442.707	91.88
442.928	102.88
443.149	122.88
443.371	121.88
443.592	118.88
443.813	107.88
444.034	105.88
444.255	90.88
444.476	82.88
444.698	75.88
444.919	82.88
445.14	125.88
445.361	118.88
445.582	116.88
445.803	146.88
446.024	115.88
446.245	126.88
446.466	107.88
446.687	91.88
446.908	82.88
447.129	91.88
447.35	95.88
447.571	93.88
447.792	91.88
448.013	99.88
448.234	97.88
448.455	95.88
448.675	101.88
448.896	116.88
449.117	95.88
449.338	107.88
449.559	111.88
449.779	131.88
450	85.88
450.221	85.88
450.442	75.88
450.662	91.88
450.883	113.88
451.104	121.88
451.324	85.88
451.545	84.88
451.766	91.88
451.986	67.88
452.207	89.88
452.428	95.88
452.648	105.88
452.869	108.88
453.089	109.88
453.31	107.88
453.53	95.88
453.751	95.88
453.971	87.88
454.192	107.88
454.412	92.88
454.633	78.88
454.853	87.88
455.073	84.88
455.294	78.88
455.514	92.88
455.734	88.88
455.955	80.88
456.175	81.88
456.395	81.88
456.616	89.88
456.836	89.88
457.056	79.88
457.276	102.88
457.497	65.88
457.717	98.88
457.937	87.88
458.157	92.88
458.377	63.88
458.598	90.88
458.818	160.88
459.038	157.88
459.258	112.88
459.478	92.88
459.698	88.88
459.918	92.88
460.138	97.88
460.358	91.88
460.578	82.88
460.798	75.88
461.018	78.88
461.238	82.88
461.458	91.88
461.678	79.88
461.898	83.88
462.118	86.88
462.338	91.88
462.558	77.88
462.777	76.88
462.997	87.88
463.217	94.88
463.437	84.88
463.657	90.88
463.876	79.88
464.096	95.88
464.316	83.88
464.536	93.88
464.755	96.88
464.975	100.88
465.195	159.88
465.414	166.88
465.634	79.88
465.854	81.88
466.073	91.88
466.293	87.88
466.512	75.88
466.732	86.88
466.951	95.88
467.171	99.88
467.391	85.88
467.61	111.88
467.829	129.88
468.049	237.88
468.268	323.88
468.488	140.88
468.707	81.88
468.927	87.88
469.146	89.88
469.365	92.88
469.585	86.88
469.804	92.88
470.023	107.88
470.243	90.88
470.462	101.88
470.681	116.88
470.901	80.88
471.12	88.88
471.339	87.88
471.558	87.88
471.777	115.88
471.997	171.88
472.216	437.88
472.435	896.88
472.654	244.88
472.873	117.88
473.092	84.88
473.311	85.88
473.53	88.88
473.749	77.88
473.968	86.88
474.187	103.88
474.406	83.88
474.625	80.88
474.844	93.88
475.063	92.88
475.282	94.88
475.501	71.88
475.72	90.88
475.939	86.88
476.158	94.88
476.377	94.88
476.596	83.88
476.814	87.88
477.033	99.88
477.252	84.88
477.471	79.88
477.69	82.88
477.908	97.88
478.127	93.88
478.346	85.88
478.564	94.88
478.783	102.88
479.002	84.88
479.22	110.88
479.439	107.88
479.658	101.88
479.876	100.88
480.095	109.88
480.313	101.88
480.532	111.88
480.751	141.88
480.969	431.88
481.188	1594.88
481.406	882.88
481.624	191.88
481.843	98.88
482.061	84.88
482.28	83.88
482.498	91.88
482.717	98.88
482.935	95.88
483.153	81.88
483.372	85.88
483.59	95.88
483.808	94.88
484.027	92.88
484.245	86.88
484.463	85.88
484.681	83.88
484.9	95.88
485.118	83.88
485.336	92.88
485.554	101.88
485.772	97.88
485.99	95.88
486.209	105.88
486.427	97.88
486.645	98.88
486.863	123.88
487.081	90.88
487.299	97.88
487.517	97.88
487.735	90.88
487.953	91.88
488.171	82.88
488.389	91.88
488.607	85.88
488.825	91.88
489.043	87.88
489.261	90.88
489.479	83.88
489.696	79.88
489.914	93.88
490.132	91.88
490.35	96.88
490.568	85.88
490.786	90.88
491.003	73.88
491.221	90.88
491.439	81.88
491.657	96.88
491.874	98.88
492.092	84.88
492.31	88.88
492.527	83.88
492.745	77.88
492.963	92.88
493.18	80.88
493.398	90.88
493.615	120.88
493.833	100.88
494.05	76.88
494.268	76.88
494.485	85.88
494.703	78.88
494.92	83.88
495.138	67.88
495.355	79.88
495.573	97.88
495.79	94.88
496.008	91.88
496.225	81.88
496.442	95.88
496.66	95.88
496.877	77.88
497.094	92.88
497.312	95.88
497.529	92.88
497.746	92.88
497.963	87.88
498.181	82.88
498.398	89.88
498.615	101.88
498.832	101.88
499.049	100.88
499.267	87.88
499.484	80.88
499.701	101.88
499.918	96.88
500.135	89.88
500.352	73.88
500.569	75.88
500.786	91.88
501.003	72.88
501.22	97.88
501.437	72.88
501.654	89.88
501.871	99.88
502.088	93.88
502.305	83.88
502.522	87.88
502.739	87.88
502.956	74.88
503.172	77.88
503.389	95.88
503.606	110.88
503.823	89.88
504.04	80.88
504.256	75.88
504.473	78.88
504.69	88.88
504.907	90.88
505.123	88.88
505.34	93.88
505.557	93.88
505.773	103.88
505.99	87.88
506.207	85.88
506.423	79.88
506.64	79.88
506.856	85.88
507.073	87.88
507.289	86.88
507.506	88.88
507.722	82.88
507.939	107.88
508.155	84.88
508.372	96.88
508.588	98.88
508.805	103.88
509.021	80.88
509.238	101.88
509.454	100.88
509.67	95.88
509.887	100.88
510.103	121.88
510.319	204.88
510.536	740.88
510.752	2443.88
510.968	663.88
511.184	146.88
511.401	95.88
511.617	85.88
511.833	103.88
512.049	96.88
512.265	96.88
512.481	91.88
512.698	93.88
512.914	99.88
513.13	110.88
513.346	105.88
513.562	95.88
513.778	84.88
513.994	91.88
514.21	103.88
514.426	116.88
514.642	132.88
514.858	137.88
515.074	162.88
515.29	468.88
515.506	1527.88
515.721	559.88
515.937	150.88
516.153	121.88
516.369	95.88
