Data from Circ_1991_H10_HRD10591_00057.txt Node
Date: Wed Jan 03 11:51:52 EST 2024
User: Yrep
Spectrometer: HR+D1059
Trigger mode: 1
Integration Time (sec): 1.000000E-1
Scans to average: 1
Electric dark correction enabled: true
Nonlinearity correction enabled: false
Boxcar width: 0
XAxis mode: Wavelengths
Number of Pixels in Spectrum: 2048
>>>>>Begin Spectral Data<<<<<
223.165	-9.38
223.4	-9.38
223.635	-9.38
223.869	-22.38
224.104	-17.38
224.338	-15.38
224.573	-20.38
224.808	-8.38
225.042	-8.38
225.277	-13.38
225.511	-12.38
225.746	8.62
225.98	1.62
226.215	2.62
226.449	16.62
226.683	23.62
226.918	38.62
227.152	35.62
227.387	46.62
227.621	27.62
227.856	47.62
228.09	43.62
228.324	53.62
228.559	58.62
228.793	68.62
229.027	49.62
229.262	78.62
229.496	75.62
229.73	70.62
229.964	89.62
230.199	69.62
230.433	75.62
230.667	83.62
230.901	80.62
231.136	67.62
231.37	73.62
231.604	80.62
231.838	79.62
232.072	87.62
232.306	96.62
232.541	76.62
232.775	77.62
233.009	91.62
233.243	82.62
233.477	89.62
233.711	95.62
233.945	79.62
234.179	80.62
234.413	66.62
234.647	80.62
234.881	93.62
235.115	77.62
235.349	71.62
235.583	80.62
235.817	83.62
236.051	80.62
236.285	91.62
236.519	77.62
236.753	78.62
236.987	79.62
237.221	91.62
237.455	89.62
237.689	93.62
237.922	74.62
238.156	72.62
238.39	83.62
238.624	85.62
238.858	81.62
239.091	77.62
239.325	77.62
239.559	79.62
239.793	65.62
240.027	85.62
240.26	58.62
240.494	77.62
240.728	89.62
240.961	66.62
241.195	85.62
241.429	91.62
241.662	76.62
241.896	82.62
242.13	79.62
242.363	81.62
242.597	75.62
242.83	73.62
243.064	77.62
243.298	80.62
243.531	76.62
243.765	82.62
243.998	64.62
244.232	85.62
244.465	76.62
244.699	89.62
244.932	80.62
245.166	105.62
245.399	76.62
245.633	82.62
245.866	81.62
246.099	88.62
246.333	86.62
246.566	79.62
246.8	78.62
247.033	87.62
247.266	71.62
247.5	84.62
247.733	77.62
247.966	92.62
248.2	80.62
248.433	95.62
248.666	80.62
248.899	76.62
249.133	87.62
249.366	95.62
249.599	101.62
249.832	88.62
250.066	85.62
250.299	83.62
250.532	82.62
250.765	72.62
250.998	75.62
251.231	75.62
251.465	72.62
251.698	77.62
251.931	86.62
252.164	85.62
252.397	69.62
252.63	85.62
252.863	75.62
253.096	78.62
253.329	77.62
253.562	93.62
253.795	70.62
254.028	88.62
254.261	91.62
254.494	83.62
254.727	80.62
254.96	96.62
255.193	86.62
255.426	73.62
255.659	76.62
255.892	87.62
256.124	81.62
256.357	94.62
256.59	75.62
256.823	84.62
257.056	80.62
257.289	85.62
257.521	95.62
257.754	78.62
257.987	78.62
258.22	92.62
258.452	68.62
258.685	84.62
258.918	80.62
259.151	67.62
259.383	91.62
259.616	91.62
259.849	98.62
260.081	73.62
260.314	81.62
260.547	89.62
260.779	85.62
261.012	89.62
261.244	77.62
261.477	88.62
261.71	93.62
261.942	119.62
262.175	120.62
262.407	89.62
262.64	71.62
262.872	87.62
263.105	94.62
263.337	83.62
263.57	84.62
263.802	81.62
264.035	81.62
264.267	69.62
264.499	87.62
264.732	86.62
264.964	71.62
265.197	95.62
265.429	84.62
265.661	93.62
265.894	94.62
266.126	96.62
266.358	86.62
266.591	76.62
266.823	90.62
267.055	78.62
267.287	100.62
267.52	80.62
267.752	74.62
267.984	85.62
268.216	86.62
268.448	85.62
268.681	86.62
268.913	82.62
269.145	98.62
269.377	92.62
269.609	86.62
269.841	83.62
270.073	83.62
270.306	96.62
270.538	87.62
270.77	60.62
271.002	83.62
271.234	69.62
271.466	88.62
271.698	97.62
271.93	87.62
272.162	86.62
272.394	78.62
272.626	80.62
272.858	85.62
273.09	93.62
273.322	93.62
273.553	94.62
273.785	89.62
274.017	81.62
274.249	84.62
274.481	85.62
274.713	76.62
274.945	65.62
275.176	89.62
275.408	102.62
275.64	93.62
275.872	89.62
276.104	101.62
276.335	95.62
276.567	95.62
276.799	113.62
277.031	115.62
277.262	132.62
277.494	103.62
277.726	82.62
277.957	79.62
278.189	101.62
278.421	93.62
278.652	85.62
278.884	96.62
279.115	81.62
279.347	82.62
279.579	95.62
279.81	104.62
280.042	119.62
280.273	157.62
280.505	105.62
280.736	91.62
280.968	98.62
281.199	92.62
281.431	83.62
281.662	71.62
281.894	84.62
282.125	115.62
282.356	117.62
282.588	123.62
282.819	113.62
283.051	95.62
283.282	95.62
283.513	92.62
283.745	79.62
283.976	91.62
284.207	86.62
284.439	81.62
284.67	76.62
284.901	89.62
285.132	87.62
285.364	75.62
285.595	84.62
285.826	94.62
286.057	93.62
286.288	70.62
286.52	87.62
286.751	83.62
286.982	84.62
287.213	88.62
287.444	79.62
287.675	76.62
287.906	85.62
288.138	87.62
288.369	88.62
288.6	95.62
288.831	92.62
289.062	88.62
289.293	104.62
289.524	99.62
289.755	103.62
289.986	101.62
290.217	92.62
290.448	106.62
290.679	88.62
290.91	100.62
291.141	85.62
291.371	81.62
291.602	87.62
291.833	84.62
292.064	83.62
292.295	101.62
292.526	94.62
292.757	79.62
292.987	88.62
293.218	79.62
293.449	87.62
293.68	99.62
293.91	95.62
294.141	100.62
294.372	81.62
294.603	85.62
294.833	92.62
295.064	97.62
295.295	98.62
295.525	89.62
295.756	109.62
295.987	127.62
296.217	150.62
296.448	121.62
296.679	97.62
296.909	100.62
297.14	104.62
297.37	88.62
297.601	86.62
297.831	97.62
298.062	93.62
298.292	90.62
298.523	95.62
298.753	69.62
298.984	80.62
299.214	100.62
299.445	76.62
299.675	85.62
299.905	101.62
300.136	92.62
300.366	87.62
300.597	100.62
300.827	92.62
301.057	110.62
301.288	110.62
301.518	94.62
301.748	87.62
301.979	99.62
302.209	96.62
302.439	101.62
302.669	87.62
302.9	97.62
303.13	100.62
303.36	89.62
303.59	111.62
303.82	130.62
304.051	96.62
304.281	92.62
304.511	99.62
304.741	87.62
304.971	95.62
305.201	89.62
305.431	83.62
305.661	96.62
305.891	75.62
306.121	96.62
306.352	94.62
306.582	100.62
306.812	102.62
307.042	92.62
307.272	130.62
307.502	140.62
307.731	136.62
307.961	115.62
308.191	94.62
308.421	93.62
308.651	105.62
308.881	112.62
309.111	97.62
309.341	83.62
309.571	96.62
309.8	107.62
310.03	106.62
310.26	115.62
310.49	92.62
310.72	101.62
310.949	108.62
311.179	103.62
311.409	66.62
311.639	104.62
311.868	100.62
312.098	103.62
312.328	97.62
312.557	111.62
312.787	92.62
313.017	93.62
313.246	105.62
313.476	95.62
313.706	95.62
313.935	90.62
314.165	122.62
314.394	111.62
314.624	94.62
314.853	100.62
315.083	90.62
315.312	88.62
315.542	94.62
315.771	89.62
316.001	79.62
316.23	92.62
316.46	79.62
316.689	99.62
316.919	87.62
317.148	99.62
317.377	94.62
317.607	113.62
317.836	105.62
318.065	100.62
318.295	96.62
318.524	76.62
318.753	106.62
318.983	99.62
319.212	102.62
319.441	104.62
319.67	118.62
319.9	107.62
320.129	103.62
320.358	102.62
320.587	104.62
320.816	92.62
321.046	100.62
321.275	88.62
321.504	100.62
321.733	89.62
321.962	96.62
322.191	94.62
322.42	115.62
322.649	106.62
322.878	104.62
323.108	127.62
323.337	129.62
323.566	129.62
323.795	164.62
324.024	215.62
324.253	422.62
324.482	925.62
324.71	1917.62
324.939	2646.62
325.168	945.62
325.397	262.62
325.626	168.62
325.855	138.62
326.084	124.62
326.313	127.62
326.542	159.62
326.77	239.62
326.999	504.62
327.228	1045.62
327.457	1999.62
327.686	1606.62
327.914	467.62
328.143	307.62
328.372	322.62
328.6	207.62
328.829	133.62
329.058	132.62
329.287	137.62
329.515	120.62
329.744	156.62
329.972	237.62
330.201	448.62
330.43	595.62
330.658	317.62
330.887	180.62
331.115	148.62
331.344	108.62
331.572	109.62
331.801	119.62
332.03	120.62
332.258	85.62
332.486	113.62
332.715	101.62
332.943	108.62
333.172	93.62
333.4	119.62
333.629	128.62
333.857	155.62
334.085	224.62
334.314	439.62
334.542	735.62
334.771	695.62
334.999	231.62
335.227	111.62
335.455	116.62
335.684	108.62
335.912	103.62
336.14	112.62
336.369	118.62
336.597	117.62
336.825	113.62
337.053	96.62
337.281	102.62
337.51	88.62
337.738	88.62
337.966	109.62
338.194	97.62
338.422	100.62
338.65	94.62
338.878	103.62
339.106	92.62
339.334	85.62
339.562	85.62
339.79	104.62
340.018	97.62
340.246	100.62
340.474	103.62
340.702	88.62
340.93	88.62
341.158	92.62
341.386	105.62
341.614	110.62
341.842	87.62
342.07	99.62
342.298	105.62
342.526	96.62
342.754	80.62
342.981	92.62
343.209	75.62
343.437	100.62
343.665	95.62
343.893	99.62
344.12	103.62
344.348	87.62
344.576	94.62
344.804	91.62
345.031	105.62
345.259	91.62
345.487	112.62
345.714	94.62
345.942	94.62
346.17	90.62
346.397	102.62
346.625	100.62
346.853	89.62
347.08	103.62
347.308	110.62
347.535	107.62
347.763	95.62
347.99	96.62
348.218	102.62
348.445	115.62
348.673	115.62
348.9	89.62
349.128	84.62
349.355	90.62
349.583	91.62
349.81	103.62
350.037	91.62
350.265	108.62
350.492	100.62
350.72	109.62
350.947	82.62
351.174	115.62
351.402	126.62
351.629	89.62
351.856	88.62
352.083	101.62
352.311	98.62
352.538	110.62
352.765	102.62
352.992	106.62
353.22	119.62
353.447	104.62
353.674	96.62
353.901	97.62
354.128	104.62
354.355	92.62
354.583	95.62
354.81	101.62
355.037	98.62
355.264	106.62
355.491	101.62
355.718	92.62
355.945	95.62
356.172	98.62
356.399	90.62
356.626	99.62
356.853	91.62
357.08	94.62
357.307	87.62
357.534	72.62
357.761	99.62
357.988	96.62
358.215	89.62
358.441	97.62
358.668	102.62
358.895	92.62
359.122	96.62
359.349	98.62
359.576	102.62
359.802	117.62
360.029	108.62
360.256	117.62
360.483	100.62
360.709	93.62
360.936	104.62
361.163	93.62
361.39	93.62
361.616	93.62
361.843	78.62
362.07	93.62
362.296	91.62
362.523	103.62
362.749	103.62
362.976	107.62
363.203	101.62
363.429	97.62
363.656	92.62
363.882	78.62
364.109	96.62
364.335	86.62
364.562	100.62
364.788	91.62
365.015	108.62
365.241	118.62
365.468	107.62
365.694	116.62
365.92	92.62
366.147	98.62
366.373	104.62
366.599	84.62
366.826	78.62
367.052	102.62
367.278	102.62
367.505	99.62
367.731	108.62
367.957	102.62
368.184	109.62
368.41	111.62
368.636	113.62
368.862	130.62
369.089	104.62
369.315	102.62
369.541	97.62
369.767	84.62
369.993	80.62
370.219	82.62
370.445	86.62
370.672	105.62
370.898	78.62
371.124	78.62
371.35	89.62
371.576	95.62
371.802	78.62
372.028	93.62
372.254	86.62
372.48	85.62
372.706	86.62
372.932	96.62
373.158	85.62
373.384	104.62
373.61	89.62
373.835	82.62
374.061	94.62
374.287	92.62
374.513	91.62
374.739	81.62
374.965	106.62
375.191	92.62
375.416	94.62
375.642	85.62
375.868	91.62
376.094	87.62
376.319	95.62
376.545	84.62
376.771	94.62
376.997	99.62
377.222	81.62
377.448	105.62
377.674	93.62
377.899	88.62
378.125	99.62
378.35	96.62
378.576	86.62
378.802	95.62
379.027	100.62
379.253	95.62
379.478	96.62
379.704	93.62
379.929	104.62
380.155	100.62
380.38	98.62
380.606	85.62
380.831	102.62
381.057	103.62
381.282	100.62
381.507	98.62
381.733	107.62
381.958	97.62
382.184	114.62
382.409	95.62
382.634	97.62
382.86	97.62
383.085	96.62
383.31	90.62
383.535	105.62
383.761	94.62
383.986	95.62
384.211	101.62
384.436	100.62
384.662	90.62
384.887	102.62
385.112	111.62
385.337	95.62
385.562	102.62
385.787	111.62
386.013	115.62
386.238	102.62
386.463	110.62
386.688	133.62
386.913	94.62
387.138	96.62
387.363	87.62
387.588	93.62
387.813	87.62
388.038	106.62
388.263	123.62
388.488	113.62
388.713	99.62
388.938	90.62
389.163	83.62
389.387	88.62
389.612	93.62
389.837	102.62
390.062	91.62
390.287	84.62
390.512	92.62
390.736	87.62
390.961	96.62
391.186	90.62
391.411	89.62
391.636	92.62
391.86	93.62
392.085	91.62
392.31	93.62
392.534	98.62
392.759	79.62
392.984	100.62
393.208	111.62
393.433	123.62
393.658	107.62
393.882	79.62
394.107	89.62
394.331	74.62
394.556	81.62
394.78	96.62
395.005	92.62
395.229	81.62
395.454	79.62
395.678	83.62
395.903	86.62
396.127	92.62
396.352	102.62
396.576	88.62
396.801	93.62
397.025	110.62
397.249	95.62
397.474	77.62
397.698	91.62
397.922	96.62
398.147	104.62
398.371	91.62
398.595	79.62
398.82	75.62
399.044	93.62
399.268	101.62
399.492	89.62
399.717	100.62
399.941	92.62
400.165	95.62
400.389	109.62
400.613	77.62
400.837	75.62
401.062	102.62
401.286	109.62
401.51	79.62
401.734	94.62
401.958	100.62
402.182	131.62
402.406	166.62
402.63	127.62
402.854	102.62
403.078	81.62
403.302	79.62
403.526	93.62
403.75	76.62
403.974	93.62
404.198	90.62
404.422	99.62
404.645	84.62
404.869	88.62
405.093	87.62
405.317	119.62
405.541	106.62
405.765	100.62
405.988	122.62
406.212	181.62
406.436	247.62
406.66	153.62
406.883	101.62
407.107	107.62
407.331	92.62
407.555	80.62
407.778	103.62
408.002	104.62
408.226	93.62
408.449	83.62
408.673	84.62
408.896	113.62
409.12	96.62
409.344	91.62
409.567	96.62
409.791	95.62
410.014	93.62
410.238	77.62
410.461	102.62
410.685	91.62
410.908	104.62
411.132	100.62
411.355	97.62
411.578	102.62
411.802	91.62
412.025	91.62
412.249	93.62
412.472	97.62
412.695	113.62
412.919	100.62
413.142	100.62
413.365	96.62
413.589	97.62
413.812	80.62
414.035	89.62
414.258	92.62
414.482	81.62
414.705	79.62
414.928	88.62
415.151	90.62
415.374	89.62
415.597	93.62
415.821	84.62
416.044	76.62
416.267	94.62
416.49	103.62
416.713	86.62
416.936	84.62
417.159	91.62
417.382	87.62
417.605	109.62
417.828	108.62
418.051	89.62
418.274	102.62
418.497	78.62
418.72	101.62
418.943	79.62
419.166	80.62
419.389	91.62
419.611	111.62
419.834	113.62
420.057	93.62
420.28	91.62
420.503	82.62
420.726	96.62
420.948	87.62
421.171	95.62
421.394	89.62
421.617	93.62
421.839	95.62
422.062	87.62
422.285	97.62
422.507	102.62
422.73	95.62
422.953	92.62
423.175	93.62
423.398	100.62
423.621	93.62
423.843	98.62
424.066	85.62
424.288	94.62
424.511	91.62
424.733	108.62
424.956	105.62
425.178	99.62
425.401	99.62
425.623	109.62
425.846	89.62
426.068	91.62
426.291	90.62
426.513	103.62
426.735	102.62
426.958	107.62
427.18	109.62
427.402	143.62
427.625	185.62
427.847	189.62
428.069	195.62
428.292	115.62
428.514	93.62
428.736	95.62
428.958	84.62
429.181	115.62
429.403	77.62
429.625	83.62
429.847	108.62
430.069	100.62
430.292	83.62
430.514	70.62
430.736	91.62
430.958	97.62
431.18	85.62
431.402	99.62
431.624	91.62
431.846	83.62
432.068	80.62
432.29	69.62
432.512	92.62
432.734	96.62
432.956	102.62
433.178	99.62
433.4	117.62
433.622	109.62
433.844	84.62
434.066	91.62
434.287	89.62
434.509	104.62
434.731	99.62
434.953	89.62
435.175	86.62
435.397	94.62
435.618	87.62
435.84	101.62
436.062	125.62
436.284	111.62
436.505	113.62
436.727	94.62
436.949	93.62
437.17	84.62
437.392	93.62
437.614	83.62
437.835	112.62
438.057	103.62
438.278	117.62
438.5	100.62
438.721	126.62
438.943	99.62
439.165	88.62
439.386	89.62
439.608	95.62
439.829	100.62
440.05	121.62
440.272	145.62
440.493	112.62
440.715	89.62
440.936	92.62
441.158	107.62
441.379	110.62
441.6	87.62
441.822	95.62
442.043	96.62
442.264	108.62
442.486	104.62
442.707	97.62
442.928	119.62
443.149	134.62
443.371	132.62
443.592	107.62
443.813	116.62
444.034	111.62
444.255	91.62
444.476	77.62
444.698	96.62
444.919	79.62
445.14	143.62
445.361	111.62
445.582	102.62
445.803	157.62
446.024	147.62
446.245	130.62
446.466	127.62
446.687	89.62
446.908	86.62
447.129	85.62
447.35	118.62
447.571	91.62
447.792	107.62
448.013	107.62
448.234	107.62
448.455	105.62
448.675	124.62
448.896	118.62
449.117	101.62
449.338	115.62
449.559	125.62
449.779	128.62
450	89.62
450.221	88.62
450.442	92.62
450.662	115.62
450.883	118.62
451.104	106.62
451.324	86.62
451.545	85.62
451.766	91.62
451.986	92.62
452.207	91.62
452.428	87.62
452.648	79.62
452.869	112.62
453.089	108.62
453.31	119.62
453.53	89.62
453.751	91.62
453.971	108.62
454.192	115.62
454.412	93.62
454.633	91.62
454.853	84.62
455.073	87.62
455.294	91.62
455.514	96.62
455.734	90.62
455.955	86.62
456.175	79.62
456.395	82.62
456.616	90.62
456.836	94.62
457.056	88.62
457.276	87.62
457.497	92.62
457.717	81.62
457.937	91.62
458.157	80.62
458.377	76.62
458.598	106.62
458.818	155.62
459.038	163.62
459.258	125.62
459.478	83.62
459.698	89.62
459.918	81.62
460.138	87.62
460.358	85.62
460.578	93.62
460.798	102.62
461.018	90.62
461.238	81.62
461.458	73.62
461.678	77.62
461.898	67.62
462.118	93.62
462.338	86.62
462.558	101.62
462.777	102.62
462.997	100.62
463.217	95.62
463.437	91.62
463.657	83.62
463.876	109.62
464.096	89.62
464.316	77.62
464.536	92.62
464.755	100.62
464.975	116.62
465.195	169.62
465.414	177.62
465.634	106.62
465.854	91.62
466.073	100.62
466.293	85.62
466.512	97.62
466.732	79.62
466.951	84.62
467.171	81.62
467.391	105.62
467.61	126.62
467.829	150.62
468.049	295.62
468.268	397.62
468.488	136.62
468.707	101.62
468.927	96.62
469.146	100.62
469.365	95.62
469.585	97.62
469.804	108.62
470.023	86.62
470.243	75.62
470.462	109.62
470.681	119.62
470.901	73.62
471.12	88.62
471.339	94.62
471.558	91.62
471.777	119.62
471.997	193.62
472.216	514.62
472.435	1083.62
472.654	289.62
472.873	113.62
473.092	105.62
473.311	94.62
473.53	95.62
473.749	93.62
473.968	108.62
474.187	106.62
474.406	85.62
474.625	79.62
474.844	78.62
475.063	81.62
475.282	107.62
475.501	82.62
475.72	90.62
475.939	93.62
476.158	75.62
476.377	96.62
476.596	94.62
476.814	84.62
477.033	98.62
477.252	97.62
477.471	86.62
477.69	88.62
477.908	96.62
478.127	94.62
478.346	100.62
478.564	85.62
478.783	107.62
479.002	79.62
479.22	102.62
479.439	102.62
479.658	111.62
479.876	107.62
480.095	111.62
480.313	117.62
480.532	117.62
480.751	176.62
480.969	493.62
481.188	1914.62
481.406	1085.62
481.624	192.62
481.843	92.62
482.061	104.62
482.28	95.62
482.498	86.62
482.717	97.62
482.935	90.62
483.153	93.62
483.372	83.62
483.59	83.62
483.808	108.62
484.027	100.62
484.245	86.62
484.463	101.62
484.681	115.62
484.9	92.62
485.118	108.62
485.336	97.62
485.554	123.62
485.772	88.62
485.99	119.62
486.209	103.62
486.427	94.62
486.645	111.62
486.863	101.62
487.081	97.62
487.299	98.62
487.517	90.62
487.735	86.62
487.953	91.62
488.171	90.62
488.389	97.62
488.607	102.62
488.825	99.62
489.043	89.62
489.261	101.62
489.479	99.62
489.696	100.62
489.914	90.62
490.132	90.62
490.35	95.62
490.568	93.62
490.786	87.62
491.003	97.62
491.221	92.62
491.439	102.62
491.657	99.62
491.874	91.62
492.092	88.62
492.31	88.62
492.527	97.62
492.745	84.62
492.963	96.62
493.18	102.62
493.398	86.62
493.615	80.62
493.833	99.62
494.05	87.62
494.268	84.62
494.485	90.62
494.703	86.62
494.92	97.62
495.138	96.62
495.355	97.62
495.573	80.62
495.79	78.62
496.008	98.62
496.225	94.62
496.442	88.62
496.66	86.62
496.877	95.62
497.094	108.62
497.312	80.62
497.529	95.62
497.746	94.62
497.963	74.62
498.181	88.62
498.398	86.62
498.615	110.62
498.832	105.62
499.049	106.62
499.267	97.62
499.484	89.62
499.701	77.62
499.918	92.62
500.135	94.62
500.352	104.62
500.569	87.62
500.786	104.62
501.003	95.62
501.22	86.62
501.437	96.62
501.654	86.62
501.871	106.62
502.088	90.62
502.305	82.62
502.522	100.62
502.739	84.62
502.956	91.62
503.172	89.62
503.389	98.62
503.606	106.62
503.823	88.62
504.04	95.62
504.256	91.62
504.473	92.62
504.69	105.62
504.907	87.62
505.123	105.62
505.34	79.62
505.557	87.62
505.773	95.62
505.99	85.62
506.207	97.62
506.423	84.62
506.64	82.62
506.856	93.62
507.073	99.62
507.289	99.62
507.506	99.62
507.722	108.62
507.939	115.62
508.155	86.62
508.372	102.62
508.588	87.62
508.805	95.62
509.021	94.62
509.238	100.62
509.454	96.62
509.67	98.62
509.887	107.62
510.103	129.62
510.319	201.62
510.536	743.62
510.752	2394.62
510.968	676.62
511.184	161.62
511.401	112.62
511.617	95.62
511.833	96.62
512.049	97.62
512.265	96.62
512.481	101.62
512.698	112.62
512.914	96.62
513.13	95.62
513.346	88.62
513.562	97.62
513.778	85.62
