Data from Circ_1991_H10_HRD10591_00067.txt Node
Date: Wed Jan 03 11:51:54 EST 2024
User: Yrep
Spectrometer: HR+D1059
Trigger mode: 1
Integration Time (sec): 1.000000E-1
Scans to average: 1
Electric dark correction enabled: true
Nonlinearity correction enabled: false
Boxcar width: 0
XAxis mode: Wavelengths
Number of Pixels in Spectrum: 2048
>>>>>Begin Spectral Data<<<<<
223.165	-28.06
223.4	-28.06
223.635	-28.06
223.869	-1.06
224.104	-34.06
224.338	-22.06
224.573	-18.06
224.808	-9.06
225.042	6.94
225.277	-11.06
225.511	-8.06
225.746	-3.06
225.98	21.94
226.215	11.94
226.449	11.94
226.683	25.94
226.918	24.94
227.152	30.94
227.387	43.94
227.621	35.94
227.856	33.94
228.09	63.94
228.324	44.94
228.559	55.94
228.793	65.94
229.027	56.94
229.262	63.94
229.496	61.94
229.73	82.94
229.964	89.94
230.199	76.94
230.433	62.94
230.667	71.94
230.901	72.94
231.136	74.94
231.37	88.94
231.604	80.94
231.838	78.94
232.072	88.94
232.306	86.94
232.541	76.94
232.775	82.94
233.009	71.94
233.243	79.94
233.477	79.94
233.711	61.94
233.945	76.94
234.179	76.94
234.413	83.94
234.647	67.94
234.881	78.94
235.115	81.94
235.349	83.94
235.583	79.94
235.817	74.94
236.051	89.94
236.285	78.94
236.519	85.94
236.753	81.94
236.987	97.94
237.221	69.94
237.455	59.94
237.689	75.94
237.922	78.94
238.156	75.94
238.39	71.94
238.624	75.94
238.858	77.94
239.091	71.94
239.325	77.94
239.559	63.94
239.793	61.94
240.027	79.94
240.26	84.94
240.494	78.94
240.728	63.94
240.961	71.94
241.195	83.94
241.429	76.94
241.662	69.94
241.896	74.94
242.13	73.94
242.363	85.94
242.597	77.94
242.83	78.94
243.064	91.94
243.298	63.94
243.531	64.94
243.765	64.94
243.998	74.94
244.232	85.94
244.465	88.94
244.699	77.94
244.932	61.94
245.166	90.94
245.399	65.94
245.633	79.94
245.866	84.94
246.099	60.94
246.333	72.94
246.566	73.94
246.8	72.94
247.033	81.94
247.266	64.94
247.5	64.94
247.733	65.94
247.966	81.94
248.2	77.94
248.433	77.94
248.666	79.94
248.899	68.94
249.133	91.94
249.366	96.94
249.599	90.94
249.832	79.94
250.066	73.94
250.299	85.94
250.532	91.94
250.765	69.94
250.998	79.94
251.231	69.94
251.465	73.94
251.698	76.94
251.931	69.94
252.164	79.94
252.397	85.94
252.63	78.94
252.863	92.94
253.096	73.94
253.329	82.94
253.562	92.94
253.795	87.94
254.028	78.94
254.261	84.94
254.494	82.94
254.727	71.94
254.96	77.94
255.193	66.94
255.426	80.94
255.659	77.94
255.892	88.94
256.124	81.94
256.357	74.94
256.59	81.94
256.823	90.94
257.056	75.94
257.289	78.94
257.521	92.94
257.754	80.94
257.987	74.94
258.22	75.94
258.452	80.94
258.685	79.94
258.918	78.94
259.151	79.94
259.383	71.94
259.616	66.94
259.849	65.94
260.081	73.94
260.314	76.94
260.547	80.94
260.779	89.94
261.012	98.94
261.244	86.94
261.477	99.94
261.71	98.94
261.942	96.94
262.175	106.94
262.407	90.94
262.64	93.94
262.872	86.94
263.105	91.94
263.337	84.94
263.57	65.94
263.802	78.94
264.035	71.94
264.267	77.94
264.499	76.94
264.732	85.94
264.964	88.94
265.197	71.94
265.429	84.94
265.661	87.94
265.894	86.94
266.126	94.94
266.358	76.94
266.591	74.94
266.823	78.94
267.055	79.94
267.287	77.94
267.52	84.94
267.752	79.94
267.984	85.94
268.216	91.94
268.448	74.94
268.681	91.94
268.913	101.94
269.145	98.94
269.377	101.94
269.609	72.94
269.841	84.94
270.073	93.94
270.306	81.94
270.538	74.94
270.77	83.94
271.002	83.94
271.234	75.94
271.466	86.94
271.698	89.94
271.93	83.94
272.162	84.94
272.394	85.94
272.626	97.94
272.858	76.94
273.09	79.94
273.322	79.94
273.553	75.94
273.785	83.94
274.017	90.94
274.249	81.94
274.481	62.94
274.713	74.94
274.945	67.94
275.176	87.94
275.408	93.94
275.64	77.94
275.872	92.94
276.104	97.94
276.335	81.94
276.567	86.94
276.799	102.94
277.031	105.94
277.262	111.94
277.494	101.94
277.726	83.94
277.957	84.94
278.189	94.94
278.421	89.94
278.652	77.94
278.884	73.94
279.115	77.94
279.347	84.94
279.579	83.94
279.81	105.94
280.042	113.94
280.273	149.94
280.505	112.94
280.736	89.94
280.968	96.94
281.199	71.94
281.431	87.94
281.662	87.94
281.894	82.94
282.125	102.94
282.356	104.94
282.588	130.94
282.819	108.94
283.051	89.94
283.282	77.94
283.513	99.94
283.745	76.94
283.976	76.94
284.207	69.94
284.439	82.94
284.67	88.94
284.901	87.94
285.132	94.94
285.364	88.94
285.595	76.94
285.826	84.94
286.057	100.94
286.288	84.94
286.52	81.94
286.751	71.94
286.982	72.94
287.213	79.94
287.444	61.94
287.675	86.94
287.906	83.94
288.138	79.94
288.369	92.94
288.6	98.94
288.831	83.94
289.062	83.94
289.293	75.94
289.524	89.94
289.755	87.94
289.986	81.94
290.217	83.94
290.448	79.94
290.679	78.94
290.91	82.94
291.141	82.94
291.371	84.94
291.602	83.94
291.833	87.94
292.064	87.94
292.295	83.94
292.526	79.94
292.757	93.94
292.987	89.94
293.218	73.94
293.449	79.94
293.68	76.94
293.91	98.94
294.141	106.94
294.372	92.94
294.603	82.94
294.833	84.94
295.064	60.94
295.295	82.94
295.525	83.94
295.756	101.94
295.987	114.94
296.217	126.94
296.448	114.94
296.679	95.94
296.909	93.94
297.14	72.94
297.37	75.94
297.601	89.94
297.831	94.94
298.062	95.94
298.292	83.94
298.523	84.94
298.753	93.94
298.984	92.94
299.214	98.94
299.445	81.94
299.675	83.94
299.905	96.94
300.136	92.94
300.366	75.94
300.597	95.94
300.827	89.94
301.057	92.94
301.288	93.94
301.518	95.94
301.748	81.94
301.979	103.94
302.209	90.94
302.439	83.94
302.669	82.94
302.9	99.94
303.13	87.94
303.36	95.94
303.59	106.94
303.82	99.94
304.051	84.94
304.281	95.94
304.511	105.94
304.741	83.94
304.971	92.94
305.201	90.94
305.431	86.94
305.661	87.94
305.891	92.94
306.121	92.94
306.352	102.94
306.582	94.94
306.812	99.94
307.042	98.94
307.272	112.94
307.502	112.94
307.731	128.94
307.961	97.94
308.191	98.94
308.421	88.94
308.651	88.94
308.881	91.94
309.111	87.94
309.341	93.94
309.571	106.94
309.8	93.94
310.03	100.94
310.26	111.94
310.49	79.94
310.72	82.94
310.949	82.94
311.179	100.94
311.409	84.94
311.639	82.94
311.868	79.94
312.098	90.94
312.328	80.94
312.557	99.94
312.787	107.94
313.017	103.94
313.246	91.94
313.476	99.94
313.706	100.94
313.935	88.94
314.165	106.94
314.394	97.94
314.624	98.94
314.853	79.94
315.083	77.94
315.312	83.94
315.542	97.94
315.771	99.94
316.001	95.94
316.23	85.94
316.46	88.94
316.689	93.94
316.919	97.94
317.148	109.94
317.377	98.94
317.607	92.94
317.836	80.94
318.065	95.94
318.295	99.94
318.524	83.94
318.753	89.94
318.983	86.94
319.212	102.94
319.441	112.94
319.67	99.94
319.9	87.94
320.129	91.94
320.358	88.94
320.587	97.94
320.816	91.94
321.046	95.94
321.275	94.94
321.504	80.94
321.733	99.94
321.962	95.94
322.191	101.94
322.42	94.94
322.649	106.94
322.878	99.94
323.108	107.94
323.337	119.94
323.566	142.94
323.795	151.94
324.024	207.94
324.253	400.94
324.482	820.94
324.71	1719.94
324.939	2372.94
325.168	851.94
325.397	242.94
325.626	149.94
325.855	145.94
326.084	129.94
326.313	144.94
326.542	169.94
326.77	221.94
326.999	457.94
327.228	971.94
327.457	1832.94
327.686	1458.94
327.914	430.94
328.143	279.94
328.372	293.94
328.6	199.94
328.829	126.94
329.058	140.94
329.287	129.94
329.515	119.94
329.744	166.94
329.972	229.94
330.201	389.94
330.43	552.94
330.658	283.94
330.887	164.94
331.115	121.94
331.344	107.94
331.572	98.94
331.801	101.94
332.03	97.94
332.258	100.94
332.486	96.94
332.715	93.94
332.943	106.94
333.172	109.94
333.4	109.94
333.629	114.94
333.857	151.94
334.085	205.94
334.314	394.94
334.542	685.94
334.771	623.94
334.999	205.94
335.227	120.94
335.455	107.94
335.684	99.94
335.912	100.94
336.14	99.94
336.369	95.94
336.597	88.94
336.825	83.94
337.053	95.94
337.281	95.94
337.51	91.94
337.738	84.94
337.966	87.94
338.194	99.94
338.422	88.94
338.65	84.94
338.878	108.94
339.106	91.94
339.334	84.94
339.562	72.94
339.79	74.94
340.018	90.94
340.246	101.94
340.474	92.94
340.702	95.94
340.93	88.94
341.158	102.94
341.386	71.94
341.614	99.94
341.842	89.94
342.07	73.94
342.298	100.94
342.526	92.94
342.754	98.94
342.981	77.94
343.209	94.94
343.437	85.94
343.665	84.94
343.893	88.94
344.12	84.94
344.348	97.94
344.576	81.94
344.804	86.94
345.031	98.94
345.259	89.94
345.487	81.94
345.714	90.94
345.942	89.94
346.17	95.94
346.397	66.94
346.625	75.94
346.853	89.94
347.08	96.94
347.308	92.94
347.535	93.94
347.763	95.94
347.99	103.94
348.218	101.94
348.445	94.94
348.673	91.94
348.9	83.94
349.128	90.94
349.355	87.94
349.583	84.94
349.81	88.94
350.037	92.94
350.265	99.94
350.492	89.94
350.72	85.94
350.947	85.94
351.174	108.94
351.402	112.94
351.629	109.94
351.856	113.94
352.083	111.94
352.311	96.94
352.538	102.94
352.765	101.94
352.992	109.94
353.22	100.94
353.447	92.94
353.674	96.94
353.901	98.94
354.128	88.94
354.355	92.94
354.583	81.94
354.81	104.94
355.037	91.94
355.264	83.94
355.491	88.94
355.718	89.94
355.945	93.94
356.172	96.94
356.399	88.94
356.626	89.94
356.853	92.94
357.08	71.94
357.307	102.94
357.534	78.94
357.761	93.94
357.988	96.94
358.215	90.94
358.441	97.94
358.668	95.94
358.895	89.94
359.122	76.94
359.349	77.94
359.576	88.94
359.802	96.94
360.029	118.94
360.256	102.94
360.483	92.94
360.709	82.94
360.936	87.94
361.163	89.94
361.39	87.94
361.616	87.94
361.843	80.94
362.07	82.94
362.296	82.94
362.523	81.94
362.749	85.94
362.976	80.94
363.203	91.94
363.429	84.94
363.656	99.94
363.882	88.94
364.109	87.94
364.335	89.94
364.562	79.94
364.788	94.94
365.015	91.94
365.241	94.94
365.468	93.94
365.694	95.94
365.92	88.94
366.147	81.94
366.373	98.94
366.599	75.94
366.826	77.94
367.052	77.94
367.278	92.94
367.505	92.94
367.731	93.94
367.957	100.94
368.184	91.94
368.41	89.94
368.636	103.94
368.862	113.94
369.089	96.94
369.315	87.94
369.541	76.94
369.767	92.94
369.993	99.94
370.219	80.94
370.445	82.94
370.672	73.94
370.898	88.94
371.124	81.94
371.35	93.94
371.576	69.94
371.802	76.94
372.028	82.94
372.254	79.94
372.48	89.94
372.706	80.94
372.932	59.94
373.158	79.94
373.384	93.94
373.61	83.94
373.835	84.94
374.061	85.94
374.287	80.94
374.513	92.94
374.739	78.94
374.965	76.94
375.191	79.94
375.416	90.94
375.642	91.94
375.868	87.94
376.094	76.94
376.319	85.94
376.545	79.94
376.771	94.94
376.997	76.94
377.222	82.94
377.448	84.94
377.674	88.94
377.899	79.94
378.125	85.94
378.35	78.94
378.576	91.94
378.802	83.94
379.027	82.94
379.253	92.94
379.478	82.94
379.704	108.94
379.929	87.94
380.155	96.94
380.38	91.94
380.606	93.94
380.831	94.94
381.057	91.94
381.282	74.94
381.507	87.94
381.733	80.94
381.958	86.94
382.184	92.94
382.409	81.94
382.634	96.94
382.86	96.94
383.085	100.94
383.31	99.94
383.535	100.94
383.761	97.94
383.986	87.94
384.211	95.94
384.436	92.94
384.662	96.94
384.887	94.94
385.112	101.94
385.337	97.94
385.562	88.94
385.787	98.94
386.013	112.94
386.238	98.94
386.463	105.94
386.688	93.94
386.913	106.94
387.138	95.94
387.363	96.94
387.588	96.94
387.813	104.94
388.038	90.94
388.263	110.94
388.488	98.94
388.713	91.94
388.938	78.94
389.163	100.94
389.387	82.94
389.612	87.94
389.837	105.94
390.062	87.94
390.287	88.94
390.512	96.94
390.736	74.94
390.961	91.94
391.186	88.94
391.411	89.94
391.636	87.94
391.86	75.94
392.085	87.94
392.31	89.94
392.534	83.94
392.759	84.94
392.984	82.94
393.208	96.94
393.433	114.94
393.658	105.94
393.882	76.94
394.107	96.94
394.331	87.94
394.556	76.94
394.78	106.94
395.005	80.94
395.229	80.94
395.454	76.94
395.678	98.94
395.903	99.94
396.127	84.94
396.352	101.94
396.576	85.94
396.801	82.94
397.025	87.94
397.249	83.94
397.474	91.94
397.698	67.94
397.922	83.94
398.147	89.94
398.371	89.94
398.595	83.94
398.82	89.94
399.044	86.94
399.268	87.94
399.492	71.94
399.717	85.94
399.941	95.94
400.165	84.94
400.389	83.94
400.613	86.94
400.837	95.94
401.062	83.94
401.286	90.94
401.51	87.94
401.734	81.94
401.958	87.94
402.182	116.94
402.406	130.94
402.63	103.94
402.854	77.94
403.078	87.94
403.302	83.94
403.526	86.94
403.75	91.94
403.974	83.94
404.198	77.94
404.422	85.94
404.645	91.94
404.869	83.94
405.093	92.94
405.317	125.94
405.541	103.94
405.765	103.94
405.988	120.94
406.212	162.94
406.436	224.94
406.66	119.94
406.883	92.94
407.107	93.94
407.331	94.94
407.555	110.94
407.778	94.94
408.002	81.94
408.226	94.94
408.449	87.94
408.673	77.94
408.896	87.94
409.12	98.94
409.344	91.94
409.567	100.94
409.791	92.94
410.014	116.94
410.238	97.94
410.461	82.94
410.685	89.94
410.908	85.94
411.132	103.94
411.355	103.94
411.578	79.94
411.802	92.94
412.025	75.94
412.249	87.94
412.472	93.94
412.695	108.94
412.919	113.94
413.142	94.94
413.365	83.94
413.589	88.94
413.812	89.94
414.035	82.94
414.258	92.94
414.482	83.94
414.705	89.94
414.928	85.94
415.151	75.94
415.374	80.94
415.597	86.94
415.821	83.94
416.044	90.94
416.267	90.94
416.49	89.94
416.713	82.94
416.936	87.94
417.159	95.94
417.382	84.94
417.605	90.94
417.828	104.94
418.051	68.94
418.274	88.94
418.497	64.94
418.72	97.94
418.943	89.94
419.166	84.94
419.389	89.94
419.611	87.94
419.834	83.94
420.057	83.94
420.28	75.94
420.503	86.94
420.726	76.94
420.948	97.94
421.171	102.94
421.394	87.94
421.617	72.94
421.839	85.94
422.062	76.94
422.285	79.94
422.507	81.94
422.73	101.94
422.953	92.94
423.175	80.94
423.398	89.94
423.621	73.94
423.843	84.94
424.066	77.94
424.288	87.94
424.511	79.94
424.733	91.94
424.956	88.94
425.178	96.94
425.401	104.94
425.623	95.94
425.846	85.94
426.068	95.94
426.291	87.94
426.513	77.94
426.735	87.94
426.958	92.94
427.18	119.94
427.402	148.94
427.625	171.94
427.847	176.94
428.069	153.94
428.292	105.94
428.514	81.94
428.736	83.94
428.958	81.94
429.181	72.94
429.403	88.94
429.625	87.94
429.847	83.94
430.069	102.94
430.292	77.94
430.514	90.94
430.736	76.94
430.958	77.94
431.18	79.94
431.402	83.94
431.624	81.94
431.846	85.94
432.068	86.94
432.29	88.94
432.512	84.94
432.734	78.94
432.956	85.94
433.178	105.94
433.4	99.94
433.622	80.94
433.844	85.94
434.066	83.94
434.287	83.94
434.509	87.94
434.731	82.94
434.953	97.94
435.175	81.94
435.397	87.94
435.618	87.94
435.84	93.94
436.062	123.94
436.284	116.94
436.505	107.94
436.727	99.94
436.949	96.94
437.17	82.94
437.392	91.94
437.614	96.94
437.835	95.94
438.057	116.94
438.278	111.94
438.5	93.94
438.721	130.94
438.943	97.94
439.165	81.94
439.386	86.94
439.608	84.94
439.829	93.94
440.05	114.94
440.272	142.94
440.493	97.94
440.715	90.94
440.936	87.94
441.158	87.94
441.379	89.94
441.6	103.94
441.822	99.94
442.043	98.94
442.264	91.94
442.486	107.94
442.707	100.94
442.928	96.94
443.149	119.94
443.371	125.94
443.592	92.94
443.813	105.94
444.034	100.94
444.255	87.94
444.476	83.94
444.698	83.94
444.919	85.94
445.14	115.94
445.361	111.94
445.582	109.94
445.803	132.94
446.024	137.94
446.245	128.94
446.466	103.94
446.687	101.94
446.908	83.94
447.129	94.94
447.35	91.94
447.571	90.94
447.792	92.94
448.013	98.94
448.234	101.94
448.455	99.94
448.675	99.94
448.896	112.94
449.117	88.94
449.338	99.94
449.559	148.94
449.779	127.94
450	104.94
450.221	68.94
450.442	89.94
450.662	95.94
450.883	114.94
451.104	105.94
451.324	77.94
451.545	89.94
451.766	80.94
451.986	84.94
452.207	101.94
452.428	84.94
452.648	107.94
452.869	97.94
453.089	94.94
453.31	108.94
453.53	98.94
453.751	79.94
453.971	98.94
454.192	111.94
454.412	85.94
454.633	98.94
454.853	88.94
455.073	88.94
455.294	94.94
455.514	91.94
455.734	90.94
455.955	76.94
456.175	83.94
456.395	86.94
456.616	99.94
456.836	90.94
457.056	91.94
457.276	79.94
457.497	93.94
457.717	86.94
457.937	83.94
458.157	94.94
458.377	82.94
458.598	107.94
458.818	153.94
459.038	171.94
459.258	127.94
459.478	95.94
459.698	76.94
459.918	85.94
460.138	94.94
460.358	88.94
460.578	85.94
460.798	100.94
461.018	82.94
461.238	72.94
461.458	71.94
461.678	85.94
461.898	87.94
462.118	75.94
462.338	75.94
462.558	96.94
462.777	72.94
462.997	86.94
463.217	87.94
463.437	73.94
463.657	80.94
463.876	80.94
464.096	97.94
464.316	84.94
464.536	90.94
464.755	94.94
464.975	92.94
465.195	157.94
465.414	149.94
465.634	87.94
465.854	93.94
466.073	96.94
466.293	84.94
466.512	94.94
466.732	95.94
466.951	93.94
467.171	97.94
467.391	101.94
467.61	98.94
467.829	135.94
468.049	257.94
468.268	356.94
468.488	115.94
468.707	91.94
468.927	82.94
469.146	95.94
469.365	89.94
469.585	107.94
469.804	78.94
470.023	92.94
470.243	90.94
470.462	100.94
470.681	104.94
470.901	100.94
471.12	78.94
471.339	104.94
471.558	89.94
471.777	111.94
471.997	186.94
472.216	495.94
472.435	975.94
472.654	266.94
472.873	110.94
473.092	94.94
473.311	100.94
473.53	80.94
473.749	73.94
473.968	92.94
474.187	98.94
474.406	92.94
474.625	90.94
474.844	77.94
475.063	87.94
475.282	87.94
475.501	87.94
475.72	89.94
475.939	77.94
476.158	79.94
476.377	80.94
476.596	82.94
476.814	96.94
477.033	81.94
477.252	83.94
477.471	87.94
477.69	95.94
477.908	79.94
478.127	81.94
478.346	78.94
478.564	95.94
478.783	99.94
479.002	86.94
479.22	94.94
479.439	115.94
479.658	103.94
479.876	87.94
480.095	96.94
480.313	106.94
480.532	127.94
480.751	177.94
480.969	480.94
481.188	1779.94
481.406	1000.94
481.624	189.94
481.843	91.94
482.061	89.94
482.28	94.94
482.498	97.94
482.717	80.94
482.935	86.94
483.153	90.94
483.372	78.94
483.59	82.94
483.808	95.94
484.027	79.94
484.245	86.94
484.463	95.94
484.681	82.94
484.9	92.94
485.118	82.94
485.336	94.94
485.554	95.94
485.772	98.94
485.99	87.94
486.209	93.94
486.427	88.94
486.645	104.94
486.863	109.94
487.081	107.94
487.299	108.94
487.517	98.94
487.735	89.94
487.953	80.94
488.171	85.94
488.389	88.94
488.607	94.94
488.825	95.94
489.043	93.94
489.261	88.94
489.479	82.94
489.696	83.94
489.914	81.94
490.132	80.94
490.35	79.94
490.568	98.94
490.786	91.94
491.003	95.94
491.221	96.94
491.439	79.94
491.657	78.94
491.874	71.94
492.092	79.94
492.31	85.94
492.527	95.94
492.745	79.94
492.963	79.94
493.18	88.94
493.398	83.94
493.615	100.94
493.833	92.94
494.05	92.94
494.268	89.94
494.485	99.94
494.703	86.94
494.92	75.94
495.138	82.94
495.355	94.94
495.573	73.94
495.79	93.94
496.008	88.94
496.225	86.94
496.442	98.94
496.66	87.94
496.877	77.94
497.094	83.94
497.312	85.94
497.529	90.94
497.746	88.94
497.963	85.94
498.181	74.94
498.398	94.94
498.615	118.94
498.832	98.94
499.049	81.94
499.267	89.94
499.484	93.94
499.701	98.94
499.918	98.94
500.135	77.94
500.352	91.94
500.569	100.94
500.786	93.94
501.003	85.94
501.22	82.94
501.437	95.94
501.654	89.94
501.871	111.94
502.088	79.94
502.305	72.94
502.522	96.94
502.739	92.94
502.956	82.94
503.172	85.94
503.389	108.94
503.606	91.94
503.823	95.94
504.04	98.94
504.256	89.94
504.473	79.94
504.69	86.94
504.907	95.94
505.123	87.94
505.34	95.94
505.557	101.94
505.773	95.94
505.99	76.94
506.207	66.94
506.423	86.94
506.64	79.94
506.856	75.94
507.073	96.94
507.289	85.94
507.506	90.94
507.722	107.94
507.939	102.94
508.155	90.94
508.372	92.94
508.588	93.94
508.805	86.94
509.021	76.94
509.238	83.94
509.454	101.94
509.67	106.94
509.887	104.94
510.103	122.94
510.319	182.94
510.536	666.94
510.752	2170.94
510.968	602.94
511.184	154.94
511.401	99.94
511.617	91.94
511.833	83.94
512.049	81.94
512.265	84.94
512.481	93.94
512.698	84.94
512.914	78.94
513.13	81.94
513.346	80.94
513.562	82.94
513.778	108.94
513.994	87.94
514.21	93.94
514.426	113.94
514.642	128.94
514.858	117.94
515.074	166.94
515.29	400.94
515.506	1360.94
515.721	510.94
515.937	140.94
516.153	108.94
516.369	88.94
