Data from Circ_1991_H10_HRD10591_00052.txt Node
Date: Wed Jan 03 11:51:51 EST 2024
User: Yrep
Spectrometer: HR+D1059
Trigger mode: 1
Integration Time (sec): 1.000000E-1
Scans to average: 1
Electric dark correction enabled: true
Nonlinearity correction enabled: false
Boxcar width: 0
XAxis mode: Wavelengths
Number of Pixels in Spectrum: 2048
>>>>>Begin Spectral Data<<<<<
223.165	-6.06
223.4	-6.06
223.635	-6.06
223.869	-29.06
224.104	-2.06
224.338	-18.06
224.573	-10.06
224.808	-12.06
225.042	-16.06
225.277	0.94
225.511	-12.06
225.746	3.94
225.98	-0.06
226.215	18.94
226.449	16.94
226.683	11.94
226.918	32.94
227.152	19.94
227.387	26.94
227.621	42.94
227.856	51.94
228.09	48.94
228.324	65.94
228.559	47.94
228.793	45.94
229.027	58.94
229.262	63.94
229.496	63.94
229.73	92.94
229.964	88.94
230.199	81.94
230.433	66.94
230.667	76.94
230.901	69.94
231.136	70.94
231.37	75.94
231.604	73.94
231.838	78.94
232.072	90.94
232.306	78.94
232.541	84.94
232.775	67.94
233.009	89.94
233.243	91.94
233.477	75.94
233.711	78.94
233.945	79.94
234.179	91.94
234.413	74.94
234.647	75.94
234.881	68.94
235.115	73.94
235.349	73.94
235.583	81.94
235.817	93.94
236.051	81.94
236.285	91.94
236.519	83.94
236.753	79.94
236.987	73.94
237.221	81.94
237.455	81.94
237.689	84.94
237.922	74.94
238.156	68.94
238.39	84.94
238.624	93.94
238.858	83.94
239.091	67.94
239.325	61.94
239.559	77.94
239.793	74.94
240.027	96.94
240.26	80.94
240.494	89.94
240.728	81.94
240.961	83.94
241.195	65.94
241.429	67.94
241.662	76.94
241.896	83.94
242.13	85.94
242.363	74.94
242.597	72.94
242.83	68.94
243.064	68.94
243.298	75.94
243.531	74.94
243.765	59.94
243.998	86.94
244.232	78.94
244.465	91.94
244.699	93.94
244.932	78.94
245.166	74.94
245.399	62.94
245.633	81.94
245.866	57.94
246.099	75.94
246.333	79.94
246.566	94.94
246.8	81.94
247.033	73.94
247.266	68.94
247.5	82.94
247.733	75.94
247.966	89.94
248.2	78.94
248.433	81.94
248.666	86.94
248.899	71.94
249.133	92.94
249.366	105.94
249.599	101.94
249.832	74.94
250.066	83.94
250.299	96.94
250.532	83.94
250.765	89.94
250.998	83.94
251.231	76.94
251.465	78.94
251.698	87.94
251.931	90.94
252.164	95.94
252.397	87.94
252.63	76.94
252.863	91.94
253.096	82.94
253.329	75.94
253.562	93.94
253.795	79.94
254.028	79.94
254.261	86.94
254.494	86.94
254.727	76.94
254.96	93.94
255.193	77.94
255.426	79.94
255.659	89.94
255.892	73.94
256.124	74.94
256.357	74.94
256.59	85.94
256.823	66.94
257.056	75.94
257.289	83.94
257.521	93.94
257.754	88.94
257.987	92.94
258.22	75.94
258.452	99.94
258.685	82.94
258.918	81.94
259.151	76.94
259.383	82.94
259.616	86.94
259.849	70.94
260.081	79.94
260.314	77.94
260.547	70.94
260.779	82.94
261.012	93.94
261.244	90.94
261.477	92.94
261.71	98.94
261.942	108.94
262.175	121.94
262.407	83.94
262.64	84.94
262.872	90.94
263.105	88.94
263.337	91.94
263.57	92.94
263.802	83.94
264.035	89.94
264.267	83.94
264.499	79.94
264.732	86.94
264.964	86.94
265.197	89.94
265.429	96.94
265.661	77.94
265.894	83.94
266.126	70.94
266.358	86.94
266.591	68.94
266.823	70.94
267.055	71.94
267.287	92.94
267.52	86.94
267.752	83.94
267.984	73.94
268.216	83.94
268.448	79.94
268.681	83.94
268.913	93.94
269.145	83.94
269.377	89.94
269.609	75.94
269.841	93.94
270.073	79.94
270.306	82.94
270.538	77.94
270.77	84.94
271.002	81.94
271.234	73.94
271.466	93.94
271.698	89.94
271.93	79.94
272.162	85.94
272.394	91.94
272.626	98.94
272.858	93.94
273.09	97.94
273.322	83.94
273.553	97.94
273.785	85.94
274.017	76.94
274.249	90.94
274.481	86.94
274.713	83.94
274.945	90.94
275.176	100.94
275.408	83.94
275.64	99.94
275.872	86.94
276.104	99.94
276.335	90.94
276.567	91.94
276.799	117.94
277.031	99.94
277.262	125.94
277.494	110.94
277.726	98.94
277.957	71.94
278.189	73.94
278.421	81.94
278.652	82.94
278.884	87.94
279.115	94.94
279.347	89.94
279.579	95.94
279.81	95.94
280.042	103.94
280.273	123.94
280.505	109.94
280.736	85.94
280.968	72.94
281.199	93.94
281.431	76.94
281.662	86.94
281.894	89.94
282.125	89.94
282.356	131.94
282.588	144.94
282.819	111.94
283.051	93.94
283.282	95.94
283.513	93.94
283.745	83.94
283.976	92.94
284.207	98.94
284.439	79.94
284.67	94.94
284.901	84.94
285.132	93.94
285.364	87.94
285.595	86.94
285.826	88.94
286.057	92.94
286.288	88.94
286.52	82.94
286.751	90.94
286.982	97.94
287.213	84.94
287.444	102.94
287.675	87.94
287.906	77.94
288.138	90.94
288.369	87.94
288.6	89.94
288.831	87.94
289.062	74.94
289.293	92.94
289.524	93.94
289.755	89.94
289.986	84.94
290.217	98.94
290.448	97.94
290.679	92.94
290.91	101.94
291.141	99.94
291.371	87.94
291.602	99.94
291.833	97.94
292.064	76.94
292.295	96.94
292.526	89.94
292.757	79.94
292.987	81.94
293.218	71.94
293.449	91.94
293.68	97.94
293.91	81.94
294.141	95.94
294.372	93.94
294.603	94.94
294.833	109.94
295.064	101.94
295.295	95.94
295.525	102.94
295.756	97.94
295.987	91.94
296.217	132.94
296.448	121.94
296.679	81.94
296.909	89.94
297.14	89.94
297.37	93.94
297.601	92.94
297.831	77.94
298.062	77.94
298.292	96.94
298.523	106.94
298.753	95.94
298.984	99.94
299.214	85.94
299.445	98.94
299.675	98.94
299.905	100.94
300.136	99.94
300.366	74.94
300.597	86.94
300.827	96.94
301.057	106.94
301.288	112.94
301.518	88.94
301.748	83.94
301.979	102.94
302.209	91.94
302.439	106.94
302.669	94.94
302.9	92.94
303.13	90.94
303.36	101.94
303.59	117.94
303.82	93.94
304.051	86.94
304.281	89.94
304.511	90.94
304.741	74.94
304.971	79.94
305.201	94.94
305.431	90.94
305.661	88.94
305.891	89.94
306.121	101.94
306.352	109.94
306.582	114.94
306.812	90.94
307.042	97.94
307.272	111.94
307.502	122.94
307.731	116.94
307.961	106.94
308.191	92.94
308.421	83.94
308.651	88.94
308.881	96.94
309.111	89.94
309.341	85.94
309.571	94.94
309.8	95.94
310.03	99.94
310.26	83.94
310.49	81.94
310.72	95.94
310.949	107.94
311.179	114.94
311.409	97.94
311.639	81.94
311.868	86.94
312.098	89.94
312.328	106.94
312.557	115.94
312.787	109.94
313.017	101.94
313.246	91.94
313.476	93.94
313.706	95.94
313.935	90.94
314.165	91.94
314.394	98.94
314.624	115.94
314.853	84.94
315.083	91.94
315.312	85.94
315.542	89.94
315.771	85.94
316.001	81.94
316.23	95.94
316.46	93.94
316.689	106.94
316.919	95.94
317.148	90.94
317.377	116.94
317.607	92.94
317.836	102.94
318.065	80.94
318.295	97.94
318.524	94.94
318.753	99.94
318.983	97.94
319.212	90.94
319.441	98.94
319.67	116.94
319.9	84.94
320.129	103.94
320.358	93.94
320.587	104.94
320.816	94.94
321.046	96.94
321.275	92.94
321.504	93.94
321.733	102.94
321.962	97.94
322.191	92.94
322.42	117.94
322.649	106.94
322.878	114.94
323.108	125.94
323.337	127.94
323.566	131.94
323.795	145.94
324.024	211.94
324.253	370.94
324.482	845.94
324.71	1766.94
324.939	2349.94
325.168	870.94
325.397	257.94
325.626	158.94
325.855	142.94
326.084	118.94
326.313	124.94
326.542	152.94
326.77	223.94
326.999	451.94
327.228	995.94
327.457	1832.94
327.686	1469.94
327.914	414.94
328.143	283.94
328.372	284.94
328.6	177.94
328.829	123.94
329.058	145.94
329.287	132.94
329.515	111.94
329.744	143.94
329.972	222.94
330.201	356.94
330.43	481.94
330.658	253.94
330.887	166.94
331.115	128.94
331.344	105.94
331.572	99.94
331.801	110.94
332.03	120.94
332.258	103.94
332.486	85.94
332.715	83.94
332.943	90.94
333.172	101.94
333.4	114.94
333.629	115.94
333.857	156.94
334.085	212.94
334.314	341.94
334.542	603.94
334.771	585.94
334.999	191.94
335.227	123.94
335.455	113.94
335.684	99.94
335.912	106.94
336.14	86.94
336.369	96.94
336.597	103.94
336.825	111.94
337.053	89.94
337.281	94.94
337.51	89.94
337.738	93.94
337.966	90.94
338.194	88.94
338.422	95.94
338.65	94.94
338.878	93.94
339.106	100.94
339.334	91.94
339.562	98.94
339.79	83.94
340.018	102.94
340.246	99.94
340.474	99.94
340.702	83.94
340.93	90.94
341.158	104.94
341.386	95.94
341.614	91.94
341.842	90.94
342.07	90.94
342.298	87.94
342.526	90.94
342.754	89.94
342.981	88.94
343.209	83.94
343.437	92.94
343.665	89.94
343.893	90.94
344.12	92.94
344.348	85.94
344.576	100.94
344.804	107.94
345.031	89.94
345.259	89.94
345.487	93.94
345.714	89.94
345.942	86.94
346.17	90.94
346.397	91.94
346.625	89.94
346.853	90.94
347.08	89.94
347.308	95.94
347.535	90.94
347.763	103.94
347.99	98.94
348.218	100.94
348.445	93.94
348.673	93.94
348.9	103.94
349.128	86.94
349.355	109.94
349.583	86.94
349.81	93.94
350.037	84.94
350.265	94.94
350.492	102.94
350.72	99.94
350.947	100.94
351.174	98.94
351.402	101.94
351.629	106.94
351.856	87.94
352.083	109.94
352.311	120.94
352.538	101.94
352.765	103.94
352.992	107.94
353.22	106.94
353.447	97.94
353.674	102.94
353.901	94.94
354.128	90.94
354.355	102.94
354.583	92.94
354.81	99.94
355.037	82.94
355.264	89.94
355.491	98.94
355.718	94.94
355.945	86.94
356.172	85.94
356.399	105.94
356.626	86.94
356.853	88.94
357.08	86.94
357.307	91.94
357.534	87.94
357.761	89.94
357.988	96.94
358.215	99.94
358.441	92.94
358.668	85.94
358.895	88.94
359.122	95.94
359.349	98.94
359.576	102.94
359.802	100.94
360.029	116.94
360.256	115.94
360.483	98.94
360.709	84.94
360.936	87.94
361.163	98.94
361.39	95.94
361.616	91.94
361.843	78.94
362.07	92.94
362.296	87.94
362.523	92.94
362.749	98.94
362.976	77.94
363.203	81.94
363.429	84.94
363.656	82.94
363.882	88.94
364.109	86.94
364.335	86.94
364.562	93.94
364.788	84.94
365.015	90.94
365.241	94.94
365.468	103.94
365.694	105.94
365.92	102.94
366.147	93.94
366.373	85.94
366.599	82.94
366.826	79.94
367.052	82.94
367.278	89.94
367.505	85.94
367.731	97.94
367.957	97.94
368.184	101.94
368.41	100.94
368.636	103.94
368.862	110.94
369.089	93.94
369.315	85.94
369.541	87.94
369.767	86.94
369.993	90.94
370.219	82.94
370.445	89.94
370.672	91.94
370.898	79.94
371.124	78.94
371.35	82.94
371.576	87.94
371.802	90.94
372.028	82.94
372.254	104.94
372.48	79.94
372.706	94.94
372.932	87.94
373.158	90.94
373.384	98.94
373.61	93.94
373.835	84.94
374.061	79.94
374.287	70.94
374.513	82.94
374.739	91.94
374.965	81.94
375.191	79.94
375.416	82.94
375.642	87.94
375.868	105.94
376.094	78.94
376.319	103.94
376.545	97.94
376.771	87.94
376.997	92.94
377.222	92.94
377.448	95.94
377.674	106.94
377.899	91.94
378.125	77.94
378.35	93.94
378.576	83.94
378.802	87.94
379.027	91.94
379.253	85.94
379.478	81.94
379.704	87.94
379.929	91.94
380.155	96.94
380.38	93.94
380.606	96.94
380.831	87.94
381.057	102.94
381.282	98.94
381.507	102.94
381.733	94.94
381.958	104.94
382.184	100.94
382.409	98.94
382.634	109.94
382.86	108.94
383.085	93.94
383.31	98.94
383.535	89.94
383.761	104.94
383.986	107.94
384.211	99.94
384.436	101.94
384.662	92.94
384.887	113.94
385.112	95.94
385.337	98.94
385.562	97.94
385.787	110.94
386.013	125.94
386.238	117.94
386.463	113.94
386.688	117.94
386.913	98.94
387.138	89.94
387.363	109.94
387.588	109.94
387.813	87.94
388.038	104.94
388.263	129.94
388.488	103.94
388.713	97.94
388.938	105.94
389.163	96.94
389.387	107.94
389.612	84.94
389.837	93.94
390.062	90.94
390.287	87.94
390.512	84.94
390.736	80.94
390.961	82.94
391.186	90.94
391.411	89.94
391.636	74.94
391.86	90.94
392.085	91.94
392.31	75.94
392.534	83.94
392.759	84.94
392.984	89.94
393.208	97.94
393.433	110.94
393.658	121.94
393.882	84.94
394.107	72.94
394.331	73.94
394.556	82.94
394.78	88.94
395.005	77.94
395.229	75.94
395.454	88.94
395.678	74.94
395.903	95.94
396.127	79.94
396.352	82.94
396.576	95.94
396.801	89.94
397.025	105.94
397.249	94.94
397.474	98.94
397.698	83.94
397.922	88.94
398.147	82.94
398.371	87.94
398.595	91.94
398.82	78.94
399.044	78.94
399.268	90.94
399.492	75.94
399.717	100.94
399.941	89.94
400.165	84.94
400.389	84.94
400.613	91.94
400.837	91.94
401.062	82.94
401.286	73.94
401.51	97.94
401.734	91.94
401.958	101.94
402.182	114.94
402.406	150.94
402.63	104.94
402.854	102.94
403.078	94.94
403.302	86.94
403.526	80.94
403.75	79.94
403.974	86.94
404.198	84.94
404.422	82.94
404.645	84.94
404.869	83.94
405.093	93.94
405.317	111.94
405.541	113.94
405.765	89.94
405.988	113.94
406.212	161.94
406.436	223.94
406.66	146.94
406.883	103.94
407.107	93.94
407.331	89.94
407.555	94.94
407.778	95.94
408.002	78.94
408.226	82.94
408.449	83.94
408.673	73.94
408.896	98.94
409.12	108.94
409.344	93.94
409.567	87.94
409.791	86.94
410.014	79.94
410.238	86.94
410.461	101.94
410.685	82.94
410.908	94.94
411.132	85.94
411.355	93.94
411.578	90.94
411.802	83.94
412.025	74.94
412.249	83.94
412.472	86.94
412.695	98.94
412.919	97.94
413.142	93.94
413.365	81.94
413.589	69.94
413.812	91.94
414.035	85.94
414.258	92.94
414.482	90.94
414.705	83.94
414.928	85.94
415.151	92.94
415.374	93.94
415.597	84.94
415.821	90.94
416.044	84.94
416.267	92.94
416.49	90.94
416.713	90.94
416.936	80.94
417.159	82.94
417.382	83.94
417.605	87.94
417.828	85.94
418.051	100.94
418.274	85.94
418.497	87.94
418.72	89.94
418.943	92.94
419.166	90.94
419.389	85.94
419.611	83.94
419.834	81.94
420.057	87.94
420.28	92.94
420.503	93.94
420.726	84.94
420.948	90.94
421.171	82.94
421.394	89.94
421.617	91.94
421.839	95.94
422.062	93.94
422.285	102.94
422.507	100.94
422.73	113.94
422.953	109.94
423.175	87.94
423.398	90.94
423.621	70.94
423.843	96.94
424.066	97.94
424.288	95.94
424.511	109.94
424.733	95.94
424.956	107.94
425.178	95.94
425.401	107.94
425.623	86.94
425.846	84.94
426.068	102.94
426.291	94.94
426.513	93.94
426.735	99.94
426.958	81.94
427.18	98.94
427.402	133.94
427.625	167.94
427.847	159.94
428.069	174.94
428.292	99.94
428.514	89.94
428.736	95.94
428.958	93.94
429.181	74.94
429.403	102.94
429.625	89.94
429.847	98.94
430.069	91.94
430.292	91.94
430.514	89.94
430.736	99.94
430.958	79.94
431.18	84.94
431.402	77.94
431.624	94.94
431.846	79.94
432.068	85.94
432.29	75.94
432.512	77.94
432.734	88.94
432.956	98.94
433.178	93.94
433.4	107.94
433.622	94.94
433.844	92.94
434.066	91.94
434.287	86.94
434.509	94.94
434.731	99.94
434.953	86.94
435.175	107.94
435.397	95.94
435.618	88.94
435.84	99.94
436.062	105.94
436.284	102.94
436.505	92.94
436.727	100.94
436.949	93.94
437.17	78.94
437.392	93.94
437.614	90.94
437.835	110.94
438.057	119.94
438.278	109.94
438.5	97.94
438.721	128.94
438.943	93.94
439.165	78.94
439.386	87.94
439.608	89.94
439.829	87.94
440.05	117.94
440.272	132.94
440.493	113.94
440.715	84.94
440.936	85.94
441.158	88.94
441.379	105.94
441.6	79.94
441.822	84.94
442.043	92.94
442.264	100.94
442.486	87.94
442.707	98.94
442.928	100.94
443.149	121.94
443.371	125.94
443.592	99.94
443.813	113.94
444.034	105.94
444.255	90.94
444.476	90.94
444.698	91.94
444.919	82.94
445.14	123.94
445.361	110.94
445.582	110.94
445.803	117.94
446.024	136.94
446.245	128.94
446.466	103.94
446.687	87.94
446.908	85.94
447.129	86.94
447.35	86.94
447.571	71.94
447.792	94.94
448.013	88.94
448.234	99.94
448.455	119.94
448.675	109.94
448.896	111.94
449.117	94.94
449.338	99.94
449.559	129.94
449.779	136.94
450	102.94
450.221	90.94
450.442	83.94
450.662	99.94
450.883	105.94
451.104	112.94
451.324	101.94
451.545	83.94
451.766	89.94
451.986	87.94
452.207	100.94
452.428	90.94
452.648	100.94
452.869	101.94
453.089	113.94
453.31	113.94
453.53	92.94
453.751	93.94
453.971	94.94
454.192	110.94
454.412	90.94
454.633	73.94
454.853	81.94
455.073	89.94
455.294	90.94
455.514	83.94
455.734	94.94
455.955	90.94
456.175	73.94
456.395	97.94
456.616	76.94
456.836	90.94
457.056	85.94
457.276	77.94
457.497	88.94
457.717	84.94
457.937	89.94
458.157	81.94
458.377	72.94
458.598	100.94
458.818	154.94
459.038	147.94
459.258	107.94
459.478	85.94
459.698	87.94
459.918	79.94
460.138	90.94
460.358	75.94
460.578	88.94
460.798	91.94
461.018	79.94
461.238	87.94
461.458	70.94
461.678	75.94
461.898	81.94
462.118	94.94
462.338	84.94
462.558	97.94
462.777	88.94
462.997	81.94
463.217	85.94
463.437	91.94
463.657	81.94
463.876	92.94
464.096	91.94
464.316	88.94
464.536	77.94
464.755	79.94
464.975	102.94
465.195	161.94
465.414	159.94
465.634	96.94
465.854	85.94
466.073	86.94
466.293	95.94
466.512	93.94
466.732	85.94
466.951	95.94
467.171	92.94
467.391	83.94
467.61	103.94
467.829	121.94
468.049	245.94
468.268	295.94
468.488	125.94
468.707	87.94
468.927	75.94
469.146	81.94
469.365	89.94
469.585	85.94
469.804	87.94
470.023	86.94
470.243	82.94
470.462	97.94
470.681	128.94
470.901	88.94
471.12	98.94
471.339	91.94
471.558	92.94
471.777	118.94
471.997	150.94
472.216	423.94
472.435	913.94
472.654	267.94
472.873	102.94
473.092	98.94
473.311	84.94
473.53	87.94
473.749	101.94
473.968	85.94
474.187	97.94
474.406	73.94
474.625	89.94
474.844	89.94
475.063	89.94
475.282	89.94
475.501	93.94
475.72	85.94
475.939	91.94
476.158	86.94
476.377	99.94
476.596	75.94
476.814	82.94
477.033	98.94
477.252	94.94
477.471	95.94
477.69	90.94
477.908	82.94
478.127	95.94
478.346	92.94
478.564	87.94
478.783	93.94
479.002	105.94
479.22	88.94
479.439	93.94
479.658	95.94
479.876	91.94
480.095	102.94
480.313	98.94
480.532	115.94
480.751	158.94
480.969	418.94
481.188	1581.94
481.406	883.94
481.624	183.94
481.843	89.94
482.061	90.94
482.28	90.94
482.498	88.94
482.717	86.94
482.935	79.94
483.153	88.94
483.372	77.94
483.59	93.94
483.808	92.94
484.027	84.94
484.245	77.94
484.463	113.94
484.681	105.94
484.9	95.94
485.118	86.94
485.336	80.94
485.554	90.94
485.772	86.94
485.99	109.94
486.209	104.94
486.427	101.94
486.645	103.94
486.863	105.94
487.081	92.94
487.299	79.94
487.517	91.94
487.735	99.94
487.953	86.94
488.171	86.94
488.389	91.94
488.607	98.94
488.825	95.94
489.043	101.94
489.261	85.94
489.479	86.94
489.696	78.94
489.914	86.94
490.132	79.94
490.35	97.94
490.568	83.94
490.786	73.94
491.003	76.94
491.221	63.94
491.439	92.94
491.657	94.94
491.874	90.94
492.092	95.94
492.31	93.94
492.527	87.94
492.745	86.94
492.963	88.94
493.18	96.94
493.398	95.94
493.615	85.94
493.833	84.94
494.05	93.94
494.268	76.94
494.485	89.94
494.703	86.94
494.92	94.94
495.138	86.94
495.355	91.94
495.573	98.94
495.79	80.94
496.008	83.94
496.225	83.94
496.442	80.94
496.66	91.94
496.877	82.94
497.094	68.94
497.312	89.94
497.529	90.94
497.746	88.94
497.963	99.94
498.181	96.94
498.398	98.94
498.615	115.94
498.832	101.94
499.049	89.94
499.267	97.94
499.484	85.94
499.701	82.94
499.918	94.94
500.135	96.94
500.352	101.94
500.569	103.94
500.786	92.94
501.003	91.94
501.22	98.94
501.437	92.94
501.654	85.94
501.871	102.94
502.088	92.94
502.305	92.94
502.522	72.94
502.739	107.94
502.956	82.94
503.172	78.94
503.389	97.94
503.606	115.94
503.823	99.94
504.04	94.94
504.256	92.94
504.473	73.94
504.69	83.94
504.907	82.94
505.123	81.94
505.34	86.94
505.557	76.94
505.773	70.94
505.99	82.94
506.207	86.94
506.423	98.94
506.64	110.94
506.856	89.94
507.073	105.94
507.289	82.94
507.506	98.94
507.722	108.94
507.939	107.94
508.155	87.94
508.372	68.94
508.588	70.94
508.805	80.94
509.021	96.94
509.238	93.94
509.454	102.94
509.67	91.94
509.887	115.94
510.103	129.94
510.319	194.94
510.536	739.94
510.752	2367.94
510.968	639.94
511.184	164.94
511.401	111.94
511.617	108.94
511.833	99.94
512.049	85.94
512.265	92.94
512.481	91.94
512.698	94.94
512.914	87.94
513.13	95.94
513.346	90.94
513.562	90.94
513.778	102.94
513.994	101.94
514.21	112.94
514.426	109.94
514.642	125.94
514.858	116.94
515.074	167.94
515.29	458.94
515.506	1517.94
515.721	555.94
