Data from Circ_1991_H10_HRD10591_00028.txt Node
Date: Wed Jan 03 11:51:46 EST 2024
User: Yrep
Spectrometer: HR+D1059
Trigger mode: 1
Integration Time (sec): 1.000000E-1
Scans to average: 1
Electric dark correction enabled: true
Nonlinearity correction enabled: false
Boxcar width: 0
XAxis mode: Wavelengths
Number of Pixels in Spectrum: 2048
>>>>>Begin Spectral Data<<<<<
223.165	-5.06
223.4	-5.06
223.635	-5.06
223.869	-18.06
224.104	-14.06
224.338	-17.06
224.573	-10.06
224.808	-17.06
225.042	-9.06
225.277	-16.06
225.511	-0.06
225.746	-3.06
225.98	6.94
226.215	10.94
226.449	10.94
226.683	26.94
226.918	16.94
227.152	36.94
227.387	29.94
227.621	36.94
227.856	33.94
228.09	43.94
228.324	47.94
228.559	36.94
228.793	58.94
229.027	76.94
229.262	57.94
229.496	64.94
229.73	89.94
229.964	60.94
230.199	69.94
230.433	68.94
230.667	89.94
230.901	72.94
231.136	70.94
231.37	81.94
231.604	71.94
231.838	74.94
232.072	79.94
232.306	70.94
232.541	70.94
232.775	89.94
233.009	71.94
233.243	73.94
233.477	71.94
233.711	82.94
233.945	74.94
234.179	70.94
234.413	71.94
234.647	72.94
234.881	87.94
235.115	65.94
235.349	70.94
235.583	60.94
235.817	76.94
236.051	78.94
236.285	77.94
236.519	68.94
236.753	72.94
236.987	67.94
237.221	86.94
237.455	73.94
237.689	79.94
237.922	71.94
238.156	79.94
238.39	66.94
238.624	70.94
238.858	66.94
239.091	84.94
239.325	76.94
239.559	64.94
239.793	66.94
240.027	72.94
240.26	62.94
240.494	76.94
240.728	80.94
240.961	77.94
241.195	80.94
241.429	74.94
241.662	74.94
241.896	89.94
242.13	86.94
242.363	62.94
242.597	63.94
242.83	76.94
243.064	71.94
243.298	59.94
243.531	84.94
243.765	76.94
243.998	78.94
244.232	82.94
244.465	74.94
244.699	82.94
244.932	66.94
245.166	75.94
245.399	82.94
245.633	75.94
245.866	70.94
246.099	69.94
246.333	72.94
246.566	63.94
246.8	79.94
247.033	70.94
247.266	74.94
247.5	80.94
247.733	77.94
247.966	91.94
248.2	80.94
248.433	74.94
248.666	82.94
248.899	76.94
249.133	83.94
249.366	94.94
249.599	90.94
249.832	78.94
250.066	79.94
250.299	65.94
250.532	82.94
250.765	89.94
250.998	56.94
251.231	67.94
251.465	81.94
251.698	87.94
251.931	72.94
252.164	84.94
252.397	73.94
252.63	67.94
252.863	75.94
253.096	70.94
253.329	73.94
253.562	67.94
253.795	74.94
254.028	91.94
254.261	82.94
254.494	61.94
254.727	76.94
254.96	69.94
255.193	79.94
255.426	82.94
255.659	86.94
255.892	59.94
256.124	86.94
256.357	93.94
256.59	65.94
256.823	83.94
257.056	94.94
257.289	68.94
257.521	79.94
257.754	78.94
257.987	84.94
258.22	71.94
258.452	81.94
258.685	94.94
258.918	78.94
259.151	90.94
259.383	85.94
259.616	78.94
259.849	64.94
260.081	74.94
260.314	83.94
260.547	94.94
260.779	83.94
261.012	73.94
261.244	68.94
261.477	82.94
261.71	88.94
261.942	112.94
262.175	107.94
262.407	97.94
262.64	74.94
262.872	78.94
263.105	89.94
263.337	80.94
263.57	71.94
263.802	81.94
264.035	84.94
264.267	72.94
264.499	78.94
264.732	95.94
264.964	82.94
265.197	57.94
265.429	90.94
265.661	73.94
265.894	65.94
266.126	74.94
266.358	75.94
266.591	68.94
266.823	74.94
267.055	86.94
267.287	80.94
267.52	79.94
267.752	76.94
267.984	68.94
268.216	76.94
268.448	90.94
268.681	83.94
268.913	90.94
269.145	76.94
269.377	77.94
269.609	71.94
269.841	77.94
270.073	79.94
270.306	79.94
270.538	89.94
270.77	82.94
271.002	80.94
271.234	91.94
271.466	79.94
271.698	86.94
271.93	59.94
272.162	75.94
272.394	77.94
272.626	75.94
272.858	77.94
273.09	89.94
273.322	92.94
273.553	73.94
273.785	89.94
274.017	100.94
274.249	85.94
274.481	86.94
274.713	84.94
274.945	72.94
275.176	85.94
275.408	83.94
275.64	88.94
275.872	74.94
276.104	93.94
276.335	86.94
276.567	86.94
276.799	95.94
277.031	99.94
277.262	90.94
277.494	73.94
277.726	94.94
277.957	78.94
278.189	89.94
278.421	89.94
278.652	82.94
278.884	78.94
279.115	82.94
279.347	75.94
279.579	88.94
279.81	95.94
280.042	101.94
280.273	95.94
280.505	88.94
280.736	94.94
280.968	78.94
281.199	76.94
281.431	78.94
281.662	86.94
281.894	88.94
282.125	91.94
282.356	118.94
282.588	134.94
282.819	107.94
283.051	102.94
283.282	81.94
283.513	77.94
283.745	91.94
283.976	80.94
284.207	89.94
284.439	98.94
284.67	91.94
284.901	87.94
285.132	65.94
285.364	82.94
285.595	78.94
285.826	82.94
286.057	89.94
286.288	88.94
286.52	78.94
286.751	90.94
286.982	77.94
287.213	80.94
287.444	89.94
287.675	74.94
287.906	91.94
288.138	86.94
288.369	70.94
288.6	94.94
288.831	89.94
289.062	89.94
289.293	90.94
289.524	81.94
289.755	81.94
289.986	77.94
290.217	93.94
290.448	81.94
290.679	85.94
290.91	87.94
291.141	92.94
291.371	88.94
291.602	82.94
291.833	66.94
292.064	80.94
292.295	82.94
292.526	80.94
292.757	98.94
292.987	83.94
293.218	62.94
293.449	79.94
293.68	79.94
293.91	83.94
294.141	94.94
294.372	90.94
294.603	86.94
294.833	90.94
295.064	82.94
295.295	80.94
295.525	84.94
295.756	98.94
295.987	109.94
296.217	127.94
296.448	100.94
296.679	90.94
296.909	86.94
297.14	75.94
297.37	80.94
297.601	86.94
297.831	91.94
298.062	93.94
298.292	92.94
298.523	105.94
298.753	87.94
298.984	76.94
299.214	99.94
299.445	91.94
299.675	104.94
299.905	96.94
300.136	84.94
300.366	90.94
300.597	76.94
300.827	94.94
301.057	94.94
301.288	81.94
301.518	83.94
301.748	72.94
301.979	90.94
302.209	86.94
302.439	89.94
302.669	92.94
302.9	90.94
303.13	80.94
303.36	88.94
303.59	93.94
303.82	103.94
304.051	92.94
304.281	78.94
304.511	79.94
304.741	87.94
304.971	80.94
305.201	91.94
305.431	86.94
305.661	82.94
305.891	82.94
306.121	94.94
306.352	100.94
306.582	108.94
306.812	92.94
307.042	100.94
307.272	101.94
307.502	109.94
307.731	98.94
307.961	103.94
308.191	88.94
308.421	89.94
308.651	89.94
308.881	81.94
309.111	84.94
309.341	91.94
309.571	94.94
309.8	83.94
310.03	75.94
310.26	101.94
310.49	91.94
310.72	87.94
310.949	97.94
311.179	87.94
311.409	84.94
311.639	94.94
311.868	95.94
312.098	90.94
312.328	113.94
312.557	109.94
312.787	98.94
313.017	91.94
313.246	101.94
313.476	96.94
313.706	88.94
313.935	96.94
314.165	110.94
314.394	95.94
314.624	82.94
314.853	86.94
315.083	91.94
315.312	91.94
315.542	89.94
315.771	94.94
316.001	87.94
316.23	83.94
316.46	79.94
316.689	76.94
316.919	90.94
317.148	79.94
317.377	94.94
317.607	81.94
317.836	86.94
318.065	94.94
318.295	94.94
318.524	88.94
318.753	92.94
318.983	91.94
319.212	86.94
319.441	100.94
319.67	106.94
319.9	95.94
320.129	96.94
320.358	102.94
320.587	78.94
320.816	86.94
321.046	97.94
321.275	90.94
321.504	90.94
321.733	99.94
321.962	95.94
322.191	90.94
322.42	93.94
322.649	99.94
322.878	105.94
323.108	110.94
323.337	104.94
323.566	128.94
323.795	136.94
324.024	187.94
324.253	349.94
324.482	708.94
324.71	1492.94
324.939	2018.94
325.168	752.94
325.397	219.94
325.626	152.94
325.855	125.94
326.084	114.94
326.313	123.94
326.542	142.94
326.77	193.94
326.999	410.94
327.228	840.94
327.457	1565.94
327.686	1282.94
327.914	350.94
328.143	215.94
328.372	206.94
328.6	154.94
328.829	114.94
329.058	112.94
329.287	129.94
329.515	112.94
329.744	120.94
329.972	163.94
330.201	252.94
330.43	324.94
330.658	186.94
330.887	139.94
331.115	118.94
331.344	98.94
331.572	93.94
331.801	101.94
332.03	100.94
332.258	90.94
332.486	86.94
332.715	100.94
332.943	82.94
333.172	100.94
333.4	99.94
333.629	100.94
333.857	129.94
334.085	150.94
334.314	243.94
334.542	370.94
334.771	364.94
334.999	149.94
335.227	108.94
335.455	97.94
335.684	92.94
335.912	99.94
336.14	101.94
336.369	103.94
336.597	94.94
336.825	108.94
337.053	88.94
337.281	94.94
337.51	109.94
337.738	95.94
337.966	82.94
338.194	90.94
338.422	99.94
338.65	82.94
338.878	91.94
339.106	95.94
339.334	95.94
339.562	94.94
339.79	90.94
340.018	86.94
340.246	96.94
340.474	98.94
340.702	76.94
340.93	99.94
341.158	96.94
341.386	86.94
341.614	83.94
341.842	83.94
342.07	75.94
342.298	83.94
342.526	82.94
342.754	78.94
342.981	106.94
343.209	103.94
343.437	75.94
343.665	100.94
343.893	95.94
344.12	84.94
344.348	89.94
344.576	93.94
344.804	103.94
345.031	97.94
345.259	94.94
345.487	98.94
345.714	91.94
345.942	70.94
346.17	82.94
346.397	97.94
346.625	99.94
346.853	76.94
347.08	94.94
347.308	83.94
347.535	91.94
347.763	91.94
347.99	97.94
348.218	96.94
348.445	94.94
348.673	99.94
348.9	87.94
349.128	97.94
349.355	88.94
349.583	81.94
349.81	91.94
350.037	77.94
350.265	76.94
350.492	67.94
350.72	90.94
350.947	103.94
351.174	108.94
351.402	110.94
351.629	98.94
351.856	101.94
352.083	99.94
352.311	96.94
352.538	118.94
352.765	106.94
352.992	102.94
353.22	90.94
353.447	112.94
353.674	98.94
353.901	83.94
354.128	84.94
354.355	90.94
354.583	92.94
354.81	76.94
355.037	97.94
355.264	94.94
355.491	86.94
355.718	95.94
355.945	91.94
356.172	87.94
356.399	84.94
356.626	90.94
356.853	82.94
357.08	90.94
357.307	83.94
357.534	98.94
357.761	97.94
357.988	103.94
358.215	89.94
358.441	87.94
358.668	89.94
358.895	104.94
359.122	84.94
359.349	90.94
359.576	90.94
359.802	87.94
360.029	99.94
360.256	95.94
360.483	92.94
360.709	94.94
360.936	92.94
361.163	90.94
361.39	87.94
361.616	87.94
361.843	87.94
362.07	98.94
362.296	80.94
362.523	91.94
362.749	86.94
362.976	83.94
363.203	93.94
363.429	90.94
363.656	103.94
363.882	79.94
364.109	79.94
364.335	88.94
364.562	103.94
364.788	93.94
365.015	84.94
365.241	97.94
365.468	72.94
365.694	111.94
365.92	104.94
366.147	84.94
366.373	75.94
366.599	89.94
366.826	92.94
367.052	93.94
367.278	86.94
367.505	82.94
367.731	97.94
367.957	76.94
368.184	87.94
368.41	89.94
368.636	98.94
368.862	103.94
369.089	93.94
369.315	99.94
369.541	90.94
369.767	83.94
369.993	88.94
370.219	82.94
370.445	90.94
370.672	80.94
370.898	91.94
371.124	97.94
371.35	87.94
371.576	88.94
371.802	86.94
372.028	82.94
372.254	104.94
372.48	92.94
372.706	79.94
372.932	79.94
373.158	95.94
373.384	95.94
373.61	76.94
373.835	98.94
374.061	97.94
374.287	95.94
374.513	87.94
374.739	97.94
374.965	70.94
375.191	99.94
375.416	74.94
375.642	87.94
375.868	89.94
376.094	87.94
376.319	95.94
376.545	84.94
376.771	83.94
376.997	102.94
377.222	82.94
377.448	86.94
377.674	79.94
377.899	77.94
378.125	110.94
378.35	87.94
378.576	84.94
378.802	101.94
379.027	97.94
379.253	83.94
379.478	85.94
379.704	99.94
379.929	85.94
380.155	98.94
380.38	91.94
380.606	88.94
380.831	104.94
381.057	94.94
381.282	88.94
381.507	104.94
381.733	96.94
381.958	91.94
382.184	89.94
382.409	91.94
382.634	96.94
382.86	80.94
383.085	99.94
383.31	88.94
383.535	97.94
383.761	113.94
383.986	90.94
384.211	88.94
384.436	95.94
384.662	98.94
384.887	114.94
385.112	116.94
385.337	110.94
385.562	110.94
385.787	109.94
386.013	107.94
386.238	126.94
386.463	106.94
386.688	113.94
386.913	108.94
387.138	112.94
387.363	108.94
387.588	107.94
387.813	87.94
388.038	106.94
388.263	115.94
388.488	112.94
388.713	94.94
388.938	76.94
389.163	76.94
389.387	97.94
389.612	91.94
389.837	91.94
390.062	82.94
390.287	84.94
390.512	103.94
390.736	96.94
390.961	86.94
391.186	93.94
391.411	76.94
391.636	90.94
391.86	80.94
392.085	88.94
392.31	94.94
392.534	90.94
392.759	91.94
392.984	92.94
393.208	122.94
393.433	183.94
393.658	136.94
393.882	100.94
394.107	84.94
394.331	89.94
394.556	80.94
394.78	87.94
395.005	88.94
395.229	92.94
395.454	81.94
395.678	63.94
395.903	76.94
396.127	89.94
396.352	95.94
396.576	108.94
396.801	128.94
397.025	138.94
397.249	90.94
397.474	80.94
397.698	89.94
397.922	89.94
398.147	94.94
398.371	65.94
398.595	83.94
398.82	80.94
399.044	84.94
399.268	88.94
399.492	89.94
399.717	70.94
399.941	86.94
400.165	78.94
400.389	95.94
400.613	86.94
400.837	83.94
401.062	101.94
401.286	90.94
401.51	101.94
401.734	82.94
401.958	83.94
402.182	125.94
402.406	148.94
402.63	111.94
402.854	88.94
403.078	91.94
403.302	82.94
403.526	85.94
403.75	91.94
403.974	73.94
404.198	90.94
404.422	86.94
404.645	87.94
404.869	92.94
405.093	98.94
405.317	98.94
405.541	79.94
405.765	88.94
405.988	109.94
406.212	144.94
406.436	190.94
406.66	127.94
406.883	88.94
407.107	79.94
407.331	102.94
407.555	101.94
407.778	80.94
408.002	93.94
408.226	86.94
408.449	88.94
408.673	90.94
408.896	87.94
409.12	70.94
409.344	88.94
409.567	95.94
409.791	96.94
410.014	85.94
410.238	85.94
410.461	84.94
410.685	81.94
410.908	89.94
411.132	108.94
411.355	95.94
411.578	92.94
411.802	94.94
412.025	86.94
412.249	81.94
412.472	86.94
412.695	98.94
412.919	91.94
413.142	82.94
413.365	76.94
413.589	81.94
413.812	88.94
414.035	78.94
414.258	95.94
414.482	78.94
414.705	71.94
414.928	83.94
415.151	82.94
415.374	80.94
415.597	105.94
415.821	87.94
416.044	91.94
416.267	84.94
416.49	84.94
416.713	108.94
416.936	85.94
417.159	87.94
417.382	88.94
417.605	86.94
417.828	93.94
418.051	89.94
418.274	81.94
418.497	78.94
418.72	89.94
418.943	80.94
419.166	74.94
419.389	84.94
419.611	97.94
419.834	81.94
420.057	74.94
420.28	100.94
420.503	94.94
420.726	78.94
420.948	79.94
421.171	96.94
421.394	93.94
421.617	92.94
421.839	92.94
422.062	78.94
422.285	102.94
422.507	109.94
422.73	96.94
422.953	102.94
423.175	89.94
423.398	88.94
423.621	93.94
423.843	92.94
424.066	74.94
424.288	94.94
424.511	82.94
424.733	91.94
424.956	94.94
425.178	99.94
425.401	113.94
425.623	81.94
425.846	88.94
426.068	83.94
426.291	95.94
426.513	66.94
426.735	86.94
426.958	91.94
427.18	90.94
427.402	119.94
427.625	151.94
427.847	135.94
428.069	128.94
428.292	108.94
428.514	85.94
428.736	80.94
428.958	81.94
429.181	83.94
429.403	85.94
429.625	93.94
429.847	82.94
430.069	83.94
430.292	87.94
430.514	89.94
430.736	85.94
430.958	62.94
431.18	74.94
431.402	73.94
431.624	83.94
431.846	90.94
432.068	79.94
432.29	82.94
432.512	86.94
432.734	97.94
432.956	67.94
433.178	100.94
433.4	94.94
433.622	84.94
433.844	76.94
434.066	100.94
434.287	87.94
434.509	87.94
434.731	86.94
434.953	78.94
435.175	83.94
435.397	81.94
435.618	80.94
435.84	101.94
436.062	111.94
436.284	100.94
436.505	99.94
436.727	103.94
436.949	92.94
437.17	90.94
437.392	84.94
437.614	89.94
437.835	99.94
438.057	110.94
438.278	100.94
438.5	90.94
438.721	117.94
438.943	94.94
439.165	99.94
439.386	74.94
439.608	86.94
439.829	101.94
440.05	123.94
440.272	122.94
440.493	81.94
440.715	72.94
440.936	81.94
441.158	75.94
441.379	87.94
441.6	88.94
441.822	101.94
442.043	113.94
442.264	99.94
442.486	93.94
442.707	95.94
442.928	111.94
443.149	120.94
443.371	118.94
443.592	111.94
443.813	110.94
444.034	111.94
444.255	91.94
444.476	95.94
444.698	86.94
444.919	86.94
445.14	119.94
445.361	121.94
445.582	102.94
445.803	126.94
446.024	123.94
446.245	136.94
446.466	100.94
446.687	96.94
446.908	86.94
447.129	85.94
447.35	84.94
447.571	86.94
447.792	96.94
448.013	97.94
448.234	96.94
448.455	73.94
448.675	102.94
448.896	114.94
449.117	83.94
449.338	90.94
449.559	125.94
449.779	105.94
450	95.94
450.221	80.94
450.442	78.94
450.662	90.94
450.883	87.94
451.104	113.94
451.324	82.94
451.545	84.94
451.766	81.94
451.986	86.94
452.207	87.94
452.428	83.94
452.648	90.94
452.869	105.94
453.089	96.94
453.31	104.94
453.53	80.94
453.751	82.94
453.971	99.94
454.192	83.94
454.412	80.94
454.633	82.94
454.853	78.94
455.073	86.94
455.294	95.94
455.514	107.94
455.734	93.94
455.955	91.94
456.175	85.94
456.395	80.94
456.616	88.94
456.836	80.94
457.056	74.94
457.276	70.94
457.497	83.94
457.717	83.94
457.937	89.94
458.157	82.94
458.377	76.94
458.598	90.94
458.818	129.94
459.038	150.94
459.258	115.94
459.478	91.94
459.698	79.94
459.918	87.94
460.138	79.94
460.358	90.94
460.578	75.94
460.798	91.94
461.018	81.94
461.238	71.94
461.458	81.94
461.678	80.94
461.898	82.94
462.118	90.94
462.338	82.94
462.558	88.94
462.777	81.94
462.997	92.94
463.217	86.94
463.437	86.94
463.657	85.94
463.876	91.94
464.096	90.94
464.316	100.94
464.536	91.94
464.755	93.94
464.975	93.94
465.195	140.94
465.414	135.94
465.634	83.94
465.854	86.94
466.073	94.94
466.293	72.94
466.512	87.94
466.732	78.94
466.951	92.94
467.171	89.94
467.391	87.94
467.61	92.94
467.829	106.94
468.049	186.94
468.268	218.94
468.488	96.94
468.707	96.94
468.927	87.94
469.146	79.94
469.365	83.94
469.585	71.94
469.804	81.94
470.023	98.94
470.243	99.94
470.462	82.94
470.681	90.94
470.901	92.94
471.12	73.94
471.339	84.94
471.558	85.94
471.777	99.94
471.997	137.94
472.216	290.94
472.435	524.94
472.654	176.94
472.873	108.94
473.092	82.94
473.311	72.94
473.53	86.94
473.749	90.94
473.968	77.94
474.187	93.94
474.406	93.94
474.625	88.94
474.844	96.94
475.063	89.94
475.282	78.94
475.501	69.94
475.72	85.94
475.939	97.94
476.158	93.94
476.377	84.94
476.596	79.94
476.814	80.94
477.033	74.94
477.252	91.94
477.471	79.94
477.69	75.94
477.908	88.94
478.127	89.94
478.346	95.94
478.564	101.94
478.783	103.94
479.002	89.94
479.22	82.94
479.439	104.94
479.658	103.94
479.876	94.94
480.095	95.94
480.313	94.94
480.532	100.94
480.751	124.94
480.969	294.94
481.188	953.94
481.406	557.94
481.624	144.94
481.843	91.94
482.061	70.94
482.28	91.94
482.498	74.94
482.717	78.94
482.935	87.94
483.153	80.94
483.372	66.94
483.59	76.94
483.808	81.94
484.027	87.94
484.245	79.94
484.463	84.94
484.681	86.94
484.9	96.94
485.118	87.94
485.336	87.94
485.554	104.94
485.772	107.94
485.99	101.94
486.209	94.94
486.427	106.94
486.645	95.94
486.863	92.94
487.081	95.94
487.299	73.94
487.517	97.94
487.735	86.94
487.953	88.94
488.171	97.94
488.389	88.94
488.607	86.94
488.825	93.94
489.043	74.94
489.261	83.94
489.479	94.94
489.696	72.94
489.914	94.94
490.132	95.94
490.35	83.94
490.568	81.94
490.786	84.94
491.003	94.94
491.221	79.94
491.439	75.94
491.657	94.94
491.874	82.94
492.092	73.94
492.31	95.94
492.527	84.94
492.745	83.94
492.963	83.94
493.18	83.94
493.398	85.94
493.615	87.94
493.833	85.94
494.05	77.94
494.268	81.94
494.485	81.94
494.703	79.94
494.92	88.94
495.138	97.94
495.355	95.94
495.573	83.94
495.79	92.94
496.008	83.94
496.225	90.94
496.442	72.94
496.66	93.94
496.877	75.94
497.094	92.94
497.312	88.94
497.529	94.94
497.746	86.94
497.963	91.94
498.181	82.94
498.398	79.94
498.615	100.94
498.832	104.94
499.049	101.94
499.267	89.94
499.484	83.94
499.701	80.94
499.918	100.94
500.135	97.94
500.352	86.94
500.569	90.94
500.786	97.94
501.003	89.94
501.22	83.94
501.437	91.94
501.654	84.94
501.871	98.94
502.088	92.94
502.305	91.94
502.522	90.94
502.739	101.94
502.956	90.94
503.172	78.94
503.389	100.94
503.606	97.94
503.823	78.94
504.04	79.94
504.256	86.94
504.473	81.94
504.69	80.94
504.907	88.94
505.123	79.94
505.34	91.94
505.557	78.94
505.773	86.94
505.99	83.94
506.207	79.94
506.423	81.94
506.64	73.94
506.856	91.94
507.073	75.94
507.289	94.94
507.506	87.94
507.722	99.94
507.939	108.94
508.155	94.94
508.372	82.94
508.588	92.94
508.805	97.94
509.021	94.94
509.238	94.94
509.454	88.94
509.67	86.94
509.887	98.94
510.103	105.94
510.319	193.94
510.536	665.94
510.752	2111.94
510.968	580.94
511.184	142.94
511.401	110.94
511.617	84.94
511.833	78.94
512.049	90.94
512.265	87.94
512.481	89.94
512.698	91.94
512.914	102.94
513.13	84.94
513.346	88.94
513.562	76.94
513.778	86.94
513.994	97.94
514.21	103.94
514.426	109.94
514.642	132.94
514.858	115.94
515.074	131.94
515.29	384.94
515.506	1292.94
515.721	447.94
515.937	126.94
516.153	97.94
516.369	100.94
516.585	100.94
