Data from Circ_1991_H10_HRD10591_00047.txt Node
Date: Wed Jan 03 11:51:50 EST 2024
User: Yrep
Spectrometer: HR+D1059
Trigger mode: 1
Integration Time (sec): 1.000000E-1
Scans to average: 1
Electric dark correction enabled: true
Nonlinearity correction enabled: false
Boxcar width: 0
XAxis mode: Wavelengths
Number of Pixels in Spectrum: 2048
>>>>>Begin Spectral Data<<<<<
223.165	-13.25
223.4	-13.25
223.635	-13.25
223.869	-13.25
224.104	-31.25
224.338	-25.25
224.573	-13.25
224.808	-15.25
225.042	-11.25
225.277	4.75
225.511	-11.25
225.746	4.75
225.98	14.75
226.215	17.75
226.449	20.75
226.683	18.75
226.918	24.75
227.152	27.75
227.387	27.75
227.621	36.75
227.856	41.75
228.09	40.75
228.324	50.75
228.559	59.75
228.793	66.75
229.027	53.75
229.262	66.75
229.496	61.75
229.73	93.75
229.964	87.75
230.199	75.75
230.433	86.75
230.667	62.75
230.901	86.75
231.136	87.75
231.37	65.75
231.604	87.75
231.838	68.75
232.072	93.75
232.306	85.75
232.541	96.75
232.775	72.75
233.009	86.75
233.243	73.75
233.477	76.75
233.711	97.75
233.945	83.75
234.179	84.75
234.413	91.75
234.647	85.75
234.881	72.75
235.115	83.75
235.349	66.75
235.583	72.75
235.817	79.75
236.051	80.75
236.285	78.75
236.519	86.75
236.753	95.75
236.987	84.75
237.221	73.75
237.455	75.75
237.689	75.75
237.922	80.75
238.156	76.75
238.39	69.75
238.624	68.75
238.858	79.75
239.091	70.75
239.325	70.75
239.559	80.75
239.793	79.75
240.027	74.75
240.26	62.75
240.494	67.75
240.728	70.75
240.961	85.75
241.195	80.75
241.429	71.75
241.662	85.75
241.896	73.75
242.13	75.75
242.363	89.75
242.597	82.75
242.83	59.75
243.064	77.75
243.298	81.75
243.531	66.75
243.765	94.75
243.998	84.75
244.232	77.75
244.465	87.75
244.699	70.75
244.932	87.75
245.166	67.75
245.399	70.75
245.633	75.75
245.866	76.75
246.099	93.75
246.333	80.75
246.566	81.75
246.8	74.75
247.033	82.75
247.266	72.75
247.5	73.75
247.733	86.75
247.966	97.75
248.2	92.75
248.433	71.75
248.666	86.75
248.899	80.75
249.133	85.75
249.366	97.75
249.599	93.75
249.832	84.75
250.066	81.75
250.299	78.75
250.532	92.75
250.765	91.75
250.998	73.75
251.231	70.75
251.465	68.75
251.698	67.75
251.931	83.75
252.164	86.75
252.397	75.75
252.63	77.75
252.863	82.75
253.096	82.75
253.329	70.75
253.562	79.75
253.795	83.75
254.028	89.75
254.261	85.75
254.494	75.75
254.727	83.75
254.96	87.75
255.193	91.75
255.426	63.75
255.659	93.75
255.892	83.75
256.124	67.75
256.357	79.75
256.59	78.75
256.823	88.75
257.056	68.75
257.289	83.75
257.521	72.75
257.754	71.75
257.987	82.75
258.22	83.75
258.452	87.75
258.685	91.75
258.918	90.75
259.151	84.75
259.383	85.75
259.616	75.75
259.849	80.75
260.081	85.75
260.314	85.75
260.547	85.75
260.779	84.75
261.012	84.75
261.244	94.75
261.477	90.75
261.71	100.75
261.942	111.75
262.175	104.75
262.407	88.75
262.64	88.75
262.872	88.75
263.105	75.75
263.337	72.75
263.57	87.75
263.802	81.75
264.035	77.75
264.267	87.75
264.499	82.75
264.732	99.75
264.964	80.75
265.197	87.75
265.429	81.75
265.661	97.75
265.894	85.75
266.126	63.75
266.358	85.75
266.591	89.75
266.823	72.75
267.055	68.75
267.287	81.75
267.52	75.75
267.752	94.75
267.984	89.75
268.216	88.75
268.448	95.75
268.681	79.75
268.913	84.75
269.145	73.75
269.377	92.75
269.609	77.75
269.841	77.75
270.073	81.75
270.306	88.75
270.538	97.75
270.77	92.75
271.002	94.75
271.234	64.75
271.466	91.75
271.698	87.75
271.93	80.75
272.162	100.75
272.394	100.75
272.626	94.75
272.858	87.75
273.09	86.75
273.322	70.75
273.553	81.75
273.785	79.75
274.017	83.75
274.249	76.75
274.481	96.75
274.713	79.75
274.945	86.75
275.176	100.75
275.408	71.75
275.64	80.75
275.872	93.75
276.104	97.75
276.335	78.75
276.567	80.75
276.799	112.75
277.031	111.75
277.262	119.75
277.494	105.75
277.726	92.75
277.957	92.75
278.189	94.75
278.421	93.75
278.652	80.75
278.884	86.75
279.115	96.75
279.347	91.75
279.579	82.75
279.81	105.75
280.042	119.75
280.273	133.75
280.505	120.75
280.736	89.75
280.968	96.75
281.199	90.75
281.431	85.75
281.662	95.75
281.894	95.75
282.125	99.75
282.356	114.75
282.588	136.75
282.819	114.75
283.051	80.75
283.282	88.75
283.513	78.75
283.745	83.75
283.976	100.75
284.207	84.75
284.439	89.75
284.67	80.75
284.901	79.75
285.132	98.75
285.364	93.75
285.595	86.75
285.826	92.75
286.057	76.75
286.288	111.75
286.52	78.75
286.751	83.75
286.982	86.75
287.213	83.75
287.444	76.75
287.675	88.75
287.906	88.75
288.138	105.75
288.369	94.75
288.6	84.75
288.831	94.75
289.062	86.75
289.293	91.75
289.524	97.75
289.755	95.75
289.986	73.75
290.217	88.75
290.448	88.75
290.679	86.75
290.91	89.75
291.141	88.75
291.371	80.75
291.602	79.75
291.833	100.75
292.064	75.75
292.295	101.75
292.526	84.75
292.757	82.75
292.987	88.75
293.218	94.75
293.449	83.75
293.68	80.75
293.91	91.75
294.141	96.75
294.372	60.75
294.603	89.75
294.833	94.75
295.064	87.75
295.295	93.75
295.525	93.75
295.756	110.75
295.987	101.75
296.217	131.75
296.448	125.75
296.679	104.75
296.909	99.75
297.14	94.75
297.37	79.75
297.601	78.75
297.831	79.75
298.062	79.75
298.292	92.75
298.523	86.75
298.753	88.75
298.984	100.75
299.214	86.75
299.445	88.75
299.675	105.75
299.905	105.75
300.136	97.75
300.366	93.75
300.597	91.75
300.827	88.75
301.057	88.75
301.288	116.75
301.518	93.75
301.748	79.75
301.979	85.75
302.209	87.75
302.439	76.75
302.669	87.75
302.9	83.75
303.13	86.75
303.36	94.75
303.59	109.75
303.82	116.75
304.051	88.75
304.281	94.75
304.511	88.75
304.741	77.75
304.971	90.75
305.201	106.75
305.431	94.75
305.661	95.75
305.891	85.75
306.121	99.75
306.352	94.75
306.582	104.75
306.812	91.75
307.042	98.75
307.272	108.75
307.502	102.75
307.731	117.75
307.961	99.75
308.191	96.75
308.421	97.75
308.651	103.75
308.881	86.75
309.111	83.75
309.341	107.75
309.571	108.75
309.8	101.75
310.03	99.75
310.26	82.75
310.49	84.75
310.72	97.75
310.949	104.75
311.179	91.75
311.409	96.75
311.639	88.75
311.868	98.75
312.098	99.75
312.328	84.75
312.557	84.75
312.787	100.75
313.017	117.75
313.246	95.75
313.476	92.75
313.706	95.75
313.935	101.75
314.165	90.75
314.394	95.75
314.624	92.75
314.853	111.75
315.083	110.75
315.312	95.75
315.542	101.75
315.771	103.75
316.001	94.75
316.23	89.75
316.46	90.75
316.689	93.75
316.919	98.75
317.148	105.75
317.377	97.75
317.607	106.75
317.836	97.75
318.065	90.75
318.295	89.75
318.524	105.75
318.753	75.75
318.983	107.75
319.212	97.75
319.441	105.75
319.67	101.75
319.9	99.75
320.129	83.75
320.358	96.75
320.587	83.75
320.816	102.75
321.046	98.75
321.275	113.75
321.504	93.75
321.733	95.75
321.962	104.75
322.191	93.75
322.42	107.75
322.649	103.75
322.878	110.75
323.108	107.75
323.337	112.75
323.566	142.75
323.795	151.75
324.024	198.75
324.253	369.75
324.482	817.75
324.71	1752.75
324.939	2302.75
325.168	811.75
325.397	239.75
325.626	155.75
325.855	132.75
326.084	113.75
326.313	134.75
326.542	154.75
326.77	211.75
326.999	431.75
327.228	918.75
327.457	1708.75
327.686	1437.75
327.914	409.75
328.143	269.75
328.372	253.75
328.6	168.75
328.829	134.75
329.058	126.75
329.287	124.75
329.515	114.75
329.744	144.75
329.972	181.75
330.201	326.75
330.43	467.75
330.658	249.75
330.887	178.75
331.115	124.75
331.344	100.75
331.572	108.75
331.801	112.75
332.03	108.75
332.258	102.75
332.486	111.75
332.715	85.75
332.943	100.75
333.172	105.75
333.4	97.75
333.629	127.75
333.857	136.75
334.085	201.75
334.314	315.75
334.542	573.75
334.771	510.75
334.999	181.75
335.227	132.75
335.455	109.75
335.684	101.75
335.912	88.75
336.14	101.75
336.369	97.75
336.597	103.75
336.825	110.75
337.053	112.75
337.281	105.75
337.51	92.75
337.738	83.75
337.966	95.75
338.194	88.75
338.422	105.75
338.65	92.75
338.878	100.75
339.106	84.75
339.334	84.75
339.562	86.75
339.79	86.75
340.018	84.75
340.246	86.75
340.474	84.75
340.702	101.75
340.93	81.75
341.158	103.75
341.386	96.75
341.614	81.75
341.842	86.75
342.07	103.75
342.298	88.75
342.526	84.75
342.754	99.75
342.981	81.75
343.209	96.75
343.437	95.75
343.665	91.75
343.893	98.75
344.12	94.75
344.348	85.75
344.576	91.75
344.804	99.75
345.031	95.75
345.259	115.75
345.487	105.75
345.714	93.75
345.942	96.75
346.17	82.75
346.397	79.75
346.625	99.75
346.853	97.75
347.08	82.75
347.308	93.75
347.535	125.75
347.763	85.75
347.99	103.75
348.218	87.75
348.445	97.75
348.673	96.75
348.9	97.75
349.128	107.75
349.355	92.75
349.583	93.75
349.81	98.75
350.037	91.75
350.265	98.75
350.492	96.75
350.72	85.75
350.947	99.75
351.174	109.75
351.402	114.75
351.629	108.75
351.856	99.75
352.083	113.75
352.311	101.75
352.538	99.75
352.765	112.75
352.992	112.75
353.22	115.75
353.447	96.75
353.674	117.75
353.901	92.75
354.128	100.75
354.355	100.75
354.583	98.75
354.81	97.75
355.037	102.75
355.264	94.75
355.491	101.75
355.718	99.75
355.945	84.75
356.172	81.75
356.399	92.75
356.626	86.75
356.853	84.75
357.08	91.75
357.307	85.75
357.534	84.75
357.761	92.75
357.988	87.75
358.215	111.75
358.441	94.75
358.668	87.75
358.895	89.75
359.122	86.75
359.349	98.75
359.576	102.75
359.802	92.75
360.029	114.75
360.256	99.75
360.483	88.75
360.709	85.75
360.936	103.75
361.163	99.75
361.39	106.75
361.616	93.75
361.843	77.75
362.07	95.75
362.296	96.75
362.523	99.75
362.749	107.75
362.976	85.75
363.203	84.75
363.429	90.75
363.656	89.75
363.882	88.75
364.109	77.75
364.335	93.75
364.562	77.75
364.788	84.75
365.015	99.75
365.241	100.75
365.468	95.75
365.694	98.75
365.92	90.75
366.147	94.75
366.373	87.75
366.599	75.75
366.826	99.75
367.052	80.75
367.278	84.75
367.505	89.75
367.731	86.75
367.957	98.75
368.184	91.75
368.41	99.75
368.636	105.75
368.862	112.75
369.089	103.75
369.315	86.75
369.541	89.75
369.767	81.75
369.993	79.75
370.219	89.75
370.445	92.75
370.672	99.75
370.898	97.75
371.124	94.75
371.35	93.75
371.576	87.75
371.802	84.75
372.028	86.75
372.254	89.75
372.48	86.75
372.706	83.75
372.932	91.75
373.158	87.75
373.384	101.75
373.61	89.75
373.835	85.75
374.061	71.75
374.287	82.75
374.513	89.75
374.739	95.75
374.965	94.75
375.191	85.75
375.416	85.75
375.642	97.75
375.868	80.75
376.094	83.75
376.319	97.75
376.545	91.75
376.771	86.75
376.997	87.75
377.222	106.75
377.448	85.75
377.674	84.75
377.899	77.75
378.125	81.75
378.35	100.75
378.576	85.75
378.802	103.75
379.027	85.75
379.253	84.75
379.478	93.75
379.704	95.75
379.929	92.75
380.155	93.75
380.38	89.75
380.606	94.75
380.831	89.75
381.057	103.75
381.282	107.75
381.507	83.75
381.733	103.75
381.958	102.75
382.184	90.75
382.409	94.75
382.634	103.75
382.86	100.75
383.085	106.75
383.31	98.75
383.535	98.75
383.761	104.75
383.986	106.75
384.211	99.75
384.436	102.75
384.662	97.75
384.887	114.75
385.112	108.75
385.337	102.75
385.562	117.75
385.787	113.75
386.013	96.75
386.238	111.75
386.463	103.75
386.688	118.75
386.913	109.75
387.138	106.75
387.363	97.75
387.588	97.75
387.813	96.75
388.038	96.75
388.263	107.75
388.488	109.75
388.713	113.75
388.938	104.75
389.163	84.75
389.387	95.75
389.612	84.75
389.837	87.75
390.062	95.75
390.287	94.75
390.512	80.75
390.736	109.75
390.961	88.75
391.186	89.75
391.411	100.75
391.636	82.75
391.86	81.75
392.085	81.75
392.31	80.75
392.534	98.75
392.759	86.75
392.984	94.75
393.208	100.75
393.433	122.75
393.658	120.75
393.882	93.75
394.107	82.75
394.331	94.75
394.556	93.75
394.78	99.75
395.005	99.75
395.229	93.75
395.454	80.75
395.678	93.75
395.903	70.75
396.127	86.75
396.352	98.75
396.576	105.75
396.801	110.75
397.025	101.75
397.249	97.75
397.474	92.75
397.698	85.75
397.922	107.75
398.147	99.75
398.371	101.75
398.595	102.75
398.82	79.75
399.044	97.75
399.268	96.75
399.492	83.75
399.717	93.75
399.941	83.75
400.165	94.75
400.389	89.75
400.613	93.75
400.837	98.75
401.062	91.75
401.286	95.75
401.51	93.75
401.734	89.75
401.958	94.75
402.182	118.75
402.406	155.75
402.63	110.75
402.854	99.75
403.078	93.75
403.302	87.75
403.526	86.75
403.75	84.75
403.974	85.75
404.198	87.75
404.422	98.75
404.645	92.75
404.869	103.75
405.093	107.75
405.317	115.75
405.541	116.75
405.765	107.75
405.988	115.75
406.212	160.75
406.436	217.75
406.66	160.75
406.883	96.75
407.107	105.75
407.331	95.75
407.555	99.75
407.778	94.75
408.002	88.75
408.226	88.75
408.449	97.75
408.673	107.75
408.896	94.75
409.12	100.75
409.344	100.75
409.567	89.75
409.791	96.75
410.014	75.75
410.238	79.75
410.461	86.75
410.685	103.75
410.908	104.75
411.132	98.75
411.355	99.75
411.578	98.75
411.802	99.75
412.025	86.75
412.249	101.75
412.472	91.75
412.695	112.75
412.919	87.75
413.142	99.75
413.365	75.75
413.589	68.75
413.812	97.75
414.035	95.75
414.258	95.75
414.482	113.75
414.705	103.75
414.928	100.75
415.151	91.75
415.374	100.75
415.597	97.75
415.821	83.75
416.044	93.75
416.267	80.75
416.49	86.75
416.713	107.75
416.936	86.75
417.159	89.75
417.382	89.75
417.605	94.75
417.828	91.75
418.051	98.75
418.274	91.75
418.497	104.75
418.72	109.75
418.943	86.75
419.166	82.75
419.389	92.75
419.611	101.75
419.834	88.75
420.057	89.75
420.28	80.75
420.503	83.75
420.726	81.75
420.948	99.75
421.171	109.75
421.394	89.75
421.617	100.75
421.839	102.75
422.062	84.75
422.285	98.75
422.507	92.75
422.73	111.75
422.953	95.75
423.175	82.75
423.398	99.75
423.621	86.75
423.843	88.75
424.066	99.75
424.288	95.75
424.511	91.75
424.733	92.75
424.956	109.75
425.178	97.75
425.401	100.75
425.623	105.75
425.846	105.75
426.068	102.75
426.291	83.75
426.513	79.75
426.735	91.75
426.958	100.75
427.18	115.75
427.402	139.75
427.625	163.75
427.847	163.75
428.069	159.75
428.292	102.75
428.514	95.75
428.736	91.75
428.958	84.75
429.181	83.75
429.403	87.75
429.625	94.75
429.847	88.75
430.069	105.75
430.292	104.75
430.514	86.75
430.736	88.75
430.958	88.75
431.18	80.75
431.402	103.75
431.624	83.75
431.846	83.75
432.068	96.75
432.29	95.75
432.512	95.75
432.734	81.75
432.956	84.75
433.178	103.75
433.4	111.75
433.622	77.75
433.844	85.75
434.066	98.75
434.287	87.75
434.509	84.75
434.731	87.75
434.953	90.75
435.175	83.75
435.397	73.75
435.618	93.75
435.84	94.75
436.062	132.75
436.284	112.75
436.505	108.75
436.727	110.75
436.949	101.75
437.17	87.75
437.392	78.75
437.614	94.75
437.835	97.75
438.057	130.75
438.278	98.75
438.5	99.75
438.721	120.75
438.943	93.75
439.165	97.75
439.386	87.75
439.608	95.75
439.829	97.75
440.05	121.75
440.272	144.75
440.493	88.75
440.715	90.75
440.936	92.75
441.158	90.75
441.379	97.75
441.6	86.75
441.822	95.75
442.043	99.75
442.264	122.75
442.486	108.75
442.707	91.75
442.928	101.75
443.149	127.75
443.371	124.75
443.592	109.75
443.813	119.75
444.034	102.75
444.255	96.75
444.476	86.75
444.698	83.75
444.919	84.75
445.14	117.75
445.361	120.75
445.582	132.75
445.803	137.75
446.024	152.75
446.245	132.75
446.466	102.75
446.687	99.75
446.908	80.75
447.129	94.75
447.35	68.75
447.571	87.75
447.792	91.75
448.013	99.75
448.234	105.75
448.455	93.75
448.675	113.75
448.896	135.75
449.117	95.75
449.338	109.75
449.559	123.75
449.779	131.75
450	86.75
450.221	88.75
450.442	79.75
450.662	96.75
450.883	128.75
451.104	107.75
451.324	79.75
451.545	86.75
451.766	100.75
451.986	75.75
452.207	87.75
452.428	96.75
452.648	89.75
452.869	108.75
453.089	113.75
453.31	114.75
453.53	99.75
453.751	87.75
453.971	85.75
454.192	97.75
454.412	96.75
454.633	83.75
454.853	80.75
455.073	103.75
455.294	85.75
455.514	101.75
455.734	80.75
455.955	92.75
456.175	94.75
456.395	84.75
456.616	86.75
456.836	77.75
457.056	96.75
457.276	93.75
457.497	87.75
457.717	94.75
457.937	89.75
458.157	93.75
458.377	87.75
458.598	107.75
458.818	140.75
459.038	157.75
459.258	108.75
459.478	91.75
459.698	101.75
459.918	92.75
460.138	80.75
460.358	95.75
460.578	100.75
460.798	93.75
461.018	105.75
461.238	97.75
461.458	86.75
461.678	91.75
461.898	79.75
462.118	78.75
462.338	77.75
462.558	78.75
462.777	77.75
462.997	98.75
463.217	87.75
463.437	92.75
463.657	83.75
463.876	93.75
464.096	100.75
464.316	92.75
464.536	95.75
464.755	103.75
464.975	103.75
465.195	169.75
465.414	141.75
465.634	83.75
465.854	83.75
466.073	89.75
466.293	95.75
466.512	80.75
466.732	84.75
466.951	86.75
467.171	87.75
467.391	88.75
467.61	104.75
467.829	135.75
468.049	223.75
468.268	291.75
468.488	124.75
468.707	83.75
468.927	77.75
469.146	89.75
469.365	94.75
469.585	88.75
469.804	104.75
470.023	92.75
470.243	101.75
470.462	106.75
470.681	95.75
470.901	86.75
471.12	103.75
471.339	98.75
471.558	86.75
471.777	105.75
471.997	152.75
472.216	457.75
472.435	833.75
472.654	227.75
472.873	102.75
473.092	104.75
473.311	104.75
473.53	96.75
473.749	102.75
473.968	95.75
474.187	110.75
474.406	96.75
474.625	105.75
474.844	88.75
475.063	87.75
475.282	86.75
475.501	78.75
475.72	70.75
475.939	80.75
476.158	95.75
476.377	88.75
476.596	99.75
476.814	97.75
477.033	102.75
477.252	83.75
477.471	101.75
477.69	102.75
477.908	94.75
478.127	84.75
478.346	91.75
478.564	95.75
478.783	117.75
479.002	94.75
479.22	93.75
479.439	102.75
479.658	113.75
479.876	103.75
480.095	96.75
480.313	98.75
480.532	108.75
480.751	144.75
480.969	392.75
481.188	1443.75
481.406	828.75
481.624	181.75
481.843	112.75
482.061	89.75
482.28	100.75
482.498	101.75
482.717	84.75
482.935	88.75
483.153	88.75
483.372	88.75
483.59	84.75
483.808	82.75
484.027	99.75
484.245	103.75
484.463	97.75
484.681	92.75
484.9	82.75
485.118	102.75
485.336	97.75
485.554	90.75
485.772	108.75
485.99	107.75
486.209	89.75
486.427	104.75
486.645	130.75
486.863	106.75
487.081	92.75
487.299	80.75
487.517	106.75
487.735	88.75
487.953	81.75
488.171	85.75
488.389	117.75
488.607	86.75
488.825	84.75
489.043	95.75
489.261	83.75
489.479	92.75
489.696	90.75
489.914	97.75
490.132	83.75
490.35	100.75
490.568	91.75
490.786	87.75
491.003	81.75
491.221	88.75
491.439	91.75
491.657	88.75
491.874	93.75
492.092	87.75
492.31	92.75
492.527	107.75
492.745	87.75
492.963	92.75
493.18	91.75
493.398	100.75
493.615	103.75
493.833	96.75
494.05	99.75
494.268	86.75
494.485	92.75
494.703	77.75
494.92	73.75
495.138	76.75
495.355	93.75
495.573	89.75
495.79	94.75
496.008	83.75
496.225	84.75
496.442	92.75
496.66	83.75
496.877	91.75
497.094	96.75
497.312	83.75
497.529	104.75
497.746	104.75
497.963	85.75
498.181	89.75
498.398	96.75
498.615	113.75
498.832	104.75
499.049	87.75
499.267	91.75
499.484	95.75
499.701	96.75
499.918	83.75
500.135	99.75
500.352	79.75
500.569	102.75
500.786	86.75
501.003	86.75
501.22	93.75
501.437	92.75
501.654	92.75
501.871	79.75
502.088	85.75
502.305	102.75
502.522	84.75
502.739	96.75
502.956	89.75
503.172	84.75
503.389	85.75
503.606	106.75
503.823	101.75
504.04	112.75
504.256	81.75
504.473	94.75
504.69	88.75
504.907	97.75
505.123	86.75
505.34	81.75
505.557	102.75
505.773	96.75
505.99	90.75
506.207	69.75
506.423	77.75
506.64	91.75
506.856	95.75
507.073	92.75
507.289	98.75
507.506	104.75
507.722	108.75
507.939	105.75
508.155	106.75
508.372	79.75
508.588	98.75
508.805	89.75
509.021	123.75
509.238	95.75
509.454	105.75
509.67	101.75
509.887	101.75
510.103	127.75
510.319	207.75
510.536	696.75
510.752	2294.75
510.968	608.75
511.184	161.75
511.401	113.75
511.617	101.75
511.833	95.75
512.049	98.75
512.265	95.75
512.481	91.75
512.698	91.75
512.914	89.75
513.13	96.75
513.346	95.75
513.562	97.75
513.778	109.75
513.994	80.75
514.21	91.75
514.426	104.75
514.642	131.75
