Data from Circ_1991_H10_HRD10591_00017.txt Node
Date: Wed Jan 03 11:51:44 EST 2024
User: Yrep
Spectrometer: HR+D1059
Trigger mode: 1
Integration Time (sec): 1.000000E-1
Scans to average: 1
Electric dark correction enabled: true
Nonlinearity correction enabled: false
Boxcar width: 0
XAxis mode: Wavelengths
Number of Pixels in Spectrum: 2048
>>>>>Begin Spectral Data<<<<<
223.165	-20.56
223.4	-20.56
223.635	-20.56
223.869	-10.56
224.104	-22.56
224.338	-14.56
224.573	-7.56
224.808	-10.56
225.042	-20.56
225.277	-6.56
225.511	10.44
225.746	6.44
225.98	6.44
226.215	16.44
226.449	11.44
226.683	15.44
226.918	13.44
227.152	33.44
227.387	30.44
227.621	40.44
227.856	37.44
228.09	50.44
228.324	57.44
228.559	54.44
228.793	62.44
229.027	60.44
229.262	70.44
229.496	80.44
229.73	91.44
229.964	80.44
230.199	77.44
230.433	65.44
230.667	82.44
230.901	66.44
231.136	68.44
231.37	71.44
231.604	84.44
231.838	76.44
232.072	83.44
232.306	85.44
232.541	86.44
232.775	67.44
233.009	85.44
233.243	79.44
233.477	75.44
233.711	82.44
233.945	83.44
234.179	76.44
234.413	84.44
234.647	96.44
234.881	80.44
235.115	88.44
235.349	69.44
235.583	92.44
235.817	84.44
236.051	59.44
236.285	71.44
236.519	79.44
236.753	88.44
236.987	75.44
237.221	78.44
237.455	86.44
237.689	76.44
237.922	72.44
238.156	65.44
238.39	61.44
238.624	86.44
238.858	82.44
239.091	68.44
239.325	81.44
239.559	88.44
239.793	78.44
240.027	81.44
240.26	85.44
240.494	77.44
240.728	85.44
240.961	70.44
241.195	80.44
241.429	78.44
241.662	78.44
241.896	75.44
242.13	71.44
242.363	66.44
242.597	87.44
242.83	65.44
243.064	81.44
243.298	78.44
243.531	82.44
243.765	73.44
243.998	66.44
244.232	91.44
244.465	76.44
244.699	94.44
244.932	86.44
245.166	91.44
245.399	85.44
245.633	76.44
245.866	83.44
246.099	82.44
246.333	76.44
246.566	82.44
246.8	82.44
247.033	83.44
247.266	83.44
247.5	83.44
247.733	80.44
247.966	82.44
248.2	92.44
248.433	95.44
248.666	70.44
248.899	83.44
249.133	72.44
249.366	96.44
249.599	102.44
249.832	78.44
250.066	94.44
250.299	87.44
250.532	92.44
250.765	76.44
250.998	78.44
251.231	74.44
251.465	92.44
251.698	75.44
251.931	69.44
252.164	80.44
252.397	79.44
252.63	85.44
252.863	80.44
253.096	65.44
253.329	78.44
253.562	86.44
253.795	76.44
254.028	89.44
254.261	92.44
254.494	78.44
254.727	71.44
254.96	84.44
255.193	92.44
255.426	79.44
255.659	78.44
255.892	87.44
256.124	84.44
256.357	83.44
256.59	84.44
256.823	78.44
257.056	70.44
257.289	78.44
257.521	85.44
257.754	82.44
257.987	88.44
258.22	94.44
258.452	84.44
258.685	83.44
258.918	91.44
259.151	83.44
259.383	78.44
259.616	83.44
259.849	92.44
260.081	80.44
260.314	85.44
260.547	74.44
260.779	101.44
261.012	83.44
261.244	94.44
261.477	98.44
261.71	100.44
261.942	116.44
262.175	108.44
262.407	91.44
262.64	89.44
262.872	91.44
263.105	90.44
263.337	81.44
263.57	79.44
263.802	94.44
264.035	90.44
264.267	87.44
264.499	99.44
264.732	85.44
264.964	86.44
265.197	84.44
265.429	82.44
265.661	83.44
265.894	86.44
266.126	99.44
266.358	90.44
266.591	92.44
266.823	81.44
267.055	80.44
267.287	90.44
267.52	85.44
267.752	78.44
267.984	78.44
268.216	83.44
268.448	86.44
268.681	90.44
268.913	77.44
269.145	84.44
269.377	74.44
269.609	75.44
269.841	80.44
270.073	75.44
270.306	80.44
270.538	85.44
270.77	71.44
271.002	79.44
271.234	87.44
271.466	94.44
271.698	87.44
271.93	75.44
272.162	74.44
272.394	92.44
272.626	81.44
272.858	76.44
273.09	72.44
273.322	82.44
273.553	82.44
273.785	79.44
274.017	81.44
274.249	79.44
274.481	84.44
274.713	78.44
274.945	86.44
275.176	87.44
275.408	79.44
275.64	87.44
275.872	90.44
276.104	97.44
276.335	103.44
276.567	88.44
276.799	112.44
277.031	87.44
277.262	103.44
277.494	96.44
277.726	86.44
277.957	93.44
278.189	94.44
278.421	90.44
278.652	82.44
278.884	87.44
279.115	82.44
279.347	94.44
279.579	92.44
279.81	96.44
280.042	99.44
280.273	100.44
280.505	101.44
280.736	91.44
280.968	84.44
281.199	97.44
281.431	79.44
281.662	68.44
281.894	93.44
282.125	110.44
282.356	105.44
282.588	112.44
282.819	103.44
283.051	84.44
283.282	87.44
283.513	84.44
283.745	93.44
283.976	107.44
284.207	111.44
284.439	91.44
284.67	86.44
284.901	104.44
285.132	95.44
285.364	74.44
285.595	86.44
285.826	91.44
286.057	99.44
286.288	86.44
286.52	86.44
286.751	92.44
286.982	90.44
287.213	88.44
287.444	95.44
287.675	89.44
287.906	86.44
288.138	95.44
288.369	97.44
288.6	82.44
288.831	75.44
289.062	83.44
289.293	107.44
289.524	102.44
289.755	106.44
289.986	85.44
290.217	86.44
290.448	82.44
290.679	97.44
290.91	87.44
291.141	88.44
291.371	87.44
291.602	82.44
291.833	74.44
292.064	85.44
292.295	91.44
292.526	92.44
292.757	84.44
292.987	99.44
293.218	78.44
293.449	84.44
293.68	96.44
293.91	93.44
294.141	91.44
294.372	88.44
294.603	97.44
294.833	74.44
295.064	83.44
295.295	98.44
295.525	97.44
295.756	116.44
295.987	115.44
296.217	128.44
296.448	114.44
296.679	78.44
296.909	99.44
297.14	98.44
297.37	91.44
297.601	82.44
297.831	93.44
298.062	87.44
298.292	85.44
298.523	72.44
298.753	92.44
298.984	92.44
299.214	101.44
299.445	99.44
299.675	98.44
299.905	103.44
300.136	99.44
300.366	77.44
300.597	83.44
300.827	102.44
301.057	99.44
301.288	97.44
301.518	99.44
301.748	95.44
301.979	90.44
302.209	94.44
302.439	116.44
302.669	90.44
302.9	83.44
303.13	85.44
303.36	99.44
303.59	82.44
303.82	115.44
304.051	88.44
304.281	90.44
304.511	95.44
304.741	89.44
304.971	92.44
305.201	109.44
305.431	94.44
305.661	95.44
305.891	95.44
306.121	99.44
306.352	103.44
306.582	92.44
306.812	92.44
307.042	98.44
307.272	108.44
307.502	99.44
307.731	104.44
307.961	94.44
308.191	83.44
308.421	87.44
308.651	95.44
308.881	93.44
309.111	84.44
309.341	90.44
309.571	100.44
309.8	86.44
310.03	102.44
310.26	93.44
310.49	103.44
310.72	94.44
310.949	108.44
311.179	95.44
311.409	91.44
311.639	81.44
311.868	101.44
312.098	102.44
312.328	93.44
312.557	93.44
312.787	104.44
313.017	92.44
313.246	82.44
313.476	94.44
313.706	96.44
313.935	97.44
314.165	106.44
314.394	106.44
314.624	94.44
314.853	86.44
315.083	95.44
315.312	94.44
315.542	84.44
315.771	99.44
316.001	86.44
316.23	82.44
316.46	107.44
316.689	93.44
316.919	90.44
317.148	99.44
317.377	87.44
317.607	88.44
317.836	94.44
318.065	81.44
318.295	92.44
318.524	90.44
318.753	82.44
318.983	102.44
319.212	90.44
319.441	106.44
319.67	107.44
319.9	114.44
320.129	83.44
320.358	93.44
320.587	82.44
320.816	94.44
321.046	99.44
321.275	107.44
321.504	111.44
321.733	99.44
321.962	94.44
322.191	93.44
322.42	101.44
322.649	111.44
322.878	109.44
323.108	111.44
323.337	120.44
323.566	129.44
323.795	154.44
324.024	194.44
324.253	360.44
324.482	740.44
324.71	1634.44
324.939	2081.44
325.168	784.44
325.397	247.44
325.626	143.44
325.855	120.44
326.084	122.44
326.313	140.44
326.542	141.44
326.77	215.44
326.999	443.44
327.228	887.44
327.457	1643.44
327.686	1310.44
327.914	357.44
328.143	221.44
328.372	196.44
328.6	144.44
328.829	116.44
329.058	119.44
329.287	130.44
329.515	110.44
329.744	125.44
329.972	162.44
330.201	231.44
330.43	274.44
330.658	177.44
330.887	146.44
331.115	113.44
331.344	98.44
331.572	119.44
331.801	103.44
332.03	101.44
332.258	107.44
332.486	94.44
332.715	98.44
332.943	98.44
333.172	92.44
333.4	107.44
333.629	95.44
333.857	122.44
334.085	159.44
334.314	219.44
334.542	327.44
334.771	311.44
334.999	164.44
335.227	104.44
335.455	97.44
335.684	98.44
335.912	104.44
336.14	103.44
336.369	108.44
336.597	86.44
336.825	94.44
337.053	97.44
337.281	99.44
337.51	83.44
337.738	99.44
337.966	87.44
338.194	95.44
338.422	93.44
338.65	86.44
338.878	107.44
339.106	97.44
339.334	97.44
339.562	69.44
339.79	95.44
340.018	98.44
340.246	89.44
340.474	101.44
340.702	103.44
340.93	90.44
341.158	75.44
341.386	83.44
341.614	85.44
341.842	94.44
342.07	105.44
342.298	89.44
342.526	71.44
342.754	87.44
342.981	76.44
343.209	78.44
343.437	85.44
343.665	91.44
343.893	99.44
344.12	94.44
344.348	82.44
344.576	92.44
344.804	82.44
345.031	102.44
345.259	84.44
345.487	96.44
345.714	99.44
345.942	98.44
346.17	90.44
346.397	79.44
346.625	82.44
346.853	87.44
347.08	83.44
347.308	93.44
347.535	96.44
347.763	99.44
347.99	87.44
348.218	97.44
348.445	83.44
348.673	101.44
348.9	100.44
349.128	87.44
349.355	92.44
349.583	86.44
349.81	87.44
350.037	104.44
350.265	98.44
350.492	86.44
350.72	102.44
350.947	95.44
351.174	90.44
351.402	105.44
351.629	107.44
351.856	102.44
352.083	103.44
352.311	93.44
352.538	113.44
352.765	81.44
352.992	99.44
353.22	107.44
353.447	97.44
353.674	101.44
353.901	99.44
354.128	100.44
354.355	91.44
354.583	99.44
354.81	102.44
355.037	94.44
355.264	100.44
355.491	94.44
355.718	91.44
355.945	84.44
356.172	94.44
356.399	93.44
356.626	99.44
356.853	106.44
357.08	99.44
357.307	96.44
357.534	97.44
357.761	95.44
357.988	96.44
358.215	104.44
358.441	103.44
358.668	94.44
358.895	95.44
359.122	85.44
359.349	104.44
359.576	85.44
359.802	96.44
360.029	107.44
360.256	110.44
360.483	97.44
360.709	84.44
360.936	104.44
361.163	100.44
361.39	87.44
361.616	81.44
361.843	82.44
362.07	90.44
362.296	94.44
362.523	72.44
362.749	98.44
362.976	79.44
363.203	99.44
363.429	95.44
363.656	94.44
363.882	85.44
364.109	78.44
364.335	99.44
364.562	87.44
364.788	101.44
365.015	91.44
365.241	94.44
365.468	108.44
365.694	101.44
365.92	82.44
366.147	98.44
366.373	94.44
366.599	80.44
366.826	79.44
367.052	86.44
367.278	89.44
367.505	87.44
367.731	86.44
367.957	85.44
368.184	107.44
368.41	86.44
368.636	110.44
368.862	101.44
369.089	104.44
369.315	93.44
369.541	87.44
369.767	87.44
369.993	92.44
370.219	93.44
370.445	92.44
370.672	76.44
370.898	87.44
371.124	84.44
371.35	86.44
371.576	94.44
371.802	92.44
372.028	81.44
372.254	94.44
372.48	77.44
372.706	72.44
372.932	83.44
373.158	88.44
373.384	100.44
373.61	83.44
373.835	87.44
374.061	82.44
374.287	89.44
374.513	92.44
374.739	100.44
374.965	92.44
375.191	78.44
375.416	85.44
375.642	82.44
375.868	86.44
376.094	93.44
376.319	81.44
376.545	91.44
376.771	78.44
376.997	92.44
377.222	94.44
377.448	91.44
377.674	104.44
377.899	98.44
378.125	82.44
378.35	98.44
378.576	83.44
378.802	83.44
379.027	85.44
379.253	104.44
379.478	84.44
379.704	88.44
379.929	100.44
380.155	102.44
380.38	96.44
380.606	103.44
380.831	97.44
381.057	90.44
381.282	102.44
381.507	104.44
381.733	103.44
381.958	92.44
382.184	92.44
382.409	103.44
382.634	104.44
382.86	105.44
383.085	114.44
383.31	109.44
383.535	111.44
383.761	110.44
383.986	106.44
384.211	100.44
384.436	105.44
384.662	99.44
384.887	117.44
385.112	118.44
385.337	133.44
385.562	116.44
385.787	125.44
386.013	118.44
386.238	132.44
386.463	117.44
386.688	128.44
386.913	110.44
387.138	127.44
387.363	117.44
387.588	109.44
387.813	102.44
388.038	116.44
388.263	136.44
388.488	117.44
388.713	98.44
388.938	89.44
389.163	100.44
389.387	93.44
389.612	87.44
389.837	92.44
390.062	102.44
390.287	93.44
390.512	70.44
390.736	85.44
390.961	84.44
391.186	96.44
391.411	92.44
391.636	87.44
391.86	97.44
392.085	96.44
392.31	98.44
392.534	71.44
392.759	89.44
392.984	115.44
393.208	140.44
393.433	213.44
393.658	175.44
393.882	90.44
394.107	92.44
394.331	79.44
394.556	83.44
394.78	90.44
395.005	88.44
395.229	79.44
395.454	95.44
395.678	81.44
395.903	90.44
396.127	91.44
396.352	99.44
396.576	90.44
396.801	118.44
397.025	142.44
397.249	101.44
397.474	76.44
397.698	90.44
397.922	84.44
398.147	80.44
398.371	91.44
398.595	83.44
398.82	87.44
399.044	83.44
399.268	92.44
399.492	104.44
399.717	95.44
399.941	82.44
400.165	84.44
400.389	80.44
400.613	84.44
400.837	80.44
401.062	80.44
401.286	83.44
401.51	95.44
401.734	86.44
401.958	101.44
402.182	99.44
402.406	146.44
402.63	98.44
402.854	93.44
403.078	85.44
403.302	89.44
403.526	99.44
403.75	87.44
403.974	88.44
404.198	79.44
404.422	89.44
404.645	96.44
404.869	87.44
405.093	104.44
405.317	116.44
405.541	109.44
405.765	101.44
405.988	117.44
406.212	147.44
406.436	218.44
406.66	138.44
406.883	107.44
407.107	90.44
407.331	90.44
407.555	92.44
407.778	96.44
408.002	84.44
408.226	81.44
408.449	84.44
408.673	78.44
408.896	100.44
409.12	105.44
409.344	85.44
409.567	78.44
409.791	85.44
410.014	102.44
410.238	84.44
410.461	94.44
410.685	90.44
410.908	90.44
411.132	107.44
411.355	108.44
411.578	100.44
411.802	87.44
412.025	92.44
412.249	94.44
412.472	92.44
412.695	99.44
412.919	94.44
413.142	101.44
413.365	85.44
413.589	96.44
413.812	104.44
414.035	90.44
414.258	93.44
414.482	79.44
414.705	86.44
414.928	91.44
415.151	98.44
415.374	93.44
415.597	94.44
415.821	86.44
416.044	100.44
416.267	92.44
416.49	83.44
416.713	84.44
416.936	94.44
417.159	85.44
417.382	84.44
417.605	93.44
417.828	90.44
418.051	98.44
418.274	85.44
418.497	85.44
418.72	81.44
418.943	102.44
419.166	112.44
419.389	87.44
419.611	79.44
419.834	92.44
420.057	91.44
420.28	111.44
420.503	92.44
420.726	94.44
420.948	84.44
421.171	98.44
421.394	94.44
421.617	88.44
421.839	82.44
422.062	97.44
422.285	92.44
422.507	101.44
422.73	110.44
422.953	98.44
423.175	94.44
423.398	95.44
423.621	90.44
423.843	86.44
424.066	102.44
424.288	91.44
424.511	87.44
424.733	106.44
424.956	111.44
425.178	111.44
425.401	101.44
425.623	106.44
425.846	99.44
426.068	92.44
426.291	102.44
426.513	95.44
426.735	100.44
426.958	103.44
427.18	101.44
427.402	138.44
427.625	166.44
427.847	133.44
428.069	142.44
428.292	99.44
428.514	79.44
428.736	85.44
428.958	72.44
429.181	92.44
429.403	88.44
429.625	84.44
429.847	85.44
430.069	98.44
430.292	91.44
430.514	89.44
430.736	85.44
430.958	87.44
431.18	77.44
431.402	82.44
431.624	76.44
431.846	71.44
432.068	82.44
432.29	85.44
432.512	95.44
432.734	107.44
432.956	87.44
433.178	107.44
433.4	92.44
433.622	93.44
433.844	101.44
434.066	97.44
434.287	92.44
434.509	86.44
434.731	91.44
434.953	78.44
435.175	83.44
435.397	90.44
435.618	91.44
435.84	103.44
436.062	136.44
436.284	115.44
436.505	104.44
436.727	102.44
436.949	91.44
437.17	87.44
437.392	79.44
437.614	88.44
437.835	100.44
438.057	114.44
438.278	127.44
438.5	107.44
438.721	120.44
438.943	117.44
439.165	92.44
439.386	99.44
439.608	77.44
439.829	96.44
440.05	114.44
440.272	136.44
440.493	105.44
440.715	86.44
440.936	85.44
441.158	94.44
441.379	89.44
441.6	101.44
441.822	98.44
442.043	99.44
442.264	111.44
442.486	104.44
442.707	97.44
442.928	99.44
443.149	123.44
443.371	125.44
443.592	109.44
443.813	88.44
444.034	103.44
444.255	89.44
444.476	94.44
444.698	92.44
444.919	76.44
445.14	144.44
445.361	115.44
445.582	121.44
445.803	137.44
446.024	144.44
446.245	130.44
446.466	115.44
446.687	93.44
446.908	76.44
447.129	100.44
447.35	92.44
447.571	84.44
447.792	92.44
448.013	90.44
448.234	104.44
448.455	103.44
448.675	120.44
448.896	122.44
449.117	95.44
449.338	85.44
449.559	119.44
449.779	149.44
450	101.44
450.221	87.44
450.442	91.44
450.662	99.44
450.883	115.44
451.104	115.44
451.324	99.44
451.545	100.44
451.766	80.44
451.986	98.44
452.207	94.44
452.428	91.44
452.648	98.44
452.869	93.44
453.089	104.44
453.31	114.44
453.53	76.44
453.751	106.44
453.971	108.44
454.192	101.44
454.412	78.44
454.633	102.44
454.853	86.44
455.073	93.44
455.294	87.44
455.514	90.44
455.734	100.44
455.955	87.44
456.175	94.44
456.395	95.44
456.616	93.44
456.836	82.44
457.056	71.44
457.276	86.44
457.497	84.44
457.717	62.44
457.937	84.44
458.157	94.44
458.377	85.44
458.598	95.44
458.818	133.44
459.038	150.44
459.258	124.44
459.478	82.44
459.698	96.44
459.918	91.44
460.138	85.44
460.358	82.44
460.578	73.44
460.798	76.44
461.018	100.44
461.238	80.44
461.458	70.44
461.678	88.44
461.898	80.44
462.118	90.44
462.338	91.44
462.558	86.44
462.777	75.44
462.997	93.44
463.217	79.44
463.437	70.44
463.657	74.44
463.876	92.44
464.096	83.44
464.316	83.44
464.536	87.44
464.755	96.44
464.975	108.44
465.195	162.44
465.414	145.44
465.634	86.44
465.854	88.44
466.073	95.44
466.293	93.44
466.512	77.44
466.732	94.44
466.951	92.44
467.171	96.44
467.391	96.44
467.61	108.44
467.829	107.44
468.049	151.44
468.268	187.44
468.488	85.44
468.707	98.44
468.927	95.44
469.146	90.44
469.365	81.44
469.585	89.44
469.804	93.44
470.023	91.44
470.243	81.44
470.462	96.44
470.681	108.44
470.901	92.44
471.12	93.44
471.339	86.44
471.558	90.44
471.777	100.44
471.997	121.44
472.216	245.44
472.435	459.44
472.654	156.44
472.873	98.44
473.092	99.44
473.311	96.44
473.53	92.44
473.749	93.44
473.968	88.44
474.187	99.44
474.406	90.44
474.625	99.44
474.844	89.44
475.063	98.44
475.282	95.44
475.501	76.44
475.72	109.44
475.939	82.44
476.158	77.44
476.377	95.44
476.596	81.44
476.814	90.44
477.033	90.44
477.252	84.44
477.471	65.44
477.69	84.44
477.908	90.44
478.127	76.44
478.346	96.44
478.564	100.44
478.783	107.44
479.002	91.44
479.22	96.44
479.439	94.44
479.658	109.44
479.876	109.44
480.095	96.44
480.313	110.44
480.532	96.44
480.751	122.44
480.969	242.44
481.188	766.44
481.406	460.44
481.624	138.44
481.843	88.44
482.061	87.44
482.28	82.44
482.498	89.44
482.717	93.44
482.935	86.44
483.153	85.44
483.372	99.44
483.59	95.44
483.808	80.44
484.027	85.44
484.245	81.44
484.463	95.44
484.681	93.44
484.9	95.44
485.118	87.44
485.336	83.44
485.554	100.44
485.772	95.44
485.99	87.44
486.209	102.44
486.427	116.44
486.645	102.44
486.863	100.44
487.081	97.44
487.299	102.44
487.517	88.44
487.735	83.44
487.953	100.44
488.171	86.44
488.389	88.44
488.607	97.44
488.825	109.44
489.043	90.44
489.261	86.44
489.479	87.44
489.696	90.44
489.914	81.44
490.132	92.44
490.35	87.44
490.568	95.44
490.786	103.44
491.003	91.44
491.221	101.44
491.439	80.44
491.657	70.44
491.874	77.44
492.092	91.44
492.31	95.44
492.527	88.44
492.745	83.44
492.963	97.44
493.18	82.44
493.398	83.44
493.615	92.44
493.833	92.44
494.05	90.44
494.268	93.44
494.485	95.44
494.703	92.44
494.92	85.44
495.138	82.44
495.355	79.44
495.573	81.44
495.79	87.44
496.008	94.44
496.225	92.44
496.442	100.44
496.66	88.44
496.877	96.44
497.094	84.44
497.312	87.44
497.529	79.44
497.746	94.44
497.963	101.44
498.181	92.44
498.398	93.44
498.615	115.44
498.832	99.44
499.049	88.44
499.267	103.44
499.484	86.44
499.701	100.44
499.918	83.44
500.135	86.44
500.352	86.44
500.569	93.44
500.786	97.44
501.003	84.44
501.22	91.44
501.437	99.44
501.654	99.44
501.871	110.44
502.088	74.44
502.305	101.44
502.522	84.44
502.739	103.44
502.956	84.44
503.172	87.44
503.389	86.44
503.606	99.44
503.823	101.44
504.04	100.44
504.256	77.44
504.473	91.44
504.69	87.44
504.907	98.44
505.123	102.44
505.34	88.44
505.557	87.44
505.773	107.44
505.99	94.44
506.207	101.44
506.423	92.44
506.64	98.44
506.856	80.44
507.073	87.44
507.289	93.44
507.506	97.44
507.722	112.44
507.939	105.44
508.155	104.44
508.372	92.44
508.588	92.44
508.805	87.44
509.021	96.44
509.238	91.44
509.454	96.44
509.67	100.44
509.887	115.44
510.103	129.44
510.319	200.44
510.536	667.44
510.752	2139.44
510.968	588.44
511.184	145.44
511.401	115.44
511.617	100.44
511.833	102.44
512.049	99.44
512.265	97.44
512.481	70.44
512.698	96.44
512.914	96.44
513.13	83.44
513.346	99.44
513.562	84.44
513.778	95.44
513.994	102.44
514.21	103.44
514.426	107.44
514.642	119.44
514.858	108.44
515.074	155.44
515.29	387.44
