Data from Circ_1991_H10_HRD10591_00086.txt Node
Date: Wed Jan 03 11:51:58 EST 2024
User: Yrep
Spectrometer: HR+D1059
Trigger mode: 1
Integration Time (sec): 1.000000E-1
Scans to average: 1
Electric dark correction enabled: true
Nonlinearity correction enabled: false
Boxcar width: 0
XAxis mode: Wavelengths
Number of Pixels in Spectrum: 2048
>>>>>Begin Spectral Data<<<<<
223.165	-12.56
223.4	-12.56
223.635	-12.56
223.869	-23.56
224.104	-10.56
224.338	-21.56
224.573	-15.56
224.808	0.44
225.042	-11.56
225.277	-13.56
225.511	2.44
225.746	-1.56
225.98	10.44
226.215	17.44
226.449	6.44
226.683	22.44
226.918	26.44
227.152	24.44
227.387	31.44
227.621	32.44
227.856	32.44
228.09	39.44
228.324	46.44
228.559	65.44
228.793	67.44
229.027	62.44
229.262	62.44
229.496	78.44
229.73	90.44
229.964	90.44
230.199	73.44
230.433	77.44
230.667	80.44
230.901	90.44
231.136	106.44
231.37	76.44
231.604	81.44
231.838	78.44
232.072	90.44
232.306	70.44
232.541	78.44
232.775	70.44
233.009	74.44
233.243	85.44
233.477	92.44
233.711	76.44
233.945	62.44
234.179	82.44
234.413	86.44
234.647	85.44
234.881	70.44
235.115	85.44
235.349	76.44
235.583	61.44
235.817	80.44
236.051	69.44
236.285	75.44
236.519	74.44
236.753	80.44
236.987	85.44
237.221	86.44
237.455	78.44
237.689	70.44
237.922	82.44
238.156	75.44
238.39	87.44
238.624	80.44
238.858	78.44
239.091	87.44
239.325	79.44
239.559	86.44
239.793	84.44
240.027	81.44
240.26	84.44
240.494	80.44
240.728	85.44
240.961	72.44
241.195	80.44
241.429	83.44
241.662	64.44
241.896	64.44
242.13	66.44
242.363	89.44
242.597	71.44
242.83	84.44
243.064	82.44
243.298	74.44
243.531	63.44
243.765	72.44
243.998	88.44
244.232	77.44
244.465	99.44
244.699	85.44
244.932	78.44
245.166	79.44
245.399	89.44
245.633	66.44
245.866	65.44
246.099	77.44
246.333	95.44
246.566	78.44
246.8	77.44
247.033	67.44
247.266	71.44
247.5	71.44
247.733	77.44
247.966	69.44
248.2	81.44
248.433	80.44
248.666	98.44
248.899	91.44
249.133	78.44
249.366	94.44
249.599	101.44
249.832	86.44
250.066	86.44
250.299	83.44
250.532	94.44
250.765	85.44
250.998	77.44
251.231	72.44
251.465	82.44
251.698	79.44
251.931	76.44
252.164	75.44
252.397	89.44
252.63	86.44
252.863	82.44
253.096	71.44
253.329	78.44
253.562	66.44
253.795	76.44
254.028	85.44
254.261	88.44
254.494	75.44
254.727	81.44
254.96	82.44
255.193	75.44
255.426	85.44
255.659	70.44
255.892	86.44
256.124	78.44
256.357	60.44
256.59	70.44
256.823	72.44
257.056	94.44
257.289	86.44
257.521	79.44
257.754	91.44
257.987	92.44
258.22	99.44
258.452	91.44
258.685	89.44
258.918	83.44
259.151	80.44
259.383	78.44
259.616	77.44
259.849	90.44
260.081	95.44
260.314	86.44
260.547	87.44
260.779	87.44
261.012	94.44
261.244	74.44
261.477	85.44
261.71	89.44
261.942	118.44
262.175	124.44
262.407	88.44
262.64	79.44
262.872	79.44
263.105	79.44
263.337	92.44
263.57	77.44
263.802	96.44
264.035	82.44
264.267	87.44
264.499	84.44
264.732	85.44
264.964	79.44
265.197	89.44
265.429	90.44
265.661	80.44
265.894	84.44
266.126	90.44
266.358	79.44
266.591	80.44
266.823	84.44
267.055	95.44
267.287	72.44
267.52	74.44
267.752	74.44
267.984	80.44
268.216	90.44
268.448	92.44
268.681	91.44
268.913	92.44
269.145	87.44
269.377	93.44
269.609	91.44
269.841	94.44
270.073	85.44
270.306	79.44
270.538	78.44
270.77	91.44
271.002	84.44
271.234	92.44
271.466	96.44
271.698	86.44
271.93	79.44
272.162	81.44
272.394	72.44
272.626	74.44
272.858	77.44
273.09	95.44
273.322	66.44
273.553	75.44
273.785	90.44
274.017	85.44
274.249	95.44
274.481	79.44
274.713	79.44
274.945	89.44
275.176	82.44
275.408	76.44
275.64	89.44
275.872	97.44
276.104	97.44
276.335	89.44
276.567	107.44
276.799	124.44
277.031	120.44
277.262	142.44
277.494	112.44
277.726	89.44
277.957	87.44
278.189	95.44
278.421	86.44
278.652	76.44
278.884	86.44
279.115	99.44
279.347	102.44
279.579	101.44
279.81	107.44
280.042	118.44
280.273	178.44
280.505	138.44
280.736	101.44
280.968	87.44
281.199	81.44
281.431	92.44
281.662	93.44
281.894	100.44
282.125	101.44
282.356	122.44
282.588	151.44
282.819	106.44
283.051	70.44
283.282	86.44
283.513	101.44
283.745	101.44
283.976	79.44
284.207	83.44
284.439	91.44
284.67	82.44
284.901	74.44
285.132	78.44
285.364	84.44
285.595	99.44
285.826	96.44
286.057	76.44
286.288	95.44
286.52	79.44
286.751	93.44
286.982	85.44
287.213	82.44
287.444	78.44
287.675	93.44
287.906	96.44
288.138	96.44
288.369	102.44
288.6	93.44
288.831	91.44
289.062	79.44
289.293	91.44
289.524	88.44
289.755	82.44
289.986	100.44
290.217	87.44
290.448	80.44
290.679	73.44
290.91	82.44
291.141	93.44
291.371	87.44
291.602	87.44
291.833	76.44
292.064	83.44
292.295	101.44
292.526	93.44
292.757	91.44
292.987	90.44
293.218	79.44
293.449	94.44
293.68	82.44
293.91	94.44
294.141	81.44
294.372	98.44
294.603	70.44
294.833	93.44
295.064	97.44
295.295	98.44
295.525	91.44
295.756	100.44
295.987	128.44
296.217	144.44
296.448	129.44
296.679	96.44
296.909	99.44
297.14	87.44
297.37	85.44
297.601	87.44
297.831	89.44
298.062	112.44
298.292	95.44
298.523	90.44
298.753	86.44
298.984	78.44
299.214	104.44
299.445	89.44
299.675	91.44
299.905	90.44
300.136	78.44
300.366	97.44
300.597	89.44
300.827	99.44
301.057	103.44
301.288	115.44
301.518	88.44
301.748	94.44
301.979	115.44
302.209	108.44
302.439	101.44
302.669	92.44
302.9	88.44
303.13	104.44
303.36	107.44
303.59	97.44
303.82	99.44
304.051	80.44
304.281	89.44
304.511	95.44
304.741	94.44
304.971	88.44
305.201	88.44
305.431	83.44
305.661	104.44
305.891	91.44
306.121	85.44
306.352	111.44
306.582	104.44
306.812	94.44
307.042	105.44
307.272	94.44
307.502	147.44
307.731	129.44
307.961	105.44
308.191	95.44
308.421	95.44
308.651	103.44
308.881	91.44
309.111	99.44
309.341	91.44
309.571	91.44
309.8	92.44
310.03	95.44
310.26	111.44
310.49	98.44
310.72	82.44
310.949	86.44
311.179	86.44
311.409	85.44
311.639	79.44
311.868	107.44
312.098	87.44
312.328	107.44
312.557	110.44
312.787	105.44
313.017	113.44
313.246	94.44
313.476	82.44
313.706	112.44
313.935	92.44
314.165	100.44
314.394	115.44
314.624	83.44
314.853	92.44
315.083	104.44
315.312	94.44
315.542	86.44
315.771	76.44
316.001	114.44
316.23	87.44
316.46	86.44
316.689	93.44
316.919	89.44
317.148	90.44
317.377	80.44
317.607	90.44
317.836	94.44
318.065	81.44
318.295	82.44
318.524	93.44
318.753	79.44
318.983	96.44
319.212	88.44
319.441	103.44
319.67	100.44
319.9	87.44
320.129	100.44
320.358	84.44
320.587	113.44
320.816	97.44
321.046	102.44
321.275	93.44
321.504	90.44
321.733	105.44
321.962	105.44
322.191	102.44
322.42	108.44
322.649	119.44
322.878	107.44
323.108	109.44
323.337	142.44
323.566	142.44
323.795	163.44
324.024	213.44
324.253	446.44
324.482	972.44
324.71	2071.44
324.939	2796.44
325.168	991.44
325.397	279.44
325.626	184.44
325.855	140.44
326.084	124.44
326.313	141.44
326.542	170.44
326.77	265.44
326.999	502.44
327.228	1125.44
327.457	2126.44
327.686	1734.44
327.914	501.44
328.143	351.44
328.372	381.44
328.6	233.44
328.829	143.44
329.058	142.44
329.287	155.44
329.515	125.44
329.744	162.44
329.972	276.44
330.201	532.44
330.43	742.44
330.658	359.44
330.887	206.44
331.115	156.44
331.344	110.44
331.572	119.44
331.801	105.44
332.03	102.44
332.258	106.44
332.486	97.44
332.715	104.44
332.943	104.44
333.172	102.44
333.4	118.44
333.629	119.44
333.857	161.44
334.085	268.44
334.314	488.44
334.542	914.44
334.771	850.44
334.999	255.44
335.227	127.44
335.455	113.44
335.684	105.44
335.912	96.44
336.14	112.44
336.369	91.44
336.597	106.44
336.825	105.44
337.053	97.44
337.281	84.44
337.51	90.44
337.738	98.44
337.966	96.44
338.194	98.44
338.422	95.44
338.65	106.44
338.878	94.44
339.106	91.44
339.334	99.44
339.562	95.44
339.79	88.44
340.018	87.44
340.246	104.44
340.474	109.44
340.702	103.44
340.93	86.44
341.158	92.44
341.386	103.44
341.614	88.44
341.842	97.44
342.07	86.44
342.298	91.44
342.526	100.44
342.754	87.44
342.981	90.44
343.209	91.44
343.437	113.44
343.665	86.44
343.893	109.44
344.12	93.44
344.348	93.44
344.576	98.44
344.804	105.44
345.031	98.44
345.259	108.44
345.487	102.44
345.714	85.44
345.942	82.44
346.17	104.44
346.397	94.44
346.625	92.44
346.853	81.44
347.08	71.44
347.308	101.44
347.535	95.44
347.763	107.44
347.99	101.44
348.218	117.44
348.445	106.44
348.673	100.44
348.9	100.44
349.128	98.44
349.355	93.44
349.583	82.44
349.81	91.44
350.037	91.44
350.265	115.44
350.492	95.44
350.72	87.44
350.947	95.44
351.174	99.44
351.402	124.44
351.629	113.44
351.856	98.44
352.083	109.44
352.311	118.44
352.538	103.44
352.765	102.44
352.992	119.44
353.22	95.44
353.447	98.44
353.674	103.44
353.901	101.44
354.128	93.44
354.355	117.44
354.583	90.44
354.81	101.44
355.037	101.44
355.264	81.44
355.491	83.44
355.718	88.44
355.945	80.44
356.172	93.44
356.399	98.44
356.626	93.44
356.853	93.44
357.08	86.44
357.307	84.44
357.534	82.44
357.761	99.44
357.988	87.44
358.215	104.44
358.441	92.44
358.668	90.44
358.895	99.44
359.122	101.44
359.349	95.44
359.576	97.44
359.802	114.44
360.029	111.44
360.256	130.44
360.483	102.44
360.709	91.44
360.936	92.44
361.163	94.44
361.39	100.44
361.616	107.44
361.843	89.44
362.07	88.44
362.296	102.44
362.523	90.44
362.749	90.44
362.976	100.44
363.203	103.44
363.429	109.44
363.656	88.44
363.882	87.44
364.109	99.44
364.335	76.44
364.562	87.44
364.788	83.44
365.015	96.44
365.241	97.44
365.468	102.44
365.694	117.44
365.92	94.44
366.147	87.44
366.373	90.44
366.599	92.44
366.826	87.44
367.052	87.44
367.278	91.44
367.505	100.44
367.731	112.44
367.957	87.44
368.184	88.44
368.41	100.44
368.636	118.44
368.862	128.44
369.089	110.44
369.315	91.44
369.541	99.44
369.767	88.44
369.993	93.44
370.219	85.44
370.445	77.44
370.672	92.44
370.898	86.44
371.124	98.44
371.35	105.44
371.576	78.44
371.802	82.44
372.028	81.44
372.254	99.44
372.48	90.44
372.706	82.44
372.932	90.44
373.158	96.44
373.384	88.44
373.61	87.44
373.835	82.44
374.061	86.44
374.287	94.44
374.513	85.44
374.739	86.44
374.965	75.44
375.191	80.44
375.416	92.44
375.642	79.44
375.868	86.44
376.094	90.44
376.319	78.44
376.545	95.44
376.771	82.44
376.997	82.44
377.222	80.44
377.448	83.44
377.674	92.44
377.899	92.44
378.125	94.44
378.35	87.44
378.576	76.44
378.802	69.44
379.027	86.44
379.253	94.44
379.478	93.44
379.704	94.44
379.929	87.44
380.155	86.44
380.38	103.44
380.606	107.44
380.831	101.44
381.057	96.44
381.282	88.44
381.507	91.44
381.733	88.44
381.958	85.44
382.184	98.44
382.409	83.44
382.634	100.44
382.86	92.44
383.085	101.44
383.31	90.44
383.535	76.44
383.761	110.44
383.986	91.44
384.211	88.44
384.436	92.44
384.662	91.44
384.887	88.44
385.112	103.44
385.337	100.44
385.562	109.44
385.787	106.44
386.013	123.44
386.238	108.44
386.463	102.44
386.688	102.44
386.913	96.44
387.138	95.44
387.363	103.44
387.588	91.44
387.813	98.44
388.038	117.44
388.263	100.44
388.488	108.44
388.713	94.44
388.938	86.44
389.163	96.44
389.387	98.44
389.612	87.44
389.837	87.44
390.062	99.44
390.287	94.44
390.512	103.44
390.736	89.44
390.961	92.44
391.186	108.44
391.411	87.44
391.636	98.44
391.86	94.44
392.085	93.44
392.31	72.44
392.534	77.44
392.759	80.44
392.984	80.44
393.208	83.44
393.433	100.44
393.658	100.44
393.882	70.44
394.107	98.44
394.331	83.44
394.556	81.44
394.78	93.44
395.005	90.44
395.229	96.44
395.454	88.44
395.678	84.44
395.903	76.44
396.127	91.44
396.352	84.44
396.576	82.44
396.801	90.44
397.025	98.44
397.249	77.44
397.474	97.44
397.698	78.44
397.922	82.44
398.147	93.44
398.371	94.44
398.595	81.44
398.82	74.44
399.044	90.44
399.268	85.44
399.492	87.44
399.717	89.44
399.941	84.44
400.165	97.44
400.389	82.44
400.613	88.44
400.837	87.44
401.062	82.44
401.286	94.44
401.51	87.44
401.734	88.44
401.958	98.44
402.182	125.44
402.406	159.44
402.63	135.44
402.854	88.44
403.078	93.44
403.302	83.44
403.526	82.44
403.75	101.44
403.974	82.44
404.198	81.44
404.422	89.44
404.645	82.44
404.869	97.44
405.093	118.44
405.317	119.44
405.541	106.44
405.765	111.44
405.988	127.44
406.212	190.44
406.436	261.44
406.66	150.44
406.883	94.44
407.107	95.44
407.331	96.44
407.555	121.44
407.778	93.44
408.002	81.44
408.226	80.44
408.449	85.44
408.673	96.44
408.896	91.44
409.12	85.44
409.344	92.44
409.567	100.44
409.791	89.44
410.014	72.44
410.238	91.44
410.461	95.44
410.685	91.44
410.908	87.44
411.132	97.44
411.355	97.44
411.578	100.44
411.802	85.44
412.025	88.44
412.249	82.44
412.472	113.44
412.695	123.44
412.919	96.44
413.142	85.44
413.365	94.44
413.589	96.44
413.812	99.44
414.035	89.44
414.258	86.44
414.482	89.44
414.705	85.44
414.928	94.44
415.151	97.44
415.374	87.44
415.597	88.44
415.821	95.44
416.044	87.44
416.267	95.44
416.49	95.44
416.713	96.44
416.936	91.44
417.159	84.44
417.382	90.44
417.605	96.44
417.828	102.44
418.051	92.44
418.274	94.44
418.497	79.44
418.72	72.44
418.943	81.44
419.166	85.44
419.389	90.44
419.611	84.44
419.834	90.44
420.057	98.44
420.28	83.44
420.503	90.44
420.726	78.44
420.948	89.44
421.171	106.44
421.394	108.44
421.617	89.44
421.839	100.44
422.062	92.44
422.285	81.44
422.507	100.44
422.73	113.44
422.953	104.44
423.175	101.44
423.398	88.44
423.621	77.44
423.843	78.44
424.066	98.44
424.288	86.44
424.511	93.44
424.733	103.44
424.956	118.44
425.178	98.44
425.401	93.44
425.623	105.44
425.846	90.44
426.068	95.44
426.291	96.44
426.513	87.44
426.735	104.44
426.958	116.44
427.18	107.44
427.402	147.44
427.625	218.44
427.847	184.44
428.069	197.44
428.292	107.44
428.514	88.44
428.736	73.44
428.958	94.44
429.181	90.44
429.403	90.44
429.625	82.44
429.847	106.44
430.069	103.44
430.292	94.44
430.514	89.44
430.736	87.44
430.958	87.44
431.18	86.44
431.402	87.44
431.624	83.44
431.846	89.44
432.068	83.44
432.29	95.44
432.512	88.44
432.734	88.44
432.956	94.44
433.178	96.44
433.4	106.44
433.622	92.44
433.844	86.44
434.066	106.44
434.287	86.44
434.509	91.44
434.731	82.44
434.953	97.44
435.175	87.44
435.397	96.44
435.618	85.44
435.84	113.44
436.062	127.44
436.284	110.44
436.505	94.44
436.727	97.44
436.949	92.44
437.17	74.44
437.392	91.44
437.614	94.44
437.835	112.44
438.057	123.44
438.278	108.44
438.5	101.44
438.721	124.44
438.943	122.44
439.165	92.44
439.386	102.44
439.608	92.44
439.829	111.44
440.05	140.44
440.272	159.44
440.493	111.44
440.715	81.44
440.936	88.44
441.158	90.44
441.379	82.44
441.6	88.44
441.822	103.44
442.043	107.44
442.264	99.44
442.486	97.44
442.707	95.44
442.928	112.44
443.149	145.44
443.371	123.44
443.592	115.44
443.813	121.44
444.034	113.44
444.255	87.44
444.476	87.44
444.698	85.44
444.919	93.44
445.14	117.44
445.361	122.44
445.582	132.44
445.803	167.44
446.024	162.44
446.245	166.44
446.466	133.44
446.687	98.44
446.908	95.44
447.129	79.44
447.35	84.44
447.571	85.44
447.792	95.44
448.013	107.44
448.234	119.44
448.455	115.44
448.675	113.44
448.896	125.44
449.117	102.44
449.338	109.44
449.559	129.44
449.779	150.44
450	89.44
450.221	85.44
450.442	92.44
450.662	114.44
450.883	125.44
451.104	136.44
451.324	97.44
451.545	92.44
451.766	96.44
451.986	95.44
452.207	102.44
452.428	88.44
452.648	102.44
452.869	112.44
453.089	115.44
453.31	128.44
453.53	97.44
453.751	77.44
453.971	104.44
454.192	122.44
454.412	101.44
454.633	98.44
454.853	86.44
455.073	93.44
455.294	83.44
455.514	98.44
455.734	100.44
455.955	67.44
456.175	87.44
456.395	84.44
456.616	93.44
456.836	84.44
457.056	79.44
457.276	88.44
457.497	84.44
457.717	86.44
457.937	86.44
458.157	95.44
458.377	85.44
458.598	102.44
458.818	163.44
459.038	191.44
459.258	134.44
459.478	93.44
459.698	98.44
459.918	94.44
460.138	83.44
460.358	87.44
460.578	69.44
460.798	88.44
461.018	99.44
461.238	85.44
461.458	92.44
461.678	89.44
461.898	101.44
462.118	90.44
462.338	86.44
462.558	82.44
462.777	101.44
462.997	86.44
463.217	91.44
463.437	88.44
463.657	87.44
463.876	85.44
464.096	95.44
464.316	114.44
464.536	95.44
464.755	93.44
464.975	109.44
465.195	180.44
465.414	189.44
465.634	102.44
465.854	97.44
466.073	93.44
466.293	77.44
466.512	83.44
466.732	82.44
466.951	83.44
467.171	84.44
467.391	94.44
467.61	131.44
467.829	154.44
468.049	305.44
468.268	460.44
468.488	155.44
468.707	94.44
468.927	86.44
469.146	88.44
469.365	84.44
469.585	78.44
469.804	98.44
470.023	100.44
470.243	94.44
470.462	96.44
470.681	120.44
470.901	93.44
471.12	86.44
471.339	91.44
471.558	118.44
471.777	135.44
471.997	189.44
472.216	616.44
472.435	1325.44
472.654	346.44
472.873	118.44
473.092	104.44
473.311	89.44
473.53	87.44
473.749	88.44
473.968	103.44
474.187	115.44
474.406	99.44
474.625	78.44
474.844	92.44
475.063	104.44
475.282	92.44
475.501	82.44
475.72	94.44
475.939	90.44
476.158	99.44
476.377	96.44
476.596	98.44
476.814	94.44
477.033	91.44
477.252	76.44
477.471	97.44
477.69	82.44
477.908	99.44
478.127	102.44
478.346	96.44
478.564	88.44
478.783	93.44
479.002	89.44
479.22	109.44
479.439	119.44
479.658	111.44
479.876	110.44
480.095	110.44
480.313	113.44
480.532	134.44
480.751	191.44
480.969	593.44
481.188	2332.44
481.406	1301.44
481.624	238.44
481.843	112.44
482.061	103.44
482.28	92.44
482.498	89.44
482.717	89.44
482.935	93.44
483.153	91.44
483.372	88.44
483.59	87.44
483.808	99.44
484.027	86.44
484.245	84.44
484.463	100.44
484.681	106.44
484.9	97.44
485.118	91.44
485.336	93.44
485.554	106.44
485.772	106.44
485.99	93.44
486.209	86.44
486.427	95.44
486.645	115.44
486.863	108.44
487.081	102.44
487.299	93.44
487.517	103.44
487.735	106.44
487.953	80.44
488.171	103.44
488.389	91.44
488.607	100.44
488.825	93.44
489.043	101.44
489.261	90.44
489.479	83.44
489.696	101.44
489.914	94.44
490.132	100.44
490.35	96.44
490.568	88.44
490.786	80.44
491.003	94.44
491.221	83.44
491.439	85.44
491.657	86.44
491.874	91.44
492.092	98.44
492.31	89.44
492.527	97.44
492.745	98.44
492.963	97.44
493.18	94.44
493.398	89.44
493.615	101.44
493.833	87.44
494.05	100.44
494.268	96.44
494.485	96.44
494.703	85.44
494.92	85.44
495.138	92.44
495.355	88.44
495.573	98.44
495.79	92.44
496.008	92.44
496.225	93.44
496.442	70.44
496.66	90.44
496.877	78.44
497.094	89.44
497.312	96.44
497.529	76.44
497.746	87.44
497.963	81.44
498.181	86.44
498.398	92.44
498.615	107.44
498.832	98.44
499.049	94.44
499.267	99.44
499.484	95.44
499.701	98.44
499.918	102.44
500.135	96.44
500.352	90.44
500.569	86.44
500.786	112.44
501.003	90.44
501.22	89.44
501.437	89.44
501.654	100.44
501.871	120.44
502.088	100.44
502.305	90.44
502.522	72.44
502.739	93.44
502.956	94.44
503.172	84.44
503.389	97.44
503.606	113.44
503.823	101.44
504.04	103.44
504.256	81.44
504.473	89.44
504.69	104.44
504.907	94.44
505.123	81.44
505.34	82.44
505.557	70.44
505.773	87.44
505.99	90.44
506.207	87.44
506.423	96.44
506.64	90.44
506.856	98.44
507.073	91.44
507.289	90.44
507.506	103.44
507.722	117.44
507.939	119.44
508.155	96.44
508.372	97.44
508.588	100.44
508.805	96.44
509.021	89.44
509.238	109.44
509.454	118.44
509.67	94.44
509.887	114.44
510.103	147.44
510.319	213.44
510.536	804.44
510.752	2668.44
510.968	735.44
511.184	162.44
511.401	110.44
511.617	102.44
511.833	108.44
512.049	101.44
512.265	103.44
512.481	99.44
512.698	99.44
512.914	85.44
513.13	86.44
513.346	83.44
513.562	113.44
513.778	104.44
513.994	95.44
514.21	107.44
514.426	125.44
