Data from Circ_1991_H10_HRD10591_00027.txt Node
Date: Wed Jan 03 11:51:46 EST 2024
User: Yrep
Spectrometer: HR+D1059
Trigger mode: 1
Integration Time (sec): 1.000000E-1
Scans to average: 1
Electric dark correction enabled: true
Nonlinearity correction enabled: false
Boxcar width: 0
XAxis mode: Wavelengths
Number of Pixels in Spectrum: 2048
>>>>>Begin Spectral Data<<<<<
223.165	-16.44
223.4	-16.44
223.635	-16.44
223.869	-14.44
224.104	-13.44
224.338	-20.44
224.573	-10.44
224.808	-9.44
225.042	-5.44
225.277	-4.44
225.511	-3.44
225.746	9.56
225.98	0.56
226.215	-1.44
226.449	8.56
226.683	17.56
226.918	32.56
227.152	30.56
227.387	34.56
227.621	50.56
227.856	52.56
228.09	42.56
228.324	57.56
228.559	51.56
228.793	67.56
229.027	73.56
229.262	64.56
229.496	74.56
229.73	63.56
229.964	77.56
230.199	76.56
230.433	61.56
230.667	82.56
230.901	77.56
231.136	78.56
231.37	58.56
231.604	88.56
231.838	80.56
232.072	84.56
232.306	83.56
232.541	61.56
232.775	93.56
233.009	90.56
233.243	84.56
233.477	84.56
233.711	85.56
233.945	74.56
234.179	81.56
234.413	93.56
234.647	78.56
234.881	81.56
235.115	76.56
235.349	77.56
235.583	81.56
235.817	76.56
236.051	83.56
236.285	85.56
236.519	88.56
236.753	80.56
236.987	75.56
237.221	82.56
237.455	80.56
237.689	77.56
237.922	81.56
238.156	78.56
238.39	75.56
238.624	73.56
238.858	68.56
239.091	74.56
239.325	67.56
239.559	80.56
239.793	67.56
240.027	85.56
240.26	76.56
240.494	85.56
240.728	86.56
240.961	77.56
241.195	89.56
241.429	85.56
241.662	67.56
241.896	82.56
242.13	72.56
242.363	66.56
242.597	67.56
242.83	72.56
243.064	73.56
243.298	84.56
243.531	68.56
243.765	77.56
243.998	72.56
244.232	67.56
244.465	89.56
244.699	72.56
244.932	80.56
245.166	78.56
245.399	65.56
245.633	76.56
245.866	84.56
246.099	74.56
246.333	72.56
246.566	84.56
246.8	68.56
247.033	85.56
247.266	73.56
247.5	69.56
247.733	75.56
247.966	84.56
248.2	75.56
248.433	82.56
248.666	79.56
248.899	64.56
249.133	76.56
249.366	94.56
249.599	93.56
249.832	63.56
250.066	70.56
250.299	81.56
250.532	76.56
250.765	84.56
250.998	73.56
251.231	82.56
251.465	88.56
251.698	78.56
251.931	83.56
252.164	78.56
252.397	66.56
252.63	78.56
252.863	95.56
253.096	76.56
253.329	86.56
253.562	73.56
253.795	80.56
254.028	65.56
254.261	67.56
254.494	77.56
254.727	80.56
254.96	76.56
255.193	83.56
255.426	84.56
255.659	81.56
255.892	87.56
256.124	85.56
256.357	75.56
256.59	86.56
256.823	84.56
257.056	88.56
257.289	83.56
257.521	72.56
257.754	69.56
257.987	80.56
258.22	60.56
258.452	83.56
258.685	72.56
258.918	84.56
259.151	67.56
259.383	74.56
259.616	74.56
259.849	74.56
260.081	82.56
260.314	78.56
260.547	78.56
260.779	90.56
261.012	91.56
261.244	86.56
261.477	89.56
261.71	102.56
261.942	105.56
262.175	98.56
262.407	89.56
262.64	95.56
262.872	86.56
263.105	78.56
263.337	101.56
263.57	89.56
263.802	69.56
264.035	73.56
264.267	80.56
264.499	78.56
264.732	83.56
264.964	81.56
265.197	73.56
265.429	75.56
265.661	94.56
265.894	77.56
266.126	94.56
266.358	83.56
266.591	74.56
266.823	80.56
267.055	88.56
267.287	88.56
267.52	82.56
267.752	89.56
267.984	90.56
268.216	93.56
268.448	78.56
268.681	74.56
268.913	92.56
269.145	80.56
269.377	92.56
269.609	85.56
269.841	70.56
270.073	76.56
270.306	86.56
270.538	92.56
270.77	75.56
271.002	81.56
271.234	85.56
271.466	81.56
271.698	85.56
271.93	86.56
272.162	86.56
272.394	74.56
272.626	92.56
272.858	80.56
273.09	88.56
273.322	82.56
273.553	90.56
273.785	82.56
274.017	93.56
274.249	77.56
274.481	93.56
274.713	90.56
274.945	83.56
275.176	91.56
275.408	85.56
275.64	92.56
275.872	101.56
276.104	86.56
276.335	87.56
276.567	87.56
276.799	114.56
277.031	105.56
277.262	93.56
277.494	89.56
277.726	92.56
277.957	83.56
278.189	82.56
278.421	75.56
278.652	90.56
278.884	83.56
279.115	72.56
279.347	88.56
279.579	80.56
279.81	92.56
280.042	97.56
280.273	103.56
280.505	92.56
280.736	88.56
280.968	92.56
281.199	90.56
281.431	98.56
281.662	100.56
281.894	81.56
282.125	112.56
282.356	89.56
282.588	118.56
282.819	104.56
283.051	89.56
283.282	86.56
283.513	96.56
283.745	81.56
283.976	85.56
284.207	98.56
284.439	94.56
284.67	92.56
284.901	73.56
285.132	90.56
285.364	76.56
285.595	97.56
285.826	93.56
286.057	100.56
286.288	89.56
286.52	83.56
286.751	77.56
286.982	80.56
287.213	74.56
287.444	93.56
287.675	94.56
287.906	90.56
288.138	86.56
288.369	80.56
288.6	80.56
288.831	98.56
289.062	78.56
289.293	83.56
289.524	81.56
289.755	70.56
289.986	87.56
290.217	83.56
290.448	83.56
290.679	68.56
290.91	95.56
291.141	85.56
291.371	82.56
291.602	88.56
291.833	82.56
292.064	88.56
292.295	86.56
292.526	75.56
292.757	96.56
292.987	95.56
293.218	78.56
293.449	89.56
293.68	108.56
293.91	87.56
294.141	86.56
294.372	68.56
294.603	83.56
294.833	86.56
295.064	90.56
295.295	75.56
295.525	93.56
295.756	77.56
295.987	102.56
296.217	117.56
296.448	113.56
296.679	83.56
296.909	83.56
297.14	99.56
297.37	78.56
297.601	78.56
297.831	81.56
298.062	90.56
298.292	84.56
298.523	79.56
298.753	82.56
298.984	84.56
299.214	85.56
299.445	92.56
299.675	77.56
299.905	90.56
300.136	90.56
300.366	93.56
300.597	83.56
300.827	93.56
301.057	85.56
301.288	97.56
301.518	88.56
301.748	69.56
301.979	109.56
302.209	80.56
302.439	97.56
302.669	90.56
302.9	89.56
303.13	80.56
303.36	92.56
303.59	94.56
303.82	100.56
304.051	86.56
304.281	79.56
304.511	78.56
304.741	76.56
304.971	91.56
305.201	90.56
305.431	99.56
305.661	86.56
305.891	89.56
306.121	91.56
306.352	103.56
306.582	100.56
306.812	84.56
307.042	99.56
307.272	86.56
307.502	105.56
307.731	102.56
307.961	91.56
308.191	95.56
308.421	86.56
308.651	96.56
308.881	88.56
309.111	82.56
309.341	98.56
309.571	90.56
309.8	96.56
310.03	86.56
310.26	100.56
310.49	106.56
310.72	95.56
310.949	95.56
311.179	89.56
311.409	100.56
311.639	102.56
311.868	106.56
312.098	92.56
312.328	74.56
312.557	96.56
312.787	94.56
313.017	117.56
313.246	87.56
313.476	93.56
313.706	109.56
313.935	100.56
314.165	80.56
314.394	98.56
314.624	97.56
314.853	106.56
315.083	94.56
315.312	90.56
315.542	84.56
315.771	101.56
316.001	101.56
316.23	82.56
316.46	90.56
316.689	82.56
316.919	97.56
317.148	88.56
317.377	98.56
317.607	97.56
317.836	93.56
318.065	93.56
318.295	109.56
318.524	82.56
318.753	90.56
318.983	85.56
319.212	85.56
319.441	117.56
319.67	104.56
319.9	94.56
320.129	99.56
320.358	74.56
320.587	91.56
320.816	88.56
321.046	92.56
321.275	98.56
321.504	96.56
321.733	103.56
321.962	106.56
322.191	98.56
322.42	103.56
322.649	109.56
322.878	104.56
323.108	118.56
323.337	109.56
323.566	113.56
323.795	140.56
324.024	194.56
324.253	341.56
324.482	759.56
324.71	1558.56
324.939	2060.56
325.168	758.56
325.397	220.56
325.626	141.56
325.855	131.56
326.084	120.56
326.313	125.56
326.542	137.56
326.77	215.56
326.999	390.56
327.228	862.56
327.457	1597.56
327.686	1244.56
327.914	358.56
328.143	230.56
328.372	203.56
328.6	147.56
328.829	106.56
329.058	99.56
329.287	116.56
329.515	129.56
329.744	126.56
329.972	158.56
330.201	240.56
330.43	299.56
330.658	179.56
330.887	130.56
331.115	106.56
331.344	90.56
331.572	98.56
331.801	97.56
332.03	91.56
332.258	99.56
332.486	81.56
332.715	100.56
332.943	92.56
333.172	102.56
333.4	102.56
333.629	112.56
333.857	136.56
334.085	154.56
334.314	237.56
334.542	385.56
334.771	361.56
334.999	155.56
335.227	98.56
335.455	109.56
335.684	89.56
335.912	106.56
336.14	104.56
336.369	99.56
336.597	100.56
336.825	93.56
337.053	92.56
337.281	104.56
337.51	99.56
337.738	110.56
337.966	88.56
338.194	93.56
338.422	95.56
338.65	107.56
338.878	96.56
339.106	80.56
339.334	82.56
339.562	88.56
339.79	106.56
340.018	92.56
340.246	95.56
340.474	94.56
340.702	102.56
340.93	94.56
341.158	102.56
341.386	94.56
341.614	87.56
341.842	87.56
342.07	78.56
342.298	103.56
342.526	106.56
342.754	90.56
342.981	96.56
343.209	96.56
343.437	97.56
343.665	98.56
343.893	87.56
344.12	94.56
344.348	94.56
344.576	95.56
344.804	90.56
345.031	90.56
345.259	88.56
345.487	91.56
345.714	100.56
345.942	98.56
346.17	97.56
346.397	84.56
346.625	92.56
346.853	81.56
347.08	99.56
347.308	90.56
347.535	94.56
347.763	80.56
347.99	98.56
348.218	89.56
348.445	100.56
348.673	95.56
348.9	99.56
349.128	103.56
349.355	69.56
349.583	97.56
349.81	92.56
350.037	93.56
350.265	89.56
350.492	94.56
350.72	104.56
350.947	96.56
351.174	103.56
351.402	124.56
351.629	85.56
351.856	84.56
352.083	114.56
352.311	106.56
352.538	101.56
352.765	97.56
352.992	109.56
353.22	110.56
353.447	88.56
353.674	101.56
353.901	95.56
354.128	89.56
354.355	89.56
354.583	93.56
354.81	81.56
355.037	98.56
355.264	91.56
355.491	99.56
355.718	94.56
355.945	89.56
356.172	95.56
356.399	89.56
356.626	90.56
356.853	86.56
357.08	96.56
357.307	89.56
357.534	91.56
357.761	110.56
357.988	106.56
358.215	83.56
358.441	90.56
358.668	97.56
358.895	97.56
359.122	90.56
359.349	89.56
359.576	89.56
359.802	100.56
360.029	97.56
360.256	97.56
360.483	96.56
360.709	76.56
360.936	82.56
361.163	79.56
361.39	100.56
361.616	91.56
361.843	84.56
362.07	101.56
362.296	94.56
362.523	101.56
362.749	90.56
362.976	84.56
363.203	87.56
363.429	83.56
363.656	91.56
363.882	81.56
364.109	91.56
364.335	91.56
364.562	85.56
364.788	89.56
365.015	94.56
365.241	91.56
365.468	102.56
365.694	101.56
365.92	93.56
366.147	99.56
366.373	86.56
366.599	91.56
366.826	74.56
367.052	86.56
367.278	84.56
367.505	85.56
367.731	94.56
367.957	97.56
368.184	90.56
368.41	99.56
368.636	93.56
368.862	98.56
369.089	100.56
369.315	88.56
369.541	79.56
369.767	90.56
369.993	80.56
370.219	91.56
370.445	90.56
370.672	76.56
370.898	82.56
371.124	78.56
371.35	90.56
371.576	80.56
371.802	92.56
372.028	78.56
372.254	77.56
372.48	76.56
372.706	82.56
372.932	83.56
373.158	78.56
373.384	101.56
373.61	103.56
373.835	80.56
374.061	86.56
374.287	85.56
374.513	87.56
374.739	69.56
374.965	96.56
375.191	87.56
375.416	88.56
375.642	80.56
375.868	94.56
376.094	88.56
376.319	72.56
376.545	74.56
376.771	91.56
376.997	83.56
377.222	75.56
377.448	84.56
377.674	102.56
377.899	86.56
378.125	100.56
378.35	101.56
378.576	76.56
378.802	94.56
379.027	83.56
379.253	85.56
379.478	82.56
379.704	99.56
379.929	102.56
380.155	82.56
380.38	93.56
380.606	89.56
380.831	86.56
381.057	110.56
381.282	96.56
381.507	97.56
381.733	97.56
381.958	107.56
382.184	100.56
382.409	96.56
382.634	108.56
382.86	105.56
383.085	94.56
383.31	102.56
383.535	94.56
383.761	85.56
383.986	89.56
384.211	96.56
384.436	97.56
384.662	98.56
384.887	112.56
385.112	103.56
385.337	104.56
385.562	108.56
385.787	101.56
386.013	111.56
386.238	113.56
386.463	109.56
386.688	121.56
386.913	96.56
387.138	99.56
387.363	114.56
387.588	88.56
387.813	99.56
388.038	109.56
388.263	130.56
388.488	125.56
388.713	96.56
388.938	75.56
389.163	78.56
389.387	78.56
389.612	86.56
389.837	96.56
390.062	103.56
390.287	76.56
390.512	87.56
390.736	105.56
390.961	93.56
391.186	105.56
391.411	110.56
391.636	95.56
391.86	88.56
392.085	84.56
392.31	97.56
392.534	93.56
392.759	81.56
392.984	93.56
393.208	121.56
393.433	171.56
393.658	134.56
393.882	110.56
394.107	77.56
394.331	82.56
394.556	96.56
394.78	84.56
395.005	83.56
395.229	81.56
395.454	82.56
395.678	81.56
395.903	93.56
396.127	84.56
396.352	100.56
396.576	89.56
396.801	122.56
397.025	134.56
397.249	95.56
397.474	105.56
397.698	77.56
397.922	89.56
398.147	89.56
398.371	84.56
398.595	83.56
398.82	85.56
399.044	74.56
399.268	99.56
399.492	88.56
399.717	76.56
399.941	93.56
400.165	89.56
400.389	84.56
400.613	91.56
400.837	92.56
401.062	85.56
401.286	84.56
401.51	103.56
401.734	89.56
401.958	83.56
402.182	123.56
402.406	135.56
402.63	105.56
402.854	98.56
403.078	83.56
403.302	83.56
403.526	81.56
403.75	83.56
403.974	83.56
404.198	84.56
404.422	90.56
404.645	78.56
404.869	106.56
405.093	86.56
405.317	102.56
405.541	107.56
405.765	91.56
405.988	110.56
406.212	128.56
406.436	212.56
406.66	122.56
406.883	66.56
407.107	89.56
407.331	80.56
407.555	90.56
407.778	90.56
408.002	86.56
408.226	88.56
408.449	80.56
408.673	89.56
408.896	105.56
409.12	85.56
409.344	89.56
409.567	79.56
409.791	79.56
410.014	87.56
410.238	85.56
410.461	104.56
410.685	88.56
410.908	87.56
411.132	72.56
411.355	93.56
411.578	111.56
411.802	97.56
412.025	84.56
412.249	78.56
412.472	96.56
412.695	114.56
412.919	92.56
413.142	69.56
413.365	85.56
413.589	81.56
413.812	87.56
414.035	92.56
414.258	84.56
414.482	69.56
414.705	100.56
414.928	84.56
415.151	90.56
415.374	96.56
415.597	98.56
415.821	92.56
416.044	78.56
416.267	74.56
416.49	84.56
416.713	84.56
416.936	75.56
417.159	86.56
417.382	88.56
417.605	84.56
417.828	91.56
418.051	89.56
418.274	87.56
418.497	89.56
418.72	78.56
418.943	88.56
419.166	80.56
419.389	85.56
419.611	79.56
419.834	85.56
420.057	92.56
420.28	88.56
420.503	89.56
420.726	91.56
420.948	87.56
421.171	86.56
421.394	74.56
421.617	81.56
421.839	87.56
422.062	95.56
422.285	83.56
422.507	99.56
422.73	115.56
422.953	95.56
423.175	90.56
423.398	80.56
423.621	103.56
423.843	80.56
424.066	90.56
424.288	89.56
424.511	94.56
424.733	95.56
424.956	108.56
425.178	94.56
425.401	107.56
425.623	103.56
425.846	94.56
426.068	85.56
426.291	99.56
426.513	95.56
426.735	88.56
426.958	92.56
427.18	102.56
427.402	114.56
427.625	163.56
427.847	138.56
428.069	133.56
428.292	96.56
428.514	80.56
428.736	69.56
428.958	83.56
429.181	101.56
429.403	75.56
429.625	82.56
429.847	88.56
430.069	93.56
430.292	92.56
430.514	84.56
430.736	80.56
430.958	111.56
431.18	80.56
431.402	91.56
431.624	77.56
431.846	88.56
432.068	74.56
432.29	82.56
432.512	94.56
432.734	80.56
432.956	89.56
433.178	111.56
433.4	102.56
433.622	80.56
433.844	76.56
434.066	90.56
434.287	106.56
434.509	98.56
434.731	102.56
434.953	97.56
435.175	69.56
435.397	75.56
435.618	82.56
435.84	92.56
436.062	114.56
436.284	110.56
436.505	96.56
436.727	96.56
436.949	94.56
437.17	86.56
437.392	91.56
437.614	97.56
437.835	107.56
438.057	96.56
438.278	93.56
438.5	106.56
438.721	111.56
438.943	97.56
439.165	88.56
439.386	88.56
439.608	83.56
439.829	90.56
440.05	100.56
440.272	124.56
440.493	96.56
440.715	105.56
440.936	96.56
441.158	85.56
441.379	88.56
441.6	96.56
441.822	78.56
442.043	86.56
442.264	96.56
442.486	85.56
442.707	89.56
442.928	108.56
443.149	125.56
443.371	109.56
443.592	105.56
443.813	101.56
444.034	93.56
444.255	83.56
444.476	87.56
444.698	84.56
444.919	96.56
445.14	128.56
445.361	113.56
445.582	112.56
445.803	119.56
446.024	119.56
446.245	114.56
446.466	106.56
446.687	84.56
446.908	105.56
447.129	88.56
447.35	65.56
447.571	84.56
447.792	94.56
448.013	95.56
448.234	105.56
448.455	95.56
448.675	94.56
448.896	118.56
449.117	88.56
449.338	88.56
449.559	122.56
449.779	125.56
450	101.56
450.221	84.56
450.442	94.56
450.662	84.56
450.883	108.56
451.104	104.56
451.324	93.56
451.545	87.56
451.766	77.56
451.986	78.56
452.207	88.56
452.428	100.56
452.648	88.56
452.869	98.56
453.089	103.56
453.31	96.56
453.53	93.56
453.751	92.56
453.971	106.56
454.192	105.56
454.412	88.56
454.633	87.56
454.853	80.56
455.073	84.56
455.294	80.56
455.514	98.56
455.734	73.56
455.955	90.56
456.175	77.56
456.395	90.56
456.616	76.56
456.836	84.56
457.056	80.56
457.276	83.56
457.497	92.56
457.717	82.56
457.937	84.56
458.157	82.56
458.377	89.56
458.598	102.56
458.818	132.56
459.038	126.56
459.258	96.56
459.478	85.56
459.698	85.56
459.918	91.56
460.138	98.56
460.358	88.56
460.578	97.56
460.798	86.56
461.018	78.56
461.238	77.56
461.458	85.56
461.678	93.56
461.898	76.56
462.118	89.56
462.338	94.56
462.558	92.56
462.777	85.56
462.997	94.56
463.217	94.56
463.437	82.56
463.657	85.56
463.876	96.56
464.096	76.56
464.316	92.56
464.536	91.56
464.755	97.56
464.975	104.56
465.195	154.56
465.414	144.56
465.634	94.56
465.854	72.56
466.073	96.56
466.293	98.56
466.512	100.56
466.732	74.56
466.951	88.56
467.171	93.56
467.391	96.56
467.61	100.56
467.829	121.56
468.049	164.56
468.268	197.56
468.488	108.56
468.707	69.56
468.927	78.56
469.146	76.56
469.365	93.56
469.585	86.56
469.804	93.56
470.023	71.56
470.243	97.56
470.462	90.56
470.681	101.56
470.901	88.56
471.12	94.56
471.339	86.56
471.558	94.56
471.777	90.56
471.997	134.56
472.216	286.56
472.435	507.56
472.654	161.56
472.873	95.56
473.092	95.56
473.311	89.56
473.53	97.56
473.749	79.56
473.968	97.56
474.187	108.56
474.406	95.56
474.625	75.56
474.844	94.56
475.063	91.56
475.282	92.56
475.501	78.56
475.72	97.56
475.939	94.56
476.158	79.56
476.377	82.56
476.596	74.56
476.814	92.56
477.033	98.56
477.252	87.56
477.471	85.56
477.69	87.56
477.908	90.56
478.127	85.56
478.346	85.56
478.564	86.56
478.783	92.56
479.002	93.56
479.22	97.56
479.439	85.56
479.658	104.56
479.876	91.56
480.095	93.56
480.313	104.56
480.532	106.56
480.751	125.56
480.969	289.56
481.188	938.56
481.406	554.56
481.624	141.56
481.843	89.56
482.061	93.56
482.28	94.56
482.498	94.56
482.717	100.56
482.935	94.56
483.153	86.56
483.372	88.56
483.59	89.56
483.808	84.56
484.027	84.56
484.245	86.56
484.463	87.56
484.681	86.56
484.9	86.56
485.118	94.56
485.336	86.56
485.554	81.56
485.772	105.56
485.99	88.56
486.209	104.56
486.427	104.56
486.645	100.56
486.863	96.56
487.081	106.56
487.299	75.56
487.517	86.56
487.735	87.56
487.953	78.56
488.171	100.56
488.389	98.56
488.607	94.56
488.825	78.56
489.043	78.56
489.261	94.56
489.479	77.56
489.696	83.56
489.914	92.56
490.132	95.56
490.35	83.56
490.568	81.56
490.786	76.56
491.003	87.56
491.221	78.56
491.439	103.56
491.657	80.56
491.874	91.56
492.092	81.56
492.31	82.56
492.527	96.56
492.745	78.56
492.963	85.56
493.18	92.56
493.398	87.56
493.615	93.56
493.833	81.56
494.05	90.56
494.268	98.56
494.485	85.56
494.703	89.56
494.92	89.56
495.138	97.56
495.355	87.56
495.573	91.56
495.79	84.56
496.008	102.56
496.225	80.56
496.442	83.56
496.66	85.56
496.877	101.56
497.094	102.56
497.312	82.56
497.529	91.56
497.746	86.56
497.963	99.56
498.181	98.56
498.398	75.56
498.615	98.56
498.832	109.56
499.049	85.56
499.267	105.56
499.484	89.56
499.701	88.56
499.918	91.56
500.135	88.56
500.352	85.56
500.569	90.56
500.786	91.56
501.003	78.56
501.22	90.56
501.437	88.56
501.654	96.56
501.871	90.56
502.088	82.56
502.305	83.56
502.522	89.56
502.739	89.56
502.956	81.56
503.172	92.56
503.389	97.56
503.606	95.56
503.823	106.56
504.04	98.56
504.256	94.56
504.473	76.56
504.69	85.56
504.907	84.56
505.123	73.56
505.34	85.56
505.557	83.56
505.773	81.56
505.99	105.56
506.207	93.56
506.423	83.56
506.64	80.56
506.856	91.56
507.073	76.56
507.289	85.56
507.506	90.56
507.722	108.56
507.939	90.56
508.155	91.56
508.372	91.56
508.588	95.56
508.805	84.56
509.021	95.56
509.238	88.56
509.454	77.56
509.67	97.56
509.887	116.56
510.103	138.56
510.319	188.56
510.536	668.56
510.752	2074.56
510.968	568.56
511.184	147.56
511.401	94.56
511.617	95.56
511.833	97.56
512.049	94.56
512.265	99.56
512.481	96.56
512.698	98.56
512.914	97.56
513.13	90.56
513.346	107.56
513.562	104.56
513.778	84.56
513.994	111.56
514.21	89.56
514.426	111.56
514.642	118.56
514.858	96.56
515.074	141.56
515.29	401.56
515.506	1272.56
515.721	474.56
515.937	136.56
516.153	100.56
