Data from Circ_1991_H10_HRD10591_00100.txt Node
Date: Wed Jan 03 11:52:01 EST 2024
User: Yrep
Spectrometer: HR+D1059
Trigger mode: 1
Integration Time (sec): 1.000000E-1
Scans to average: 1
Electric dark correction enabled: true
Nonlinearity correction enabled: false
Boxcar width: 0
XAxis mode: Wavelengths
Number of Pixels in Spectrum: 2048
>>>>>Begin Spectral Data<<<<<
223.165	-19.69
223.4	-19.69
223.635	-19.69
223.869	-18.69
224.104	-16.69
224.338	-10.69
224.573	-14.69
224.808	-5.69
225.042	-17.69
225.277	1.31
225.511	4.31
225.746	6.31
225.98	3.31
226.215	3.31
226.449	21.31
226.683	9.31
226.918	19.31
227.152	35.31
227.387	19.31
227.621	38.31
227.856	34.31
228.09	38.31
228.324	49.31
228.559	57.31
228.793	45.31
229.027	57.31
229.262	80.31
229.496	69.31
229.73	84.31
229.964	103.31
230.199	66.31
230.433	76.31
230.667	80.31
230.901	77.31
231.136	62.31
231.37	73.31
231.604	68.31
231.838	92.31
232.072	90.31
232.306	90.31
232.541	82.31
232.775	81.31
233.009	84.31
233.243	73.31
233.477	68.31
233.711	81.31
233.945	81.31
234.179	77.31
234.413	72.31
234.647	80.31
234.881	88.31
235.115	83.31
235.349	90.31
235.583	75.31
235.817	77.31
236.051	78.31
236.285	74.31
236.519	67.31
236.753	77.31
236.987	86.31
237.221	84.31
237.455	92.31
237.689	83.31
237.922	75.31
238.156	83.31
238.39	85.31
238.624	88.31
238.858	86.31
239.091	70.31
239.325	93.31
239.559	89.31
239.793	82.31
240.027	68.31
240.26	75.31
240.494	82.31
240.728	81.31
240.961	80.31
241.195	86.31
241.429	79.31
241.662	77.31
241.896	82.31
242.13	76.31
242.363	79.31
242.597	85.31
242.83	69.31
243.064	78.31
243.298	65.31
243.531	75.31
243.765	86.31
243.998	85.31
244.232	84.31
244.465	101.31
244.699	89.31
244.932	87.31
245.166	91.31
245.399	76.31
245.633	79.31
245.866	76.31
246.099	80.31
246.333	81.31
246.566	78.31
246.8	57.31
247.033	84.31
247.266	73.31
247.5	93.31
247.733	81.31
247.966	84.31
248.2	81.31
248.433	100.31
248.666	85.31
248.899	83.31
249.133	102.31
249.366	89.31
249.599	99.31
249.832	99.31
250.066	77.31
250.299	81.31
250.532	83.31
250.765	79.31
250.998	92.31
251.231	73.31
251.465	61.31
251.698	91.31
251.931	93.31
252.164	94.31
252.397	77.31
252.63	81.31
252.863	101.31
253.096	80.31
253.329	85.31
253.562	86.31
253.795	90.31
254.028	92.31
254.261	66.31
254.494	65.31
254.727	78.31
254.96	73.31
255.193	84.31
255.426	78.31
255.659	84.31
255.892	84.31
256.124	82.31
256.357	79.31
256.59	78.31
256.823	90.31
257.056	88.31
257.289	76.31
257.521	87.31
257.754	86.31
257.987	78.31
258.22	95.31
258.452	68.31
258.685	77.31
258.918	86.31
259.151	86.31
259.383	96.31
259.616	95.31
259.849	89.31
260.081	93.31
260.314	76.31
260.547	86.31
260.779	78.31
261.012	100.31
261.244	86.31
261.477	99.31
261.71	74.31
261.942	116.31
262.175	134.31
262.407	97.31
262.64	67.31
262.872	88.31
263.105	99.31
263.337	93.31
263.57	76.31
263.802	81.31
264.035	95.31
264.267	84.31
264.499	74.31
264.732	88.31
264.964	74.31
265.197	77.31
265.429	66.31
265.661	92.31
265.894	101.31
266.126	79.31
266.358	67.31
266.591	82.31
266.823	86.31
267.055	83.31
267.287	93.31
267.52	84.31
267.752	88.31
267.984	101.31
268.216	77.31
268.448	71.31
268.681	89.31
268.913	78.31
269.145	99.31
269.377	78.31
269.609	69.31
269.841	83.31
270.073	103.31
270.306	85.31
270.538	75.31
270.77	70.31
271.002	78.31
271.234	79.31
271.466	84.31
271.698	84.31
271.93	86.31
272.162	87.31
272.394	84.31
272.626	75.31
272.858	87.31
273.09	77.31
273.322	90.31
273.553	77.31
273.785	95.31
274.017	100.31
274.249	74.31
274.481	86.31
274.713	80.31
274.945	82.31
275.176	93.31
275.408	99.31
275.64	106.31
275.872	98.31
276.104	97.31
276.335	91.31
276.567	100.31
276.799	118.31
277.031	130.31
277.262	125.31
277.494	116.31
277.726	82.31
277.957	83.31
278.189	87.31
278.421	77.31
278.652	89.31
278.884	94.31
279.115	95.31
279.347	77.31
279.579	86.31
279.81	106.31
280.042	140.31
280.273	164.31
280.505	110.31
280.736	88.31
280.968	84.31
281.199	87.31
281.431	86.31
281.662	86.31
281.894	81.31
282.125	103.31
282.356	113.31
282.588	150.31
282.819	127.31
283.051	103.31
283.282	103.31
283.513	94.31
283.745	89.31
283.976	83.31
284.207	79.31
284.439	68.31
284.67	81.31
284.901	87.31
285.132	90.31
285.364	88.31
285.595	83.31
285.826	89.31
286.057	83.31
286.288	84.31
286.52	89.31
286.751	82.31
286.982	81.31
287.213	82.31
287.444	89.31
287.675	84.31
287.906	88.31
288.138	97.31
288.369	79.31
288.6	91.31
288.831	80.31
289.062	78.31
289.293	90.31
289.524	82.31
289.755	93.31
289.986	90.31
290.217	102.31
290.448	83.31
290.679	94.31
290.91	95.31
291.141	77.31
291.371	78.31
291.602	84.31
291.833	97.31
292.064	92.31
292.295	74.31
292.526	81.31
292.757	87.31
292.987	90.31
293.218	93.31
293.449	85.31
293.68	87.31
293.91	82.31
294.141	98.31
294.372	87.31
294.603	95.31
294.833	90.31
295.064	89.31
295.295	87.31
295.525	83.31
295.756	101.31
295.987	111.31
296.217	155.31
296.448	126.31
296.679	78.31
296.909	82.31
297.14	93.31
297.37	92.31
297.601	99.31
297.831	103.31
298.062	86.31
298.292	93.31
298.523	91.31
298.753	85.31
298.984	83.31
299.214	84.31
299.445	83.31
299.675	89.31
299.905	110.31
300.136	94.31
300.366	101.31
300.597	91.31
300.827	81.31
301.057	92.31
301.288	97.31
301.518	100.31
301.748	88.31
301.979	90.31
302.209	97.31
302.439	98.31
302.669	89.31
302.9	77.31
303.13	95.31
303.36	100.31
303.59	123.31
303.82	122.31
304.051	107.31
304.281	94.31
304.511	91.31
304.741	96.31
304.971	97.31
305.201	87.31
305.431	93.31
305.661	89.31
305.891	108.31
306.121	99.31
306.352	108.31
306.582	109.31
306.812	106.31
307.042	103.31
307.272	122.31
307.502	141.31
307.731	139.31
307.961	113.31
308.191	84.31
308.421	101.31
308.651	101.31
308.881	94.31
309.111	81.31
309.341	85.31
309.571	100.31
309.8	109.31
310.03	98.31
310.26	103.31
310.49	87.31
310.72	97.31
310.949	105.31
311.179	106.31
311.409	104.31
311.639	105.31
311.868	88.31
312.098	99.31
312.328	87.31
312.557	100.31
312.787	97.31
313.017	111.31
313.246	94.31
313.476	95.31
313.706	93.31
313.935	92.31
314.165	107.31
314.394	107.31
314.624	102.31
314.853	111.31
315.083	92.31
315.312	90.31
315.542	88.31
315.771	94.31
316.001	89.31
316.23	91.31
316.46	97.31
316.689	85.31
316.919	95.31
317.148	92.31
317.377	88.31
317.607	100.31
317.836	96.31
318.065	103.31
318.295	89.31
318.524	101.31
318.753	84.31
318.983	102.31
319.212	86.31
319.441	115.31
319.67	123.31
319.9	92.31
320.129	94.31
320.358	81.31
320.587	97.31
320.816	111.31
321.046	100.31
321.275	92.31
321.504	103.31
321.733	100.31
321.962	106.31
322.191	99.31
322.42	110.31
322.649	120.31
322.878	112.31
323.108	114.31
323.337	132.31
323.566	137.31
323.795	183.31
324.024	226.31
324.253	463.31
324.482	993.31
324.71	2182.31
324.939	2881.31
325.168	1012.31
325.397	270.31
325.626	167.31
325.855	137.31
326.084	121.31
326.313	151.31
326.542	173.31
326.77	266.31
326.999	556.31
327.228	1183.31
327.457	2146.31
327.686	1745.31
327.914	491.31
328.143	355.31
328.372	393.31
328.6	226.31
328.829	148.31
329.058	141.31
329.287	165.31
329.515	129.31
329.744	170.31
329.972	295.31
330.201	560.31
330.43	785.31
330.658	377.31
330.887	221.31
331.115	146.31
331.344	103.31
331.572	111.31
331.801	120.31
332.03	110.31
332.258	108.31
332.486	103.31
332.715	102.31
332.943	113.31
333.172	105.31
333.4	128.31
333.629	123.31
333.857	175.31
334.085	289.31
334.314	508.31
334.542	975.31
334.771	901.31
334.999	280.31
335.227	139.31
335.455	109.31
335.684	113.31
335.912	105.31
336.14	100.31
336.369	104.31
336.597	125.31
336.825	114.31
337.053	77.31
337.281	95.31
337.51	105.31
337.738	96.31
337.966	94.31
338.194	99.31
338.422	88.31
338.65	107.31
338.878	96.31
339.106	86.31
339.334	111.31
339.562	87.31
339.79	94.31
340.018	100.31
340.246	99.31
340.474	110.31
340.702	98.31
340.93	95.31
341.158	85.31
341.386	92.31
341.614	109.31
341.842	94.31
342.07	89.31
342.298	106.31
342.526	91.31
342.754	106.31
342.981	76.31
343.209	87.31
343.437	106.31
343.665	99.31
343.893	94.31
344.12	96.31
344.348	84.31
344.576	95.31
344.804	89.31
345.031	88.31
345.259	93.31
345.487	103.31
345.714	81.31
345.942	97.31
346.17	87.31
346.397	96.31
346.625	98.31
346.853	104.31
347.08	95.31
347.308	95.31
347.535	87.31
347.763	101.31
347.99	98.31
348.218	104.31
348.445	110.31
348.673	119.31
348.9	95.31
349.128	94.31
349.355	87.31
349.583	87.31
349.81	102.31
350.037	97.31
350.265	106.31
350.492	85.31
350.72	102.31
350.947	97.31
351.174	115.31
351.402	115.31
351.629	105.31
351.856	102.31
352.083	109.31
352.311	105.31
352.538	119.31
352.765	116.31
352.992	112.31
353.22	118.31
353.447	101.31
353.674	95.31
353.901	93.31
354.128	89.31
354.355	94.31
354.583	94.31
354.81	108.31
355.037	91.31
355.264	87.31
355.491	95.31
355.718	100.31
355.945	99.31
356.172	109.31
356.399	92.31
356.626	98.31
356.853	83.31
357.08	94.31
357.307	97.31
357.534	96.31
357.761	94.31
357.988	89.31
358.215	97.31
358.441	91.31
358.668	86.31
358.895	84.31
359.122	83.31
359.349	99.31
359.576	83.31
359.802	105.31
360.029	129.31
360.256	125.31
360.483	97.31
360.709	92.31
360.936	92.31
361.163	89.31
361.39	99.31
361.616	89.31
361.843	91.31
362.07	86.31
362.296	105.31
362.523	95.31
362.749	94.31
362.976	88.31
363.203	86.31
363.429	94.31
363.656	105.31
363.882	84.31
364.109	99.31
364.335	102.31
364.562	89.31
364.788	107.31
365.015	100.31
365.241	89.31
365.468	116.31
365.694	95.31
365.92	111.31
366.147	85.31
366.373	74.31
366.599	85.31
366.826	86.31
367.052	98.31
367.278	84.31
367.505	90.31
367.731	92.31
367.957	93.31
368.184	96.31
368.41	110.31
368.636	116.31
368.862	117.31
369.089	94.31
369.315	105.31
369.541	90.31
369.767	87.31
369.993	68.31
370.219	94.31
370.445	98.31
370.672	94.31
370.898	78.31
371.124	90.31
371.35	89.31
371.576	101.31
371.802	94.31
372.028	95.31
372.254	91.31
372.48	90.31
372.706	91.31
372.932	86.31
373.158	69.31
373.384	103.31
373.61	96.31
373.835	94.31
374.061	87.31
374.287	73.31
374.513	90.31
374.739	78.31
374.965	81.31
375.191	81.31
375.416	100.31
375.642	90.31
375.868	90.31
376.094	100.31
376.319	70.31
376.545	100.31
376.771	75.31
376.997	89.31
377.222	93.31
377.448	85.31
377.674	87.31
377.899	107.31
378.125	85.31
378.35	91.31
378.576	89.31
378.802	86.31
379.027	96.31
379.253	89.31
379.478	100.31
379.704	81.31
379.929	93.31
380.155	91.31
380.38	81.31
380.606	98.31
380.831	85.31
381.057	100.31
381.282	94.31
381.507	97.31
381.733	107.31
381.958	91.31
382.184	104.31
382.409	103.31
382.634	100.31
382.86	97.31
383.085	99.31
383.31	100.31
383.535	96.31
383.761	103.31
383.986	95.31
384.211	91.31
384.436	87.31
384.662	96.31
384.887	96.31
385.112	106.31
385.337	107.31
385.562	98.31
385.787	93.31
386.013	96.31
386.238	123.31
386.463	121.31
386.688	110.31
386.913	94.31
387.138	102.31
387.363	102.31
387.588	87.31
387.813	104.31
388.038	90.31
388.263	118.31
388.488	103.31
388.713	101.31
388.938	93.31
389.163	89.31
389.387	92.31
389.612	86.31
389.837	95.31
390.062	93.31
390.287	83.31
390.512	101.31
390.736	79.31
390.961	89.31
391.186	86.31
391.411	104.31
391.636	102.31
391.86	97.31
392.085	80.31
392.31	110.31
392.534	75.31
392.759	82.31
392.984	100.31
393.208	83.31
393.433	94.31
393.658	86.31
393.882	92.31
394.107	92.31
394.331	86.31
394.556	80.31
394.78	85.31
395.005	87.31
395.229	77.31
395.454	97.31
395.678	80.31
395.903	85.31
396.127	82.31
396.352	93.31
396.576	79.31
396.801	86.31
397.025	84.31
397.249	92.31
397.474	91.31
397.698	91.31
397.922	85.31
398.147	75.31
398.371	82.31
398.595	83.31
398.82	101.31
399.044	95.31
399.268	81.31
399.492	77.31
399.717	93.31
399.941	86.31
400.165	100.31
400.389	88.31
400.613	90.31
400.837	88.31
401.062	106.31
401.286	102.31
401.51	111.31
401.734	84.31
401.958	99.31
402.182	127.31
402.406	173.31
402.63	137.31
402.854	100.31
403.078	82.31
403.302	79.31
403.526	91.31
403.75	74.31
403.974	87.31
404.198	90.31
404.422	98.31
404.645	93.31
404.869	90.31
405.093	101.31
405.317	115.31
405.541	115.31
405.765	106.31
405.988	118.31
406.212	198.31
406.436	268.31
406.66	179.31
406.883	113.31
407.107	83.31
407.331	100.31
407.555	95.31
407.778	100.31
408.002	102.31
408.226	89.31
408.449	78.31
408.673	80.31
408.896	83.31
409.12	110.31
409.344	93.31
409.567	79.31
409.791	82.31
410.014	107.31
410.238	96.31
410.461	83.31
410.685	92.31
410.908	90.31
411.132	102.31
411.355	92.31
411.578	88.31
411.802	100.31
412.025	104.31
412.249	106.31
412.472	90.31
412.695	131.31
412.919	97.31
413.142	101.31
413.365	94.31
413.589	81.31
413.812	83.31
414.035	84.31
414.258	78.31
414.482	85.31
414.705	106.31
414.928	98.31
415.151	85.31
415.374	92.31
415.597	96.31
415.821	94.31
416.044	81.31
416.267	82.31
416.49	68.31
416.713	68.31
416.936	86.31
417.159	103.31
417.382	105.31
417.605	97.31
417.828	96.31
418.051	88.31
418.274	101.31
418.497	85.31
418.72	89.31
418.943	93.31
419.166	100.31
419.389	81.31
419.611	97.31
419.834	82.31
420.057	81.31
420.28	86.31
420.503	80.31
420.726	72.31
420.948	90.31
421.171	86.31
421.394	95.31
421.617	92.31
421.839	101.31
422.062	104.31
422.285	78.31
422.507	99.31
422.73	114.31
422.953	99.31
423.175	83.31
423.398	90.31
423.621	104.31
423.843	100.31
424.066	92.31
424.288	73.31
424.511	82.31
424.733	90.31
424.956	122.31
425.178	94.31
425.401	103.31
425.623	113.31
425.846	83.31
426.068	91.31
426.291	76.31
426.513	84.31
426.735	88.31
426.958	97.31
427.18	117.31
427.402	164.31
427.625	227.31
427.847	195.31
428.069	180.31
428.292	117.31
428.514	101.31
428.736	89.31
428.958	87.31
429.181	82.31
429.403	106.31
429.625	89.31
429.847	95.31
430.069	100.31
430.292	87.31
430.514	77.31
430.736	82.31
430.958	77.31
431.18	86.31
431.402	92.31
431.624	84.31
431.846	74.31
432.068	80.31
432.29	97.31
432.512	106.31
432.734	94.31
432.956	99.31
433.178	102.31
433.4	104.31
433.622	89.31
433.844	92.31
434.066	88.31
434.287	80.31
434.509	89.31
434.731	91.31
434.953	87.31
435.175	88.31
435.397	87.31
435.618	93.31
435.84	109.31
436.062	138.31
436.284	124.31
436.505	111.31
436.727	104.31
436.949	101.31
437.17	100.31
437.392	89.31
437.614	77.31
437.835	129.31
438.057	142.31
438.278	112.31
438.5	102.31
438.721	140.31
438.943	118.31
439.165	81.31
439.386	87.31
439.608	91.31
439.829	97.31
440.05	122.31
440.272	176.31
440.493	105.31
440.715	100.31
440.936	86.31
441.158	85.31
441.379	95.31
441.6	97.31
441.822	90.31
442.043	91.31
442.264	102.31
442.486	119.31
442.707	84.31
442.928	102.31
443.149	136.31
443.371	154.31
443.592	109.31
443.813	123.31
444.034	111.31
444.255	110.31
444.476	93.31
444.698	90.31
444.919	91.31
445.14	130.31
445.361	123.31
445.582	117.31
445.803	153.31
446.024	158.31
446.245	154.31
446.466	104.31
446.687	96.31
446.908	81.31
447.129	93.31
447.35	88.31
447.571	87.31
447.792	92.31
448.013	110.31
448.234	113.31
448.455	125.31
448.675	131.31
448.896	131.31
449.117	111.31
449.338	114.31
449.559	148.31
449.779	138.31
450	96.31
450.221	93.31
450.442	100.31
450.662	101.31
450.883	122.31
451.104	123.31
451.324	98.31
451.545	90.31
451.766	90.31
451.986	91.31
452.207	89.31
452.428	84.31
452.648	93.31
452.869	121.31
453.089	129.31
453.31	123.31
453.53	94.31
453.751	109.31
453.971	110.31
454.192	113.31
454.412	91.31
454.633	94.31
454.853	85.31
455.073	87.31
455.294	98.31
455.514	96.31
455.734	100.31
455.955	77.31
456.175	85.31
456.395	73.31
456.616	82.31
456.836	86.31
457.056	87.31
457.276	85.31
457.497	90.31
457.717	93.31
457.937	74.31
458.157	77.31
458.377	98.31
458.598	119.31
458.818	181.31
459.038	181.31
459.258	124.31
459.478	93.31
459.698	86.31
459.918	93.31
460.138	85.31
460.358	92.31
460.578	95.31
460.798	85.31
461.018	75.31
461.238	87.31
461.458	97.31
461.678	92.31
461.898	85.31
462.118	95.31
462.338	78.31
462.558	86.31
462.777	91.31
462.997	80.31
463.217	101.31
463.437	87.31
463.657	80.31
463.876	93.31
464.096	97.31
464.316	81.31
464.536	108.31
464.755	103.31
464.975	119.31
465.195	189.31
465.414	195.31
465.634	94.31
465.854	79.31
466.073	87.31
466.293	100.31
466.512	71.31
466.732	86.31
466.951	82.31
467.171	72.31
467.391	101.31
467.61	119.31
467.829	151.31
468.049	339.31
468.268	470.31
468.488	140.31
468.707	105.31
468.927	92.31
469.146	82.31
469.365	87.31
469.585	94.31
469.804	95.31
470.023	102.31
470.243	93.31
470.462	117.31
470.681	113.31
470.901	85.31
471.12	89.31
471.339	86.31
471.558	108.31
471.777	117.31
471.997	205.31
472.216	672.31
472.435	1393.31
472.654	361.31
472.873	130.31
473.092	90.31
473.311	78.31
473.53	98.31
473.749	90.31
473.968	106.31
474.187	106.31
474.406	73.31
474.625	93.31
474.844	103.31
475.063	99.31
475.282	94.31
475.501	79.31
475.72	116.31
475.939	95.31
476.158	84.31
476.377	85.31
476.596	91.31
476.814	84.31
477.033	93.31
477.252	100.31
477.471	84.31
477.69	101.31
477.908	89.31
478.127	100.31
478.346	83.31
478.564	98.31
478.783	105.31
479.002	97.31
479.22	99.31
479.439	123.31
479.658	99.31
479.876	111.31
480.095	103.31
480.313	128.31
480.532	122.31
480.751	192.31
480.969	631.31
481.188	2526.31
481.406	1376.31
481.624	235.31
481.843	123.31
482.061	91.31
482.28	81.31
482.498	76.31
482.717	90.31
482.935	107.31
483.153	102.31
483.372	93.31
483.59	88.31
483.808	91.31
484.027	95.31
484.245	71.31
484.463	90.31
484.681	93.31
484.9	83.31
485.118	82.31
485.336	97.31
485.554	92.31
485.772	90.31
485.99	99.31
486.209	108.31
486.427	116.31
486.645	124.31
486.863	112.31
487.081	107.31
487.299	87.31
487.517	101.31
487.735	96.31
487.953	99.31
488.171	96.31
488.389	93.31
488.607	106.31
488.825	97.31
489.043	92.31
489.261	96.31
489.479	85.31
489.696	89.31
489.914	87.31
490.132	81.31
490.35	77.31
490.568	108.31
490.786	90.31
491.003	89.31
491.221	88.31
491.439	98.31
491.657	90.31
491.874	80.31
492.092	87.31
492.31	101.31
492.527	90.31
492.745	84.31
492.963	87.31
493.18	103.31
493.398	87.31
493.615	76.31
493.833	95.31
494.05	95.31
494.268	83.31
494.485	87.31
494.703	87.31
494.92	90.31
495.138	86.31
495.355	95.31
495.573	100.31
495.79	95.31
496.008	82.31
496.225	89.31
496.442	103.31
496.66	108.31
496.877	85.31
497.094	90.31
497.312	90.31
497.529	92.31
497.746	84.31
497.963	91.31
498.181	100.31
498.398	99.31
498.615	110.31
498.832	103.31
499.049	93.31
499.267	71.31
499.484	105.31
499.701	99.31
499.918	83.31
500.135	79.31
500.352	83.31
500.569	103.31
500.786	99.31
501.003	94.31
501.22	82.31
501.437	87.31
501.654	95.31
501.871	98.31
502.088	91.31
502.305	98.31
502.522	97.31
502.739	86.31
502.956	76.31
503.172	98.31
503.389	108.31
503.606	114.31
503.823	105.31
504.04	94.31
504.256	81.31
504.473	100.31
504.69	86.31
504.907	103.31
505.123	95.31
505.34	99.31
505.557	106.31
505.773	92.31
505.99	90.31
506.207	93.31
506.423	88.31
506.64	98.31
506.856	91.31
507.073	98.31
507.289	97.31
507.506	96.31
507.722	121.31
507.939	114.31
508.155	103.31
508.372	93.31
508.588	75.31
508.805	93.31
509.021	95.31
509.238	91.31
509.454	103.31
509.67	103.31
509.887	119.31
510.103	139.31
510.319	201.31
510.536	816.31
510.752	2709.31
510.968	751.31
511.184	151.31
511.401	106.31
511.617	95.31
511.833	92.31
512.049	95.31
512.265	101.31
512.481	91.31
512.698	94.31
512.914	91.31
513.13	99.31
513.346	95.31
513.562	90.31
513.778	93.31
513.994	99.31
514.21	114.31
