Data from Circ_1991_H10_HRD10591_00007.txt Node
Date: Wed Jan 03 11:51:42 EST 2024
User: Yrep
Spectrometer: HR+D1059
Trigger mode: 1
Integration Time (sec): 1.000000E-1
Scans to average: 1
Electric dark correction enabled: true
Nonlinearity correction enabled: false
Boxcar width: 0
XAxis mode: Wavelengths
Number of Pixels in Spectrum: 2048
>>>>>Begin Spectral Data<<<<<
223.165	-17.19
223.4	-17.19
223.635	-17.19
223.869	-21.19
224.104	-10.19
224.338	-24.19
224.573	-18.19
224.808	-6.19
225.042	-1.19
225.277	-5.19
225.511	-0.19
225.746	5.81
225.98	2.81
226.215	12.81
226.449	24.81
226.683	19.81
226.918	17.81
227.152	19.81
227.387	33.81
227.621	47.81
227.856	47.81
228.09	53.81
228.324	40.81
228.559	62.81
228.793	63.81
229.027	64.81
229.262	68.81
229.496	69.81
229.73	84.81
229.964	82.81
230.199	71.81
230.433	70.81
230.667	79.81
230.901	72.81
231.136	67.81
231.37	86.81
231.604	95.81
231.838	82.81
232.072	96.81
232.306	85.81
232.541	95.81
232.775	74.81
233.009	80.81
233.243	80.81
233.477	83.81
233.711	73.81
233.945	83.81
234.179	80.81
234.413	80.81
234.647	80.81
234.881	89.81
235.115	86.81
235.349	83.81
235.583	74.81
235.817	76.81
236.051	83.81
236.285	87.81
236.519	73.81
236.753	74.81
236.987	77.81
237.221	80.81
237.455	80.81
237.689	76.81
237.922	67.81
238.156	69.81
238.39	92.81
238.624	74.81
238.858	72.81
239.091	69.81
239.325	71.81
239.559	84.81
239.793	72.81
240.027	78.81
240.26	77.81
240.494	87.81
240.728	84.81
240.961	82.81
241.195	90.81
241.429	79.81
241.662	72.81
241.896	61.81
242.13	71.81
242.363	81.81
242.597	69.81
242.83	77.81
243.064	78.81
243.298	96.81
243.531	88.81
243.765	96.81
243.998	82.81
244.232	80.81
244.465	80.81
244.699	87.81
244.932	77.81
245.166	82.81
245.399	79.81
245.633	83.81
245.866	94.81
246.099	85.81
246.333	82.81
246.566	98.81
246.8	77.81
247.033	92.81
247.266	86.81
247.5	78.81
247.733	88.81
247.966	85.81
248.2	88.81
248.433	87.81
248.666	80.81
248.899	100.81
249.133	89.81
249.366	97.81
249.599	101.81
249.832	82.81
250.066	80.81
250.299	101.81
250.532	101.81
250.765	67.81
250.998	78.81
251.231	81.81
251.465	94.81
251.698	89.81
251.931	78.81
252.164	89.81
252.397	93.81
252.63	100.81
252.863	74.81
253.096	84.81
253.329	76.81
253.562	88.81
253.795	80.81
254.028	85.81
254.261	69.81
254.494	83.81
254.727	92.81
254.96	78.81
255.193	85.81
255.426	88.81
255.659	71.81
255.892	78.81
256.124	87.81
256.357	84.81
256.59	82.81
256.823	84.81
257.056	88.81
257.289	83.81
257.521	96.81
257.754	88.81
257.987	84.81
258.22	87.81
258.452	96.81
258.685	93.81
258.918	80.81
259.151	88.81
259.383	93.81
259.616	92.81
259.849	74.81
260.081	81.81
260.314	90.81
260.547	89.81
260.779	85.81
261.012	85.81
261.244	66.81
261.477	84.81
261.71	89.81
261.942	101.81
262.175	116.81
262.407	97.81
262.64	81.81
262.872	92.81
263.105	80.81
263.337	77.81
263.57	86.81
263.802	85.81
264.035	88.81
264.267	78.81
264.499	94.81
264.732	97.81
264.964	72.81
265.197	98.81
265.429	97.81
265.661	84.81
265.894	92.81
266.126	89.81
266.358	91.81
266.591	76.81
266.823	78.81
267.055	88.81
267.287	93.81
267.52	86.81
267.752	101.81
267.984	94.81
268.216	90.81
268.448	90.81
268.681	86.81
268.913	89.81
269.145	91.81
269.377	86.81
269.609	83.81
269.841	89.81
270.073	86.81
270.306	83.81
270.538	96.81
270.77	78.81
271.002	84.81
271.234	84.81
271.466	88.81
271.698	95.81
271.93	87.81
272.162	89.81
272.394	93.81
272.626	92.81
272.858	81.81
273.09	84.81
273.322	92.81
273.553	94.81
273.785	85.81
274.017	79.81
274.249	84.81
274.481	86.81
274.713	94.81
274.945	96.81
275.176	85.81
275.408	81.81
275.64	93.81
275.872	90.81
276.104	83.81
276.335	96.81
276.567	104.81
276.799	96.81
277.031	117.81
277.262	106.81
277.494	105.81
277.726	94.81
277.957	84.81
278.189	92.81
278.421	95.81
278.652	109.81
278.884	88.81
279.115	97.81
279.347	87.81
279.579	102.81
279.81	84.81
280.042	107.81
280.273	114.81
280.505	108.81
280.736	87.81
280.968	99.81
281.199	86.81
281.431	99.81
281.662	86.81
281.894	93.81
282.125	99.81
282.356	106.81
282.588	136.81
282.819	105.81
283.051	90.81
283.282	90.81
283.513	97.81
283.745	91.81
283.976	94.81
284.207	88.81
284.439	89.81
284.67	96.81
284.901	102.81
285.132	99.81
285.364	78.81
285.595	88.81
285.826	86.81
286.057	92.81
286.288	98.81
286.52	96.81
286.751	77.81
286.982	105.81
287.213	78.81
287.444	91.81
287.675	93.81
287.906	82.81
288.138	93.81
288.369	92.81
288.6	108.81
288.831	92.81
289.062	86.81
289.293	81.81
289.524	89.81
289.755	90.81
289.986	104.81
290.217	92.81
290.448	95.81
290.679	92.81
290.91	82.81
291.141	83.81
291.371	101.81
291.602	100.81
291.833	87.81
292.064	99.81
292.295	82.81
292.526	86.81
292.757	92.81
292.987	89.81
293.218	70.81
293.449	99.81
293.68	92.81
293.91	78.81
294.141	99.81
294.372	89.81
294.603	80.81
294.833	89.81
295.064	82.81
295.295	86.81
295.525	101.81
295.756	106.81
295.987	111.81
296.217	132.81
296.448	109.81
296.679	105.81
296.909	102.81
297.14	100.81
297.37	96.81
297.601	97.81
297.831	106.81
298.062	95.81
298.292	95.81
298.523	87.81
298.753	94.81
298.984	90.81
299.214	90.81
299.445	90.81
299.675	93.81
299.905	104.81
300.136	91.81
300.366	89.81
300.597	96.81
300.827	95.81
301.057	96.81
301.288	115.81
301.518	92.81
301.748	105.81
301.979	105.81
302.209	101.81
302.439	87.81
302.669	89.81
302.9	92.81
303.13	92.81
303.36	89.81
303.59	109.81
303.82	111.81
304.051	85.81
304.281	90.81
304.511	103.81
304.741	97.81
304.971	81.81
305.201	98.81
305.431	81.81
305.661	79.81
305.891	98.81
306.121	94.81
306.352	107.81
306.582	103.81
306.812	106.81
307.042	105.81
307.272	109.81
307.502	113.81
307.731	103.81
307.961	98.81
308.191	99.81
308.421	104.81
308.651	94.81
308.881	110.81
309.111	99.81
309.341	105.81
309.571	96.81
309.8	108.81
310.03	82.81
310.26	98.81
310.49	98.81
310.72	103.81
310.949	111.81
311.179	100.81
311.409	95.81
311.639	103.81
311.868	104.81
312.098	87.81
312.328	89.81
312.557	96.81
312.787	104.81
313.017	102.81
313.246	98.81
313.476	98.81
313.706	84.81
313.935	102.81
314.165	94.81
314.394	104.81
314.624	101.81
314.853	103.81
315.083	98.81
315.312	89.81
315.542	111.81
315.771	87.81
316.001	102.81
316.23	99.81
316.46	103.81
316.689	98.81
316.919	98.81
317.148	100.81
317.377	106.81
317.607	102.81
317.836	102.81
318.065	93.81
318.295	97.81
318.524	88.81
318.753	77.81
318.983	82.81
319.212	95.81
319.441	101.81
319.67	101.81
319.9	100.81
320.129	94.81
320.358	89.81
320.587	104.81
320.816	106.81
321.046	119.81
321.275	100.81
321.504	96.81
321.733	103.81
321.962	102.81
322.191	102.81
322.42	101.81
322.649	113.81
322.878	108.81
323.108	121.81
323.337	116.81
323.566	130.81
323.795	157.81
324.024	213.81
324.253	402.81
324.482	823.81
324.71	1712.81
324.939	2262.81
325.168	808.81
325.397	263.81
325.626	142.81
325.855	125.81
326.084	128.81
326.313	129.81
326.542	142.81
326.77	216.81
326.999	456.81
327.228	962.81
327.457	1750.81
327.686	1390.81
327.914	408.81
328.143	250.81
328.372	203.81
328.6	125.81
328.829	112.81
329.058	114.81
329.287	133.81
329.515	119.81
329.744	125.81
329.972	166.81
330.201	227.81
330.43	309.81
330.658	182.81
330.887	164.81
331.115	147.81
331.344	101.81
331.572	112.81
331.801	101.81
332.03	111.81
332.258	106.81
332.486	103.81
332.715	108.81
332.943	107.81
333.172	117.81
333.4	113.81
333.629	110.81
333.857	121.81
334.085	160.81
334.314	244.81
334.542	369.81
334.771	340.81
334.999	153.81
335.227	108.81
335.455	94.81
335.684	101.81
335.912	113.81
336.14	94.81
336.369	110.81
336.597	96.81
336.825	95.81
337.053	107.81
337.281	92.81
337.51	94.81
337.738	99.81
337.966	99.81
338.194	101.81
338.422	79.81
338.65	94.81
338.878	94.81
339.106	89.81
339.334	98.81
339.562	92.81
339.79	95.81
340.018	92.81
340.246	99.81
340.474	108.81
340.702	89.81
340.93	117.81
341.158	98.81
341.386	84.81
341.614	100.81
341.842	82.81
342.07	110.81
342.298	83.81
342.526	76.81
342.754	92.81
342.981	85.81
343.209	92.81
343.437	114.81
343.665	102.81
343.893	96.81
344.12	97.81
344.348	88.81
344.576	94.81
344.804	92.81
345.031	94.81
345.259	91.81
345.487	86.81
345.714	98.81
345.942	94.81
346.17	89.81
346.397	101.81
346.625	103.81
346.853	88.81
347.08	98.81
347.308	105.81
347.535	101.81
347.763	102.81
347.99	92.81
348.218	104.81
348.445	98.81
348.673	92.81
348.9	96.81
349.128	99.81
349.355	86.81
349.583	102.81
349.81	99.81
350.037	96.81
350.265	96.81
350.492	95.81
350.72	102.81
350.947	91.81
351.174	105.81
351.402	103.81
351.629	111.81
351.856	105.81
352.083	105.81
352.311	93.81
352.538	103.81
352.765	112.81
352.992	112.81
353.22	108.81
353.447	121.81
353.674	106.81
353.901	93.81
354.128	88.81
354.355	101.81
354.583	93.81
354.81	103.81
355.037	101.81
355.264	106.81
355.491	111.81
355.718	103.81
355.945	98.81
356.172	97.81
356.399	82.81
356.626	108.81
356.853	94.81
357.08	95.81
357.307	96.81
357.534	97.81
357.761	98.81
357.988	89.81
358.215	107.81
358.441	98.81
358.668	97.81
358.895	102.81
359.122	85.81
359.349	99.81
359.576	88.81
359.802	100.81
360.029	105.81
360.256	115.81
360.483	98.81
360.709	87.81
360.936	96.81
361.163	108.81
361.39	88.81
361.616	101.81
361.843	81.81
362.07	92.81
362.296	99.81
362.523	96.81
362.749	98.81
362.976	105.81
363.203	98.81
363.429	81.81
363.656	103.81
363.882	105.81
364.109	96.81
364.335	101.81
364.562	95.81
364.788	88.81
365.015	89.81
365.241	84.81
365.468	108.81
365.694	97.81
365.92	96.81
366.147	96.81
366.373	95.81
366.599	81.81
366.826	88.81
367.052	85.81
367.278	87.81
367.505	105.81
367.731	96.81
367.957	82.81
368.184	105.81
368.41	83.81
368.636	113.81
368.862	121.81
369.089	94.81
369.315	106.81
369.541	84.81
369.767	109.81
369.993	92.81
370.219	98.81
370.445	80.81
370.672	104.81
370.898	93.81
371.124	93.81
371.35	94.81
371.576	90.81
371.802	85.81
372.028	80.81
372.254	80.81
372.48	95.81
372.706	96.81
372.932	95.81
373.158	103.81
373.384	99.81
373.61	99.81
373.835	87.81
374.061	86.81
374.287	80.81
374.513	86.81
374.739	92.81
374.965	102.81
375.191	89.81
375.416	97.81
375.642	96.81
375.868	93.81
376.094	95.81
376.319	96.81
376.545	86.81
376.771	91.81
376.997	107.81
377.222	98.81
377.448	97.81
377.674	90.81
377.899	95.81
378.125	89.81
378.35	75.81
378.576	95.81
378.802	105.81
379.027	92.81
379.253	103.81
379.478	92.81
379.704	100.81
379.929	102.81
380.155	97.81
380.38	97.81
380.606	97.81
380.831	105.81
381.057	98.81
381.282	92.81
381.507	100.81
381.733	109.81
381.958	97.81
382.184	116.81
382.409	110.81
382.634	119.81
382.86	113.81
383.085	98.81
383.31	121.81
383.535	105.81
383.761	111.81
383.986	127.81
384.211	112.81
384.436	115.81
384.662	113.81
384.887	127.81
385.112	129.81
385.337	138.81
385.562	143.81
385.787	136.81
386.013	143.81
386.238	130.81
386.463	127.81
386.688	126.81
386.913	135.81
387.138	117.81
387.363	120.81
387.588	122.81
387.813	131.81
388.038	128.81
388.263	159.81
388.488	131.81
388.713	115.81
388.938	99.81
389.163	97.81
389.387	98.81
389.612	91.81
389.837	99.81
390.062	88.81
390.287	86.81
390.512	101.81
390.736	92.81
390.961	100.81
391.186	108.81
391.411	92.81
391.636	98.81
391.86	72.81
392.085	85.81
392.31	95.81
392.534	94.81
392.759	94.81
392.984	118.81
393.208	135.81
393.433	204.81
393.658	178.81
393.882	110.81
394.107	78.81
394.331	92.81
394.556	92.81
394.78	93.81
395.005	89.81
395.229	89.81
395.454	84.81
395.678	87.81
395.903	102.81
396.127	71.81
396.352	79.81
396.576	105.81
396.801	135.81
397.025	151.81
397.249	99.81
397.474	96.81
397.698	90.81
397.922	98.81
398.147	93.81
398.371	80.81
398.595	91.81
398.82	82.81
399.044	83.81
399.268	98.81
399.492	89.81
399.717	93.81
399.941	84.81
400.165	84.81
400.389	100.81
400.613	92.81
400.837	97.81
401.062	89.81
401.286	81.81
401.51	90.81
401.734	92.81
401.958	103.81
402.182	135.81
402.406	168.81
402.63	123.81
402.854	90.81
403.078	72.81
403.302	96.81
403.526	89.81
403.75	84.81
403.974	87.81
404.198	96.81
404.422	89.81
404.645	91.81
404.869	93.81
405.093	109.81
405.317	103.81
405.541	106.81
405.765	98.81
405.988	120.81
406.212	160.81
406.436	211.81
406.66	137.81
406.883	102.81
407.107	89.81
407.331	91.81
407.555	112.81
407.778	103.81
408.002	99.81
408.226	98.81
408.449	80.81
408.673	90.81
408.896	99.81
409.12	94.81
409.344	89.81
409.567	88.81
409.791	88.81
410.014	98.81
410.238	104.81
410.461	99.81
410.685	102.81
410.908	93.81
411.132	110.81
411.355	98.81
411.578	94.81
411.802	94.81
412.025	85.81
412.249	95.81
412.472	87.81
412.695	102.81
412.919	95.81
413.142	102.81
413.365	86.81
413.589	98.81
413.812	77.81
414.035	97.81
414.258	85.81
414.482	100.81
414.705	92.81
414.928	93.81
415.151	106.81
415.374	112.81
415.597	92.81
415.821	108.81
416.044	81.81
416.267	78.81
416.49	100.81
416.713	89.81
416.936	88.81
417.159	88.81
417.382	92.81
417.605	85.81
417.828	79.81
418.051	100.81
418.274	92.81
418.497	96.81
418.72	96.81
418.943	96.81
419.166	78.81
419.389	86.81
419.611	96.81
419.834	97.81
420.057	73.81
420.28	103.81
420.503	98.81
420.726	89.81
420.948	88.81
421.171	93.81
421.394	99.81
421.617	101.81
421.839	89.81
422.062	98.81
422.285	91.81
422.507	113.81
422.73	112.81
422.953	113.81
423.175	99.81
423.398	95.81
423.621	94.81
423.843	94.81
424.066	86.81
424.288	82.81
424.511	89.81
424.733	98.81
424.956	97.81
425.178	100.81
425.401	99.81
425.623	97.81
425.846	80.81
426.068	82.81
426.291	94.81
426.513	89.81
426.735	89.81
426.958	97.81
427.18	103.81
427.402	129.81
427.625	176.81
427.847	128.81
428.069	124.81
428.292	96.81
428.514	90.81
428.736	92.81
428.958	85.81
429.181	84.81
429.403	87.81
429.625	92.81
429.847	94.81
430.069	96.81
430.292	84.81
430.514	89.81
430.736	84.81
430.958	97.81
431.18	80.81
431.402	74.81
431.624	84.81
431.846	88.81
432.068	89.81
432.29	98.81
432.512	86.81
432.734	82.81
432.956	90.81
433.178	88.81
433.4	100.81
433.622	93.81
433.844	92.81
434.066	73.81
434.287	73.81
434.509	91.81
434.731	81.81
434.953	84.81
435.175	88.81
435.397	84.81
435.618	85.81
435.84	97.81
436.062	126.81
436.284	109.81
436.505	102.81
436.727	96.81
436.949	97.81
437.17	79.81
437.392	89.81
437.614	101.81
437.835	103.81
438.057	136.81
438.278	116.81
438.5	88.81
438.721	126.81
438.943	107.81
439.165	87.81
439.386	88.81
439.608	75.81
439.829	92.81
440.05	121.81
440.272	130.81
440.493	100.81
440.715	98.81
440.936	91.81
441.158	95.81
441.379	92.81
441.6	86.81
441.822	102.81
442.043	104.81
442.264	122.81
442.486	93.81
442.707	90.81
442.928	94.81
443.149	152.81
443.371	131.81
443.592	113.81
443.813	107.81
444.034	95.81
444.255	96.81
444.476	92.81
444.698	84.81
444.919	86.81
445.14	139.81
445.361	122.81
445.582	110.81
445.803	124.81
446.024	130.81
446.245	150.81
446.466	112.81
446.687	102.81
446.908	78.81
447.129	97.81
447.35	85.81
447.571	81.81
447.792	101.81
448.013	94.81
448.234	111.81
448.455	87.81
448.675	130.81
448.896	103.81
449.117	104.81
449.338	88.81
449.559	113.81
449.779	121.81
450	109.81
450.221	90.81
450.442	78.81
450.662	93.81
450.883	105.81
451.104	122.81
451.324	96.81
451.545	79.81
451.766	95.81
451.986	93.81
452.207	83.81
452.428	87.81
452.648	89.81
452.869	117.81
453.089	98.81
453.31	116.81
453.53	93.81
453.751	100.81
453.971	92.81
454.192	130.81
454.412	96.81
454.633	72.81
454.853	86.81
455.073	103.81
455.294	93.81
455.514	94.81
455.734	81.81
455.955	93.81
456.175	100.81
456.395	83.81
456.616	83.81
456.836	84.81
457.056	82.81
457.276	81.81
457.497	80.81
457.717	95.81
457.937	88.81
458.157	81.81
458.377	109.81
458.598	119.81
458.818	153.81
459.038	145.81
459.258	108.81
459.478	90.81
459.698	78.81
459.918	90.81
460.138	87.81
460.358	82.81
460.578	92.81
460.798	90.81
461.018	80.81
461.238	85.81
461.458	102.81
461.678	85.81
461.898	100.81
462.118	75.81
462.338	82.81
462.558	85.81
462.777	91.81
462.997	89.81
463.217	84.81
463.437	86.81
463.657	96.81
463.876	80.81
464.096	89.81
464.316	81.81
464.536	89.81
464.755	100.81
464.975	106.81
465.195	154.81
465.414	141.81
465.634	102.81
465.854	99.81
466.073	86.81
466.293	76.81
466.512	101.81
466.732	79.81
466.951	84.81
467.171	89.81
467.391	89.81
467.61	106.81
467.829	120.81
468.049	183.81
468.268	217.81
468.488	112.81
468.707	80.81
468.927	85.81
469.146	92.81
469.365	76.81
469.585	87.81
469.804	101.81
470.023	106.81
470.243	87.81
470.462	101.81
470.681	106.81
470.901	88.81
471.12	87.81
471.339	92.81
471.558	92.81
471.777	96.81
471.997	122.81
472.216	275.81
472.435	538.81
472.654	174.81
472.873	103.81
473.092	111.81
473.311	98.81
473.53	86.81
473.749	101.81
473.968	106.81
474.187	101.81
474.406	96.81
474.625	90.81
474.844	99.81
475.063	81.81
475.282	78.81
475.501	90.81
475.72	86.81
475.939	81.81
476.158	89.81
476.377	77.81
476.596	87.81
476.814	90.81
477.033	98.81
477.252	89.81
477.471	80.81
477.69	86.81
477.908	96.81
478.127	98.81
478.346	87.81
478.564	88.81
478.783	111.81
479.002	95.81
479.22	106.81
479.439	112.81
479.658	95.81
479.876	96.81
480.095	96.81
480.313	100.81
480.532	94.81
480.751	121.81
480.969	298.81
481.188	944.81
481.406	554.81
481.624	136.81
481.843	102.81
482.061	105.81
482.28	82.81
482.498	97.81
482.717	89.81
482.935	93.81
483.153	96.81
483.372	86.81
483.59	70.81
483.808	101.81
484.027	103.81
484.245	85.81
484.463	105.81
484.681	99.81
484.9	92.81
485.118	105.81
485.336	87.81
485.554	92.81
485.772	104.81
485.99	104.81
486.209	109.81
486.427	114.81
486.645	117.81
486.863	121.81
487.081	104.81
487.299	95.81
487.517	83.81
487.735	86.81
487.953	82.81
488.171	87.81
488.389	98.81
488.607	92.81
488.825	85.81
489.043	97.81
489.261	95.81
489.479	95.81
489.696	81.81
489.914	76.81
490.132	89.81
490.35	83.81
490.568	78.81
490.786	82.81
491.003	88.81
491.221	92.81
491.439	87.81
491.657	88.81
491.874	94.81
492.092	93.81
492.31	97.81
492.527	96.81
492.745	89.81
492.963	91.81
493.18	95.81
493.398	88.81
493.615	87.81
493.833	94.81
494.05	93.81
494.268	87.81
494.485	96.81
494.703	96.81
494.92	100.81
495.138	81.81
495.355	95.81
495.573	90.81
495.79	86.81
496.008	88.81
496.225	97.81
496.442	87.81
496.66	88.81
496.877	86.81
497.094	93.81
497.312	66.81
497.529	74.81
497.746	78.81
497.963	86.81
498.181	91.81
498.398	92.81
498.615	116.81
498.832	96.81
499.049	89.81
499.267	88.81
499.484	89.81
499.701	88.81
499.918	95.81
500.135	95.81
500.352	86.81
500.569	94.81
500.786	69.81
501.003	80.81
501.22	95.81
501.437	96.81
501.654	96.81
501.871	114.81
502.088	95.81
502.305	81.81
502.522	84.81
502.739	81.81
502.956	99.81
503.172	104.81
503.389	98.81
503.606	116.81
503.823	103.81
504.04	93.81
504.256	93.81
504.473	77.81
504.69	98.81
504.907	104.81
505.123	93.81
505.34	101.81
505.557	75.81
505.773	86.81
505.99	68.81
506.207	86.81
506.423	86.81
506.64	93.81
506.856	94.81
507.073	101.81
507.289	123.81
507.506	106.81
507.722	108.81
507.939	103.81
508.155	94.81
508.372	89.81
508.588	93.81
508.805	97.81
509.021	92.81
509.238	100.81
509.454	92.81
509.67	87.81
509.887	105.81
510.103	126.81
510.319	200.81
510.536	710.81
510.752	2288.81
510.968	646.81
511.184	164.81
511.401	95.81
511.617	104.81
511.833	96.81
512.049	92.81
512.265	102.81
512.481	93.81
512.698	85.81
512.914	98.81
513.13	95.81
513.346	92.81
513.562	102.81
513.778	88.81
513.994	85.81
514.21	99.81
