Data from Circ_1991_H10_HRD10591_00072.txt Node
Date: Wed Jan 03 11:51:55 EST 2024
User: Yrep
Spectrometer: HR+D1059
Trigger mode: 1
Integration Time (sec): 1.000000E-1
Scans to average: 1
Electric dark correction enabled: true
Nonlinearity correction enabled: false
Boxcar width: 0
XAxis mode: Wavelengths
Number of Pixels in Spectrum: 2048
>>>>>Begin Spectral Data<<<<<
223.165	-20.06
223.4	-20.06
223.635	-20.06
223.869	-36.06
224.104	-25.06
224.338	-8.06
224.573	-8.06
224.808	-5.06
225.042	-6.06
225.277	-0.06
225.511	-4.06
225.746	0.94
225.98	9.94
226.215	9.94
226.449	11.94
226.683	30.94
226.918	15.94
227.152	32.94
227.387	33.94
227.621	39.94
227.856	46.94
228.09	44.94
228.324	36.94
228.559	54.94
228.793	49.94
229.027	61.94
229.262	62.94
229.496	58.94
229.73	83.94
229.964	76.94
230.199	66.94
230.433	75.94
230.667	71.94
230.901	87.94
231.136	84.94
231.37	81.94
231.604	80.94
231.838	65.94
232.072	72.94
232.306	68.94
232.541	87.94
232.775	76.94
233.009	70.94
233.243	76.94
233.477	67.94
233.711	77.94
233.945	84.94
234.179	88.94
234.413	75.94
234.647	85.94
234.881	87.94
235.115	84.94
235.349	79.94
235.583	64.94
235.817	64.94
236.051	90.94
236.285	81.94
236.519	83.94
236.753	84.94
236.987	78.94
237.221	82.94
237.455	92.94
237.689	79.94
237.922	72.94
238.156	72.94
238.39	81.94
238.624	67.94
238.858	85.94
239.091	81.94
239.325	88.94
239.559	77.94
239.793	84.94
240.027	81.94
240.26	82.94
240.494	75.94
240.728	66.94
240.961	73.94
241.195	58.94
241.429	65.94
241.662	57.94
241.896	72.94
242.13	82.94
242.363	76.94
242.597	75.94
242.83	80.94
243.064	57.94
243.298	84.94
243.531	84.94
243.765	90.94
243.998	67.94
244.232	83.94
244.465	95.94
244.699	68.94
244.932	96.94
245.166	75.94
245.399	71.94
245.633	69.94
245.866	82.94
246.099	77.94
246.333	82.94
246.566	73.94
246.8	59.94
247.033	75.94
247.266	75.94
247.5	73.94
247.733	81.94
247.966	75.94
248.2	73.94
248.433	80.94
248.666	79.94
248.899	79.94
249.133	85.94
249.366	95.94
249.599	82.94
249.832	73.94
250.066	82.94
250.299	71.94
250.532	67.94
250.765	68.94
250.998	73.94
251.231	89.94
251.465	73.94
251.698	95.94
251.931	81.94
252.164	91.94
252.397	71.94
252.63	67.94
252.863	60.94
253.096	91.94
253.329	89.94
253.562	83.94
253.795	79.94
254.028	73.94
254.261	80.94
254.494	81.94
254.727	86.94
254.96	71.94
255.193	90.94
255.426	85.94
255.659	78.94
255.892	74.94
256.124	80.94
256.357	79.94
256.59	83.94
256.823	74.94
257.056	78.94
257.289	81.94
257.521	82.94
257.754	91.94
257.987	81.94
258.22	83.94
258.452	85.94
258.685	73.94
258.918	72.94
259.151	82.94
259.383	94.94
259.616	84.94
259.849	82.94
260.081	95.94
260.314	75.94
260.547	85.94
260.779	72.94
261.012	97.94
261.244	93.94
261.477	94.94
261.71	108.94
261.942	101.94
262.175	114.94
262.407	81.94
262.64	78.94
262.872	80.94
263.105	84.94
263.337	99.94
263.57	76.94
263.802	84.94
264.035	84.94
264.267	79.94
264.499	73.94
264.732	89.94
264.964	85.94
265.197	92.94
265.429	78.94
265.661	85.94
265.894	81.94
266.126	107.94
266.358	93.94
266.591	79.94
266.823	80.94
267.055	85.94
267.287	95.94
267.52	70.94
267.752	70.94
267.984	94.94
268.216	89.94
268.448	91.94
268.681	85.94
268.913	95.94
269.145	77.94
269.377	79.94
269.609	78.94
269.841	95.94
270.073	93.94
270.306	74.94
270.538	81.94
270.77	61.94
271.002	71.94
271.234	84.94
271.466	96.94
271.698	88.94
271.93	90.94
272.162	75.94
272.394	90.94
272.626	79.94
272.858	83.94
273.09	87.94
273.322	80.94
273.553	88.94
273.785	76.94
274.017	83.94
274.249	91.94
274.481	69.94
274.713	80.94
274.945	87.94
275.176	81.94
275.408	83.94
275.64	90.94
275.872	91.94
276.104	90.94
276.335	84.94
276.567	105.94
276.799	116.94
277.031	107.94
277.262	130.94
277.494	104.94
277.726	81.94
277.957	82.94
278.189	101.94
278.421	77.94
278.652	82.94
278.884	75.94
279.115	70.94
279.347	81.94
279.579	92.94
279.81	97.94
280.042	135.94
280.273	145.94
280.505	128.94
280.736	85.94
280.968	81.94
281.199	79.94
281.431	81.94
281.662	81.94
281.894	87.94
282.125	94.94
282.356	118.94
282.588	129.94
282.819	121.94
283.051	99.94
283.282	89.94
283.513	87.94
283.745	97.94
283.976	88.94
284.207	100.94
284.439	83.94
284.67	97.94
284.901	74.94
285.132	84.94
285.364	83.94
285.595	85.94
285.826	92.94
286.057	96.94
286.288	75.94
286.52	75.94
286.751	71.94
286.982	87.94
287.213	72.94
287.444	91.94
287.675	68.94
287.906	67.94
288.138	69.94
288.369	93.94
288.6	104.94
288.831	85.94
289.062	78.94
289.293	76.94
289.524	99.94
289.755	78.94
289.986	92.94
290.217	93.94
290.448	83.94
290.679	79.94
290.91	73.94
291.141	69.94
291.371	84.94
291.602	96.94
291.833	79.94
292.064	89.94
292.295	86.94
292.526	90.94
292.757	86.94
292.987	103.94
293.218	84.94
293.449	87.94
293.68	93.94
293.91	85.94
294.141	89.94
294.372	95.94
294.603	90.94
294.833	91.94
295.064	87.94
295.295	83.94
295.525	92.94
295.756	102.94
295.987	131.94
296.217	135.94
296.448	128.94
296.679	92.94
296.909	79.94
297.14	77.94
297.37	82.94
297.601	84.94
297.831	98.94
298.062	72.94
298.292	90.94
298.523	88.94
298.753	84.94
298.984	72.94
299.214	88.94
299.445	85.94
299.675	96.94
299.905	90.94
300.136	91.94
300.366	91.94
300.597	106.94
300.827	90.94
301.057	101.94
301.288	104.94
301.518	95.94
301.748	83.94
301.979	104.94
302.209	81.94
302.439	80.94
302.669	96.94
302.9	90.94
303.13	92.94
303.36	101.94
303.59	112.94
303.82	120.94
304.051	85.94
304.281	91.94
304.511	87.94
304.741	86.94
304.971	88.94
305.201	78.94
305.431	88.94
305.661	80.94
305.891	89.94
306.121	101.94
306.352	98.94
306.582	104.94
306.812	107.94
307.042	94.94
307.272	112.94
307.502	132.94
307.731	124.94
307.961	102.94
308.191	94.94
308.421	87.94
308.651	73.94
308.881	97.94
309.111	105.94
309.341	85.94
309.571	81.94
309.8	90.94
310.03	79.94
310.26	89.94
310.49	84.94
310.72	101.94
310.949	101.94
311.179	103.94
311.409	91.94
311.639	77.94
311.868	94.94
312.098	79.94
312.328	109.94
312.557	111.94
312.787	87.94
313.017	100.94
313.246	73.94
313.476	100.94
313.706	97.94
313.935	101.94
314.165	96.94
314.394	84.94
314.624	85.94
314.853	101.94
315.083	89.94
315.312	91.94
315.542	83.94
315.771	83.94
316.001	75.94
316.23	80.94
316.46	88.94
316.689	100.94
316.919	93.94
317.148	96.94
317.377	94.94
317.607	88.94
317.836	87.94
318.065	104.94
318.295	82.94
318.524	100.94
318.753	82.94
318.983	95.94
319.212	97.94
319.441	114.94
319.67	107.94
319.9	90.94
320.129	99.94
320.358	102.94
320.587	99.94
320.816	114.94
321.046	90.94
321.275	99.94
321.504	99.94
321.733	94.94
321.962	97.94
322.191	95.94
322.42	93.94
322.649	104.94
322.878	104.94
323.108	113.94
323.337	121.94
323.566	133.94
323.795	175.94
324.024	228.94
324.253	436.94
324.482	932.94
324.71	2016.94
324.939	2758.94
325.168	979.94
325.397	273.94
325.626	148.94
325.855	122.94
326.084	115.94
326.313	130.94
326.542	151.94
326.77	237.94
326.999	490.94
327.228	1074.94
327.457	2020.94
327.686	1655.94
327.914	480.94
328.143	324.94
328.372	350.94
328.6	208.94
328.829	148.94
329.058	146.94
329.287	154.94
329.515	122.94
329.744	173.94
329.972	251.94
330.201	470.94
330.43	704.94
330.658	345.94
330.887	190.94
331.115	153.94
331.344	108.94
331.572	109.94
331.801	99.94
332.03	103.94
332.258	104.94
332.486	88.94
332.715	101.94
332.943	96.94
333.172	111.94
333.4	115.94
333.629	150.94
333.857	155.94
334.085	244.94
334.314	455.94
334.542	843.94
334.771	823.94
334.999	257.94
335.227	138.94
335.455	105.94
335.684	93.94
335.912	101.94
336.14	111.94
336.369	101.94
336.597	103.94
336.825	104.94
337.053	81.94
337.281	89.94
337.51	85.94
337.738	89.94
337.966	82.94
338.194	97.94
338.422	111.94
338.65	84.94
338.878	91.94
339.106	97.94
339.334	91.94
339.562	87.94
339.79	84.94
340.018	91.94
340.246	91.94
340.474	77.94
340.702	89.94
340.93	96.94
341.158	97.94
341.386	88.94
341.614	96.94
341.842	99.94
342.07	93.94
342.298	98.94
342.526	80.94
342.754	86.94
342.981	81.94
343.209	83.94
343.437	94.94
343.665	84.94
343.893	84.94
344.12	81.94
344.348	87.94
344.576	79.94
344.804	90.94
345.031	91.94
345.259	95.94
345.487	93.94
345.714	79.94
345.942	99.94
346.17	96.94
346.397	97.94
346.625	101.94
346.853	92.94
347.08	72.94
347.308	99.94
347.535	91.94
347.763	81.94
347.99	89.94
348.218	99.94
348.445	114.94
348.673	103.94
348.9	77.94
349.128	88.94
349.355	88.94
349.583	97.94
349.81	94.94
350.037	93.94
350.265	88.94
350.492	85.94
350.72	96.94
350.947	101.94
351.174	117.94
351.402	111.94
351.629	96.94
351.856	105.94
352.083	106.94
352.311	114.94
352.538	109.94
352.765	106.94
352.992	101.94
353.22	95.94
353.447	91.94
353.674	95.94
353.901	98.94
354.128	101.94
354.355	85.94
354.583	86.94
354.81	87.94
355.037	98.94
355.264	100.94
355.491	85.94
355.718	85.94
355.945	92.94
356.172	81.94
356.399	94.94
356.626	87.94
356.853	90.94
357.08	104.94
357.307	91.94
357.534	96.94
357.761	82.94
357.988	101.94
358.215	99.94
358.441	92.94
358.668	93.94
358.895	97.94
359.122	100.94
359.349	90.94
359.576	91.94
359.802	85.94
360.029	112.94
360.256	127.94
360.483	104.94
360.709	93.94
360.936	85.94
361.163	96.94
361.39	73.94
361.616	104.94
361.843	92.94
362.07	82.94
362.296	92.94
362.523	89.94
362.749	89.94
362.976	85.94
363.203	95.94
363.429	80.94
363.656	85.94
363.882	92.94
364.109	83.94
364.335	86.94
364.562	85.94
364.788	90.94
365.015	93.94
365.241	95.94
365.468	97.94
365.694	114.94
365.92	100.94
366.147	93.94
366.373	106.94
366.599	88.94
366.826	84.94
367.052	100.94
367.278	91.94
367.505	87.94
367.731	84.94
367.957	91.94
368.184	93.94
368.41	103.94
368.636	115.94
368.862	117.94
369.089	119.94
369.315	84.94
369.541	79.94
369.767	90.94
369.993	93.94
370.219	75.94
370.445	86.94
370.672	93.94
370.898	85.94
371.124	82.94
371.35	110.94
371.576	92.94
371.802	101.94
372.028	86.94
372.254	87.94
372.48	80.94
372.706	90.94
372.932	87.94
373.158	81.94
373.384	90.94
373.61	83.94
373.835	90.94
374.061	74.94
374.287	104.94
374.513	90.94
374.739	81.94
374.965	91.94
375.191	87.94
375.416	91.94
375.642	79.94
375.868	93.94
376.094	90.94
376.319	95.94
376.545	95.94
376.771	96.94
376.997	100.94
377.222	84.94
377.448	94.94
377.674	87.94
377.899	88.94
378.125	94.94
378.35	105.94
378.576	84.94
378.802	73.94
379.027	88.94
379.253	83.94
379.478	85.94
379.704	91.94
379.929	84.94
380.155	84.94
380.38	105.94
380.606	91.94
380.831	89.94
381.057	98.94
381.282	81.94
381.507	97.94
381.733	85.94
381.958	87.94
382.184	93.94
382.409	95.94
382.634	106.94
382.86	87.94
383.085	85.94
383.31	82.94
383.535	101.94
383.761	95.94
383.986	91.94
384.211	93.94
384.436	97.94
384.662	92.94
384.887	102.94
385.112	101.94
385.337	85.94
385.562	97.94
385.787	89.94
386.013	102.94
386.238	114.94
386.463	99.94
386.688	90.94
386.913	93.94
387.138	105.94
387.363	105.94
387.588	91.94
387.813	94.94
388.038	87.94
388.263	93.94
388.488	94.94
388.713	77.94
388.938	104.94
389.163	89.94
389.387	97.94
389.612	92.94
389.837	83.94
390.062	93.94
390.287	81.94
390.512	93.94
390.736	86.94
390.961	91.94
391.186	88.94
391.411	87.94
391.636	94.94
391.86	82.94
392.085	75.94
392.31	93.94
392.534	89.94
392.759	104.94
392.984	88.94
393.208	84.94
393.433	99.94
393.658	97.94
393.882	77.94
394.107	89.94
394.331	91.94
394.556	91.94
394.78	89.94
395.005	89.94
395.229	73.94
395.454	89.94
395.678	85.94
395.903	90.94
396.127	91.94
396.352	98.94
396.576	89.94
396.801	87.94
397.025	97.94
397.249	82.94
397.474	91.94
397.698	94.94
397.922	80.94
398.147	90.94
398.371	82.94
398.595	71.94
398.82	94.94
399.044	91.94
399.268	84.94
399.492	72.94
399.717	79.94
399.941	66.94
400.165	92.94
400.389	94.94
400.613	77.94
400.837	79.94
401.062	83.94
401.286	89.94
401.51	97.94
401.734	91.94
401.958	96.94
402.182	125.94
402.406	164.94
402.63	105.94
402.854	101.94
403.078	89.94
403.302	63.94
403.526	93.94
403.75	77.94
403.974	84.94
404.198	83.94
404.422	90.94
404.645	76.94
404.869	108.94
405.093	99.94
405.317	118.94
405.541	95.94
405.765	96.94
405.988	112.94
406.212	168.94
406.436	249.94
406.66	167.94
406.883	115.94
407.107	98.94
407.331	90.94
407.555	102.94
407.778	103.94
408.002	76.94
408.226	100.94
408.449	85.94
408.673	81.94
408.896	99.94
409.12	84.94
409.344	82.94
409.567	88.94
409.791	87.94
410.014	98.94
410.238	93.94
410.461	79.94
410.685	83.94
410.908	88.94
411.132	117.94
411.355	86.94
411.578	89.94
411.802	79.94
412.025	75.94
412.249	92.94
412.472	86.94
412.695	105.94
412.919	92.94
413.142	105.94
413.365	84.94
413.589	87.94
413.812	81.94
414.035	105.94
414.258	87.94
414.482	91.94
414.705	74.94
414.928	86.94
415.151	78.94
415.374	90.94
415.597	76.94
415.821	87.94
416.044	95.94
416.267	76.94
416.49	77.94
416.713	81.94
416.936	91.94
417.159	86.94
417.382	85.94
417.605	91.94
417.828	94.94
418.051	85.94
418.274	92.94
418.497	87.94
418.72	91.94
418.943	79.94
419.166	84.94
419.389	73.94
419.611	101.94
419.834	93.94
420.057	96.94
420.28	87.94
420.503	92.94
420.726	82.94
420.948	95.94
421.171	99.94
421.394	79.94
421.617	90.94
421.839	92.94
422.062	88.94
422.285	89.94
422.507	88.94
422.73	100.94
422.953	104.94
423.175	93.94
423.398	109.94
423.621	93.94
423.843	95.94
424.066	71.94
424.288	75.94
424.511	84.94
424.733	92.94
424.956	92.94
425.178	102.94
425.401	105.94
425.623	94.94
425.846	93.94
426.068	103.94
426.291	91.94
426.513	91.94
426.735	95.94
426.958	95.94
427.18	93.94
427.402	160.94
427.625	189.94
427.847	181.94
428.069	185.94
428.292	111.94
428.514	93.94
428.736	74.94
428.958	82.94
429.181	84.94
429.403	92.94
429.625	81.94
429.847	102.94
430.069	101.94
430.292	90.94
430.514	72.94
430.736	73.94
430.958	82.94
431.18	92.94
431.402	84.94
431.624	92.94
431.846	92.94
432.068	81.94
432.29	80.94
432.512	81.94
432.734	102.94
432.956	104.94
433.178	94.94
433.4	106.94
433.622	78.94
433.844	88.94
434.066	88.94
434.287	92.94
434.509	88.94
434.731	85.94
434.953	84.94
435.175	98.94
435.397	80.94
435.618	94.94
435.84	109.94
436.062	124.94
436.284	105.94
436.505	108.94
436.727	88.94
436.949	91.94
437.17	89.94
437.392	100.94
437.614	88.94
437.835	99.94
438.057	114.94
438.278	121.94
438.5	87.94
438.721	125.94
438.943	113.94
439.165	79.94
439.386	98.94
439.608	97.94
439.829	98.94
440.05	121.94
440.272	163.94
440.493	101.94
440.715	95.94
440.936	79.94
441.158	90.94
441.379	94.94
441.6	88.94
441.822	80.94
442.043	83.94
442.264	100.94
442.486	98.94
442.707	91.94
442.928	109.94
443.149	145.94
443.371	138.94
443.592	119.94
443.813	111.94
444.034	103.94
444.255	93.94
444.476	101.94
444.698	92.94
444.919	90.94
445.14	117.94
445.361	115.94
445.582	113.94
445.803	157.94
446.024	150.94
446.245	146.94
446.466	111.94
446.687	90.94
446.908	76.94
447.129	91.94
447.35	98.94
447.571	94.94
447.792	83.94
448.013	75.94
448.234	106.94
448.455	100.94
448.675	114.94
448.896	112.94
449.117	90.94
449.338	94.94
449.559	128.94
449.779	121.94
450	88.94
450.221	83.94
450.442	91.94
450.662	101.94
450.883	111.94
451.104	113.94
451.324	87.94
451.545	95.94
451.766	79.94
451.986	87.94
452.207	83.94
452.428	97.94
452.648	91.94
452.869	109.94
453.089	128.94
453.31	125.94
453.53	91.94
453.751	73.94
453.971	98.94
454.192	103.94
454.412	100.94
454.633	90.94
454.853	88.94
455.073	81.94
455.294	87.94
455.514	86.94
455.734	86.94
455.955	88.94
456.175	91.94
456.395	72.94
456.616	77.94
456.836	94.94
457.056	98.94
457.276	76.94
457.497	80.94
457.717	79.94
457.937	84.94
458.157	98.94
458.377	92.94
458.598	100.94
458.818	163.94
459.038	175.94
459.258	132.94
459.478	95.94
459.698	87.94
459.918	85.94
460.138	96.94
460.358	71.94
460.578	98.94
460.798	101.94
461.018	90.94
461.238	84.94
461.458	82.94
461.678	88.94
461.898	84.94
462.118	79.94
462.338	75.94
462.558	79.94
462.777	85.94
462.997	92.94
463.217	80.94
463.437	96.94
463.657	84.94
463.876	74.94
464.096	96.94
464.316	83.94
464.536	85.94
464.755	91.94
464.975	99.94
465.195	165.94
465.414	171.94
465.634	82.94
465.854	84.94
466.073	89.94
466.293	81.94
466.512	103.94
466.732	96.94
466.951	98.94
467.171	98.94
467.391	103.94
467.61	121.94
467.829	139.94
468.049	300.94
468.268	439.94
468.488	149.94
468.707	87.94
468.927	71.94
469.146	78.94
469.365	101.94
469.585	92.94
469.804	118.94
470.023	99.94
470.243	103.94
470.462	92.94
470.681	130.94
470.901	88.94
471.12	86.94
471.339	84.94
471.558	108.94
471.777	124.94
471.997	189.94
472.216	576.94
472.435	1245.94
472.654	334.94
472.873	124.94
473.092	114.94
473.311	88.94
473.53	87.94
473.749	87.94
473.968	98.94
474.187	110.94
474.406	88.94
474.625	83.94
474.844	99.94
475.063	73.94
475.282	79.94
475.501	84.94
475.72	85.94
475.939	78.94
476.158	91.94
476.377	75.94
476.596	78.94
476.814	84.94
477.033	88.94
477.252	89.94
477.471	86.94
477.69	100.94
477.908	87.94
478.127	91.94
478.346	92.94
478.564	73.94
478.783	82.94
479.002	94.94
479.22	100.94
479.439	106.94
479.658	115.94
479.876	97.94
480.095	107.94
480.313	111.94
480.532	121.94
480.751	179.94
480.969	586.94
481.188	2217.94
481.406	1265.94
481.624	226.94
481.843	115.94
482.061	88.94
482.28	78.94
482.498	92.94
482.717	84.94
482.935	88.94
483.153	78.94
483.372	80.94
483.59	109.94
483.808	93.94
484.027	81.94
484.245	81.94
484.463	82.94
484.681	92.94
484.9	97.94
485.118	87.94
485.336	96.94
485.554	88.94
485.772	77.94
485.99	100.94
486.209	92.94
486.427	96.94
486.645	122.94
486.863	113.94
487.081	96.94
487.299	93.94
487.517	98.94
487.735	79.94
487.953	103.94
488.171	88.94
488.389	95.94
488.607	95.94
488.825	82.94
489.043	85.94
489.261	89.94
489.479	91.94
489.696	76.94
489.914	83.94
490.132	83.94
490.35	76.94
490.568	73.94
490.786	71.94
491.003	79.94
491.221	84.94
491.439	103.94
491.657	82.94
491.874	80.94
492.092	81.94
492.31	103.94
492.527	93.94
492.745	83.94
492.963	100.94
493.18	90.94
493.398	88.94
493.615	98.94
493.833	94.94
494.05	87.94
494.268	91.94
494.485	94.94
494.703	90.94
494.92	93.94
495.138	88.94
495.355	94.94
495.573	97.94
495.79	80.94
496.008	96.94
496.225	88.94
496.442	91.94
496.66	89.94
496.877	93.94
497.094	80.94
497.312	100.94
497.529	95.94
497.746	97.94
497.963	65.94
498.181	82.94
498.398	85.94
498.615	110.94
498.832	96.94
499.049	85.94
499.267	89.94
499.484	90.94
499.701	96.94
499.918	87.94
500.135	84.94
500.352	91.94
500.569	89.94
500.786	104.94
501.003	81.94
501.22	105.94
501.437	91.94
501.654	87.94
501.871	112.94
502.088	85.94
502.305	85.94
502.522	94.94
502.739	88.94
502.956	75.94
503.172	90.94
503.389	105.94
503.606	103.94
503.823	103.94
504.04	79.94
504.256	88.94
504.473	93.94
504.69	80.94
504.907	90.94
505.123	88.94
505.34	91.94
505.557	81.94
505.773	81.94
505.99	95.94
506.207	89.94
506.423	95.94
506.64	96.94
506.856	95.94
507.073	81.94
507.289	100.94
507.506	88.94
507.722	121.94
507.939	108.94
508.155	88.94
508.372	77.94
508.588	91.94
508.805	91.94
509.021	89.94
509.238	99.94
509.454	93.94
509.67	89.94
509.887	103.94
510.103	130.94
510.319	222.94
510.536	778.94
510.752	2644.94
510.968	715.94
511.184	159.94
511.401	114.94
511.617	95.94
511.833	106.94
512.049	96.94
512.265	105.94
512.481	85.94
512.698	81.94
512.914	101.94
513.13	87.94
513.346	106.94
513.562	99.94
513.778	104.94
513.994	94.94
514.21	105.94
514.426	112.94
514.642	145.94
514.858	113.94
515.074	171.94
515.29	543.94
515.506	1821.94
