Data from Circ_1991_H10_HRD10591_00068.txt Node
Date: Wed Jan 03 11:51:54 EST 2024
User: Yrep
Spectrometer: HR+D1059
Trigger mode: 1
Integration Time (sec): 1.000000E-1
Scans to average: 1
Electric dark correction enabled: true
Nonlinearity correction enabled: false
Boxcar width: 0
XAxis mode: Wavelengths
Number of Pixels in Spectrum: 2048
>>>>>Begin Spectral Data<<<<<
223.165	-33.38
223.4	-33.38
223.635	-33.38
223.869	-7.38
224.104	-35.38
224.338	-12.38
224.573	-14.38
224.808	-15.38
225.042	-5.38
225.277	4.62
225.511	-10.38
225.746	16.62
225.98	13.62
226.215	12.62
226.449	6.62
226.683	28.62
226.918	22.62
227.152	28.62
227.387	22.62
227.621	15.62
227.856	42.62
228.09	39.62
228.324	38.62
228.559	56.62
228.793	57.62
229.027	60.62
229.262	64.62
229.496	72.62
229.73	64.62
229.964	86.62
230.199	68.62
230.433	72.62
230.667	80.62
230.901	85.62
231.136	84.62
231.37	64.62
231.604	74.62
231.838	78.62
232.072	80.62
232.306	88.62
232.541	86.62
232.775	84.62
233.009	90.62
233.243	76.62
233.477	72.62
233.711	78.62
233.945	74.62
234.179	78.62
234.413	77.62
234.647	77.62
234.881	75.62
235.115	73.62
235.349	62.62
235.583	85.62
235.817	62.62
236.051	72.62
236.285	59.62
236.519	68.62
236.753	80.62
236.987	68.62
237.221	72.62
237.455	88.62
237.689	67.62
237.922	70.62
238.156	76.62
238.39	80.62
238.624	78.62
238.858	80.62
239.091	78.62
239.325	78.62
239.559	69.62
239.793	60.62
240.027	69.62
240.26	64.62
240.494	73.62
240.728	85.62
240.961	67.62
241.195	79.62
241.429	95.62
241.662	71.62
241.896	64.62
242.13	72.62
242.363	64.62
242.597	70.62
242.83	90.62
243.064	77.62
243.298	64.62
243.531	74.62
243.765	86.62
243.998	72.62
244.232	91.62
244.465	93.62
244.699	77.62
244.932	64.62
245.166	91.62
245.399	94.62
245.633	84.62
245.866	85.62
246.099	73.62
246.333	72.62
246.566	65.62
246.8	85.62
247.033	70.62
247.266	79.62
247.5	83.62
247.733	72.62
247.966	88.62
248.2	82.62
248.433	77.62
248.666	80.62
248.899	80.62
249.133	81.62
249.366	101.62
249.599	85.62
249.832	69.62
250.066	83.62
250.299	73.62
250.532	83.62
250.765	85.62
250.998	75.62
251.231	70.62
251.465	74.62
251.698	69.62
251.931	90.62
252.164	71.62
252.397	80.62
252.63	81.62
252.863	85.62
253.096	90.62
253.329	84.62
253.562	89.62
253.795	89.62
254.028	88.62
254.261	84.62
254.494	64.62
254.727	69.62
254.96	66.62
255.193	79.62
255.426	85.62
255.659	86.62
255.892	84.62
256.124	65.62
256.357	72.62
256.59	82.62
256.823	81.62
257.056	86.62
257.289	84.62
257.521	78.62
257.754	78.62
257.987	92.62
258.22	67.62
258.452	96.62
258.685	92.62
258.918	71.62
259.151	70.62
259.383	88.62
259.616	75.62
259.849	84.62
260.081	64.62
260.314	67.62
260.547	73.62
260.779	81.62
261.012	95.62
261.244	97.62
261.477	110.62
261.71	89.62
261.942	112.62
262.175	108.62
262.407	96.62
262.64	83.62
262.872	78.62
263.105	82.62
263.337	92.62
263.57	76.62
263.802	96.62
264.035	88.62
264.267	77.62
264.499	82.62
264.732	88.62
264.964	83.62
265.197	88.62
265.429	84.62
265.661	76.62
265.894	82.62
266.126	79.62
266.358	72.62
266.591	77.62
266.823	89.62
267.055	84.62
267.287	83.62
267.52	77.62
267.752	83.62
267.984	83.62
268.216	89.62
268.448	82.62
268.681	82.62
268.913	89.62
269.145	80.62
269.377	74.62
269.609	68.62
269.841	90.62
270.073	82.62
270.306	87.62
270.538	85.62
270.77	82.62
271.002	74.62
271.234	83.62
271.466	78.62
271.698	86.62
271.93	88.62
272.162	72.62
272.394	85.62
272.626	83.62
272.858	78.62
273.09	85.62
273.322	84.62
273.553	69.62
273.785	88.62
274.017	85.62
274.249	88.62
274.481	84.62
274.713	80.62
274.945	70.62
275.176	92.62
275.408	84.62
275.64	99.62
275.872	89.62
276.104	85.62
276.335	99.62
276.567	89.62
276.799	115.62
277.031	131.62
277.262	120.62
277.494	109.62
277.726	89.62
277.957	81.62
278.189	76.62
278.421	84.62
278.652	85.62
278.884	74.62
279.115	75.62
279.347	97.62
279.579	93.62
279.81	112.62
280.042	113.62
280.273	130.62
280.505	110.62
280.736	85.62
280.968	98.62
281.199	86.62
281.431	92.62
281.662	103.62
281.894	86.62
282.125	91.62
282.356	115.62
282.588	139.62
282.819	111.62
283.051	92.62
283.282	83.62
283.513	90.62
283.745	88.62
283.976	84.62
284.207	85.62
284.439	82.62
284.67	92.62
284.901	84.62
285.132	69.62
285.364	102.62
285.595	91.62
285.826	96.62
286.057	94.62
286.288	89.62
286.52	69.62
286.751	69.62
286.982	72.62
287.213	82.62
287.444	87.62
287.675	98.62
287.906	85.62
288.138	86.62
288.369	84.62
288.6	83.62
288.831	86.62
289.062	76.62
289.293	86.62
289.524	76.62
289.755	76.62
289.986	100.62
290.217	79.62
290.448	98.62
290.679	86.62
290.91	91.62
291.141	90.62
291.371	91.62
291.602	74.62
291.833	83.62
292.064	79.62
292.295	81.62
292.526	79.62
292.757	91.62
292.987	92.62
293.218	88.62
293.449	87.62
293.68	80.62
293.91	85.62
294.141	86.62
294.372	98.62
294.603	80.62
294.833	80.62
295.064	90.62
295.295	80.62
295.525	85.62
295.756	115.62
295.987	112.62
296.217	128.62
296.448	126.62
296.679	94.62
296.909	84.62
297.14	87.62
297.37	95.62
297.601	81.62
297.831	86.62
298.062	89.62
298.292	74.62
298.523	81.62
298.753	85.62
298.984	85.62
299.214	90.62
299.445	77.62
299.675	104.62
299.905	90.62
300.136	90.62
300.366	84.62
300.597	91.62
300.827	88.62
301.057	84.62
301.288	94.62
301.518	107.62
301.748	98.62
301.979	106.62
302.209	92.62
302.439	94.62
302.669	92.62
302.9	76.62
303.13	82.62
303.36	109.62
303.59	117.62
303.82	106.62
304.051	93.62
304.281	84.62
304.511	96.62
304.741	98.62
304.971	84.62
305.201	85.62
305.431	85.62
305.661	70.62
305.891	76.62
306.121	88.62
306.352	104.62
306.582	90.62
306.812	99.62
307.042	106.62
307.272	105.62
307.502	120.62
307.731	122.62
307.961	105.62
308.191	91.62
308.421	89.62
308.651	101.62
308.881	91.62
309.111	96.62
309.341	87.62
309.571	92.62
309.8	91.62
310.03	77.62
310.26	104.62
310.49	99.62
310.72	105.62
310.949	104.62
311.179	98.62
311.409	105.62
311.639	102.62
311.868	113.62
312.098	90.62
312.328	86.62
312.557	110.62
312.787	106.62
313.017	105.62
313.246	95.62
313.476	99.62
313.706	95.62
313.935	100.62
314.165	95.62
314.394	78.62
314.624	95.62
314.853	100.62
315.083	99.62
315.312	110.62
315.542	85.62
315.771	86.62
316.001	90.62
316.23	82.62
316.46	81.62
316.689	90.62
316.919	85.62
317.148	76.62
317.377	98.62
317.607	94.62
317.836	86.62
318.065	89.62
318.295	96.62
318.524	98.62
318.753	99.62
318.983	90.62
319.212	94.62
319.441	90.62
319.67	93.62
319.9	85.62
320.129	94.62
320.358	84.62
320.587	83.62
320.816	102.62
321.046	92.62
321.275	99.62
321.504	91.62
321.733	99.62
321.962	91.62
322.191	114.62
322.42	115.62
322.649	114.62
322.878	117.62
323.108	115.62
323.337	113.62
323.566	134.62
323.795	165.62
324.024	202.62
324.253	427.62
324.482	961.62
324.71	1982.62
324.939	2640.62
325.168	946.62
325.397	266.62
325.626	142.62
325.855	136.62
326.084	141.62
326.313	129.62
326.542	175.62
326.77	245.62
326.999	497.62
327.228	1075.62
327.457	2028.62
327.686	1598.62
327.914	467.62
328.143	328.62
328.372	336.62
328.6	218.62
328.829	148.62
329.058	125.62
329.287	145.62
329.515	125.62
329.744	156.62
329.972	265.62
330.201	427.62
330.43	639.62
330.658	325.62
330.887	187.62
331.115	141.62
331.344	107.62
331.572	95.62
331.801	99.62
332.03	129.62
332.258	97.62
332.486	99.62
332.715	100.62
332.943	99.62
333.172	97.62
333.4	99.62
333.629	131.62
333.857	163.62
334.085	242.62
334.314	444.62
334.542	786.62
334.771	714.62
334.999	242.62
335.227	133.62
335.455	110.62
335.684	101.62
335.912	103.62
336.14	97.62
336.369	99.62
336.597	97.62
336.825	81.62
337.053	96.62
337.281	85.62
337.51	94.62
337.738	96.62
337.966	88.62
338.194	91.62
338.422	94.62
338.65	86.62
338.878	95.62
339.106	91.62
339.334	97.62
339.562	105.62
339.79	98.62
340.018	80.62
340.246	102.62
340.474	102.62
340.702	89.62
340.93	78.62
341.158	102.62
341.386	103.62
341.614	94.62
341.842	99.62
342.07	92.62
342.298	94.62
342.526	89.62
342.754	90.62
342.981	86.62
343.209	88.62
343.437	90.62
343.665	93.62
343.893	85.62
344.12	91.62
344.348	88.62
344.576	98.62
344.804	77.62
345.031	95.62
345.259	90.62
345.487	102.62
345.714	106.62
345.942	94.62
346.17	90.62
346.397	88.62
346.625	94.62
346.853	85.62
347.08	105.62
347.308	91.62
347.535	90.62
347.763	102.62
347.99	97.62
348.218	111.62
348.445	94.62
348.673	96.62
348.9	86.62
349.128	92.62
349.355	87.62
349.583	78.62
349.81	84.62
350.037	85.62
350.265	96.62
350.492	90.62
350.72	92.62
350.947	88.62
351.174	113.62
351.402	122.62
351.629	93.62
351.856	106.62
352.083	110.62
352.311	110.62
352.538	109.62
352.765	95.62
352.992	110.62
353.22	108.62
353.447	108.62
353.674	97.62
353.901	84.62
354.128	97.62
354.355	86.62
354.583	85.62
354.81	90.62
355.037	87.62
355.264	93.62
355.491	90.62
355.718	82.62
355.945	93.62
356.172	100.62
356.399	101.62
356.626	101.62
356.853	89.62
357.08	98.62
357.307	84.62
357.534	89.62
357.761	92.62
357.988	80.62
358.215	92.62
358.441	80.62
358.668	97.62
358.895	83.62
359.122	98.62
359.349	74.62
359.576	91.62
359.802	107.62
360.029	117.62
360.256	114.62
360.483	90.62
360.709	80.62
360.936	93.62
361.163	89.62
361.39	106.62
361.616	96.62
361.843	100.62
362.07	107.62
362.296	94.62
362.523	94.62
362.749	82.62
362.976	79.62
363.203	99.62
363.429	92.62
363.656	87.62
363.882	80.62
364.109	90.62
364.335	96.62
364.562	95.62
364.788	93.62
365.015	93.62
365.241	100.62
365.468	113.62
365.694	112.62
365.92	108.62
366.147	91.62
366.373	82.62
366.599	91.62
366.826	77.62
367.052	92.62
367.278	78.62
367.505	105.62
367.731	87.62
367.957	90.62
368.184	97.62
368.41	101.62
368.636	97.62
368.862	127.62
369.089	101.62
369.315	98.62
369.541	88.62
369.767	85.62
369.993	99.62
370.219	90.62
370.445	82.62
370.672	93.62
370.898	101.62
371.124	88.62
371.35	97.62
371.576	86.62
371.802	85.62
372.028	81.62
372.254	82.62
372.48	96.62
372.706	84.62
372.932	97.62
373.158	81.62
373.384	91.62
373.61	76.62
373.835	95.62
374.061	74.62
374.287	85.62
374.513	74.62
374.739	95.62
374.965	90.62
375.191	82.62
375.416	81.62
375.642	86.62
375.868	94.62
376.094	80.62
376.319	83.62
376.545	93.62
376.771	92.62
376.997	78.62
377.222	89.62
377.448	84.62
377.674	111.62
377.899	90.62
378.125	85.62
378.35	92.62
378.576	81.62
378.802	83.62
379.027	81.62
379.253	99.62
379.478	96.62
379.704	99.62
379.929	99.62
380.155	80.62
380.38	88.62
380.606	94.62
380.831	105.62
381.057	100.62
381.282	83.62
381.507	91.62
381.733	99.62
381.958	102.62
382.184	89.62
382.409	92.62
382.634	95.62
382.86	96.62
383.085	93.62
383.31	98.62
383.535	97.62
383.761	105.62
383.986	98.62
384.211	97.62
384.436	110.62
384.662	111.62
384.887	97.62
385.112	101.62
385.337	111.62
385.562	106.62
385.787	120.62
386.013	101.62
386.238	107.62
386.463	103.62
386.688	103.62
386.913	110.62
387.138	97.62
387.363	100.62
387.588	91.62
387.813	93.62
388.038	114.62
388.263	107.62
388.488	110.62
388.713	100.62
388.938	72.62
389.163	101.62
389.387	100.62
389.612	89.62
389.837	79.62
390.062	99.62
390.287	93.62
390.512	94.62
390.736	80.62
390.961	76.62
391.186	89.62
391.411	95.62
391.636	112.62
391.86	78.62
392.085	95.62
392.31	88.62
392.534	101.62
392.759	83.62
392.984	106.62
393.208	100.62
393.433	118.62
393.658	112.62
393.882	94.62
394.107	76.62
394.331	76.62
394.556	84.62
394.78	94.62
395.005	94.62
395.229	84.62
395.454	93.62
395.678	78.62
395.903	95.62
396.127	84.62
396.352	90.62
396.576	90.62
396.801	89.62
397.025	97.62
397.249	93.62
397.474	88.62
397.698	92.62
397.922	92.62
398.147	82.62
398.371	96.62
398.595	89.62
398.82	83.62
399.044	98.62
399.268	73.62
399.492	82.62
399.717	87.62
399.941	77.62
400.165	95.62
400.389	74.62
400.613	83.62
400.837	90.62
401.062	99.62
401.286	98.62
401.51	87.62
401.734	86.62
401.958	99.62
402.182	128.62
402.406	162.62
402.63	103.62
402.854	97.62
403.078	91.62
403.302	87.62
403.526	78.62
403.75	93.62
403.974	95.62
404.198	86.62
404.422	93.62
404.645	86.62
404.869	81.62
405.093	93.62
405.317	103.62
405.541	106.62
405.765	107.62
405.988	119.62
406.212	178.62
406.436	247.62
406.66	178.62
406.883	103.62
407.107	101.62
407.331	93.62
407.555	102.62
407.778	87.62
408.002	92.62
408.226	83.62
408.449	88.62
408.673	82.62
408.896	100.62
409.12	78.62
409.344	84.62
409.567	66.62
409.791	93.62
410.014	92.62
410.238	90.62
410.461	84.62
410.685	101.62
410.908	93.62
411.132	102.62
411.355	109.62
411.578	93.62
411.802	93.62
412.025	84.62
412.249	98.62
412.472	106.62
412.695	110.62
412.919	93.62
413.142	95.62
413.365	83.62
413.589	91.62
413.812	96.62
414.035	93.62
414.258	82.62
414.482	90.62
414.705	73.62
414.928	92.62
415.151	81.62
415.374	90.62
415.597	93.62
415.821	98.62
416.044	88.62
416.267	79.62
416.49	91.62
416.713	88.62
416.936	93.62
417.159	80.62
417.382	88.62
417.605	86.62
417.828	90.62
418.051	85.62
418.274	83.62
418.497	86.62
418.72	63.62
418.943	87.62
419.166	92.62
419.389	101.62
419.611	86.62
419.834	71.62
420.057	98.62
420.28	92.62
420.503	86.62
420.726	97.62
420.948	90.62
421.171	82.62
421.394	89.62
421.617	93.62
421.839	105.62
422.062	93.62
422.285	83.62
422.507	82.62
422.73	115.62
422.953	84.62
423.175	83.62
423.398	84.62
423.621	94.62
423.843	94.62
424.066	86.62
424.288	101.62
424.511	90.62
424.733	90.62
424.956	102.62
425.178	106.62
425.401	102.62
425.623	95.62
425.846	98.62
426.068	102.62
426.291	85.62
426.513	100.62
426.735	95.62
426.958	98.62
427.18	108.62
427.402	141.62
427.625	202.62
427.847	177.62
428.069	176.62
428.292	102.62
428.514	76.62
428.736	94.62
428.958	100.62
429.181	86.62
429.403	98.62
429.625	88.62
429.847	100.62
430.069	94.62
430.292	85.62
430.514	81.62
430.736	87.62
430.958	78.62
431.18	79.62
431.402	84.62
431.624	86.62
431.846	84.62
432.068	85.62
432.29	87.62
432.512	94.62
432.734	91.62
432.956	93.62
433.178	107.62
433.4	98.62
433.622	93.62
433.844	90.62
434.066	85.62
434.287	88.62
434.509	90.62
434.731	79.62
434.953	90.62
435.175	95.62
435.397	95.62
435.618	79.62
435.84	117.62
436.062	119.62
436.284	121.62
436.505	115.62
436.727	104.62
436.949	82.62
437.17	77.62
437.392	88.62
437.614	89.62
437.835	108.62
438.057	132.62
438.278	108.62
438.5	112.62
438.721	120.62
438.943	101.62
439.165	81.62
439.386	91.62
439.608	105.62
439.829	95.62
440.05	112.62
440.272	150.62
440.493	99.62
440.715	92.62
440.936	87.62
441.158	90.62
441.379	82.62
441.6	86.62
441.822	84.62
442.043	73.62
442.264	114.62
442.486	108.62
442.707	79.62
442.928	114.62
443.149	134.62
443.371	142.62
443.592	114.62
443.813	114.62
444.034	91.62
444.255	90.62
444.476	106.62
444.698	83.62
444.919	86.62
445.14	144.62
445.361	126.62
445.582	125.62
445.803	133.62
446.024	145.62
446.245	146.62
446.466	107.62
446.687	79.62
446.908	90.62
447.129	70.62
447.35	78.62
447.571	89.62
447.792	86.62
448.013	84.62
448.234	124.62
448.455	107.62
448.675	115.62
448.896	128.62
449.117	106.62
449.338	96.62
449.559	129.62
449.779	149.62
450	94.62
450.221	90.62
450.442	88.62
450.662	104.62
450.883	105.62
451.104	112.62
451.324	89.62
451.545	98.62
451.766	88.62
451.986	76.62
452.207	89.62
452.428	74.62
452.648	110.62
452.869	113.62
453.089	115.62
453.31	113.62
453.53	86.62
453.751	104.62
453.971	97.62
454.192	109.62
454.412	91.62
454.633	94.62
454.853	77.62
455.073	89.62
455.294	80.62
455.514	92.62
455.734	90.62
455.955	72.62
456.175	90.62
456.395	76.62
456.616	80.62
456.836	82.62
457.056	82.62
457.276	66.62
457.497	74.62
457.717	86.62
457.937	93.62
458.157	90.62
458.377	97.62
458.598	101.62
458.818	161.62
459.038	188.62
459.258	125.62
459.478	94.62
459.698	94.62
459.918	87.62
460.138	78.62
460.358	68.62
460.578	77.62
460.798	83.62
461.018	100.62
461.238	89.62
461.458	83.62
461.678	90.62
461.898	89.62
462.118	104.62
462.338	84.62
462.558	72.62
462.777	83.62
462.997	76.62
463.217	88.62
463.437	89.62
463.657	76.62
463.876	82.62
464.096	86.62
464.316	94.62
464.536	92.62
464.755	89.62
464.975	83.62
465.195	189.62
465.414	186.62
465.634	108.62
465.854	99.62
466.073	78.62
466.293	82.62
466.512	85.62
466.732	74.62
466.951	84.62
467.171	89.62
467.391	92.62
467.61	130.62
467.829	146.62
468.049	293.62
468.268	420.62
468.488	136.62
468.707	94.62
468.927	94.62
469.146	81.62
469.365	97.62
469.585	90.62
469.804	103.62
470.023	95.62
470.243	101.62
470.462	94.62
470.681	122.62
470.901	94.62
471.12	88.62
471.339	90.62
471.558	82.62
471.777	101.62
471.997	172.62
472.216	575.62
472.435	1160.62
472.654	300.62
472.873	125.62
473.092	76.62
473.311	104.62
473.53	111.62
473.749	91.62
473.968	92.62
474.187	120.62
474.406	98.62
474.625	71.62
474.844	89.62
475.063	88.62
475.282	81.62
475.501	96.62
475.72	83.62
475.939	80.62
476.158	93.62
476.377	95.62
476.596	88.62
476.814	95.62
477.033	80.62
477.252	86.62
477.471	85.62
477.69	94.62
477.908	89.62
478.127	81.62
478.346	84.62
478.564	106.62
478.783	115.62
479.002	100.62
479.22	87.62
479.439	107.62
479.658	111.62
479.876	96.62
480.095	99.62
480.313	115.62
480.532	120.62
480.751	185.62
480.969	547.62
481.188	2057.62
481.406	1164.62
481.624	211.62
481.843	85.62
482.061	84.62
482.28	97.62
482.498	94.62
482.717	80.62
482.935	86.62
483.153	87.62
483.372	82.62
483.59	90.62
483.808	92.62
484.027	93.62
484.245	90.62
484.463	95.62
484.681	84.62
484.9	100.62
485.118	85.62
485.336	95.62
485.554	102.62
485.772	106.62
485.99	96.62
486.209	101.62
486.427	95.62
486.645	93.62
486.863	113.62
487.081	107.62
487.299	91.62
487.517	100.62
487.735	88.62
487.953	92.62
488.171	105.62
488.389	109.62
488.607	98.62
488.825	92.62
489.043	92.62
489.261	94.62
489.479	85.62
489.696	68.62
489.914	84.62
490.132	89.62
490.35	89.62
490.568	86.62
490.786	93.62
491.003	94.62
491.221	99.62
491.439	106.62
491.657	88.62
491.874	86.62
492.092	77.62
492.31	96.62
492.527	94.62
492.745	95.62
492.963	88.62
493.18	83.62
493.398	87.62
493.615	95.62
493.833	88.62
494.05	84.62
494.268	82.62
494.485	88.62
494.703	95.62
494.92	92.62
495.138	75.62
495.355	95.62
495.573	84.62
495.79	83.62
496.008	96.62
496.225	73.62
496.442	95.62
496.66	96.62
496.877	80.62
497.094	79.62
497.312	90.62
497.529	80.62
497.746	84.62
497.963	93.62
498.181	91.62
498.398	98.62
498.615	108.62
498.832	104.62
499.049	82.62
499.267	89.62
499.484	100.62
499.701	76.62
499.918	80.62
500.135	91.62
500.352	91.62
500.569	79.62
500.786	90.62
501.003	86.62
501.22	100.62
501.437	83.62
501.654	86.62
501.871	93.62
502.088	89.62
502.305	93.62
502.522	78.62
502.739	94.62
502.956	91.62
503.172	91.62
503.389	98.62
503.606	97.62
503.823	102.62
504.04	80.62
504.256	97.62
504.473	71.62
504.69	94.62
504.907	86.62
505.123	69.62
505.34	76.62
505.557	93.62
505.773	81.62
505.99	96.62
506.207	85.62
506.423	80.62
506.64	88.62
506.856	84.62
507.073	93.62
507.289	81.62
507.506	96.62
507.722	125.62
507.939	124.62
508.155	101.62
508.372	89.62
508.588	92.62
508.805	84.62
509.021	88.62
509.238	94.62
509.454	92.62
509.67	96.62
509.887	117.62
510.103	144.62
510.319	225.62
510.536	802.62
510.752	2697.62
510.968	728.62
511.184	155.62
511.401	117.62
511.617	90.62
511.833	107.62
512.049	92.62
512.265	87.62
512.481	88.62
512.698	82.62
512.914	82.62
513.13	92.62
513.346	87.62
513.562	93.62
513.778	93.62
513.994	97.62
514.21	108.62
514.426	112.62
514.642	136.62
514.858	132.62
515.074	170.62
515.29	542.62
515.506	1820.62
