Data from Circ_1991_H10_HRD10591_00031.txt Node
Date: Wed Jan 03 11:51:47 EST 2024
User: Yrep
Spectrometer: HR+D1059
Trigger mode: 1
Integration Time (sec): 1.000000E-1
Scans to average: 1
Electric dark correction enabled: true
Nonlinearity correction enabled: false
Boxcar width: 0
XAxis mode: Wavelengths
Number of Pixels in Spectrum: 2048
>>>>>Begin Spectral Data<<<<<
223.165	-24.56
223.4	-24.56
223.635	-24.56
223.869	-22.56
224.104	-17.56
224.338	-15.56
224.573	-17.56
224.808	-14.56
225.042	-9.56
225.277	-18.56
225.511	9.44
225.746	-1.56
225.98	13.44
226.215	27.44
226.449	15.44
226.683	15.44
226.918	34.44
227.152	26.44
227.387	28.44
227.621	33.44
227.856	54.44
228.09	44.44
228.324	51.44
228.559	52.44
228.793	68.44
229.027	61.44
229.262	73.44
229.496	84.44
229.73	79.44
229.964	80.44
230.199	88.44
230.433	84.44
230.667	79.44
230.901	79.44
231.136	70.44
231.37	78.44
231.604	70.44
231.838	89.44
232.072	97.44
232.306	69.44
232.541	87.44
232.775	92.44
233.009	85.44
233.243	84.44
233.477	88.44
233.711	75.44
233.945	73.44
234.179	73.44
234.413	87.44
234.647	83.44
234.881	71.44
235.115	73.44
235.349	83.44
235.583	68.44
235.817	83.44
236.051	86.44
236.285	77.44
236.519	82.44
236.753	86.44
236.987	71.44
237.221	73.44
237.455	83.44
237.689	67.44
237.922	86.44
238.156	60.44
238.39	83.44
238.624	83.44
238.858	81.44
239.091	73.44
239.325	81.44
239.559	81.44
239.793	79.44
240.027	63.44
240.26	73.44
240.494	68.44
240.728	85.44
240.961	95.44
241.195	80.44
241.429	75.44
241.662	63.44
241.896	75.44
242.13	78.44
242.363	79.44
242.597	80.44
242.83	83.44
243.064	81.44
243.298	77.44
243.531	77.44
243.765	79.44
243.998	82.44
244.232	83.44
244.465	85.44
244.699	78.44
244.932	79.44
245.166	81.44
245.399	85.44
245.633	83.44
245.866	64.44
246.099	93.44
246.333	83.44
246.566	75.44
246.8	78.44
247.033	73.44
247.266	79.44
247.5	85.44
247.733	68.44
247.966	90.44
248.2	83.44
248.433	87.44
248.666	91.44
248.899	77.44
249.133	93.44
249.366	96.44
249.599	92.44
249.832	76.44
250.066	87.44
250.299	84.44
250.532	87.44
250.765	83.44
250.998	81.44
251.231	85.44
251.465	81.44
251.698	80.44
251.931	87.44
252.164	87.44
252.397	83.44
252.63	87.44
252.863	87.44
253.096	80.44
253.329	74.44
253.562	68.44
253.795	83.44
254.028	75.44
254.261	82.44
254.494	92.44
254.727	75.44
254.96	75.44
255.193	79.44
255.426	78.44
255.659	85.44
255.892	91.44
256.124	90.44
256.357	92.44
256.59	82.44
256.823	87.44
257.056	72.44
257.289	81.44
257.521	80.44
257.754	79.44
257.987	77.44
258.22	88.44
258.452	73.44
258.685	79.44
258.918	82.44
259.151	80.44
259.383	82.44
259.616	87.44
259.849	81.44
260.081	91.44
260.314	81.44
260.547	88.44
260.779	79.44
261.012	86.44
261.244	98.44
261.477	94.44
261.71	82.44
261.942	93.44
262.175	95.44
262.407	111.44
262.64	85.44
262.872	71.44
263.105	89.44
263.337	89.44
263.57	95.44
263.802	85.44
264.035	76.44
264.267	83.44
264.499	83.44
264.732	91.44
264.964	94.44
265.197	87.44
265.429	87.44
265.661	85.44
265.894	79.44
266.126	83.44
266.358	83.44
266.591	76.44
266.823	85.44
267.055	73.44
267.287	77.44
267.52	79.44
267.752	83.44
267.984	78.44
268.216	97.44
268.448	94.44
268.681	93.44
268.913	81.44
269.145	86.44
269.377	88.44
269.609	84.44
269.841	73.44
270.073	81.44
270.306	82.44
270.538	89.44
270.77	85.44
271.002	95.44
271.234	77.44
271.466	93.44
271.698	83.44
271.93	87.44
272.162	72.44
272.394	78.44
272.626	75.44
272.858	86.44
273.09	84.44
273.322	101.44
273.553	79.44
273.785	81.44
274.017	75.44
274.249	91.44
274.481	97.44
274.713	91.44
274.945	97.44
275.176	82.44
275.408	92.44
275.64	98.44
275.872	88.44
276.104	88.44
276.335	94.44
276.567	100.44
276.799	85.44
277.031	107.44
277.262	114.44
277.494	86.44
277.726	99.44
277.957	84.44
278.189	75.44
278.421	87.44
278.652	86.44
278.884	94.44
279.115	88.44
279.347	93.44
279.579	101.44
279.81	97.44
280.042	101.44
280.273	110.44
280.505	94.44
280.736	101.44
280.968	78.44
281.199	89.44
281.431	82.44
281.662	93.44
281.894	93.44
282.125	99.44
282.356	108.44
282.588	135.44
282.819	111.44
283.051	85.44
283.282	75.44
283.513	94.44
283.745	76.44
283.976	90.44
284.207	92.44
284.439	81.44
284.67	84.44
284.901	87.44
285.132	82.44
285.364	90.44
285.595	85.44
285.826	102.44
286.057	76.44
286.288	89.44
286.52	78.44
286.751	85.44
286.982	86.44
287.213	83.44
287.444	77.44
287.675	92.44
287.906	100.44
288.138	88.44
288.369	89.44
288.6	96.44
288.831	77.44
289.062	90.44
289.293	96.44
289.524	101.44
289.755	86.44
289.986	81.44
290.217	84.44
290.448	84.44
290.679	108.44
290.91	85.44
291.141	84.44
291.371	99.44
291.602	81.44
291.833	88.44
292.064	91.44
292.295	108.44
292.526	79.44
292.757	76.44
292.987	83.44
293.218	84.44
293.449	97.44
293.68	84.44
293.91	87.44
294.141	90.44
294.372	80.44
294.603	75.44
294.833	93.44
295.064	94.44
295.295	92.44
295.525	98.44
295.756	103.44
295.987	115.44
296.217	119.44
296.448	105.44
296.679	87.44
296.909	97.44
297.14	97.44
297.37	93.44
297.601	85.44
297.831	104.44
298.062	89.44
298.292	102.44
298.523	87.44
298.753	74.44
298.984	88.44
299.214	75.44
299.445	87.44
299.675	99.44
299.905	89.44
300.136	83.44
300.366	95.44
300.597	104.44
300.827	91.44
301.057	94.44
301.288	105.44
301.518	95.44
301.748	86.44
301.979	91.44
302.209	93.44
302.439	92.44
302.669	95.44
302.9	82.44
303.13	94.44
303.36	91.44
303.59	97.44
303.82	105.44
304.051	81.44
304.281	86.44
304.511	105.44
304.741	90.44
304.971	66.44
305.201	90.44
305.431	89.44
305.661	96.44
305.891	104.44
306.121	91.44
306.352	104.44
306.582	93.44
306.812	102.44
307.042	100.44
307.272	105.44
307.502	97.44
307.731	112.44
307.961	107.44
308.191	91.44
308.421	84.44
308.651	95.44
308.881	83.44
309.111	89.44
309.341	85.44
309.571	118.44
309.8	107.44
310.03	91.44
310.26	101.44
310.49	115.44
310.72	90.44
310.949	105.44
311.179	97.44
311.409	72.44
311.639	99.44
311.868	92.44
312.098	100.44
312.328	102.44
312.557	91.44
312.787	100.44
313.017	107.44
313.246	101.44
313.476	95.44
313.706	91.44
313.935	99.44
314.165	99.44
314.394	109.44
314.624	95.44
314.853	93.44
315.083	97.44
315.312	97.44
315.542	89.44
315.771	87.44
316.001	86.44
316.23	94.44
316.46	96.44
316.689	102.44
316.919	86.44
317.148	95.44
317.377	85.44
317.607	93.44
317.836	100.44
318.065	96.44
318.295	99.44
318.524	87.44
318.753	87.44
318.983	102.44
319.212	91.44
319.441	97.44
319.67	116.44
319.9	107.44
320.129	91.44
320.358	110.44
320.587	85.44
320.816	95.44
321.046	103.44
321.275	102.44
321.504	95.44
321.733	88.44
321.962	96.44
322.191	103.44
322.42	90.44
322.649	118.44
322.878	93.44
323.108	96.44
323.337	116.44
323.566	136.44
323.795	146.44
324.024	210.44
324.253	404.44
324.482	796.44
324.71	1653.44
324.939	2227.44
325.168	804.44
325.397	235.44
325.626	137.44
325.855	127.44
326.084	136.44
326.313	127.44
326.542	149.44
326.77	221.44
326.999	443.44
327.228	932.44
327.457	1680.44
327.686	1327.44
327.914	361.44
328.143	228.44
328.372	213.44
328.6	166.44
328.829	120.44
329.058	124.44
329.287	116.44
329.515	126.44
329.744	126.44
329.972	172.44
330.201	248.44
330.43	341.44
330.658	209.44
330.887	153.44
331.115	130.44
331.344	111.44
331.572	106.44
331.801	107.44
332.03	107.44
332.258	98.44
332.486	91.44
332.715	94.44
332.943	99.44
333.172	96.44
333.4	99.44
333.629	119.44
333.857	143.44
334.085	165.44
334.314	263.44
334.542	412.44
334.771	371.44
334.999	150.44
335.227	106.44
335.455	93.44
335.684	98.44
335.912	89.44
336.14	96.44
336.369	96.44
336.597	96.44
336.825	97.44
337.053	98.44
337.281	94.44
337.51	100.44
337.738	100.44
337.966	96.44
338.194	96.44
338.422	96.44
338.65	96.44
338.878	96.44
339.106	90.44
339.334	88.44
339.562	87.44
339.79	95.44
340.018	104.44
340.246	104.44
340.474	89.44
340.702	83.44
340.93	89.44
341.158	72.44
341.386	83.44
341.614	92.44
341.842	98.44
342.07	87.44
342.298	98.44
342.526	87.44
342.754	81.44
342.981	80.44
343.209	86.44
343.437	104.44
343.665	94.44
343.893	91.44
344.12	84.44
344.348	88.44
344.576	97.44
344.804	100.44
345.031	104.44
345.259	103.44
345.487	84.44
345.714	95.44
345.942	96.44
346.17	101.44
346.397	89.44
346.625	91.44
346.853	103.44
347.08	86.44
347.308	84.44
347.535	102.44
347.763	101.44
347.99	93.44
348.218	120.44
348.445	105.44
348.673	97.44
348.9	109.44
349.128	87.44
349.355	91.44
349.583	89.44
349.81	106.44
350.037	97.44
350.265	103.44
350.492	101.44
350.72	81.44
350.947	103.44
351.174	104.44
351.402	99.44
351.629	104.44
351.856	102.44
352.083	103.44
352.311	114.44
352.538	112.44
352.765	112.44
352.992	96.44
353.22	112.44
353.447	102.44
353.674	97.44
353.901	104.44
354.128	91.44
354.355	111.44
354.583	99.44
354.81	106.44
355.037	100.44
355.264	101.44
355.491	90.44
355.718	91.44
355.945	83.44
356.172	83.44
356.399	88.44
356.626	100.44
356.853	96.44
357.08	81.44
357.307	92.44
357.534	97.44
357.761	79.44
357.988	104.44
358.215	96.44
358.441	103.44
358.668	96.44
358.895	100.44
359.122	97.44
359.349	101.44
359.576	94.44
359.802	118.44
360.029	113.44
360.256	116.44
360.483	105.44
360.709	87.44
360.936	98.44
361.163	102.44
361.39	93.44
361.616	96.44
361.843	77.44
362.07	95.44
362.296	91.44
362.523	83.44
362.749	92.44
362.976	88.44
363.203	92.44
363.429	91.44
363.656	89.44
363.882	94.44
364.109	85.44
364.335	88.44
364.562	80.44
364.788	109.44
365.015	99.44
365.241	99.44
365.468	105.44
365.694	98.44
365.92	111.44
366.147	95.44
366.373	91.44
366.599	100.44
366.826	82.44
367.052	96.44
367.278	93.44
367.505	102.44
367.731	97.44
367.957	83.44
368.184	98.44
368.41	110.44
368.636	108.44
368.862	99.44
369.089	114.44
369.315	94.44
369.541	84.44
369.767	84.44
369.993	79.44
370.219	91.44
370.445	90.44
370.672	89.44
370.898	81.44
371.124	101.44
371.35	90.44
371.576	84.44
371.802	72.44
372.028	91.44
372.254	88.44
372.48	109.44
372.706	94.44
372.932	85.44
373.158	91.44
373.384	95.44
373.61	92.44
373.835	94.44
374.061	95.44
374.287	85.44
374.513	88.44
374.739	86.44
374.965	88.44
375.191	87.44
375.416	93.44
375.642	100.44
375.868	108.44
376.094	98.44
376.319	93.44
376.545	90.44
376.771	96.44
376.997	107.44
377.222	91.44
377.448	101.44
377.674	92.44
377.899	91.44
378.125	111.44
378.35	93.44
378.576	92.44
378.802	99.44
379.027	91.44
379.253	91.44
379.478	101.44
379.704	98.44
379.929	83.44
380.155	88.44
380.38	94.44
380.606	94.44
380.831	97.44
381.057	116.44
381.282	108.44
381.507	100.44
381.733	96.44
381.958	85.44
382.184	96.44
382.409	96.44
382.634	100.44
382.86	114.44
383.085	93.44
383.31	104.44
383.535	108.44
383.761	85.44
383.986	105.44
384.211	111.44
384.436	116.44
384.662	96.44
384.887	119.44
385.112	115.44
385.337	112.44
385.562	116.44
385.787	112.44
386.013	119.44
386.238	120.44
386.463	120.44
386.688	125.44
386.913	110.44
387.138	105.44
387.363	111.44
387.588	110.44
387.813	100.44
388.038	113.44
388.263	132.44
388.488	110.44
388.713	95.44
388.938	79.44
389.163	92.44
389.387	97.44
389.612	91.44
389.837	84.44
390.062	92.44
390.287	95.44
390.512	89.44
390.736	91.44
390.961	95.44
391.186	88.44
391.411	104.44
391.636	91.44
391.86	83.44
392.085	94.44
392.31	84.44
392.534	94.44
392.759	93.44
392.984	106.44
393.208	124.44
393.433	162.44
393.658	146.44
393.882	100.44
394.107	83.44
394.331	77.44
394.556	81.44
394.78	87.44
395.005	85.44
395.229	98.44
395.454	96.44
395.678	88.44
395.903	83.44
396.127	101.44
396.352	87.44
396.576	92.44
396.801	113.44
397.025	151.44
397.249	104.44
397.474	94.44
397.698	92.44
397.922	99.44
398.147	87.44
398.371	97.44
398.595	79.44
398.82	88.44
399.044	93.44
399.268	90.44
399.492	83.44
399.717	97.44
399.941	94.44
400.165	101.44
400.389	69.44
400.613	86.44
400.837	87.44
401.062	85.44
401.286	92.44
401.51	106.44
401.734	94.44
401.958	101.44
402.182	125.44
402.406	150.44
402.63	113.44
402.854	90.44
403.078	86.44
403.302	95.44
403.526	99.44
403.75	89.44
403.974	87.44
404.198	83.44
404.422	95.44
404.645	87.44
404.869	89.44
405.093	112.44
405.317	110.44
405.541	108.44
405.765	103.44
405.988	119.44
406.212	159.44
406.436	224.44
406.66	139.44
406.883	98.44
407.107	108.44
407.331	100.44
407.555	90.44
407.778	111.44
408.002	91.44
408.226	105.44
408.449	75.44
408.673	96.44
408.896	91.44
409.12	98.44
409.344	85.44
409.567	94.44
409.791	93.44
410.014	95.44
410.238	94.44
410.461	101.44
410.685	101.44
410.908	90.44
411.132	116.44
411.355	103.44
411.578	95.44
411.802	95.44
412.025	78.44
412.249	97.44
412.472	100.44
412.695	115.44
412.919	96.44
413.142	93.44
413.365	88.44
413.589	97.44
413.812	79.44
414.035	97.44
414.258	102.44
414.482	80.44
414.705	87.44
414.928	85.44
415.151	102.44
415.374	108.44
415.597	77.44
415.821	90.44
416.044	87.44
416.267	89.44
416.49	84.44
416.713	82.44
416.936	95.44
417.159	85.44
417.382	82.44
417.605	88.44
417.828	90.44
418.051	91.44
418.274	101.44
418.497	87.44
418.72	91.44
418.943	84.44
419.166	81.44
419.389	89.44
419.611	87.44
419.834	91.44
420.057	89.44
420.28	73.44
420.503	72.44
420.726	88.44
420.948	100.44
421.171	105.44
421.394	89.44
421.617	91.44
421.839	95.44
422.062	81.44
422.285	86.44
422.507	97.44
422.73	123.44
422.953	97.44
423.175	93.44
423.398	82.44
423.621	95.44
423.843	91.44
424.066	77.44
424.288	95.44
424.511	80.44
424.733	105.44
424.956	105.44
425.178	103.44
425.401	84.44
425.623	101.44
425.846	91.44
426.068	97.44
426.291	84.44
426.513	88.44
426.735	93.44
426.958	89.44
427.18	109.44
427.402	156.44
427.625	165.44
427.847	155.44
428.069	136.44
428.292	89.44
428.514	84.44
428.736	88.44
428.958	106.44
429.181	91.44
429.403	88.44
429.625	83.44
429.847	95.44
430.069	96.44
430.292	89.44
430.514	95.44
430.736	91.44
430.958	87.44
431.18	97.44
431.402	83.44
431.624	85.44
431.846	87.44
432.068	83.44
432.29	73.44
432.512	91.44
432.734	100.44
432.956	105.44
433.178	101.44
433.4	97.44
433.622	87.44
433.844	85.44
434.066	101.44
434.287	88.44
434.509	79.44
434.731	87.44
434.953	87.44
435.175	94.44
435.397	94.44
435.618	93.44
435.84	91.44
436.062	110.44
436.284	113.44
436.505	116.44
436.727	101.44
436.949	95.44
437.17	102.44
437.392	92.44
437.614	90.44
437.835	119.44
438.057	113.44
438.278	102.44
438.5	96.44
438.721	110.44
438.943	105.44
439.165	88.44
439.386	87.44
439.608	88.44
439.829	105.44
440.05	121.44
440.272	115.44
440.493	102.44
440.715	86.44
440.936	98.44
441.158	100.44
441.379	92.44
441.6	71.44
441.822	103.44
442.043	110.44
442.264	113.44
442.486	87.44
442.707	95.44
442.928	92.44
443.149	125.44
443.371	129.44
443.592	118.44
443.813	109.44
444.034	95.44
444.255	93.44
444.476	90.44
444.698	93.44
444.919	92.44
445.14	130.44
445.361	113.44
445.582	118.44
445.803	130.44
446.024	163.44
446.245	135.44
446.466	114.44
446.687	80.44
446.908	86.44
447.129	89.44
447.35	88.44
447.571	111.44
447.792	95.44
448.013	100.44
448.234	109.44
448.455	103.44
448.675	112.44
448.896	104.44
449.117	93.44
449.338	108.44
449.559	126.44
449.779	123.44
450	89.44
450.221	92.44
450.442	86.44
450.662	99.44
450.883	103.44
451.104	108.44
451.324	97.44
451.545	80.44
451.766	77.44
451.986	84.44
452.207	69.44
452.428	88.44
452.648	109.44
452.869	104.44
453.089	115.44
453.31	104.44
453.53	88.44
453.751	91.44
453.971	95.44
454.192	128.44
454.412	86.44
454.633	94.44
454.853	92.44
455.073	91.44
455.294	83.44
455.514	110.44
455.734	98.44
455.955	87.44
456.175	77.44
456.395	77.44
456.616	91.44
456.836	82.44
457.056	80.44
457.276	79.44
457.497	78.44
457.717	85.44
457.937	96.44
458.157	76.44
458.377	82.44
458.598	111.44
458.818	158.44
459.038	145.44
459.258	118.44
459.478	101.44
459.698	92.44
459.918	85.44
460.138	82.44
460.358	78.44
460.578	84.44
460.798	85.44
461.018	89.44
461.238	85.44
461.458	71.44
461.678	87.44
461.898	82.44
462.118	102.44
462.338	85.44
462.558	79.44
462.777	82.44
462.997	82.44
463.217	94.44
463.437	71.44
463.657	94.44
463.876	89.44
464.096	91.44
464.316	96.44
464.536	99.44
464.755	92.44
464.975	96.44
465.195	157.44
465.414	153.44
465.634	98.44
465.854	95.44
466.073	73.44
466.293	105.44
466.512	78.44
466.732	84.44
466.951	84.44
467.171	88.44
467.391	100.44
467.61	114.44
467.829	108.44
468.049	177.44
468.268	207.44
468.488	99.44
468.707	97.44
468.927	81.44
469.146	77.44
469.365	86.44
469.585	83.44
469.804	103.44
470.023	102.44
470.243	91.44
470.462	104.44
470.681	123.44
470.901	93.44
471.12	89.44
471.339	107.44
471.558	85.44
471.777	106.44
471.997	153.44
472.216	304.44
472.435	604.44
472.654	187.44
472.873	98.44
473.092	94.44
473.311	84.44
473.53	89.44
473.749	105.44
473.968	96.44
474.187	104.44
474.406	85.44
474.625	93.44
474.844	89.44
475.063	90.44
475.282	86.44
475.501	75.44
475.72	81.44
475.939	96.44
476.158	85.44
476.377	75.44
476.596	78.44
476.814	89.44
477.033	93.44
477.252	108.44
477.471	89.44
477.69	86.44
477.908	81.44
478.127	85.44
478.346	88.44
478.564	88.44
478.783	103.44
479.002	100.44
479.22	98.44
479.439	102.44
479.658	105.44
479.876	100.44
480.095	93.44
480.313	99.44
480.532	96.44
480.751	124.44
480.969	301.44
481.188	1005.44
481.406	603.44
481.624	144.44
481.843	99.44
482.061	105.44
482.28	92.44
482.498	89.44
482.717	87.44
482.935	84.44
483.153	87.44
483.372	93.44
483.59	83.44
483.808	89.44
484.027	95.44
484.245	97.44
484.463	97.44
484.681	95.44
484.9	79.44
485.118	98.44
485.336	97.44
485.554	91.44
485.772	95.44
485.99	106.44
486.209	86.44
486.427	100.44
486.645	102.44
486.863	110.44
487.081	105.44
487.299	93.44
487.517	91.44
487.735	105.44
487.953	109.44
488.171	102.44
488.389	81.44
488.607	102.44
488.825	90.44
489.043	92.44
489.261	89.44
489.479	91.44
489.696	94.44
489.914	89.44
490.132	89.44
490.35	88.44
490.568	95.44
490.786	105.44
491.003	82.44
491.221	88.44
491.439	93.44
491.657	95.44
491.874	102.44
492.092	79.44
492.31	81.44
492.527	81.44
492.745	91.44
492.963	96.44
493.18	84.44
493.398	96.44
493.615	88.44
493.833	95.44
494.05	97.44
494.268	70.44
494.485	85.44
494.703	91.44
494.92	89.44
495.138	93.44
495.355	90.44
495.573	99.44
495.79	84.44
496.008	85.44
496.225	86.44
496.442	85.44
496.66	92.44
496.877	84.44
497.094	85.44
497.312	87.44
497.529	89.44
497.746	93.44
497.963	83.44
498.181	86.44
498.398	89.44
498.615	116.44
498.832	93.44
499.049	94.44
499.267	91.44
499.484	91.44
499.701	93.44
499.918	91.44
500.135	95.44
500.352	97.44
500.569	99.44
500.786	93.44
501.003	91.44
501.22	84.44
501.437	71.44
501.654	93.44
501.871	104.44
502.088	99.44
502.305	86.44
502.522	102.44
502.739	95.44
502.956	81.44
503.172	93.44
503.389	111.44
503.606	102.44
503.823	105.44
504.04	82.44
504.256	95.44
504.473	87.44
504.69	93.44
504.907	102.44
505.123	93.44
505.34	84.44
505.557	93.44
505.773	110.44
505.99	80.44
506.207	92.44
506.423	77.44
506.64	96.44
506.856	92.44
507.073	106.44
507.289	92.44
507.506	100.44
507.722	110.44
507.939	116.44
508.155	89.44
508.372	96.44
508.588	93.44
508.805	87.44
509.021	86.44
509.238	105.44
509.454	104.44
509.67	81.44
509.887	101.44
510.103	123.44
510.319	192.44
510.536	744.44
510.752	2304.44
510.968	629.44
511.184	163.44
511.401	108.44
511.617	93.44
511.833	92.44
512.049	93.44
512.265	83.44
512.481	92.44
512.698	79.44
512.914	89.44
513.13	87.44
513.346	90.44
513.562	99.44
513.778	103.44
513.994	99.44
514.21	104.44
514.426	114.44
514.642	128.44
514.858	124.44
