Data from Circ_1991_H10_HRD10591_00029.txt Node
Date: Wed Jan 03 11:51:47 EST 2024
User: Yrep
Spectrometer: HR+D1059
Trigger mode: 1
Integration Time (sec): 1.000000E-1
Scans to average: 1
Electric dark correction enabled: true
Nonlinearity correction enabled: false
Boxcar width: 0
XAxis mode: Wavelengths
Number of Pixels in Spectrum: 2048
>>>>>Begin Spectral Data<<<<<
223.165	-26.62
223.4	-26.62
223.635	-26.62
223.869	-22.62
224.104	-21.62
224.338	-16.62
224.573	-13.62
224.808	-25.62
225.042	12.38
225.277	-4.62
225.511	-3.62
225.746	3.38
225.98	10.38
226.215	15.38
226.449	12.38
226.683	12.38
226.918	44.38
227.152	24.38
227.387	32.38
227.621	25.38
227.856	46.38
228.09	37.38
228.324	49.38
228.559	44.38
228.793	56.38
229.027	65.38
229.262	74.38
229.496	61.38
229.73	76.38
229.964	75.38
230.199	68.38
230.433	56.38
230.667	65.38
230.901	68.38
231.136	74.38
231.37	82.38
231.604	86.38
231.838	76.38
232.072	76.38
232.306	83.38
232.541	69.38
232.775	72.38
233.009	79.38
233.243	82.38
233.477	92.38
233.711	76.38
233.945	76.38
234.179	72.38
234.413	76.38
234.647	77.38
234.881	77.38
235.115	74.38
235.349	86.38
235.583	69.38
235.817	82.38
236.051	76.38
236.285	77.38
236.519	57.38
236.753	67.38
236.987	80.38
237.221	93.38
237.455	90.38
237.689	80.38
237.922	78.38
238.156	69.38
238.39	77.38
238.624	62.38
238.858	77.38
239.091	83.38
239.325	83.38
239.559	68.38
239.793	89.38
240.027	74.38
240.26	80.38
240.494	66.38
240.728	77.38
240.961	74.38
241.195	70.38
241.429	88.38
241.662	78.38
241.896	76.38
242.13	70.38
242.363	72.38
242.597	68.38
242.83	72.38
243.064	63.38
243.298	72.38
243.531	89.38
243.765	71.38
243.998	89.38
244.232	84.38
244.465	107.38
244.699	85.38
244.932	83.38
245.166	74.38
245.399	84.38
245.633	81.38
245.866	79.38
246.099	74.38
246.333	75.38
246.566	85.38
246.8	84.38
247.033	73.38
247.266	74.38
247.5	81.38
247.733	89.38
247.966	84.38
248.2	84.38
248.433	86.38
248.666	73.38
248.899	85.38
249.133	84.38
249.366	100.38
249.599	95.38
249.832	82.38
250.066	77.38
250.299	78.38
250.532	76.38
250.765	70.38
250.998	74.38
251.231	86.38
251.465	84.38
251.698	91.38
251.931	70.38
252.164	82.38
252.397	72.38
252.63	73.38
252.863	88.38
253.096	95.38
253.329	83.38
253.562	74.38
253.795	68.38
254.028	69.38
254.261	69.38
254.494	72.38
254.727	67.38
254.96	67.38
255.193	77.38
255.426	89.38
255.659	81.38
255.892	83.38
256.124	82.38
256.357	69.38
256.59	68.38
256.823	88.38
257.056	80.38
257.289	80.38
257.521	86.38
257.754	91.38
257.987	86.38
258.22	81.38
258.452	91.38
258.685	92.38
258.918	72.38
259.151	80.38
259.383	75.38
259.616	78.38
259.849	76.38
260.081	73.38
260.314	81.38
260.547	97.38
260.779	71.38
261.012	75.38
261.244	95.38
261.477	96.38
261.71	93.38
261.942	114.38
262.175	117.38
262.407	74.38
262.64	83.38
262.872	86.38
263.105	75.38
263.337	96.38
263.57	87.38
263.802	88.38
264.035	80.38
264.267	68.38
264.499	96.38
264.732	93.38
264.964	66.38
265.197	75.38
265.429	74.38
265.661	78.38
265.894	88.38
266.126	92.38
266.358	91.38
266.591	76.38
266.823	69.38
267.055	82.38
267.287	85.38
267.52	62.38
267.752	92.38
267.984	92.38
268.216	80.38
268.448	79.38
268.681	84.38
268.913	83.38
269.145	77.38
269.377	80.38
269.609	68.38
269.841	85.38
270.073	80.38
270.306	81.38
270.538	63.38
270.77	66.38
271.002	69.38
271.234	89.38
271.466	87.38
271.698	81.38
271.93	75.38
272.162	84.38
272.394	84.38
272.626	96.38
272.858	64.38
273.09	78.38
273.322	82.38
273.553	78.38
273.785	88.38
274.017	88.38
274.249	85.38
274.481	72.38
274.713	82.38
274.945	91.38
275.176	77.38
275.408	79.38
275.64	81.38
275.872	102.38
276.104	89.38
276.335	94.38
276.567	93.38
276.799	107.38
277.031	121.38
277.262	100.38
277.494	93.38
277.726	99.38
277.957	77.38
278.189	82.38
278.421	76.38
278.652	92.38
278.884	84.38
279.115	82.38
279.347	76.38
279.579	89.38
279.81	95.38
280.042	88.38
280.273	111.38
280.505	97.38
280.736	94.38
280.968	97.38
281.199	78.38
281.431	81.38
281.662	97.38
281.894	82.38
282.125	99.38
282.356	121.38
282.588	131.38
282.819	107.38
283.051	95.38
283.282	82.38
283.513	102.38
283.745	83.38
283.976	81.38
284.207	101.38
284.439	96.38
284.67	86.38
284.901	76.38
285.132	102.38
285.364	93.38
285.595	88.38
285.826	88.38
286.057	101.38
286.288	82.38
286.52	87.38
286.751	74.38
286.982	85.38
287.213	88.38
287.444	83.38
287.675	81.38
287.906	82.38
288.138	61.38
288.369	100.38
288.6	96.38
288.831	89.38
289.062	81.38
289.293	93.38
289.524	93.38
289.755	69.38
289.986	81.38
290.217	93.38
290.448	86.38
290.679	91.38
290.91	80.38
291.141	80.38
291.371	85.38
291.602	76.38
291.833	90.38
292.064	74.38
292.295	85.38
292.526	85.38
292.757	99.38
292.987	89.38
293.218	75.38
293.449	84.38
293.68	84.38
293.91	79.38
294.141	83.38
294.372	85.38
294.603	85.38
294.833	104.38
295.064	79.38
295.295	79.38
295.525	91.38
295.756	98.38
295.987	115.38
296.217	138.38
296.448	121.38
296.679	109.38
296.909	97.38
297.14	83.38
297.37	87.38
297.601	77.38
297.831	84.38
298.062	90.38
298.292	92.38
298.523	90.38
298.753	82.38
298.984	89.38
299.214	87.38
299.445	88.38
299.675	109.38
299.905	96.38
300.136	83.38
300.366	86.38
300.597	91.38
300.827	93.38
301.057	105.38
301.288	84.38
301.518	85.38
301.748	89.38
301.979	104.38
302.209	84.38
302.439	96.38
302.669	93.38
302.9	87.38
303.13	90.38
303.36	102.38
303.59	105.38
303.82	106.38
304.051	99.38
304.281	76.38
304.511	95.38
304.741	86.38
304.971	88.38
305.201	74.38
305.431	84.38
305.661	86.38
305.891	93.38
306.121	97.38
306.352	101.38
306.582	106.38
306.812	111.38
307.042	95.38
307.272	109.38
307.502	117.38
307.731	117.38
307.961	95.38
308.191	84.38
308.421	82.38
308.651	89.38
308.881	111.38
309.111	97.38
309.341	98.38
309.571	96.38
309.8	83.38
310.03	94.38
310.26	101.38
310.49	105.38
310.72	100.38
310.949	91.38
311.179	101.38
311.409	92.38
311.639	93.38
311.868	86.38
312.098	83.38
312.328	98.38
312.557	88.38
312.787	107.38
313.017	100.38
313.246	75.38
313.476	85.38
313.706	101.38
313.935	95.38
314.165	94.38
314.394	100.38
314.624	103.38
314.853	106.38
315.083	84.38
315.312	93.38
315.542	77.38
315.771	91.38
316.001	107.38
316.23	83.38
316.46	90.38
316.689	86.38
316.919	103.38
317.148	92.38
317.377	89.38
317.607	98.38
317.836	104.38
318.065	90.38
318.295	80.38
318.524	83.38
318.753	92.38
318.983	92.38
319.212	99.38
319.441	107.38
319.67	116.38
319.9	101.38
320.129	94.38
320.358	83.38
320.587	85.38
320.816	104.38
321.046	97.38
321.275	101.38
321.504	102.38
321.733	91.38
321.962	92.38
322.191	95.38
322.42	110.38
322.649	110.38
322.878	110.38
323.108	108.38
323.337	123.38
323.566	124.38
323.795	144.38
324.024	196.38
324.253	349.38
324.482	788.38
324.71	1618.38
324.939	2211.38
325.168	800.38
325.397	235.38
325.626	149.38
325.855	116.38
326.084	117.38
326.313	117.38
326.542	157.38
326.77	209.38
326.999	433.38
327.228	908.38
327.457	1672.38
327.686	1307.38
327.914	364.38
328.143	239.38
328.372	227.38
328.6	164.38
328.829	120.38
329.058	124.38
329.287	127.38
329.515	102.38
329.744	128.38
329.972	184.38
330.201	289.38
330.43	362.38
330.658	223.38
330.887	154.38
331.115	136.38
331.344	101.38
331.572	99.38
331.801	91.38
332.03	104.38
332.258	96.38
332.486	88.38
332.715	95.38
332.943	111.38
333.172	106.38
333.4	95.38
333.629	112.38
333.857	129.38
334.085	176.38
334.314	279.38
334.542	452.38
334.771	444.38
334.999	165.38
335.227	106.38
335.455	91.38
335.684	107.38
335.912	95.38
336.14	97.38
336.369	90.38
336.597	96.38
336.825	97.38
337.053	76.38
337.281	97.38
337.51	106.38
337.738	94.38
337.966	92.38
338.194	103.38
338.422	92.38
338.65	92.38
338.878	85.38
339.106	88.38
339.334	91.38
339.562	89.38
339.79	85.38
340.018	93.38
340.246	84.38
340.474	82.38
340.702	88.38
340.93	83.38
341.158	88.38
341.386	80.38
341.614	109.38
341.842	95.38
342.07	76.38
342.298	110.38
342.526	91.38
342.754	99.38
342.981	92.38
343.209	73.38
343.437	92.38
343.665	83.38
343.893	91.38
344.12	81.38
344.348	93.38
344.576	94.38
344.804	87.38
345.031	89.38
345.259	97.38
345.487	88.38
345.714	91.38
345.942	113.38
346.17	82.38
346.397	98.38
346.625	98.38
346.853	100.38
347.08	93.38
347.308	86.38
347.535	86.38
347.763	92.38
347.99	89.38
348.218	101.38
348.445	100.38
348.673	93.38
348.9	88.38
349.128	96.38
349.355	81.38
349.583	89.38
349.81	90.38
350.037	103.38
350.265	101.38
350.492	91.38
350.72	95.38
350.947	99.38
351.174	98.38
351.402	109.38
351.629	94.38
351.856	77.38
352.083	90.38
352.311	107.38
352.538	101.38
352.765	109.38
352.992	122.38
353.22	112.38
353.447	113.38
353.674	92.38
353.901	100.38
354.128	92.38
354.355	84.38
354.583	90.38
354.81	72.38
355.037	99.38
355.264	96.38
355.491	86.38
355.718	76.38
355.945	89.38
356.172	103.38
356.399	93.38
356.626	92.38
356.853	93.38
357.08	91.38
357.307	92.38
357.534	82.38
357.761	97.38
357.988	85.38
358.215	98.38
358.441	92.38
358.668	99.38
358.895	95.38
359.122	80.38
359.349	99.38
359.576	86.38
359.802	83.38
360.029	116.38
360.256	107.38
360.483	94.38
360.709	80.38
360.936	109.38
361.163	92.38
361.39	86.38
361.616	75.38
361.843	79.38
362.07	100.38
362.296	104.38
362.523	87.38
362.749	86.38
362.976	92.38
363.203	92.38
363.429	107.38
363.656	86.38
363.882	83.38
364.109	88.38
364.335	85.38
364.562	98.38
364.788	94.38
365.015	83.38
365.241	102.38
365.468	73.38
365.694	102.38
365.92	94.38
366.147	94.38
366.373	89.38
366.599	86.38
366.826	92.38
367.052	92.38
367.278	89.38
367.505	87.38
367.731	92.38
367.957	83.38
368.184	80.38
368.41	95.38
368.636	115.38
368.862	103.38
369.089	106.38
369.315	95.38
369.541	85.38
369.767	88.38
369.993	95.38
370.219	91.38
370.445	90.38
370.672	90.38
370.898	78.38
371.124	96.38
371.35	75.38
371.576	82.38
371.802	96.38
372.028	82.38
372.254	81.38
372.48	77.38
372.706	78.38
372.932	81.38
373.158	86.38
373.384	78.38
373.61	105.38
373.835	88.38
374.061	80.38
374.287	80.38
374.513	82.38
374.739	90.38
374.965	95.38
375.191	87.38
375.416	83.38
375.642	99.38
375.868	89.38
376.094	85.38
376.319	94.38
376.545	93.38
376.771	102.38
376.997	96.38
377.222	92.38
377.448	89.38
377.674	102.38
377.899	83.38
378.125	88.38
378.35	90.38
378.576	95.38
378.802	98.38
379.027	76.38
379.253	82.38
379.478	88.38
379.704	84.38
379.929	85.38
380.155	97.38
380.38	96.38
380.606	103.38
380.831	89.38
381.057	91.38
381.282	113.38
381.507	97.38
381.733	109.38
381.958	96.38
382.184	92.38
382.409	102.38
382.634	101.38
382.86	96.38
383.085	85.38
383.31	93.38
383.535	98.38
383.761	100.38
383.986	100.38
384.211	87.38
384.436	94.38
384.662	97.38
384.887	100.38
385.112	107.38
385.337	106.38
385.562	113.38
385.787	107.38
386.013	108.38
386.238	113.38
386.463	115.38
386.688	110.38
386.913	101.38
387.138	127.38
387.363	97.38
387.588	105.38
387.813	103.38
388.038	102.38
388.263	108.38
388.488	114.38
388.713	82.38
388.938	90.38
389.163	102.38
389.387	89.38
389.612	92.38
389.837	92.38
390.062	89.38
390.287	94.38
390.512	96.38
390.736	93.38
390.961	98.38
391.186	85.38
391.411	99.38
391.636	82.38
391.86	72.38
392.085	88.38
392.31	86.38
392.534	88.38
392.759	95.38
392.984	98.38
393.208	117.38
393.433	152.38
393.658	136.38
393.882	96.38
394.107	97.38
394.331	84.38
394.556	91.38
394.78	93.38
395.005	88.38
395.229	74.38
395.454	87.38
395.678	84.38
395.903	90.38
396.127	80.38
396.352	98.38
396.576	95.38
396.801	102.38
397.025	121.38
397.249	91.38
397.474	88.38
397.698	83.38
397.922	92.38
398.147	91.38
398.371	98.38
398.595	84.38
398.82	80.38
399.044	80.38
399.268	84.38
399.492	81.38
399.717	65.38
399.941	88.38
400.165	102.38
400.389	77.38
400.613	79.38
400.837	99.38
401.062	85.38
401.286	90.38
401.51	86.38
401.734	91.38
401.958	111.38
402.182	116.38
402.406	155.38
402.63	114.38
402.854	94.38
403.078	93.38
403.302	70.38
403.526	80.38
403.75	76.38
403.974	77.38
404.198	75.38
404.422	78.38
404.645	77.38
404.869	99.38
405.093	82.38
405.317	107.38
405.541	104.38
405.765	85.38
405.988	101.38
406.212	151.38
406.436	229.38
406.66	129.38
406.883	109.38
407.107	94.38
407.331	106.38
407.555	100.38
407.778	85.38
408.002	90.38
408.226	105.38
408.449	94.38
408.673	88.38
408.896	92.38
409.12	78.38
409.344	83.38
409.567	90.38
409.791	85.38
410.014	98.38
410.238	92.38
410.461	85.38
410.685	82.38
410.908	97.38
411.132	87.38
411.355	110.38
411.578	83.38
411.802	85.38
412.025	90.38
412.249	91.38
412.472	97.38
412.695	96.38
412.919	96.38
413.142	86.38
413.365	76.38
413.589	85.38
413.812	78.38
414.035	84.38
414.258	97.38
414.482	91.38
414.705	91.38
414.928	80.38
415.151	76.38
415.374	85.38
415.597	93.38
415.821	83.38
416.044	85.38
416.267	90.38
416.49	92.38
416.713	82.38
416.936	102.38
417.159	86.38
417.382	95.38
417.605	78.38
417.828	99.38
418.051	85.38
418.274	90.38
418.497	79.38
418.72	69.38
418.943	97.38
419.166	81.38
419.389	80.38
419.611	86.38
419.834	95.38
420.057	96.38
420.28	80.38
420.503	81.38
420.726	95.38
420.948	81.38
421.171	80.38
421.394	91.38
421.617	82.38
421.839	85.38
422.062	82.38
422.285	90.38
422.507	102.38
422.73	110.38
422.953	103.38
423.175	98.38
423.398	94.38
423.621	85.38
423.843	90.38
424.066	75.38
424.288	80.38
424.511	82.38
424.733	79.38
424.956	88.38
425.178	97.38
425.401	96.38
425.623	104.38
425.846	79.38
426.068	102.38
426.291	88.38
426.513	82.38
426.735	83.38
426.958	98.38
427.18	107.38
427.402	145.38
427.625	162.38
427.847	154.38
428.069	142.38
428.292	104.38
428.514	93.38
428.736	75.38
428.958	93.38
429.181	91.38
429.403	96.38
429.625	89.38
429.847	97.38
430.069	104.38
430.292	93.38
430.514	84.38
430.736	74.38
430.958	83.38
431.18	81.38
431.402	85.38
431.624	83.38
431.846	88.38
432.068	82.38
432.29	56.38
432.512	69.38
432.734	81.38
432.956	91.38
433.178	97.38
433.4	96.38
433.622	92.38
433.844	87.38
434.066	99.38
434.287	87.38
434.509	88.38
434.731	93.38
434.953	97.38
435.175	96.38
435.397	100.38
435.618	82.38
435.84	84.38
436.062	117.38
436.284	113.38
436.505	95.38
436.727	78.38
436.949	89.38
437.17	87.38
437.392	79.38
437.614	91.38
437.835	98.38
438.057	121.38
438.278	93.38
438.5	102.38
438.721	101.38
438.943	82.38
439.165	91.38
439.386	88.38
439.608	90.38
439.829	100.38
440.05	113.38
440.272	141.38
440.493	95.38
440.715	87.38
440.936	108.38
441.158	103.38
441.379	95.38
441.6	89.38
441.822	91.38
442.043	91.38
442.264	105.38
442.486	98.38
442.707	104.38
442.928	98.38
443.149	127.38
443.371	121.38
443.592	102.38
443.813	112.38
444.034	108.38
444.255	89.38
444.476	83.38
444.698	90.38
444.919	96.38
445.14	140.38
445.361	113.38
445.582	112.38
445.803	143.38
446.024	126.38
446.245	117.38
446.466	93.38
446.687	90.38
446.908	77.38
447.129	90.38
447.35	111.38
447.571	80.38
447.792	90.38
448.013	93.38
448.234	94.38
448.455	84.38
448.675	112.38
448.896	102.38
449.117	101.38
449.338	99.38
449.559	117.38
449.779	99.38
450	76.38
450.221	70.38
450.442	89.38
450.662	87.38
450.883	109.38
451.104	98.38
451.324	85.38
451.545	88.38
451.766	98.38
451.986	89.38
452.207	86.38
452.428	90.38
452.648	97.38
452.869	107.38
453.089	107.38
453.31	115.38
453.53	98.38
453.751	84.38
453.971	107.38
454.192	107.38
454.412	90.38
454.633	84.38
454.853	74.38
455.073	87.38
455.294	92.38
455.514	100.38
455.734	82.38
455.955	90.38
456.175	88.38
456.395	79.38
456.616	77.38
456.836	96.38
457.056	89.38
457.276	78.38
457.497	74.38
457.717	85.38
457.937	84.38
458.157	89.38
458.377	94.38
458.598	88.38
458.818	159.38
459.038	147.38
459.258	105.38
459.478	89.38
459.698	92.38
459.918	90.38
460.138	93.38
460.358	83.38
460.578	84.38
460.798	96.38
461.018	99.38
461.238	88.38
461.458	82.38
461.678	79.38
461.898	85.38
462.118	81.38
462.338	86.38
462.558	84.38
462.777	76.38
462.997	90.38
463.217	81.38
463.437	96.38
463.657	84.38
463.876	85.38
464.096	85.38
464.316	86.38
464.536	88.38
464.755	89.38
464.975	108.38
465.195	156.38
465.414	150.38
465.634	90.38
465.854	109.38
466.073	84.38
466.293	73.38
466.512	90.38
466.732	89.38
466.951	87.38
467.171	90.38
467.391	86.38
467.61	111.38
467.829	118.38
468.049	189.38
468.268	255.38
468.488	103.38
468.707	85.38
468.927	84.38
469.146	84.38
469.365	84.38
469.585	90.38
469.804	100.38
470.023	99.38
470.243	86.38
470.462	98.38
470.681	104.38
470.901	100.38
471.12	74.38
471.339	85.38
471.558	96.38
471.777	97.38
471.997	137.38
472.216	335.38
472.435	638.38
472.654	215.38
472.873	109.38
473.092	82.38
473.311	94.38
473.53	93.38
473.749	72.38
473.968	87.38
474.187	105.38
474.406	102.38
474.625	82.38
474.844	94.38
475.063	96.38
475.282	91.38
475.501	84.38
475.72	84.38
475.939	90.38
476.158	88.38
476.377	73.38
476.596	82.38
476.814	90.38
477.033	86.38
477.252	80.38
477.471	89.38
477.69	88.38
477.908	80.38
478.127	91.38
478.346	88.38
478.564	81.38
478.783	80.38
479.002	88.38
479.22	91.38
479.439	95.38
479.658	108.38
479.876	82.38
480.095	85.38
480.313	92.38
480.532	102.38
480.751	158.38
480.969	326.38
481.188	1168.38
481.406	656.38
481.624	155.38
481.843	94.38
482.061	92.38
482.28	92.38
482.498	92.38
482.717	81.38
482.935	80.38
483.153	78.38
483.372	88.38
483.59	87.38
483.808	77.38
484.027	83.38
484.245	92.38
484.463	84.38
484.681	90.38
484.9	72.38
485.118	90.38
485.336	91.38
485.554	80.38
485.772	92.38
485.99	103.38
486.209	98.38
486.427	104.38
486.645	98.38
486.863	96.38
487.081	95.38
487.299	94.38
487.517	92.38
487.735	95.38
487.953	89.38
488.171	89.38
488.389	86.38
488.607	84.38
488.825	85.38
489.043	81.38
489.261	77.38
489.479	62.38
489.696	88.38
489.914	84.38
490.132	90.38
490.35	85.38
490.568	88.38
490.786	76.38
491.003	77.38
491.221	67.38
491.439	93.38
491.657	82.38
491.874	93.38
492.092	87.38
492.31	72.38
492.527	91.38
492.745	84.38
492.963	87.38
493.18	82.38
493.398	92.38
493.615	82.38
493.833	96.38
494.05	81.38
494.268	87.38
494.485	95.38
494.703	105.38
494.92	91.38
495.138	94.38
495.355	114.38
495.573	103.38
495.79	81.38
496.008	97.38
496.225	84.38
496.442	81.38
496.66	91.38
496.877	102.38
497.094	91.38
497.312	86.38
497.529	95.38
497.746	101.38
497.963	80.38
498.181	85.38
498.398	94.38
498.615	118.38
498.832	98.38
499.049	86.38
499.267	96.38
499.484	95.38
499.701	83.38
499.918	90.38
500.135	80.38
500.352	85.38
500.569	90.38
500.786	94.38
501.003	100.38
501.22	80.38
501.437	88.38
501.654	97.38
501.871	103.38
502.088	91.38
502.305	100.38
502.522	102.38
502.739	98.38
502.956	68.38
503.172	88.38
503.389	93.38
503.606	93.38
503.823	102.38
504.04	96.38
504.256	90.38
504.473	102.38
504.69	83.38
504.907	99.38
505.123	83.38
505.34	75.38
505.557	90.38
505.773	79.38
505.99	82.38
506.207	88.38
506.423	94.38
506.64	91.38
506.856	74.38
507.073	91.38
507.289	105.38
507.506	89.38
507.722	120.38
507.939	108.38
508.155	93.38
508.372	107.38
508.588	96.38
508.805	100.38
509.021	103.38
509.238	94.38
509.454	101.38
509.67	91.38
509.887	122.38
510.103	139.38
510.319	223.38
510.536	740.38
510.752	2355.38
510.968	652.38
511.184	145.38
511.401	121.38
511.617	99.38
511.833	80.38
512.049	99.38
512.265	94.38
512.481	105.38
512.698	77.38
512.914	98.38
513.13	92.38
513.346	97.38
513.562	94.38
513.778	92.38
513.994	97.38
514.21	111.38
514.426	110.38
514.642	123.38
514.858	110.38
515.074	176.38
515.29	462.38
515.506	1470.38
515.721	552.38
