Data from Circ_1991_H10_HRD10591_00059.txt Node
Date: Wed Jan 03 11:51:53 EST 2024
User: Yrep
Spectrometer: HR+D1059
Trigger mode: 1
Integration Time (sec): 1.000000E-1
Scans to average: 1
Electric dark correction enabled: true
Nonlinearity correction enabled: false
Boxcar width: 0
XAxis mode: Wavelengths
Number of Pixels in Spectrum: 2048
>>>>>Begin Spectral Data<<<<<
223.165	-21.69
223.4	-21.69
223.635	-21.69
223.869	-22.69
224.104	-17.69
224.338	-22.69
224.573	-10.69
224.808	-8.69
225.042	-15.69
225.277	6.31
225.511	2.31
225.746	6.31
225.98	0.31
226.215	15.31
226.449	18.31
226.683	24.31
226.918	23.31
227.152	23.31
227.387	44.31
227.621	35.31
227.856	49.31
228.09	29.31
228.324	44.31
228.559	55.31
228.793	47.31
229.027	63.31
229.262	75.31
229.496	81.31
229.73	87.31
229.964	86.31
230.199	94.31
230.433	83.31
230.667	86.31
230.901	73.31
231.136	79.31
231.37	81.31
231.604	79.31
231.838	77.31
232.072	68.31
232.306	83.31
232.541	86.31
232.775	72.31
233.009	80.31
233.243	83.31
233.477	84.31
233.711	69.31
233.945	91.31
234.179	82.31
234.413	84.31
234.647	78.31
234.881	81.31
235.115	76.31
235.349	71.31
235.583	62.31
235.817	96.31
236.051	85.31
236.285	89.31
236.519	82.31
236.753	82.31
236.987	80.31
237.221	82.31
237.455	89.31
237.689	85.31
237.922	83.31
238.156	80.31
238.39	91.31
238.624	56.31
238.858	97.31
239.091	77.31
239.325	89.31
239.559	87.31
239.793	73.31
240.027	77.31
240.26	70.31
240.494	81.31
240.728	83.31
240.961	64.31
241.195	78.31
241.429	69.31
241.662	83.31
241.896	87.31
242.13	81.31
242.363	73.31
242.597	71.31
242.83	68.31
243.064	82.31
243.298	82.31
243.531	69.31
243.765	87.31
243.998	90.31
244.232	85.31
244.465	86.31
244.699	75.31
244.932	84.31
245.166	87.31
245.399	76.31
245.633	77.31
245.866	80.31
246.099	72.31
246.333	72.31
246.566	76.31
246.8	89.31
247.033	84.31
247.266	80.31
247.5	89.31
247.733	82.31
247.966	91.31
248.2	74.31
248.433	84.31
248.666	79.31
248.899	95.31
249.133	87.31
249.366	113.31
249.599	94.31
249.832	68.31
250.066	95.31
250.299	77.31
250.532	72.31
250.765	79.31
250.998	74.31
251.231	72.31
251.465	86.31
251.698	90.31
251.931	76.31
252.164	94.31
252.397	84.31
252.63	82.31
252.863	81.31
253.096	92.31
253.329	83.31
253.562	77.31
253.795	79.31
254.028	77.31
254.261	77.31
254.494	78.31
254.727	86.31
254.96	85.31
255.193	70.31
255.426	81.31
255.659	88.31
255.892	88.31
256.124	80.31
256.357	86.31
256.59	84.31
256.823	81.31
257.056	83.31
257.289	95.31
257.521	75.31
257.754	95.31
257.987	82.31
258.22	76.31
258.452	71.31
258.685	81.31
258.918	81.31
259.151	97.31
259.383	87.31
259.616	66.31
259.849	79.31
260.081	94.31
260.314	85.31
260.547	83.31
260.779	89.31
261.012	80.31
261.244	82.31
261.477	89.31
261.71	88.31
261.942	93.31
262.175	107.31
262.407	87.31
262.64	81.31
262.872	94.31
263.105	85.31
263.337	88.31
263.57	88.31
263.802	75.31
264.035	83.31
264.267	70.31
264.499	74.31
264.732	93.31
264.964	102.31
265.197	88.31
265.429	69.31
265.661	88.31
265.894	87.31
266.126	83.31
266.358	79.31
266.591	90.31
266.823	84.31
267.055	92.31
267.287	80.31
267.52	90.31
267.752	88.31
267.984	97.31
268.216	102.31
268.448	83.31
268.681	102.31
268.913	103.31
269.145	87.31
269.377	86.31
269.609	83.31
269.841	94.31
270.073	83.31
270.306	77.31
270.538	77.31
270.77	87.31
271.002	78.31
271.234	89.31
271.466	89.31
271.698	84.31
271.93	75.31
272.162	79.31
272.394	71.31
272.626	80.31
272.858	65.31
273.09	101.31
273.322	93.31
273.553	90.31
273.785	64.31
274.017	78.31
274.249	79.31
274.481	82.31
274.713	95.31
274.945	94.31
275.176	96.31
275.408	83.31
275.64	107.31
275.872	75.31
276.104	94.31
276.335	81.31
276.567	95.31
276.799	117.31
277.031	109.31
277.262	111.31
277.494	101.31
277.726	94.31
277.957	91.31
278.189	81.31
278.421	84.31
278.652	72.31
278.884	89.31
279.115	87.31
279.347	93.31
279.579	79.31
279.81	99.31
280.042	115.31
280.273	121.31
280.505	101.31
280.736	83.31
280.968	92.31
281.199	100.31
281.431	92.31
281.662	88.31
281.894	87.31
282.125	88.31
282.356	124.31
282.588	127.31
282.819	110.31
283.051	72.31
283.282	91.31
283.513	93.31
283.745	92.31
283.976	84.31
284.207	84.31
284.439	80.31
284.67	100.31
284.901	90.31
285.132	93.31
285.364	90.31
285.595	80.31
285.826	93.31
286.057	93.31
286.288	92.31
286.52	96.31
286.751	87.31
286.982	87.31
287.213	93.31
287.444	105.31
287.675	87.31
287.906	84.31
288.138	92.31
288.369	93.31
288.6	97.31
288.831	96.31
289.062	93.31
289.293	89.31
289.524	89.31
289.755	88.31
289.986	87.31
290.217	96.31
290.448	91.31
290.679	95.31
290.91	92.31
291.141	84.31
291.371	88.31
291.602	82.31
291.833	85.31
292.064	97.31
292.295	93.31
292.526	91.31
292.757	85.31
292.987	96.31
293.218	95.31
293.449	95.31
293.68	84.31
293.91	92.31
294.141	85.31
294.372	66.31
294.603	96.31
294.833	84.31
295.064	90.31
295.295	103.31
295.525	92.31
295.756	108.31
295.987	120.31
296.217	125.31
296.448	117.31
296.679	87.31
296.909	109.31
297.14	92.31
297.37	80.31
297.601	78.31
297.831	94.31
298.062	97.31
298.292	102.31
298.523	92.31
298.753	105.31
298.984	93.31
299.214	79.31
299.445	95.31
299.675	96.31
299.905	97.31
300.136	99.31
300.366	91.31
300.597	95.31
300.827	93.31
301.057	100.31
301.288	113.31
301.518	101.31
301.748	96.31
301.979	110.31
302.209	96.31
302.439	93.31
302.669	68.31
302.9	87.31
303.13	96.31
303.36	106.31
303.59	102.31
303.82	117.31
304.051	93.31
304.281	103.31
304.511	85.31
304.741	82.31
304.971	91.31
305.201	96.31
305.431	81.31
305.661	84.31
305.891	97.31
306.121	100.31
306.352	104.31
306.582	102.31
306.812	92.31
307.042	96.31
307.272	114.31
307.502	111.31
307.731	132.31
307.961	104.31
308.191	108.31
308.421	93.31
308.651	88.31
308.881	86.31
309.111	93.31
309.341	101.31
309.571	91.31
309.8	94.31
310.03	101.31
310.26	104.31
310.49	105.31
310.72	99.31
310.949	100.31
311.179	99.31
311.409	103.31
311.639	97.31
311.868	96.31
312.098	105.31
312.328	99.31
312.557	105.31
312.787	95.31
313.017	99.31
313.246	94.31
313.476	94.31
313.706	102.31
313.935	88.31
314.165	95.31
314.394	115.31
314.624	110.31
314.853	93.31
315.083	96.31
315.312	101.31
315.542	105.31
315.771	91.31
316.001	88.31
316.23	95.31
316.46	87.31
316.689	100.31
316.919	103.31
317.148	99.31
317.377	102.31
317.607	93.31
317.836	86.31
318.065	88.31
318.295	99.31
318.524	92.31
318.753	87.31
318.983	100.31
319.212	106.31
319.441	108.31
319.67	101.31
319.9	96.31
320.129	99.31
320.358	103.31
320.587	88.31
320.816	105.31
321.046	110.31
321.275	85.31
321.504	91.31
321.733	109.31
321.962	104.31
322.191	96.31
322.42	103.31
322.649	109.31
322.878	103.31
323.108	116.31
323.337	126.31
323.566	136.31
323.795	164.31
324.024	206.31
324.253	398.31
324.482	851.31
324.71	1763.31
324.939	2329.31
325.168	853.31
325.397	253.31
325.626	147.31
325.855	139.31
326.084	135.31
326.313	126.31
326.542	175.31
326.77	243.31
326.999	452.31
327.228	940.31
327.457	1830.31
327.686	1459.31
327.914	431.31
328.143	286.31
328.372	311.31
328.6	201.31
328.829	124.31
329.058	127.31
329.287	131.31
329.515	126.31
329.744	148.31
329.972	215.31
330.201	376.31
330.43	510.31
330.658	280.31
330.887	167.31
331.115	120.31
331.344	96.31
331.572	125.31
331.801	121.31
332.03	113.31
332.258	101.31
332.486	97.31
332.715	81.31
332.943	110.31
333.172	97.31
333.4	108.31
333.629	110.31
333.857	147.31
334.085	216.31
334.314	370.31
334.542	642.31
334.771	610.31
334.999	205.31
335.227	120.31
335.455	107.31
335.684	94.31
335.912	103.31
336.14	107.31
336.369	114.31
336.597	93.31
336.825	104.31
337.053	105.31
337.281	97.31
337.51	91.31
337.738	95.31
337.966	112.31
338.194	110.31
338.422	108.31
338.65	92.31
338.878	95.31
339.106	94.31
339.334	101.31
339.562	79.31
339.79	90.31
340.018	103.31
340.246	103.31
340.474	94.31
340.702	98.31
340.93	87.31
341.158	99.31
341.386	98.31
341.614	85.31
341.842	99.31
342.07	92.31
342.298	93.31
342.526	109.31
342.754	97.31
342.981	94.31
343.209	95.31
343.437	98.31
343.665	95.31
343.893	92.31
344.12	78.31
344.348	88.31
344.576	92.31
344.804	95.31
345.031	93.31
345.259	93.31
345.487	97.31
345.714	91.31
345.942	86.31
346.17	101.31
346.397	91.31
346.625	89.31
346.853	106.31
347.08	94.31
347.308	103.31
347.535	94.31
347.763	116.31
347.99	93.31
348.218	106.31
348.445	111.31
348.673	98.31
348.9	103.31
349.128	97.31
349.355	100.31
349.583	87.31
349.81	89.31
350.037	87.31
350.265	94.31
350.492	93.31
350.72	87.31
350.947	107.31
351.174	102.31
351.402	97.31
351.629	110.31
351.856	97.31
352.083	92.31
352.311	99.31
352.538	119.31
352.765	128.31
352.992	114.31
353.22	97.31
353.447	104.31
353.674	96.31
353.901	112.31
354.128	88.31
354.355	99.31
354.583	86.31
354.81	97.31
355.037	92.31
355.264	81.31
355.491	101.31
355.718	94.31
355.945	76.31
356.172	83.31
356.399	88.31
356.626	108.31
356.853	92.31
357.08	88.31
357.307	97.31
357.534	93.31
357.761	94.31
357.988	100.31
358.215	88.31
358.441	98.31
358.668	89.31
358.895	84.31
359.122	82.31
359.349	83.31
359.576	81.31
359.802	102.31
360.029	104.31
360.256	111.31
360.483	103.31
360.709	89.31
360.936	92.31
361.163	108.31
361.39	102.31
361.616	89.31
361.843	94.31
362.07	99.31
362.296	88.31
362.523	92.31
362.749	95.31
362.976	104.31
363.203	98.31
363.429	89.31
363.656	115.31
363.882	88.31
364.109	89.31
364.335	100.31
364.562	95.31
364.788	87.31
365.015	95.31
365.241	98.31
365.468	108.31
365.694	96.31
365.92	103.31
366.147	83.31
366.373	84.31
366.599	95.31
366.826	68.31
367.052	83.31
367.278	97.31
367.505	95.31
367.731	102.31
367.957	95.31
368.184	111.31
368.41	104.31
368.636	100.31
368.862	113.31
369.089	104.31
369.315	101.31
369.541	107.31
369.767	91.31
369.993	96.31
370.219	97.31
370.445	91.31
370.672	102.31
370.898	95.31
371.124	97.31
371.35	79.31
371.576	94.31
371.802	86.31
372.028	74.31
372.254	85.31
372.48	83.31
372.706	71.31
372.932	95.31
373.158	83.31
373.384	87.31
373.61	89.31
373.835	98.31
374.061	80.31
374.287	104.31
374.513	99.31
374.739	88.31
374.965	84.31
375.191	93.31
375.416	91.31
375.642	88.31
375.868	77.31
376.094	87.31
376.319	89.31
376.545	98.31
376.771	94.31
376.997	94.31
377.222	85.31
377.448	89.31
377.674	86.31
377.899	105.31
378.125	89.31
378.35	93.31
378.576	96.31
378.802	91.31
379.027	85.31
379.253	90.31
379.478	94.31
379.704	103.31
379.929	108.31
380.155	97.31
380.38	85.31
380.606	89.31
380.831	94.31
381.057	97.31
381.282	91.31
381.507	111.31
381.733	78.31
381.958	105.31
382.184	91.31
382.409	110.31
382.634	104.31
382.86	104.31
383.085	103.31
383.31	117.31
383.535	105.31
383.761	101.31
383.986	99.31
384.211	107.31
384.436	89.31
384.662	101.31
384.887	111.31
385.112	105.31
385.337	101.31
385.562	97.31
385.787	104.31
386.013	114.31
386.238	111.31
386.463	111.31
386.688	104.31
386.913	86.31
387.138	103.31
387.363	118.31
387.588	111.31
387.813	110.31
388.038	114.31
388.263	116.31
388.488	108.31
388.713	86.31
388.938	76.31
389.163	88.31
389.387	96.31
389.612	109.31
389.837	101.31
390.062	93.31
390.287	92.31
390.512	103.31
390.736	94.31
390.961	95.31
391.186	86.31
391.411	94.31
391.636	93.31
391.86	95.31
392.085	95.31
392.31	90.31
392.534	81.31
392.759	95.31
392.984	96.31
393.208	95.31
393.433	114.31
393.658	105.31
393.882	101.31
394.107	79.31
394.331	84.31
394.556	71.31
394.78	89.31
395.005	83.31
395.229	86.31
395.454	80.31
395.678	80.31
395.903	90.31
396.127	91.31
396.352	93.31
396.576	94.31
396.801	94.31
397.025	104.31
397.249	94.31
397.474	104.31
397.698	100.31
397.922	98.31
398.147	83.31
398.371	96.31
398.595	65.31
398.82	96.31
399.044	90.31
399.268	77.31
399.492	90.31
399.717	85.31
399.941	80.31
400.165	109.31
400.389	94.31
400.613	82.31
400.837	97.31
401.062	78.31
401.286	98.31
401.51	72.31
401.734	95.31
401.958	91.31
402.182	111.31
402.406	142.31
402.63	110.31
402.854	104.31
403.078	94.31
403.302	86.31
403.526	97.31
403.75	97.31
403.974	68.31
404.198	97.31
404.422	109.31
404.645	91.31
404.869	92.31
405.093	102.31
405.317	102.31
405.541	106.31
405.765	97.31
405.988	126.31
406.212	164.31
406.436	225.31
406.66	142.31
406.883	101.31
407.107	99.31
407.331	98.31
407.555	91.31
407.778	97.31
408.002	92.31
408.226	97.31
408.449	92.31
408.673	96.31
408.896	96.31
409.12	96.31
409.344	85.31
409.567	98.31
409.791	105.31
410.014	99.31
410.238	93.31
410.461	104.31
410.685	103.31
410.908	85.31
411.132	108.31
411.355	93.31
411.578	76.31
411.802	87.31
412.025	91.31
412.249	95.31
412.472	99.31
412.695	111.31
412.919	91.31
413.142	101.31
413.365	96.31
413.589	92.31
413.812	95.31
414.035	93.31
414.258	93.31
414.482	104.31
414.705	92.31
414.928	94.31
415.151	105.31
415.374	95.31
415.597	95.31
415.821	93.31
416.044	87.31
416.267	99.31
416.49	108.31
416.713	94.31
416.936	102.31
417.159	92.31
417.382	95.31
417.605	91.31
417.828	103.31
418.051	90.31
418.274	98.31
418.497	105.31
418.72	95.31
418.943	96.31
419.166	78.31
419.389	76.31
419.611	84.31
419.834	80.31
420.057	84.31
420.28	88.31
420.503	87.31
420.726	85.31
420.948	103.31
421.171	101.31
421.394	106.31
421.617	77.31
421.839	99.31
422.062	84.31
422.285	87.31
422.507	116.31
422.73	95.31
422.953	89.31
423.175	87.31
423.398	87.31
423.621	87.31
423.843	83.31
424.066	92.31
424.288	96.31
424.511	85.31
424.733	93.31
424.956	89.31
425.178	101.31
425.401	102.31
425.623	93.31
425.846	85.31
426.068	85.31
426.291	86.31
426.513	99.31
426.735	90.31
426.958	85.31
427.18	99.31
427.402	149.31
427.625	185.31
427.847	176.31
428.069	159.31
428.292	117.31
428.514	91.31
428.736	89.31
428.958	97.31
429.181	77.31
429.403	86.31
429.625	87.31
429.847	99.31
430.069	105.31
430.292	81.31
430.514	96.31
430.736	75.31
430.958	87.31
431.18	75.31
431.402	91.31
431.624	93.31
431.846	93.31
432.068	85.31
432.29	83.31
432.512	88.31
432.734	94.31
432.956	89.31
433.178	97.31
433.4	103.31
433.622	100.31
433.844	94.31
434.066	92.31
434.287	101.31
434.509	90.31
434.731	99.31
434.953	96.31
435.175	94.31
435.397	89.31
435.618	97.31
435.84	100.31
436.062	114.31
436.284	118.31
436.505	99.31
436.727	97.31
436.949	87.31
437.17	74.31
437.392	89.31
437.614	101.31
437.835	99.31
438.057	121.31
438.278	109.31
438.5	104.31
438.721	128.31
438.943	108.31
439.165	88.31
439.386	83.31
439.608	92.31
439.829	99.31
440.05	134.31
440.272	139.31
440.493	93.31
440.715	104.31
440.936	83.31
441.158	98.31
441.379	80.31
441.6	90.31
441.822	104.31
442.043	100.31
442.264	98.31
442.486	101.31
442.707	85.31
442.928	113.31
443.149	132.31
443.371	124.31
443.592	105.31
443.813	103.31
444.034	120.31
444.255	91.31
444.476	101.31
444.698	96.31
444.919	93.31
445.14	125.31
445.361	123.31
445.582	123.31
445.803	148.31
446.024	147.31
446.245	141.31
446.466	105.31
446.687	79.31
446.908	91.31
447.129	103.31
447.35	95.31
447.571	100.31
447.792	109.31
448.013	107.31
448.234	94.31
448.455	104.31
448.675	110.31
448.896	126.31
449.117	101.31
449.338	108.31
449.559	130.31
449.779	133.31
450	94.31
450.221	84.31
450.442	81.31
450.662	92.31
450.883	99.31
451.104	102.31
451.324	87.31
451.545	89.31
451.766	75.31
451.986	71.31
452.207	90.31
452.428	97.31
452.648	98.31
452.869	109.31
453.089	117.31
453.31	110.31
453.53	96.31
453.751	95.31
453.971	89.31
454.192	110.31
454.412	101.31
454.633	95.31
454.853	99.31
455.073	73.31
455.294	83.31
455.514	100.31
455.734	84.31
455.955	84.31
456.175	83.31
456.395	92.31
456.616	88.31
456.836	71.31
457.056	99.31
457.276	77.31
457.497	94.31
457.717	80.31
457.937	81.31
458.157	101.31
458.377	93.31
458.598	110.31
458.818	151.31
459.038	161.31
459.258	120.31
459.478	87.31
459.698	81.31
459.918	91.31
460.138	71.31
460.358	96.31
460.578	92.31
460.798	92.31
461.018	95.31
461.238	80.31
461.458	76.31
461.678	88.31
461.898	88.31
462.118	71.31
462.338	97.31
462.558	96.31
462.777	81.31
462.997	79.31
463.217	89.31
463.437	90.31
463.657	89.31
463.876	97.31
464.096	91.31
464.316	88.31
464.536	95.31
464.755	92.31
464.975	112.31
465.195	163.31
465.414	159.31
465.634	98.31
465.854	80.31
466.073	96.31
466.293	77.31
466.512	96.31
466.732	85.31
466.951	86.31
467.171	110.31
467.391	78.31
467.61	117.31
467.829	130.31
468.049	255.31
468.268	340.31
468.488	123.31
468.707	93.31
468.927	76.31
469.146	98.31
469.365	87.31
469.585	80.31
469.804	91.31
470.023	95.31
470.243	99.31
470.462	110.31
470.681	107.31
470.901	85.31
471.12	87.31
471.339	93.31
471.558	97.31
471.777	130.31
471.997	165.31
472.216	489.31
472.435	934.31
472.654	259.31
472.873	118.31
473.092	88.31
473.311	89.31
473.53	101.31
473.749	80.31
473.968	91.31
474.187	108.31
474.406	100.31
474.625	87.31
474.844	91.31
475.063	83.31
475.282	92.31
475.501	95.31
475.72	89.31
475.939	103.31
476.158	91.31
476.377	102.31
476.596	75.31
476.814	101.31
477.033	99.31
477.252	88.31
477.471	89.31
477.69	94.31
477.908	103.31
478.127	101.31
478.346	98.31
478.564	90.31
478.783	97.31
479.002	90.31
479.22	97.31
479.439	112.31
479.658	111.31
479.876	112.31
480.095	92.31
480.313	105.31
480.532	124.31
480.751	167.31
480.969	457.31
481.188	1729.31
481.406	960.31
481.624	169.31
481.843	115.31
482.061	93.31
482.28	88.31
482.498	94.31
482.717	95.31
482.935	88.31
483.153	98.31
483.372	86.31
483.59	92.31
483.808	97.31
484.027	91.31
484.245	99.31
484.463	99.31
484.681	99.31
484.9	104.31
485.118	81.31
485.336	97.31
485.554	99.31
485.772	95.31
485.99	102.31
486.209	100.31
486.427	103.31
486.645	93.31
486.863	104.31
487.081	103.31
487.299	88.31
487.517	101.31
487.735	100.31
487.953	98.31
488.171	87.31
488.389	102.31
488.607	97.31
488.825	94.31
489.043	97.31
489.261	86.31
489.479	92.31
489.696	81.31
489.914	79.31
490.132	84.31
490.35	95.31
490.568	92.31
490.786	93.31
491.003	90.31
491.221	92.31
491.439	94.31
491.657	95.31
491.874	91.31
492.092	94.31
492.31	103.31
492.527	95.31
492.745	83.31
492.963	93.31
493.18	91.31
493.398	109.31
493.615	97.31
493.833	95.31
494.05	93.31
494.268	95.31
494.485	100.31
494.703	96.31
494.92	95.31
495.138	89.31
495.355	96.31
495.573	91.31
495.79	94.31
496.008	86.31
496.225	104.31
496.442	82.31
496.66	98.31
496.877	102.31
497.094	99.31
497.312	93.31
497.529	86.31
497.746	82.31
497.963	87.31
498.181	78.31
498.398	91.31
498.615	109.31
498.832	102.31
499.049	97.31
499.267	89.31
499.484	85.31
499.701	76.31
499.918	91.31
500.135	107.31
500.352	89.31
500.569	82.31
500.786	96.31
501.003	86.31
501.22	81.31
501.437	87.31
501.654	95.31
501.871	97.31
502.088	96.31
502.305	99.31
502.522	96.31
502.739	91.31
502.956	102.31
503.172	92.31
503.389	87.31
503.606	102.31
503.823	118.31
504.04	103.31
504.256	92.31
504.473	85.31
504.69	107.31
504.907	105.31
505.123	81.31
505.34	81.31
505.557	104.31
505.773	100.31
505.99	99.31
506.207	98.31
506.423	96.31
506.64	86.31
506.856	108.31
507.073	79.31
507.289	76.31
507.506	88.31
507.722	121.31
507.939	114.31
508.155	86.31
508.372	95.31
508.588	97.31
508.805	93.31
509.021	91.31
509.238	96.31
509.454	100.31
509.67	81.31
509.887	105.31
510.103	136.31
510.319	194.31
510.536	685.31
510.752	2280.31
510.968	629.31
511.184	148.31
511.401	108.31
511.617	101.31
511.833	96.31
512.049	93.31
512.265	101.31
512.481	88.31
512.698	99.31
512.914	99.31
513.13	88.31
513.346	88.31
513.562	96.31
513.778	102.31
513.994	105.31
514.21	102.31
514.426	112.31
514.642	133.31
