Data from Circ_1991_H10_HRD10591_00042.txt Node
Date: Wed Jan 03 11:51:49 EST 2024
User: Yrep
Spectrometer: HR+D1059
Trigger mode: 1
Integration Time (sec): 1.000000E-1
Scans to average: 1
Electric dark correction enabled: true
Nonlinearity correction enabled: false
Boxcar width: 0
XAxis mode: Wavelengths
Number of Pixels in Spectrum: 2048
>>>>>Begin Spectral Data<<<<<
223.165	-22.06
223.4	-22.06
223.635	-22.06
223.869	-12.06
224.104	-3.06
224.338	-12.06
224.573	-16.06
224.808	-10.06
225.042	-17.06
225.277	-19.06
225.511	-10.06
225.746	3.94
225.98	8.94
226.215	10.94
226.449	16.94
226.683	30.94
226.918	23.94
227.152	25.94
227.387	35.94
227.621	46.94
227.856	34.94
228.09	30.94
228.324	52.94
228.559	58.94
228.793	61.94
229.027	70.94
229.262	75.94
229.496	84.94
229.73	77.94
229.964	90.94
230.199	72.94
230.433	68.94
230.667	75.94
230.901	80.94
231.136	87.94
231.37	70.94
231.604	78.94
231.838	85.94
232.072	98.94
232.306	82.94
232.541	77.94
232.775	76.94
233.009	86.94
233.243	76.94
233.477	84.94
233.711	76.94
233.945	82.94
234.179	76.94
234.413	92.94
234.647	82.94
234.881	85.94
235.115	69.94
235.349	75.94
235.583	80.94
235.817	82.94
236.051	79.94
236.285	88.94
236.519	72.94
236.753	72.94
236.987	67.94
237.221	92.94
237.455	95.94
237.689	65.94
237.922	77.94
238.156	78.94
238.39	80.94
238.624	82.94
238.858	95.94
239.091	74.94
239.325	84.94
239.559	89.94
239.793	71.94
240.027	82.94
240.26	93.94
240.494	87.94
240.728	71.94
240.961	87.94
241.195	83.94
241.429	75.94
241.662	57.94
241.896	78.94
242.13	76.94
242.363	64.94
242.597	63.94
242.83	70.94
243.064	71.94
243.298	87.94
243.531	88.94
243.765	78.94
243.998	82.94
244.232	79.94
244.465	83.94
244.699	84.94
244.932	83.94
245.166	84.94
245.399	76.94
245.633	86.94
245.866	86.94
246.099	89.94
246.333	82.94
246.566	69.94
246.8	68.94
247.033	71.94
247.266	68.94
247.5	66.94
247.733	89.94
247.966	77.94
248.2	66.94
248.433	84.94
248.666	94.94
248.899	96.94
249.133	82.94
249.366	88.94
249.599	112.94
249.832	90.94
250.066	83.94
250.299	84.94
250.532	80.94
250.765	87.94
250.998	87.94
251.231	68.94
251.465	74.94
251.698	71.94
251.931	82.94
252.164	77.94
252.397	79.94
252.63	85.94
252.863	84.94
253.096	82.94
253.329	79.94
253.562	89.94
253.795	95.94
254.028	86.94
254.261	89.94
254.494	90.94
254.727	78.94
254.96	82.94
255.193	73.94
255.426	92.94
255.659	82.94
255.892	82.94
256.124	72.94
256.357	78.94
256.59	90.94
256.823	83.94
257.056	86.94
257.289	82.94
257.521	86.94
257.754	86.94
257.987	86.94
258.22	91.94
258.452	80.94
258.685	89.94
258.918	99.94
259.151	86.94
259.383	83.94
259.616	71.94
259.849	72.94
260.081	81.94
260.314	75.94
260.547	91.94
260.779	86.94
261.012	77.94
261.244	83.94
261.477	90.94
261.71	87.94
261.942	83.94
262.175	110.94
262.407	95.94
262.64	80.94
262.872	92.94
263.105	79.94
263.337	75.94
263.57	85.94
263.802	78.94
264.035	85.94
264.267	94.94
264.499	75.94
264.732	105.94
264.964	89.94
265.197	75.94
265.429	83.94
265.661	88.94
265.894	78.94
266.126	79.94
266.358	79.94
266.591	88.94
266.823	88.94
267.055	80.94
267.287	84.94
267.52	79.94
267.752	89.94
267.984	86.94
268.216	85.94
268.448	81.94
268.681	81.94
268.913	67.94
269.145	82.94
269.377	82.94
269.609	76.94
269.841	101.94
270.073	88.94
270.306	85.94
270.538	87.94
270.77	78.94
271.002	70.94
271.234	71.94
271.466	94.94
271.698	86.94
271.93	87.94
272.162	84.94
272.394	85.94
272.626	72.94
272.858	86.94
273.09	83.94
273.322	84.94
273.553	93.94
273.785	80.94
274.017	85.94
274.249	94.94
274.481	77.94
274.713	77.94
274.945	72.94
275.176	80.94
275.408	97.94
275.64	94.94
275.872	101.94
276.104	88.94
276.335	81.94
276.567	109.94
276.799	83.94
277.031	100.94
277.262	119.94
277.494	92.94
277.726	92.94
277.957	78.94
278.189	90.94
278.421	95.94
278.652	92.94
278.884	83.94
279.115	91.94
279.347	91.94
279.579	94.94
279.81	98.94
280.042	101.94
280.273	122.94
280.505	107.94
280.736	98.94
280.968	91.94
281.199	75.94
281.431	95.94
281.662	82.94
281.894	92.94
282.125	86.94
282.356	120.94
282.588	134.94
282.819	110.94
283.051	81.94
283.282	96.94
283.513	91.94
283.745	85.94
283.976	76.94
284.207	80.94
284.439	87.94
284.67	83.94
284.901	84.94
285.132	95.94
285.364	87.94
285.595	88.94
285.826	77.94
286.057	86.94
286.288	102.94
286.52	91.94
286.751	93.94
286.982	86.94
287.213	90.94
287.444	82.94
287.675	100.94
287.906	99.94
288.138	82.94
288.369	92.94
288.6	92.94
288.831	99.94
289.062	91.94
289.293	85.94
289.524	93.94
289.755	90.94
289.986	80.94
290.217	86.94
290.448	97.94
290.679	82.94
290.91	77.94
291.141	87.94
291.371	80.94
291.602	79.94
291.833	77.94
292.064	86.94
292.295	90.94
292.526	91.94
292.757	91.94
292.987	71.94
293.218	84.94
293.449	94.94
293.68	63.94
293.91	85.94
294.141	83.94
294.372	81.94
294.603	89.94
294.833	96.94
295.064	94.94
295.295	81.94
295.525	99.94
295.756	100.94
295.987	118.94
296.217	119.94
296.448	118.94
296.679	103.94
296.909	90.94
297.14	95.94
297.37	85.94
297.601	80.94
297.831	88.94
298.062	96.94
298.292	87.94
298.523	92.94
298.753	90.94
298.984	93.94
299.214	64.94
299.445	102.94
299.675	100.94
299.905	88.94
300.136	100.94
300.366	96.94
300.597	88.94
300.827	83.94
301.057	97.94
301.288	91.94
301.518	99.94
301.748	94.94
301.979	102.94
302.209	106.94
302.439	91.94
302.669	97.94
302.9	86.94
303.13	95.94
303.36	88.94
303.59	97.94
303.82	107.94
304.051	97.94
304.281	87.94
304.511	91.94
304.741	96.94
304.971	89.94
305.201	96.94
305.431	92.94
305.661	88.94
305.891	84.94
306.121	102.94
306.352	95.94
306.582	111.94
306.812	103.94
307.042	100.94
307.272	103.94
307.502	105.94
307.731	125.94
307.961	93.94
308.191	95.94
308.421	81.94
308.651	102.94
308.881	101.94
309.111	85.94
309.341	86.94
309.571	99.94
309.8	84.94
310.03	93.94
310.26	93.94
310.49	109.94
310.72	94.94
310.949	103.94
311.179	100.94
311.409	106.94
311.639	91.94
311.868	74.94
312.098	94.94
312.328	106.94
312.557	94.94
312.787	102.94
313.017	96.94
313.246	93.94
313.476	83.94
313.706	92.94
313.935	93.94
314.165	101.94
314.394	102.94
314.624	108.94
314.853	109.94
315.083	95.94
315.312	86.94
315.542	94.94
315.771	83.94
316.001	106.94
316.23	85.94
316.46	84.94
316.689	87.94
316.919	79.94
317.148	101.94
317.377	87.94
317.607	87.94
317.836	84.94
318.065	103.94
318.295	104.94
318.524	95.94
318.753	100.94
318.983	112.94
319.212	95.94
319.441	93.94
319.67	103.94
319.9	94.94
320.129	96.94
320.358	99.94
320.587	90.94
320.816	75.94
321.046	99.94
321.275	104.94
321.504	97.94
321.733	97.94
321.962	103.94
322.191	92.94
322.42	94.94
322.649	109.94
322.878	114.94
323.108	119.94
323.337	118.94
323.566	119.94
323.795	142.94
324.024	178.94
324.253	370.94
324.482	757.94
324.71	1596.94
324.939	2175.94
325.168	774.94
325.397	242.94
325.626	142.94
325.855	123.94
326.084	134.94
326.313	123.94
326.542	152.94
326.77	222.94
326.999	441.94
327.228	852.94
327.457	1618.94
327.686	1312.94
327.914	396.94
328.143	256.94
328.372	258.94
328.6	166.94
328.829	140.94
329.058	139.94
329.287	123.94
329.515	112.94
329.744	140.94
329.972	214.94
330.201	310.94
330.43	413.94
330.658	222.94
330.887	162.94
331.115	131.94
331.344	104.94
331.572	109.94
331.801	103.94
332.03	109.94
332.258	97.94
332.486	89.94
332.715	99.94
332.943	92.94
333.172	112.94
333.4	107.94
333.629	109.94
333.857	142.94
334.085	175.94
334.314	292.94
334.542	528.94
334.771	477.94
334.999	162.94
335.227	118.94
335.455	90.94
335.684	103.94
335.912	109.94
336.14	96.94
336.369	102.94
336.597	107.94
336.825	90.94
337.053	99.94
337.281	82.94
337.51	88.94
337.738	91.94
337.966	96.94
338.194	100.94
338.422	91.94
338.65	73.94
338.878	80.94
339.106	87.94
339.334	109.94
339.562	115.94
339.79	102.94
340.018	93.94
340.246	100.94
340.474	101.94
340.702	82.94
340.93	85.94
341.158	88.94
341.386	90.94
341.614	93.94
341.842	99.94
342.07	94.94
342.298	91.94
342.526	108.94
342.754	103.94
342.981	92.94
343.209	81.94
343.437	94.94
343.665	96.94
343.893	85.94
344.12	91.94
344.348	93.94
344.576	84.94
344.804	88.94
345.031	86.94
345.259	90.94
345.487	84.94
345.714	86.94
345.942	79.94
346.17	78.94
346.397	83.94
346.625	94.94
346.853	88.94
347.08	83.94
347.308	86.94
347.535	106.94
347.763	98.94
347.99	94.94
348.218	90.94
348.445	108.94
348.673	98.94
348.9	91.94
349.128	106.94
349.355	82.94
349.583	87.94
349.81	104.94
350.037	98.94
350.265	105.94
350.492	93.94
350.72	91.94
350.947	92.94
351.174	108.94
351.402	106.94
351.629	100.94
351.856	98.94
352.083	97.94
352.311	99.94
352.538	102.94
352.765	97.94
352.992	117.94
353.22	97.94
353.447	94.94
353.674	107.94
353.901	100.94
354.128	100.94
354.355	94.94
354.583	96.94
354.81	101.94
355.037	92.94
355.264	101.94
355.491	92.94
355.718	86.94
355.945	92.94
356.172	91.94
356.399	105.94
356.626	100.94
356.853	98.94
357.08	94.94
357.307	95.94
357.534	93.94
357.761	93.94
357.988	90.94
358.215	95.94
358.441	93.94
358.668	83.94
358.895	101.94
359.122	85.94
359.349	86.94
359.576	91.94
359.802	88.94
360.029	120.94
360.256	114.94
360.483	99.94
360.709	93.94
360.936	91.94
361.163	94.94
361.39	86.94
361.616	98.94
361.843	87.94
362.07	86.94
362.296	98.94
362.523	78.94
362.749	88.94
362.976	74.94
363.203	99.94
363.429	96.94
363.656	90.94
363.882	91.94
364.109	87.94
364.335	93.94
364.562	82.94
364.788	76.94
365.015	103.94
365.241	98.94
365.468	106.94
365.694	110.94
365.92	102.94
366.147	79.94
366.373	74.94
366.599	84.94
366.826	92.94
367.052	93.94
367.278	93.94
367.505	81.94
367.731	88.94
367.957	99.94
368.184	107.94
368.41	106.94
368.636	103.94
368.862	112.94
369.089	99.94
369.315	80.94
369.541	80.94
369.767	88.94
369.993	89.94
370.219	97.94
370.445	93.94
370.672	93.94
370.898	92.94
371.124	88.94
371.35	86.94
371.576	82.94
371.802	97.94
372.028	81.94
372.254	93.94
372.48	97.94
372.706	95.94
372.932	88.94
373.158	100.94
373.384	64.94
373.61	93.94
373.835	85.94
374.061	94.94
374.287	86.94
374.513	78.94
374.739	75.94
374.965	92.94
375.191	102.94
375.416	92.94
375.642	94.94
375.868	96.94
376.094	99.94
376.319	84.94
376.545	83.94
376.771	99.94
376.997	98.94
377.222	104.94
377.448	92.94
377.674	82.94
377.899	94.94
378.125	83.94
378.35	95.94
378.576	79.94
378.802	84.94
379.027	93.94
379.253	81.94
379.478	90.94
379.704	94.94
379.929	99.94
380.155	84.94
380.38	93.94
380.606	99.94
380.831	76.94
381.057	104.94
381.282	102.94
381.507	99.94
381.733	91.94
381.958	99.94
382.184	100.94
382.409	95.94
382.634	97.94
382.86	89.94
383.085	79.94
383.31	117.94
383.535	100.94
383.761	88.94
383.986	92.94
384.211	95.94
384.436	99.94
384.662	103.94
384.887	107.94
385.112	95.94
385.337	103.94
385.562	103.94
385.787	104.94
386.013	124.94
386.238	108.94
386.463	102.94
386.688	110.94
386.913	97.94
387.138	104.94
387.363	102.94
387.588	98.94
387.813	95.94
388.038	111.94
388.263	107.94
388.488	111.94
388.713	103.94
388.938	94.94
389.163	99.94
389.387	87.94
389.612	99.94
389.837	98.94
390.062	94.94
390.287	83.94
390.512	100.94
390.736	96.94
390.961	96.94
391.186	78.94
391.411	80.94
391.636	79.94
391.86	86.94
392.085	78.94
392.31	85.94
392.534	84.94
392.759	91.94
392.984	96.94
393.208	108.94
393.433	145.94
393.658	131.94
393.882	94.94
394.107	89.94
394.331	93.94
394.556	86.94
394.78	92.94
395.005	88.94
395.229	85.94
395.454	100.94
395.678	88.94
395.903	94.94
396.127	95.94
396.352	75.94
396.576	94.94
396.801	102.94
397.025	106.94
397.249	92.94
397.474	85.94
397.698	96.94
397.922	83.94
398.147	94.94
398.371	83.94
398.595	99.94
398.82	97.94
399.044	90.94
399.268	85.94
399.492	80.94
399.717	88.94
399.941	98.94
400.165	92.94
400.389	100.94
400.613	83.94
400.837	95.94
401.062	95.94
401.286	92.94
401.51	93.94
401.734	97.94
401.958	98.94
402.182	123.94
402.406	140.94
402.63	116.94
402.854	91.94
403.078	97.94
403.302	80.94
403.526	94.94
403.75	95.94
403.974	98.94
404.198	94.94
404.422	98.94
404.645	83.94
404.869	89.94
405.093	100.94
405.317	113.94
405.541	91.94
405.765	89.94
405.988	117.94
406.212	169.94
406.436	212.94
406.66	145.94
406.883	95.94
407.107	101.94
407.331	72.94
407.555	104.94
407.778	84.94
408.002	103.94
408.226	90.94
408.449	84.94
408.673	86.94
408.896	79.94
409.12	81.94
409.344	86.94
409.567	84.94
409.791	87.94
410.014	100.94
410.238	93.94
410.461	90.94
410.685	90.94
410.908	83.94
411.132	108.94
411.355	104.94
411.578	80.94
411.802	97.94
412.025	103.94
412.249	87.94
412.472	81.94
412.695	100.94
412.919	85.94
413.142	97.94
413.365	90.94
413.589	94.94
413.812	95.94
414.035	83.94
414.258	86.94
414.482	80.94
414.705	87.94
414.928	86.94
415.151	83.94
415.374	98.94
415.597	91.94
415.821	104.94
416.044	85.94
416.267	83.94
416.49	97.94
416.713	93.94
416.936	91.94
417.159	96.94
417.382	92.94
417.605	82.94
417.828	96.94
418.051	87.94
418.274	86.94
418.497	85.94
418.72	87.94
418.943	102.94
419.166	82.94
419.389	89.94
419.611	86.94
419.834	85.94
420.057	96.94
420.28	86.94
420.503	90.94
420.726	95.94
420.948	95.94
421.171	91.94
421.394	101.94
421.617	96.94
421.839	89.94
422.062	89.94
422.285	82.94
422.507	93.94
422.73	105.94
422.953	88.94
423.175	86.94
423.398	92.94
423.621	88.94
423.843	82.94
424.066	87.94
424.288	84.94
424.511	90.94
424.733	88.94
424.956	110.94
425.178	100.94
425.401	93.94
425.623	92.94
425.846	82.94
426.068	87.94
426.291	80.94
426.513	76.94
426.735	77.94
426.958	93.94
427.18	103.94
427.402	141.94
427.625	166.94
427.847	157.94
428.069	150.94
428.292	108.94
428.514	98.94
428.736	92.94
428.958	95.94
429.181	88.94
429.403	75.94
429.625	92.94
429.847	93.94
430.069	107.94
430.292	86.94
430.514	90.94
430.736	81.94
430.958	88.94
431.18	85.94
431.402	78.94
431.624	97.94
431.846	78.94
432.068	87.94
432.29	86.94
432.512	84.94
432.734	92.94
432.956	107.94
433.178	101.94
433.4	98.94
433.622	79.94
433.844	88.94
434.066	97.94
434.287	84.94
434.509	109.94
434.731	98.94
434.953	97.94
435.175	105.94
435.397	93.94
435.618	94.94
435.84	99.94
436.062	118.94
436.284	108.94
436.505	89.94
436.727	98.94
436.949	85.94
437.17	72.94
437.392	84.94
437.614	94.94
437.835	104.94
438.057	124.94
438.278	101.94
438.5	98.94
438.721	102.94
438.943	97.94
439.165	98.94
439.386	91.94
439.608	99.94
439.829	82.94
440.05	122.94
440.272	138.94
440.493	85.94
440.715	89.94
440.936	85.94
441.158	95.94
441.379	95.94
441.6	97.94
441.822	90.94
442.043	100.94
442.264	103.94
442.486	90.94
442.707	90.94
442.928	111.94
443.149	124.94
443.371	138.94
443.592	107.94
443.813	92.94
444.034	79.94
444.255	86.94
444.476	82.94
444.698	82.94
444.919	93.94
445.14	119.94
445.361	128.94
445.582	116.94
445.803	123.94
446.024	113.94
446.245	130.94
446.466	111.94
446.687	86.94
446.908	73.94
447.129	92.94
447.35	88.94
447.571	78.94
447.792	83.94
448.013	94.94
448.234	101.94
448.455	99.94
448.675	107.94
448.896	110.94
449.117	104.94
449.338	93.94
449.559	115.94
449.779	127.94
450	99.94
450.221	93.94
450.442	94.94
450.662	91.94
450.883	106.94
451.104	110.94
451.324	87.94
451.545	85.94
451.766	80.94
451.986	79.94
452.207	98.94
452.428	94.94
452.648	94.94
452.869	107.94
453.089	100.94
453.31	99.94
453.53	79.94
453.751	90.94
453.971	101.94
454.192	114.94
454.412	81.94
454.633	107.94
454.853	74.94
455.073	86.94
455.294	85.94
455.514	94.94
455.734	97.94
455.955	78.94
456.175	79.94
456.395	82.94
456.616	91.94
456.836	92.94
457.056	98.94
457.276	84.94
457.497	76.94
457.717	102.94
457.937	82.94
458.157	81.94
458.377	85.94
458.598	101.94
458.818	142.94
459.038	140.94
459.258	100.94
459.478	97.94
459.698	82.94
459.918	83.94
460.138	90.94
460.358	86.94
460.578	88.94
460.798	86.94
461.018	79.94
461.238	95.94
461.458	82.94
461.678	90.94
461.898	79.94
462.118	83.94
462.338	80.94
462.558	81.94
462.777	86.94
462.997	72.94
463.217	96.94
463.437	85.94
463.657	68.94
463.876	79.94
464.096	98.94
464.316	100.94
464.536	95.94
464.755	97.94
464.975	105.94
465.195	159.94
465.414	139.94
465.634	94.94
465.854	90.94
466.073	91.94
466.293	83.94
466.512	74.94
466.732	74.94
466.951	92.94
467.171	97.94
467.391	93.94
467.61	109.94
467.829	110.94
468.049	219.94
468.268	281.94
468.488	114.94
468.707	91.94
468.927	78.94
469.146	89.94
469.365	98.94
469.585	82.94
469.804	81.94
470.023	93.94
470.243	88.94
470.462	99.94
470.681	103.94
470.901	80.94
471.12	95.94
471.339	102.94
471.558	98.94
471.777	103.94
471.997	141.94
472.216	354.94
472.435	775.94
472.654	214.94
472.873	106.94
473.092	103.94
473.311	98.94
473.53	74.94
473.749	88.94
473.968	90.94
474.187	105.94
474.406	86.94
474.625	84.94
474.844	76.94
475.063	84.94
475.282	89.94
475.501	79.94
475.72	89.94
475.939	94.94
476.158	87.94
476.377	83.94
476.596	88.94
476.814	85.94
477.033	84.94
477.252	89.94
477.471	85.94
477.69	86.94
477.908	88.94
478.127	82.94
478.346	87.94
478.564	83.94
478.783	112.94
479.002	93.94
479.22	109.94
479.439	104.94
479.658	113.94
479.876	96.94
480.095	93.94
480.313	89.94
480.532	115.94
480.751	147.94
480.969	373.94
481.188	1298.94
481.406	771.94
481.624	179.94
481.843	110.94
482.061	88.94
482.28	95.94
482.498	86.94
482.717	86.94
482.935	82.94
483.153	72.94
483.372	79.94
483.59	92.94
483.808	87.94
484.027	84.94
484.245	91.94
484.463	90.94
484.681	86.94
484.9	92.94
485.118	97.94
485.336	110.94
485.554	108.94
485.772	89.94
485.99	108.94
486.209	112.94
486.427	112.94
486.645	100.94
486.863	109.94
487.081	100.94
487.299	97.94
487.517	96.94
487.735	85.94
487.953	94.94
488.171	92.94
488.389	107.94
488.607	100.94
488.825	81.94
489.043	88.94
489.261	96.94
489.479	98.94
489.696	93.94
489.914	92.94
490.132	87.94
490.35	95.94
490.568	86.94
490.786	96.94
491.003	94.94
491.221	95.94
491.439	94.94
491.657	103.94
491.874	79.94
492.092	100.94
492.31	90.94
492.527	88.94
492.745	92.94
492.963	104.94
493.18	94.94
493.398	98.94
493.615	94.94
493.833	86.94
494.05	85.94
494.268	88.94
494.485	93.94
494.703	90.94
494.92	81.94
495.138	109.94
495.355	99.94
495.573	86.94
495.79	85.94
496.008	79.94
496.225	98.94
496.442	85.94
496.66	91.94
496.877	96.94
497.094	93.94
497.312	76.94
497.529	96.94
497.746	98.94
497.963	102.94
498.181	81.94
498.398	98.94
498.615	109.94
498.832	101.94
499.049	86.94
499.267	86.94
499.484	86.94
499.701	82.94
499.918	78.94
500.135	102.94
500.352	91.94
500.569	85.94
500.786	81.94
501.003	84.94
501.22	92.94
501.437	79.94
501.654	95.94
501.871	84.94
502.088	80.94
502.305	99.94
502.522	92.94
502.739	80.94
502.956	87.94
503.172	99.94
503.389	83.94
503.606	107.94
503.823	106.94
504.04	83.94
504.256	77.94
504.473	94.94
504.69	104.94
504.907	81.94
505.123	98.94
505.34	91.94
505.557	95.94
505.773	89.94
505.99	72.94
506.207	94.94
506.423	97.94
506.64	93.94
506.856	78.94
507.073	84.94
507.289	81.94
507.506	87.94
507.722	93.94
507.939	103.94
508.155	92.94
508.372	107.94
508.588	104.94
508.805	96.94
509.021	110.94
509.238	99.94
509.454	94.94
509.67	110.94
509.887	111.94
510.103	115.94
510.319	199.94
510.536	697.94
510.752	2360.94
510.968	631.94
511.184	142.94
511.401	87.94
511.617	115.94
511.833	109.94
512.049	91.94
512.265	102.94
512.481	94.94
512.698	88.94
512.914	86.94
513.13	99.94
513.346	91.94
513.562	78.94
513.778	85.94
513.994	101.94
514.21	109.94
514.426	118.94
514.642	131.94
514.858	142.94
515.074	151.94
515.29	418.94
515.506	1394.94
