Data from Circ_1991_H10_HRD10591_00026.txt Node
Date: Wed Jan 03 11:51:46 EST 2024
User: Yrep
Spectrometer: HR+D1059
Trigger mode: 1
Integration Time (sec): 1.000000E-1
Scans to average: 1
Electric dark correction enabled: true
Nonlinearity correction enabled: false
Boxcar width: 0
XAxis mode: Wavelengths
Number of Pixels in Spectrum: 2048
>>>>>Begin Spectral Data<<<<<
223.165	-20.19
223.4	-20.19
223.635	-20.19
223.869	-25.19
224.104	-15.19
224.338	-26.19
224.573	-12.19
224.808	-6.19
225.042	-6.19
225.277	-7.19
225.511	8.81
225.746	12.81
225.98	-6.19
226.215	3.81
226.449	27.81
226.683	21.81
226.918	12.81
227.152	36.81
227.387	32.81
227.621	36.81
227.856	38.81
228.09	39.81
228.324	43.81
228.559	55.81
228.793	58.81
229.027	61.81
229.262	82.81
229.496	60.81
229.73	82.81
229.964	79.81
230.199	65.81
230.433	82.81
230.667	76.81
230.901	74.81
231.136	81.81
231.37	70.81
231.604	59.81
231.838	88.81
232.072	78.81
232.306	88.81
232.541	88.81
232.775	77.81
233.009	82.81
233.243	74.81
233.477	88.81
233.711	76.81
233.945	67.81
234.179	74.81
234.413	76.81
234.647	75.81
234.881	83.81
235.115	81.81
235.349	88.81
235.583	58.81
235.817	68.81
236.051	73.81
236.285	66.81
236.519	75.81
236.753	82.81
236.987	75.81
237.221	87.81
237.455	83.81
237.689	70.81
237.922	85.81
238.156	83.81
238.39	74.81
238.624	75.81
238.858	68.81
239.091	69.81
239.325	84.81
239.559	82.81
239.793	74.81
240.027	65.81
240.26	83.81
240.494	76.81
240.728	74.81
240.961	81.81
241.195	71.81
241.429	82.81
241.662	69.81
241.896	74.81
242.13	79.81
242.363	73.81
242.597	73.81
242.83	75.81
243.064	73.81
243.298	67.81
243.531	74.81
243.765	76.81
243.998	67.81
244.232	78.81
244.465	79.81
244.699	90.81
244.932	90.81
245.166	87.81
245.399	82.81
245.633	85.81
245.866	93.81
246.099	83.81
246.333	93.81
246.566	64.81
246.8	77.81
247.033	84.81
247.266	62.81
247.5	72.81
247.733	64.81
247.966	79.81
248.2	81.81
248.433	70.81
248.666	69.81
248.899	76.81
249.133	97.81
249.366	91.81
249.599	94.81
249.832	93.81
250.066	89.81
250.299	69.81
250.532	95.81
250.765	104.81
250.998	58.81
251.231	83.81
251.465	96.81
251.698	77.81
251.931	73.81
252.164	97.81
252.397	73.81
252.63	79.81
252.863	73.81
253.096	83.81
253.329	80.81
253.562	91.81
253.795	76.81
254.028	89.81
254.261	85.81
254.494	84.81
254.727	77.81
254.96	63.81
255.193	67.81
255.426	70.81
255.659	84.81
255.892	90.81
256.124	90.81
256.357	90.81
256.59	67.81
256.823	87.81
257.056	65.81
257.289	92.81
257.521	77.81
257.754	101.81
257.987	69.81
258.22	73.81
258.452	86.81
258.685	67.81
258.918	78.81
259.151	86.81
259.383	79.81
259.616	86.81
259.849	69.81
260.081	90.81
260.314	78.81
260.547	82.81
260.779	82.81
261.012	85.81
261.244	72.81
261.477	78.81
261.71	84.81
261.942	103.81
262.175	118.81
262.407	87.81
262.64	79.81
262.872	78.81
263.105	76.81
263.337	83.81
263.57	76.81
263.802	69.81
264.035	67.81
264.267	75.81
264.499	80.81
264.732	93.81
264.964	80.81
265.197	83.81
265.429	73.81
265.661	86.81
265.894	78.81
266.126	88.81
266.358	75.81
266.591	88.81
266.823	74.81
267.055	84.81
267.287	73.81
267.52	70.81
267.752	80.81
267.984	80.81
268.216	85.81
268.448	68.81
268.681	88.81
268.913	87.81
269.145	89.81
269.377	78.81
269.609	81.81
269.841	89.81
270.073	90.81
270.306	78.81
270.538	78.81
270.77	71.81
271.002	75.81
271.234	77.81
271.466	85.81
271.698	78.81
271.93	77.81
272.162	75.81
272.394	76.81
272.626	83.81
272.858	81.81
273.09	85.81
273.322	75.81
273.553	75.81
273.785	91.81
274.017	83.81
274.249	71.81
274.481	78.81
274.713	85.81
274.945	75.81
275.176	100.81
275.408	78.81
275.64	75.81
275.872	96.81
276.104	99.81
276.335	78.81
276.567	105.81
276.799	123.81
277.031	102.81
277.262	107.81
277.494	94.81
277.726	88.81
277.957	74.81
278.189	82.81
278.421	89.81
278.652	83.81
278.884	93.81
279.115	86.81
279.347	85.81
279.579	69.81
279.81	89.81
280.042	110.81
280.273	115.81
280.505	98.81
280.736	78.81
280.968	83.81
281.199	83.81
281.431	74.81
281.662	79.81
281.894	79.81
282.125	109.81
282.356	101.81
282.588	133.81
282.819	112.81
283.051	84.81
283.282	68.81
283.513	85.81
283.745	107.81
283.976	88.81
284.207	90.81
284.439	86.81
284.67	85.81
284.901	79.81
285.132	80.81
285.364	81.81
285.595	78.81
285.826	92.81
286.057	86.81
286.288	96.81
286.52	84.81
286.751	74.81
286.982	82.81
287.213	77.81
287.444	86.81
287.675	89.81
287.906	87.81
288.138	69.81
288.369	85.81
288.6	79.81
288.831	97.81
289.062	82.81
289.293	99.81
289.524	73.81
289.755	89.81
289.986	92.81
290.217	92.81
290.448	80.81
290.679	93.81
290.91	105.81
291.141	90.81
291.371	84.81
291.602	90.81
291.833	85.81
292.064	98.81
292.295	86.81
292.526	83.81
292.757	86.81
292.987	85.81
293.218	79.81
293.449	93.81
293.68	88.81
293.91	94.81
294.141	84.81
294.372	84.81
294.603	84.81
294.833	83.81
295.064	98.81
295.295	91.81
295.525	86.81
295.756	92.81
295.987	98.81
296.217	137.81
296.448	118.81
296.679	98.81
296.909	80.81
297.14	82.81
297.37	85.81
297.601	92.81
297.831	89.81
298.062	83.81
298.292	86.81
298.523	97.81
298.753	88.81
298.984	104.81
299.214	98.81
299.445	79.81
299.675	88.81
299.905	91.81
300.136	65.81
300.366	92.81
300.597	104.81
300.827	84.81
301.057	93.81
301.288	99.81
301.518	102.81
301.748	92.81
301.979	102.81
302.209	76.81
302.439	89.81
302.669	98.81
302.9	97.81
303.13	97.81
303.36	81.81
303.59	101.81
303.82	101.81
304.051	99.81
304.281	98.81
304.511	92.81
304.741	92.81
304.971	86.81
305.201	77.81
305.431	84.81
305.661	84.81
305.891	93.81
306.121	78.81
306.352	93.81
306.582	127.81
306.812	103.81
307.042	104.81
307.272	125.81
307.502	106.81
307.731	93.81
307.961	115.81
308.191	88.81
308.421	82.81
308.651	92.81
308.881	112.81
309.111	99.81
309.341	103.81
309.571	102.81
309.8	86.81
310.03	92.81
310.26	101.81
310.49	88.81
310.72	93.81
310.949	104.81
311.179	107.81
311.409	92.81
311.639	93.81
311.868	104.81
312.098	94.81
312.328	90.81
312.557	114.81
312.787	111.81
313.017	96.81
313.246	111.81
313.476	89.81
313.706	96.81
313.935	99.81
314.165	88.81
314.394	89.81
314.624	98.81
314.853	109.81
315.083	97.81
315.312	80.81
315.542	73.81
315.771	82.81
316.001	84.81
316.23	89.81
316.46	87.81
316.689	99.81
316.919	88.81
317.148	99.81
317.377	95.81
317.607	92.81
317.836	81.81
318.065	92.81
318.295	88.81
318.524	81.81
318.753	95.81
318.983	99.81
319.212	90.81
319.441	106.81
319.67	110.81
319.9	84.81
320.129	89.81
320.358	101.81
320.587	84.81
320.816	98.81
321.046	98.81
321.275	91.81
321.504	85.81
321.733	89.81
321.962	92.81
322.191	101.81
322.42	116.81
322.649	108.81
322.878	107.81
323.108	110.81
323.337	126.81
323.566	128.81
323.795	154.81
324.024	214.81
324.253	401.81
324.482	877.81
324.71	1794.81
324.939	2507.81
325.168	874.81
325.397	262.81
325.626	156.81
325.855	128.81
326.084	110.81
326.313	124.81
326.542	125.81
326.77	220.81
326.999	474.81
327.228	1008.81
327.457	1900.81
327.686	1510.81
327.914	410.81
328.143	250.81
328.372	257.81
328.6	183.81
328.829	144.81
329.058	144.81
329.287	150.81
329.515	117.81
329.744	131.81
329.972	176.81
330.201	309.81
330.43	411.81
330.658	236.81
330.887	165.81
331.115	148.81
331.344	85.81
331.572	95.81
331.801	117.81
332.03	102.81
332.258	95.81
332.486	89.81
332.715	99.81
332.943	101.81
333.172	98.81
333.4	110.81
333.629	121.81
333.857	130.81
334.085	181.81
334.314	275.81
334.542	496.81
334.771	481.81
334.999	178.81
335.227	102.81
335.455	98.81
335.684	105.81
335.912	105.81
336.14	96.81
336.369	103.81
336.597	99.81
336.825	95.81
337.053	96.81
337.281	87.81
337.51	95.81
337.738	81.81
337.966	101.81
338.194	96.81
338.422	95.81
338.65	97.81
338.878	85.81
339.106	87.81
339.334	78.81
339.562	80.81
339.79	95.81
340.018	88.81
340.246	93.81
340.474	82.81
340.702	92.81
340.93	92.81
341.158	92.81
341.386	89.81
341.614	88.81
341.842	97.81
342.07	99.81
342.298	98.81
342.526	82.81
342.754	92.81
342.981	77.81
343.209	83.81
343.437	93.81
343.665	75.81
343.893	86.81
344.12	91.81
344.348	92.81
344.576	80.81
344.804	107.81
345.031	105.81
345.259	93.81
345.487	89.81
345.714	86.81
345.942	82.81
346.17	82.81
346.397	87.81
346.625	94.81
346.853	106.81
347.08	85.81
347.308	107.81
347.535	100.81
347.763	95.81
347.99	101.81
348.218	97.81
348.445	102.81
348.673	109.81
348.9	97.81
349.128	95.81
349.355	86.81
349.583	89.81
349.81	95.81
350.037	96.81
350.265	79.81
350.492	89.81
350.72	99.81
350.947	106.81
351.174	99.81
351.402	105.81
351.629	97.81
351.856	102.81
352.083	85.81
352.311	107.81
352.538	105.81
352.765	105.81
352.992	112.81
353.22	100.81
353.447	111.81
353.674	86.81
353.901	98.81
354.128	103.81
354.355	101.81
354.583	98.81
354.81	108.81
355.037	97.81
355.264	75.81
355.491	81.81
355.718	76.81
355.945	90.81
356.172	101.81
356.399	88.81
356.626	97.81
356.853	93.81
357.08	94.81
357.307	86.81
357.534	99.81
357.761	94.81
357.988	105.81
358.215	89.81
358.441	102.81
358.668	92.81
358.895	95.81
359.122	84.81
359.349	96.81
359.576	81.81
359.802	104.81
360.029	114.81
360.256	117.81
360.483	99.81
360.709	94.81
360.936	102.81
361.163	91.81
361.39	100.81
361.616	99.81
361.843	82.81
362.07	99.81
362.296	113.81
362.523	82.81
362.749	96.81
362.976	76.81
363.203	83.81
363.429	89.81
363.656	109.81
363.882	96.81
364.109	107.81
364.335	96.81
364.562	102.81
364.788	80.81
365.015	100.81
365.241	99.81
365.468	90.81
365.694	80.81
365.92	87.81
366.147	92.81
366.373	86.81
366.599	102.81
366.826	80.81
367.052	90.81
367.278	94.81
367.505	84.81
367.731	96.81
367.957	96.81
368.184	91.81
368.41	106.81
368.636	103.81
368.862	117.81
369.089	100.81
369.315	89.81
369.541	78.81
369.767	91.81
369.993	86.81
370.219	81.81
370.445	80.81
370.672	80.81
370.898	85.81
371.124	88.81
371.35	93.81
371.576	87.81
371.802	82.81
372.028	99.81
372.254	86.81
372.48	76.81
372.706	94.81
372.932	80.81
373.158	78.81
373.384	90.81
373.61	93.81
373.835	89.81
374.061	72.81
374.287	85.81
374.513	81.81
374.739	83.81
374.965	88.81
375.191	85.81
375.416	94.81
375.642	102.81
375.868	100.81
376.094	82.81
376.319	96.81
376.545	91.81
376.771	91.81
376.997	83.81
377.222	94.81
377.448	92.81
377.674	100.81
377.899	97.81
378.125	95.81
378.35	106.81
378.576	89.81
378.802	94.81
379.027	88.81
379.253	84.81
379.478	100.81
379.704	89.81
379.929	109.81
380.155	99.81
380.38	109.81
380.606	98.81
380.831	108.81
381.057	98.81
381.282	113.81
381.507	86.81
381.733	93.81
381.958	110.81
382.184	104.81
382.409	109.81
382.634	104.81
382.86	101.81
383.085	114.81
383.31	84.81
383.535	102.81
383.761	106.81
383.986	97.81
384.211	94.81
384.436	88.81
384.662	107.81
384.887	100.81
385.112	98.81
385.337	109.81
385.562	110.81
385.787	108.81
386.013	121.81
386.238	109.81
386.463	113.81
386.688	114.81
386.913	98.81
387.138	112.81
387.363	107.81
387.588	96.81
387.813	115.81
388.038	114.81
388.263	110.81
388.488	115.81
388.713	97.81
388.938	81.81
389.163	91.81
389.387	88.81
389.612	80.81
389.837	96.81
390.062	90.81
390.287	89.81
390.512	78.81
390.736	99.81
390.961	91.81
391.186	77.81
391.411	100.81
391.636	96.81
391.86	82.81
392.085	93.81
392.31	84.81
392.534	91.81
392.759	75.81
392.984	96.81
393.208	114.81
393.433	167.81
393.658	124.81
393.882	74.81
394.107	89.81
394.331	77.81
394.556	86.81
394.78	89.81
395.005	77.81
395.229	90.81
395.454	85.81
395.678	89.81
395.903	90.81
396.127	89.81
396.352	88.81
396.576	106.81
396.801	108.81
397.025	130.81
397.249	89.81
397.474	95.81
397.698	81.81
397.922	89.81
398.147	79.81
398.371	90.81
398.595	83.81
398.82	77.81
399.044	76.81
399.268	75.81
399.492	94.81
399.717	80.81
399.941	94.81
400.165	101.81
400.389	98.81
400.613	89.81
400.837	90.81
401.062	95.81
401.286	83.81
401.51	92.81
401.734	95.81
401.958	114.81
402.182	110.81
402.406	148.81
402.63	107.81
402.854	92.81
403.078	86.81
403.302	84.81
403.526	91.81
403.75	82.81
403.974	85.81
404.198	89.81
404.422	90.81
404.645	95.81
404.869	88.81
405.093	96.81
405.317	120.81
405.541	111.81
405.765	103.81
405.988	114.81
406.212	167.81
406.436	215.81
406.66	134.81
406.883	87.81
407.107	79.81
407.331	91.81
407.555	100.81
407.778	89.81
408.002	82.81
408.226	93.81
408.449	80.81
408.673	94.81
408.896	94.81
409.12	95.81
409.344	99.81
409.567	91.81
409.791	69.81
410.014	99.81
410.238	90.81
410.461	96.81
410.685	91.81
410.908	102.81
411.132	98.81
411.355	96.81
411.578	78.81
411.802	93.81
412.025	91.81
412.249	84.81
412.472	99.81
412.695	98.81
412.919	105.81
413.142	107.81
413.365	82.81
413.589	87.81
413.812	80.81
414.035	88.81
414.258	92.81
414.482	91.81
414.705	93.81
414.928	99.81
415.151	89.81
415.374	79.81
415.597	83.81
415.821	88.81
416.044	84.81
416.267	103.81
416.49	87.81
416.713	89.81
416.936	92.81
417.159	88.81
417.382	80.81
417.605	83.81
417.828	97.81
418.051	96.81
418.274	93.81
418.497	79.81
418.72	79.81
418.943	83.81
419.166	87.81
419.389	86.81
419.611	91.81
419.834	104.81
420.057	89.81
420.28	86.81
420.503	81.81
420.726	89.81
420.948	81.81
421.171	96.81
421.394	90.81
421.617	88.81
421.839	88.81
422.062	80.81
422.285	90.81
422.507	92.81
422.73	124.81
422.953	82.81
423.175	78.81
423.398	87.81
423.621	93.81
423.843	91.81
424.066	91.81
424.288	84.81
424.511	89.81
424.733	77.81
424.956	105.81
425.178	93.81
425.401	101.81
425.623	75.81
425.846	87.81
426.068	90.81
426.291	91.81
426.513	90.81
426.735	94.81
426.958	93.81
427.18	116.81
427.402	140.81
427.625	189.81
427.847	162.81
428.069	152.81
428.292	84.81
428.514	76.81
428.736	90.81
428.958	85.81
429.181	92.81
429.403	84.81
429.625	80.81
429.847	94.81
430.069	105.81
430.292	91.81
430.514	82.81
430.736	72.81
430.958	87.81
431.18	89.81
431.402	80.81
431.624	91.81
431.846	90.81
432.068	79.81
432.29	96.81
432.512	92.81
432.734	72.81
432.956	89.81
433.178	103.81
433.4	105.81
433.622	93.81
433.844	81.81
434.066	94.81
434.287	87.81
434.509	93.81
434.731	79.81
434.953	87.81
435.175	101.81
435.397	95.81
435.618	96.81
435.84	86.81
436.062	121.81
436.284	113.81
436.505	92.81
436.727	108.81
436.949	100.81
437.17	83.81
437.392	85.81
437.614	98.81
437.835	118.81
438.057	118.81
438.278	112.81
438.5	105.81
438.721	138.81
438.943	106.81
439.165	70.81
439.386	101.81
439.608	79.81
439.829	106.81
440.05	122.81
440.272	149.81
440.493	102.81
440.715	79.81
440.936	89.81
441.158	94.81
441.379	94.81
441.6	84.81
441.822	97.81
442.043	99.81
442.264	111.81
442.486	121.81
442.707	92.81
442.928	110.81
443.149	128.81
443.371	136.81
443.592	117.81
443.813	117.81
444.034	108.81
444.255	90.81
444.476	97.81
444.698	95.81
444.919	98.81
445.14	121.81
445.361	128.81
445.582	120.81
445.803	148.81
446.024	138.81
446.245	151.81
446.466	113.81
446.687	88.81
446.908	98.81
447.129	72.81
447.35	88.81
447.571	84.81
447.792	85.81
448.013	89.81
448.234	97.81
448.455	97.81
448.675	108.81
448.896	112.81
449.117	110.81
449.338	98.81
449.559	115.81
449.779	124.81
450	90.81
450.221	89.81
450.442	96.81
450.662	100.81
450.883	117.81
451.104	117.81
451.324	93.81
451.545	89.81
451.766	84.81
451.986	77.81
452.207	78.81
452.428	85.81
452.648	109.81
452.869	106.81
453.089	117.81
453.31	96.81
453.53	78.81
453.751	89.81
453.971	109.81
454.192	118.81
454.412	86.81
454.633	75.81
454.853	69.81
455.073	87.81
455.294	89.81
455.514	104.81
455.734	92.81
455.955	90.81
456.175	80.81
456.395	80.81
456.616	81.81
456.836	69.81
457.056	81.81
457.276	84.81
457.497	80.81
457.717	73.81
457.937	78.81
458.157	93.81
458.377	94.81
458.598	105.81
458.818	150.81
459.038	163.81
459.258	108.81
459.478	72.81
459.698	79.81
459.918	72.81
460.138	74.81
460.358	101.81
460.578	87.81
460.798	97.81
461.018	80.81
461.238	70.81
461.458	97.81
461.678	88.81
461.898	81.81
462.118	88.81
462.338	96.81
462.558	95.81
462.777	90.81
462.997	94.81
463.217	88.81
463.437	97.81
463.657	97.81
463.876	86.81
464.096	85.81
464.316	85.81
464.536	87.81
464.755	88.81
464.975	101.81
465.195	179.81
465.414	179.81
465.634	105.81
465.854	91.81
466.073	80.81
466.293	83.81
466.512	97.81
466.732	83.81
466.951	94.81
467.171	78.81
467.391	95.81
467.61	114.81
467.829	121.81
468.049	206.81
468.268	261.81
468.488	128.81
468.707	86.81
468.927	87.81
469.146	81.81
469.365	89.81
469.585	92.81
469.804	94.81
470.023	106.81
470.243	99.81
470.462	98.81
470.681	107.81
470.901	88.81
471.12	87.81
471.339	92.81
471.558	93.81
471.777	109.81
471.997	148.81
472.216	355.81
472.435	684.81
472.654	204.81
472.873	106.81
473.092	90.81
473.311	80.81
473.53	98.81
473.749	86.81
473.968	95.81
474.187	100.81
474.406	81.81
474.625	104.81
474.844	79.81
475.063	72.81
475.282	81.81
475.501	76.81
475.72	92.81
475.939	89.81
476.158	81.81
476.377	73.81
476.596	104.81
476.814	87.81
477.033	90.81
477.252	100.81
477.471	82.81
477.69	87.81
477.908	91.81
478.127	102.81
478.346	86.81
478.564	94.81
478.783	88.81
479.002	85.81
479.22	97.81
479.439	99.81
479.658	109.81
479.876	103.81
480.095	96.81
480.313	95.81
480.532	96.81
480.751	129.81
480.969	336.81
481.188	1184.81
481.406	715.81
481.624	148.81
481.843	90.81
482.061	72.81
482.28	99.81
482.498	82.81
482.717	95.81
482.935	77.81
483.153	73.81
483.372	90.81
483.59	96.81
483.808	76.81
484.027	81.81
484.245	92.81
484.463	87.81
484.681	85.81
484.9	83.81
485.118	89.81
485.336	112.81
485.554	86.81
485.772	110.81
485.99	100.81
486.209	101.81
486.427	98.81
486.645	105.81
486.863	113.81
487.081	97.81
487.299	97.81
487.517	94.81
487.735	112.81
487.953	87.81
488.171	93.81
488.389	94.81
488.607	92.81
488.825	82.81
489.043	82.81
489.261	93.81
489.479	85.81
489.696	85.81
489.914	89.81
490.132	85.81
490.35	86.81
490.568	97.81
490.786	78.81
491.003	85.81
491.221	81.81
491.439	96.81
491.657	96.81
491.874	95.81
492.092	87.81
492.31	71.81
492.527	85.81
492.745	94.81
492.963	89.81
493.18	90.81
493.398	89.81
493.615	95.81
493.833	89.81
494.05	83.81
494.268	90.81
494.485	86.81
494.703	105.81
494.92	82.81
495.138	80.81
495.355	88.81
495.573	95.81
495.79	86.81
496.008	91.81
496.225	89.81
496.442	108.81
496.66	83.81
496.877	103.81
497.094	84.81
497.312	90.81
497.529	86.81
497.746	87.81
497.963	91.81
498.181	85.81
498.398	96.81
498.615	114.81
498.832	115.81
499.049	85.81
499.267	93.81
499.484	89.81
499.701	96.81
499.918	74.81
500.135	101.81
500.352	85.81
500.569	93.81
500.786	92.81
501.003	92.81
501.22	83.81
501.437	91.81
501.654	87.81
501.871	104.81
502.088	92.81
502.305	88.81
502.522	84.81
502.739	99.81
502.956	95.81
503.172	94.81
503.389	90.81
503.606	99.81
503.823	111.81
504.04	88.81
504.256	92.81
504.473	92.81
504.69	95.81
504.907	89.81
505.123	99.81
505.34	81.81
505.557	94.81
505.773	82.81
505.99	85.81
506.207	84.81
506.423	96.81
506.64	93.81
506.856	93.81
507.073	110.81
507.289	99.81
507.506	93.81
507.722	111.81
507.939	113.81
508.155	88.81
508.372	84.81
508.588	94.81
508.805	94.81
509.021	102.81
509.238	105.81
509.454	89.81
509.67	92.81
509.887	100.81
510.103	121.81
510.319	195.81
510.536	659.81
510.752	2221.81
510.968	634.81
511.184	154.81
511.401	104.81
511.617	100.81
511.833	111.81
512.049	104.81
512.265	88.81
512.481	94.81
512.698	85.81
512.914	89.81
513.13	94.81
513.346	97.81
513.562	86.81
513.778	91.81
513.994	108.81
514.21	102.81
514.426	117.81
514.642	136.81
514.858	115.81
515.074	147.81
515.29	436.81
515.506	1455.81
