Data from Circ_1991_H10_HRD10591_00081.txt Node
Date: Wed Jan 03 11:51:57 EST 2024
User: Yrep
Spectrometer: HR+D1059
Trigger mode: 1
Integration Time (sec): 1.000000E-1
Scans to average: 1
Electric dark correction enabled: true
Nonlinearity correction enabled: false
Boxcar width: 0
XAxis mode: Wavelengths
Number of Pixels in Spectrum: 2048
>>>>>Begin Spectral Data<<<<<
223.165	-18.56
223.4	-18.56
223.635	-18.56
223.869	-29.56
224.104	-14.56
224.338	-23.56
224.573	-20.56
224.808	-5.56
225.042	-5.56
225.277	-5.56
225.511	-4.56
225.746	-1.56
225.98	12.44
226.215	9.44
226.449	8.44
226.683	24.44
226.918	28.44
227.152	46.44
227.387	41.44
227.621	34.44
227.856	54.44
228.09	42.44
228.324	44.44
228.559	72.44
228.793	60.44
229.027	49.44
229.262	75.44
229.496	81.44
229.73	75.44
229.964	91.44
230.199	73.44
230.433	88.44
230.667	73.44
230.901	80.44
231.136	79.44
231.37	73.44
231.604	73.44
231.838	71.44
232.072	72.44
232.306	87.44
232.541	89.44
232.775	80.44
233.009	71.44
233.243	79.44
233.477	72.44
233.711	93.44
233.945	87.44
234.179	59.44
234.413	85.44
234.647	71.44
234.881	80.44
235.115	87.44
235.349	85.44
235.583	64.44
235.817	77.44
236.051	71.44
236.285	82.44
236.519	83.44
236.753	66.44
236.987	84.44
237.221	96.44
237.455	77.44
237.689	73.44
237.922	82.44
238.156	77.44
238.39	82.44
238.624	77.44
238.858	70.44
239.091	88.44
239.325	68.44
239.559	75.44
239.793	83.44
240.027	79.44
240.26	85.44
240.494	77.44
240.728	72.44
240.961	71.44
241.195	75.44
241.429	81.44
241.662	77.44
241.896	86.44
242.13	73.44
242.363	67.44
242.597	71.44
242.83	71.44
243.064	73.44
243.298	86.44
243.531	75.44
243.765	77.44
243.998	65.44
244.232	90.44
244.465	93.44
244.699	93.44
244.932	73.44
245.166	71.44
245.399	87.44
245.633	85.44
245.866	74.44
246.099	84.44
246.333	90.44
246.566	80.44
246.8	86.44
247.033	78.44
247.266	87.44
247.5	75.44
247.733	71.44
247.966	83.44
248.2	83.44
248.433	66.44
248.666	71.44
248.899	90.44
249.133	85.44
249.366	97.44
249.599	102.44
249.832	82.44
250.066	102.44
250.299	87.44
250.532	89.44
250.765	79.44
250.998	81.44
251.231	92.44
251.465	78.44
251.698	94.44
251.931	76.44
252.164	88.44
252.397	86.44
252.63	69.44
252.863	79.44
253.096	88.44
253.329	85.44
253.562	83.44
253.795	88.44
254.028	87.44
254.261	91.44
254.494	90.44
254.727	74.44
254.96	87.44
255.193	84.44
255.426	80.44
255.659	87.44
255.892	94.44
256.124	84.44
256.357	81.44
256.59	82.44
256.823	85.44
257.056	81.44
257.289	83.44
257.521	86.44
257.754	81.44
257.987	73.44
258.22	83.44
258.452	105.44
258.685	73.44
258.918	81.44
259.151	89.44
259.383	98.44
259.616	91.44
259.849	72.44
260.081	91.44
260.314	94.44
260.547	83.44
260.779	93.44
261.012	98.44
261.244	100.44
261.477	96.44
261.71	92.44
261.942	113.44
262.175	105.44
262.407	93.44
262.64	87.44
262.872	90.44
263.105	85.44
263.337	84.44
263.57	89.44
263.802	77.44
264.035	78.44
264.267	76.44
264.499	81.44
264.732	73.44
264.964	74.44
265.197	88.44
265.429	75.44
265.661	92.44
265.894	92.44
266.126	95.44
266.358	78.44
266.591	90.44
266.823	80.44
267.055	79.44
267.287	79.44
267.52	86.44
267.752	81.44
267.984	98.44
268.216	86.44
268.448	91.44
268.681	77.44
268.913	98.44
269.145	79.44
269.377	90.44
269.609	90.44
269.841	95.44
270.073	84.44
270.306	87.44
270.538	91.44
270.77	103.44
271.002	99.44
271.234	86.44
271.466	90.44
271.698	75.44
271.93	67.44
272.162	86.44
272.394	96.44
272.626	92.44
272.858	88.44
273.09	80.44
273.322	95.44
273.553	81.44
273.785	86.44
274.017	90.44
274.249	103.44
274.481	95.44
274.713	86.44
274.945	90.44
275.176	92.44
275.408	102.44
275.64	87.44
275.872	94.44
276.104	86.44
276.335	86.44
276.567	106.44
276.799	103.44
277.031	123.44
277.262	120.44
277.494	99.44
277.726	99.44
277.957	82.44
278.189	89.44
278.421	85.44
278.652	91.44
278.884	105.44
279.115	85.44
279.347	96.44
279.579	100.44
279.81	100.44
280.042	121.44
280.273	127.44
280.505	97.44
280.736	85.44
280.968	97.44
281.199	85.44
281.431	89.44
281.662	93.44
281.894	81.44
282.125	104.44
282.356	116.44
282.588	147.44
282.819	133.44
283.051	96.44
283.282	93.44
283.513	88.44
283.745	96.44
283.976	97.44
284.207	89.44
284.439	93.44
284.67	100.44
284.901	79.44
285.132	92.44
285.364	93.44
285.595	92.44
285.826	79.44
286.057	85.44
286.288	99.44
286.52	83.44
286.751	99.44
286.982	85.44
287.213	82.44
287.444	93.44
287.675	96.44
287.906	99.44
288.138	87.44
288.369	97.44
288.6	86.44
288.831	83.44
289.062	90.44
289.293	93.44
289.524	88.44
289.755	88.44
289.986	108.44
290.217	97.44
290.448	89.44
290.679	89.44
290.91	91.44
291.141	87.44
291.371	103.44
291.602	93.44
291.833	92.44
292.064	102.44
292.295	87.44
292.526	75.44
292.757	86.44
292.987	77.44
293.218	90.44
293.449	91.44
293.68	103.44
293.91	96.44
294.141	86.44
294.372	73.44
294.603	84.44
294.833	89.44
295.064	105.44
295.295	93.44
295.525	95.44
295.756	105.44
295.987	123.44
296.217	137.44
296.448	128.44
296.679	83.44
296.909	95.44
297.14	72.44
297.37	93.44
297.601	88.44
297.831	101.44
298.062	94.44
298.292	104.44
298.523	83.44
298.753	88.44
298.984	95.44
299.214	93.44
299.445	106.44
299.675	107.44
299.905	92.44
300.136	98.44
300.366	87.44
300.597	81.44
300.827	94.44
301.057	93.44
301.288	104.44
301.518	88.44
301.748	90.44
301.979	93.44
302.209	108.44
302.439	90.44
302.669	91.44
302.9	95.44
303.13	92.44
303.36	93.44
303.59	104.44
303.82	105.44
304.051	102.44
304.281	95.44
304.511	85.44
304.741	90.44
304.971	110.44
305.201	91.44
305.431	101.44
305.661	93.44
305.891	98.44
306.121	102.44
306.352	93.44
306.582	104.44
306.812	95.44
307.042	104.44
307.272	115.44
307.502	109.44
307.731	122.44
307.961	113.44
308.191	101.44
308.421	90.44
308.651	75.44
308.881	88.44
309.111	92.44
309.341	100.44
309.571	106.44
309.8	96.44
310.03	98.44
310.26	86.44
310.49	95.44
310.72	98.44
310.949	113.44
311.179	105.44
311.409	88.44
311.639	98.44
311.868	104.44
312.098	93.44
312.328	99.44
312.557	90.44
312.787	106.44
313.017	107.44
313.246	90.44
313.476	102.44
313.706	91.44
313.935	114.44
314.165	113.44
314.394	127.44
314.624	102.44
314.853	107.44
315.083	105.44
315.312	92.44
315.542	95.44
315.771	94.44
316.001	98.44
316.23	100.44
316.46	98.44
316.689	95.44
316.919	91.44
317.148	110.44
317.377	88.44
317.607	105.44
317.836	101.44
318.065	94.44
318.295	86.44
318.524	87.44
318.753	106.44
318.983	80.44
319.212	82.44
319.441	111.44
319.67	125.44
319.9	99.44
320.129	101.44
320.358	98.44
320.587	96.44
320.816	104.44
321.046	110.44
321.275	97.44
321.504	94.44
321.733	109.44
321.962	92.44
322.191	114.44
322.42	108.44
322.649	91.44
322.878	114.44
323.108	120.44
323.337	116.44
323.566	123.44
323.795	160.44
324.024	215.44
324.253	390.44
324.482	842.44
324.71	1747.44
324.939	2330.44
325.168	853.44
325.397	253.44
325.626	153.44
325.855	126.44
326.084	120.44
326.313	143.44
326.542	165.44
326.77	231.44
326.999	461.44
327.228	967.44
327.457	1771.44
327.686	1461.44
327.914	409.44
328.143	279.44
328.372	296.44
328.6	193.44
328.829	125.44
329.058	146.44
329.287	126.44
329.515	143.44
329.744	161.44
329.972	228.44
330.201	407.44
330.43	535.44
330.658	282.44
330.887	157.44
331.115	135.44
331.344	101.44
331.572	107.44
331.801	111.44
332.03	111.44
332.258	108.44
332.486	93.44
332.715	96.44
332.943	106.44
333.172	100.44
333.4	98.44
333.629	125.44
333.857	158.44
334.085	236.44
334.314	376.44
334.542	684.44
334.771	621.44
334.999	210.44
335.227	120.44
335.455	105.44
335.684	115.44
335.912	120.44
336.14	102.44
336.369	114.44
336.597	106.44
336.825	109.44
337.053	108.44
337.281	100.44
337.51	103.44
337.738	100.44
337.966	96.44
338.194	97.44
338.422	91.44
338.65	91.44
338.878	100.44
339.106	102.44
339.334	99.44
339.562	109.44
339.79	91.44
340.018	90.44
340.246	103.44
340.474	100.44
340.702	91.44
340.93	102.44
341.158	102.44
341.386	103.44
341.614	96.44
341.842	98.44
342.07	90.44
342.298	96.44
342.526	93.44
342.754	105.44
342.981	90.44
343.209	83.44
343.437	93.44
343.665	92.44
343.893	91.44
344.12	88.44
344.348	89.44
344.576	90.44
344.804	100.44
345.031	90.44
345.259	97.44
345.487	106.44
345.714	106.44
345.942	96.44
346.17	101.44
346.397	98.44
346.625	93.44
346.853	90.44
347.08	89.44
347.308	100.44
347.535	114.44
347.763	112.44
347.99	106.44
348.218	88.44
348.445	103.44
348.673	104.44
348.9	111.44
349.128	94.44
349.355	102.44
349.583	99.44
349.81	96.44
350.037	90.44
350.265	88.44
350.492	89.44
350.72	102.44
350.947	90.44
351.174	117.44
351.402	104.44
351.629	89.44
351.856	104.44
352.083	101.44
352.311	103.44
352.538	116.44
352.765	102.44
352.992	121.44
353.22	110.44
353.447	103.44
353.674	99.44
353.901	98.44
354.128	97.44
354.355	87.44
354.583	98.44
354.81	110.44
355.037	102.44
355.264	88.44
355.491	89.44
355.718	100.44
355.945	109.44
356.172	100.44
356.399	105.44
356.626	95.44
356.853	81.44
357.08	97.44
357.307	108.44
357.534	90.44
357.761	104.44
357.988	99.44
358.215	106.44
358.441	109.44
358.668	99.44
358.895	97.44
359.122	91.44
359.349	96.44
359.576	101.44
359.802	101.44
360.029	105.44
360.256	116.44
360.483	110.44
360.709	90.44
360.936	98.44
361.163	88.44
361.39	93.44
361.616	95.44
361.843	93.44
362.07	84.44
362.296	101.44
362.523	99.44
362.749	80.44
362.976	96.44
363.203	74.44
363.429	86.44
363.656	112.44
363.882	93.44
364.109	93.44
364.335	96.44
364.562	101.44
364.788	94.44
365.015	91.44
365.241	86.44
365.468	105.44
365.694	103.44
365.92	101.44
366.147	103.44
366.373	108.44
366.599	91.44
366.826	96.44
367.052	91.44
367.278	94.44
367.505	97.44
367.731	106.44
367.957	89.44
368.184	88.44
368.41	99.44
368.636	113.44
368.862	129.44
369.089	102.44
369.315	97.44
369.541	97.44
369.767	95.44
369.993	97.44
370.219	101.44
370.445	94.44
370.672	80.44
370.898	80.44
371.124	93.44
371.35	91.44
371.576	96.44
371.802	101.44
372.028	90.44
372.254	83.44
372.48	87.44
372.706	91.44
372.932	85.44
373.158	71.44
373.384	93.44
373.61	104.44
373.835	92.44
374.061	99.44
374.287	90.44
374.513	87.44
374.739	98.44
374.965	71.44
375.191	98.44
375.416	73.44
375.642	103.44
375.868	95.44
376.094	91.44
376.319	106.44
376.545	82.44
376.771	89.44
376.997	87.44
377.222	97.44
377.448	97.44
377.674	100.44
377.899	100.44
378.125	91.44
378.35	93.44
378.576	97.44
378.802	89.44
379.027	85.44
379.253	91.44
379.478	90.44
379.704	89.44
379.929	104.44
380.155	102.44
380.38	105.44
380.606	88.44
380.831	94.44
381.057	104.44
381.282	100.44
381.507	104.44
381.733	81.44
381.958	83.44
382.184	95.44
382.409	106.44
382.634	112.44
382.86	105.44
383.085	93.44
383.31	102.44
383.535	102.44
383.761	98.44
383.986	88.44
384.211	98.44
384.436	109.44
384.662	106.44
384.887	91.44
385.112	101.44
385.337	96.44
385.562	95.44
385.787	105.44
386.013	102.44
386.238	134.44
386.463	119.44
386.688	102.44
386.913	95.44
387.138	97.44
387.363	101.44
387.588	88.44
387.813	101.44
388.038	111.44
388.263	112.44
388.488	98.44
388.713	90.44
388.938	110.44
389.163	101.44
389.387	101.44
389.612	91.44
389.837	100.44
390.062	94.44
390.287	94.44
390.512	99.44
390.736	90.44
390.961	100.44
391.186	101.44
391.411	92.44
391.636	88.44
391.86	84.44
392.085	97.44
392.31	87.44
392.534	87.44
392.759	81.44
392.984	77.44
393.208	82.44
393.433	104.44
393.658	105.44
393.882	80.44
394.107	90.44
394.331	102.44
394.556	86.44
394.78	90.44
395.005	94.44
395.229	84.44
395.454	92.44
395.678	107.44
395.903	93.44
396.127	75.44
396.352	89.44
396.576	96.44
396.801	81.44
397.025	96.44
397.249	94.44
397.474	82.44
397.698	100.44
397.922	99.44
398.147	95.44
398.371	88.44
398.595	92.44
398.82	83.44
399.044	75.44
399.268	94.44
399.492	93.44
399.717	81.44
399.941	98.44
400.165	103.44
400.389	95.44
400.613	103.44
400.837	89.44
401.062	87.44
401.286	88.44
401.51	97.44
401.734	88.44
401.958	97.44
402.182	122.44
402.406	147.44
402.63	127.44
402.854	94.44
403.078	98.44
403.302	90.44
403.526	94.44
403.75	78.44
403.974	80.44
404.198	96.44
404.422	100.44
404.645	91.44
404.869	99.44
405.093	105.44
405.317	121.44
405.541	106.44
405.765	118.44
405.988	111.44
406.212	164.44
406.436	231.44
406.66	144.44
406.883	102.44
407.107	93.44
407.331	101.44
407.555	105.44
407.778	100.44
408.002	92.44
408.226	87.44
408.449	100.44
408.673	93.44
408.896	103.44
409.12	108.44
409.344	87.44
409.567	89.44
409.791	89.44
410.014	103.44
410.238	90.44
410.461	78.44
410.685	98.44
410.908	106.44
411.132	104.44
411.355	115.44
411.578	110.44
411.802	105.44
412.025	89.44
412.249	91.44
412.472	102.44
412.695	125.44
412.919	97.44
413.142	88.44
413.365	91.44
413.589	110.44
413.812	98.44
414.035	101.44
414.258	96.44
414.482	95.44
414.705	80.44
414.928	86.44
415.151	85.44
415.374	99.44
415.597	85.44
415.821	81.44
416.044	95.44
416.267	89.44
416.49	96.44
416.713	93.44
416.936	99.44
417.159	82.44
417.382	92.44
417.605	95.44
417.828	108.44
418.051	86.44
418.274	79.44
418.497	89.44
418.72	100.44
418.943	92.44
419.166	90.44
419.389	80.44
419.611	99.44
419.834	89.44
420.057	105.44
420.28	100.44
420.503	93.44
420.726	100.44
420.948	94.44
421.171	104.44
421.394	94.44
421.617	84.44
421.839	93.44
422.062	94.44
422.285	94.44
422.507	110.44
422.73	101.44
422.953	100.44
423.175	87.44
423.398	80.44
423.621	88.44
423.843	83.44
424.066	89.44
424.288	87.44
424.511	101.44
424.733	91.44
424.956	115.44
425.178	113.44
425.401	105.44
425.623	117.44
425.846	96.44
426.068	88.44
426.291	87.44
426.513	81.44
426.735	84.44
426.958	98.44
427.18	108.44
427.402	137.44
427.625	173.44
427.847	168.44
428.069	155.44
428.292	117.44
428.514	90.44
428.736	86.44
428.958	100.44
429.181	99.44
429.403	82.44
429.625	91.44
429.847	93.44
430.069	104.44
430.292	104.44
430.514	86.44
430.736	98.44
430.958	93.44
431.18	86.44
431.402	103.44
431.624	95.44
431.846	81.44
432.068	99.44
432.29	82.44
432.512	93.44
432.734	83.44
432.956	91.44
433.178	99.44
433.4	114.44
433.622	88.44
433.844	90.44
434.066	95.44
434.287	86.44
434.509	84.44
434.731	84.44
434.953	90.44
435.175	94.44
435.397	97.44
435.618	97.44
435.84	110.44
436.062	126.44
436.284	123.44
436.505	99.44
436.727	98.44
436.949	95.44
437.17	97.44
437.392	99.44
437.614	101.44
437.835	100.44
438.057	109.44
438.278	109.44
438.5	110.44
438.721	129.44
438.943	116.44
439.165	93.44
439.386	87.44
439.608	88.44
439.829	112.44
440.05	122.44
440.272	156.44
440.493	111.44
440.715	95.44
440.936	82.44
441.158	85.44
441.379	107.44
441.6	88.44
441.822	87.44
442.043	95.44
442.264	106.44
442.486	93.44
442.707	96.44
442.928	117.44
443.149	125.44
443.371	128.44
443.592	121.44
443.813	118.44
444.034	121.44
444.255	106.44
444.476	98.44
444.698	91.44
444.919	96.44
445.14	123.44
445.361	118.44
445.582	96.44
445.803	137.44
446.024	126.44
446.245	143.44
446.466	106.44
446.687	87.44
446.908	85.44
447.129	94.44
447.35	98.44
447.571	109.44
447.792	84.44
448.013	93.44
448.234	100.44
448.455	106.44
448.675	112.44
448.896	111.44
449.117	108.44
449.338	102.44
449.559	123.44
449.779	139.44
450	80.44
450.221	105.44
450.442	102.44
450.662	91.44
450.883	107.44
451.104	115.44
451.324	105.44
451.545	88.44
451.766	98.44
451.986	92.44
452.207	103.44
452.428	98.44
452.648	109.44
452.869	116.44
453.089	104.44
453.31	117.44
453.53	105.44
453.751	93.44
453.971	90.44
454.192	127.44
454.412	92.44
454.633	91.44
454.853	100.44
455.073	82.44
455.294	97.44
455.514	108.44
455.734	88.44
455.955	89.44
456.175	89.44
456.395	86.44
456.616	98.44
456.836	75.44
457.056	81.44
457.276	84.44
457.497	82.44
457.717	84.44
457.937	90.44
458.157	84.44
458.377	91.44
458.598	100.44
458.818	159.44
459.038	147.44
459.258	110.44
459.478	91.44
459.698	98.44
459.918	82.44
460.138	97.44
460.358	98.44
460.578	88.44
460.798	98.44
461.018	82.44
461.238	106.44
461.458	85.44
461.678	85.44
461.898	93.44
462.118	90.44
462.338	89.44
462.558	78.44
462.777	89.44
462.997	78.44
463.217	96.44
463.437	68.44
463.657	87.44
463.876	85.44
464.096	98.44
464.316	89.44
464.536	95.44
464.755	108.44
464.975	116.44
465.195	170.44
465.414	165.44
465.634	98.44
465.854	98.44
466.073	96.44
466.293	91.44
466.512	91.44
466.732	82.44
466.951	102.44
467.171	96.44
467.391	115.44
467.61	114.44
467.829	135.44
468.049	281.44
468.268	351.44
468.488	124.44
468.707	99.44
468.927	88.44
469.146	81.44
469.365	93.44
469.585	90.44
469.804	91.44
470.023	90.44
470.243	90.44
470.462	106.44
470.681	114.44
470.901	111.44
471.12	86.44
471.339	99.44
471.558	89.44
471.777	124.44
471.997	185.44
472.216	491.44
472.435	997.44
472.654	259.44
472.873	104.44
473.092	93.44
473.311	90.44
473.53	93.44
473.749	103.44
473.968	91.44
474.187	110.44
474.406	98.44
474.625	92.44
474.844	70.44
475.063	77.44
475.282	80.44
475.501	93.44
475.72	92.44
475.939	93.44
476.158	98.44
476.377	93.44
476.596	79.44
476.814	86.44
477.033	101.44
477.252	95.44
477.471	93.44
477.69	101.44
477.908	80.44
478.127	107.44
478.346	85.44
478.564	94.44
478.783	96.44
479.002	88.44
479.22	106.44
479.439	110.44
479.658	114.44
479.876	109.44
480.095	114.44
480.313	104.44
480.532	130.44
480.751	177.44
480.969	462.44
481.188	1748.44
481.406	1013.44
481.624	207.44
481.843	118.44
482.061	86.44
482.28	82.44
482.498	98.44
482.717	89.44
482.935	93.44
483.153	87.44
483.372	90.44
483.59	85.44
483.808	102.44
484.027	93.44
484.245	95.44
484.463	88.44
484.681	83.44
484.9	86.44
485.118	98.44
485.336	97.44
485.554	107.44
485.772	103.44
485.99	86.44
486.209	118.44
486.427	92.44
486.645	113.44
486.863	114.44
487.081	100.44
487.299	92.44
487.517	110.44
487.735	88.44
487.953	110.44
488.171	96.44
488.389	86.44
488.607	97.44
488.825	97.44
489.043	91.44
489.261	93.44
489.479	83.44
489.696	89.44
489.914	99.44
490.132	85.44
490.35	102.44
490.568	102.44
490.786	92.44
491.003	92.44
491.221	89.44
491.439	110.44
491.657	83.44
491.874	96.44
492.092	88.44
492.31	110.44
492.527	79.44
492.745	85.44
492.963	104.44
493.18	104.44
493.398	89.44
493.615	97.44
493.833	101.44
494.05	72.44
494.268	85.44
494.485	89.44
494.703	89.44
494.92	94.44
495.138	91.44
495.355	87.44
495.573	90.44
495.79	94.44
496.008	84.44
496.225	99.44
496.442	91.44
496.66	90.44
496.877	103.44
497.094	113.44
497.312	71.44
497.529	94.44
497.746	92.44
497.963	93.44
498.181	88.44
498.398	96.44
498.615	114.44
498.832	107.44
499.049	96.44
499.267	101.44
499.484	83.44
499.701	86.44
499.918	104.44
500.135	87.44
500.352	103.44
500.569	106.44
500.786	89.44
501.003	81.44
501.22	84.44
501.437	83.44
501.654	99.44
501.871	95.44
502.088	94.44
502.305	100.44
502.522	78.44
502.739	85.44
502.956	92.44
503.172	91.44
503.389	98.44
503.606	106.44
503.823	97.44
504.04	93.44
504.256	97.44
504.473	94.44
504.69	89.44
504.907	96.44
505.123	82.44
505.34	91.44
505.557	95.44
505.773	97.44
505.99	86.44
506.207	99.44
506.423	93.44
506.64	96.44
506.856	74.44
507.073	93.44
507.289	94.44
507.506	102.44
507.722	110.44
507.939	117.44
508.155	101.44
508.372	102.44
508.588	106.44
508.805	98.44
509.021	99.44
509.238	101.44
509.454	87.44
509.67	116.44
509.887	101.44
510.103	122.44
510.319	200.44
510.536	682.44
510.752	2199.44
510.968	605.44
511.184	168.44
511.401	107.44
511.617	106.44
511.833	104.44
512.049	79.44
512.265	95.44
512.481	90.44
512.698	104.44
512.914	91.44
513.13	88.44
513.346	93.44
513.562	89.44
513.778	93.44
