Data from Circ_1991_H10_HRD10591_00088.txt Node
Date: Wed Jan 03 11:51:58 EST 2024
User: Yrep
Spectrometer: HR+D1059
Trigger mode: 1
Integration Time (sec): 1.000000E-1
Scans to average: 1
Electric dark correction enabled: true
Nonlinearity correction enabled: false
Boxcar width: 0
XAxis mode: Wavelengths
Number of Pixels in Spectrum: 2048
>>>>>Begin Spectral Data<<<<<
223.165	5.69
223.4	5.69
223.635	5.69
223.869	-25.31
224.104	-9.31
224.338	-17.31
224.573	-15.31
224.808	-10.31
225.042	-9.31
225.277	-0.31
225.511	-16.31
225.746	5.69
225.98	18.69
226.215	15.69
226.449	24.69
226.683	9.69
226.918	14.69
227.152	8.69
227.387	32.69
227.621	39.69
227.856	57.69
228.09	42.69
228.324	51.69
228.559	46.69
228.793	59.69
229.027	70.69
229.262	68.69
229.496	66.69
229.73	80.69
229.964	87.69
230.199	79.69
230.433	83.69
230.667	72.69
230.901	85.69
231.136	85.69
231.37	81.69
231.604	81.69
231.838	84.69
232.072	87.69
232.306	76.69
232.541	88.69
232.775	87.69
233.009	87.69
233.243	80.69
233.477	71.69
233.711	79.69
233.945	89.69
234.179	93.69
234.413	85.69
234.647	72.69
234.881	81.69
235.115	84.69
235.349	82.69
235.583	91.69
235.817	86.69
236.051	83.69
236.285	74.69
236.519	84.69
236.753	76.69
236.987	88.69
237.221	97.69
237.455	78.69
237.689	87.69
237.922	72.69
238.156	75.69
238.39	79.69
238.624	88.69
238.858	77.69
239.091	76.69
239.325	75.69
239.559	83.69
239.793	88.69
240.027	96.69
240.26	75.69
240.494	90.69
240.728	79.69
240.961	81.69
241.195	77.69
241.429	93.69
241.662	83.69
241.896	84.69
242.13	71.69
242.363	85.69
242.597	91.69
242.83	67.69
243.064	84.69
243.298	85.69
243.531	87.69
243.765	89.69
243.998	82.69
244.232	85.69
244.465	84.69
244.699	98.69
244.932	89.69
245.166	80.69
245.399	80.69
245.633	73.69
245.866	96.69
246.099	84.69
246.333	87.69
246.566	83.69
246.8	97.69
247.033	83.69
247.266	83.69
247.5	91.69
247.733	89.69
247.966	75.69
248.2	66.69
248.433	98.69
248.666	73.69
248.899	71.69
249.133	98.69
249.366	93.69
249.599	97.69
249.832	84.69
250.066	99.69
250.299	71.69
250.532	86.69
250.765	76.69
250.998	81.69
251.231	93.69
251.465	81.69
251.698	78.69
251.931	72.69
252.164	83.69
252.397	81.69
252.63	89.69
252.863	77.69
253.096	79.69
253.329	67.69
253.562	68.69
253.795	85.69
254.028	89.69
254.261	97.69
254.494	79.69
254.727	90.69
254.96	92.69
255.193	98.69
255.426	94.69
255.659	85.69
255.892	89.69
256.124	92.69
256.357	65.69
256.59	88.69
256.823	75.69
257.056	78.69
257.289	99.69
257.521	88.69
257.754	94.69
257.987	92.69
258.22	88.69
258.452	94.69
258.685	70.69
258.918	82.69
259.151	87.69
259.383	77.69
259.616	83.69
259.849	75.69
260.081	90.69
260.314	88.69
260.547	94.69
260.779	86.69
261.012	101.69
261.244	99.69
261.477	103.69
261.71	96.69
261.942	116.69
262.175	124.69
262.407	102.69
262.64	80.69
262.872	87.69
263.105	86.69
263.337	90.69
263.57	78.69
263.802	83.69
264.035	94.69
264.267	77.69
264.499	84.69
264.732	95.69
264.964	75.69
265.197	84.69
265.429	77.69
265.661	72.69
265.894	86.69
266.126	105.69
266.358	88.69
266.591	79.69
266.823	87.69
267.055	87.69
267.287	94.69
267.52	75.69
267.752	78.69
267.984	85.69
268.216	81.69
268.448	88.69
268.681	99.69
268.913	83.69
269.145	85.69
269.377	76.69
269.609	81.69
269.841	92.69
270.073	98.69
270.306	85.69
270.538	87.69
270.77	68.69
271.002	85.69
271.234	83.69
271.466	75.69
271.698	79.69
271.93	91.69
272.162	80.69
272.394	93.69
272.626	97.69
272.858	75.69
273.09	93.69
273.322	83.69
273.553	75.69
273.785	90.69
274.017	79.69
274.249	105.69
274.481	88.69
274.713	85.69
274.945	88.69
275.176	86.69
275.408	94.69
275.64	79.69
275.872	100.69
276.104	93.69
276.335	102.69
276.567	103.69
276.799	123.69
277.031	122.69
277.262	117.69
277.494	102.69
277.726	89.69
277.957	92.69
278.189	89.69
278.421	84.69
278.652	98.69
278.884	98.69
279.115	99.69
279.347	99.69
279.579	95.69
279.81	99.69
280.042	120.69
280.273	140.69
280.505	111.69
280.736	96.69
280.968	81.69
281.199	93.69
281.431	99.69
281.662	95.69
281.894	97.69
282.125	102.69
282.356	109.69
282.588	133.69
282.819	103.69
283.051	101.69
283.282	79.69
283.513	84.69
283.745	90.69
283.976	80.69
284.207	80.69
284.439	75.69
284.67	77.69
284.901	104.69
285.132	96.69
285.364	84.69
285.595	100.69
285.826	85.69
286.057	72.69
286.288	91.69
286.52	78.69
286.751	88.69
286.982	91.69
287.213	84.69
287.444	102.69
287.675	90.69
287.906	95.69
288.138	78.69
288.369	94.69
288.6	95.69
288.831	83.69
289.062	86.69
289.293	89.69
289.524	91.69
289.755	88.69
289.986	91.69
290.217	81.69
290.448	92.69
290.679	89.69
290.91	101.69
291.141	95.69
291.371	91.69
291.602	90.69
291.833	85.69
292.064	95.69
292.295	87.69
292.526	91.69
292.757	77.69
292.987	84.69
293.218	83.69
293.449	91.69
293.68	96.69
293.91	91.69
294.141	87.69
294.372	88.69
294.603	80.69
294.833	88.69
295.064	90.69
295.295	90.69
295.525	96.69
295.756	101.69
295.987	126.69
296.217	143.69
296.448	121.69
296.679	80.69
296.909	101.69
297.14	83.69
297.37	98.69
297.601	94.69
297.831	78.69
298.062	81.69
298.292	99.69
298.523	82.69
298.753	97.69
298.984	99.69
299.214	102.69
299.445	83.69
299.675	107.69
299.905	105.69
300.136	88.69
300.366	97.69
300.597	107.69
300.827	101.69
301.057	93.69
301.288	110.69
301.518	101.69
301.748	81.69
301.979	102.69
302.209	112.69
302.439	79.69
302.669	105.69
302.9	94.69
303.13	103.69
303.36	102.69
303.59	103.69
303.82	115.69
304.051	98.69
304.281	93.69
304.511	92.69
304.741	95.69
304.971	102.69
305.201	98.69
305.431	97.69
305.661	98.69
305.891	87.69
306.121	91.69
306.352	108.69
306.582	103.69
306.812	100.69
307.042	107.69
307.272	121.69
307.502	127.69
307.731	122.69
307.961	115.69
308.191	91.69
308.421	95.69
308.651	92.69
308.881	92.69
309.111	99.69
309.341	103.69
309.571	100.69
309.8	97.69
310.03	94.69
310.26	93.69
310.49	103.69
310.72	63.69
310.949	105.69
311.179	93.69
311.409	91.69
311.639	97.69
311.868	102.69
312.098	96.69
312.328	107.69
312.557	99.69
312.787	103.69
313.017	111.69
313.246	100.69
313.476	89.69
313.706	100.69
313.935	94.69
314.165	92.69
314.394	92.69
314.624	71.69
314.853	95.69
315.083	85.69
315.312	94.69
315.542	92.69
315.771	99.69
316.001	87.69
316.23	81.69
316.46	83.69
316.689	93.69
316.919	88.69
317.148	104.69
317.377	104.69
317.607	91.69
317.836	96.69
318.065	92.69
318.295	71.69
318.524	89.69
318.753	101.69
318.983	93.69
319.212	96.69
319.441	106.69
319.67	104.69
319.9	85.69
320.129	113.69
320.358	79.69
320.587	97.69
320.816	93.69
321.046	91.69
321.275	91.69
321.504	107.69
321.733	105.69
321.962	105.69
322.191	98.69
322.42	109.69
322.649	113.69
322.878	112.69
323.108	121.69
323.337	126.69
323.566	141.69
323.795	145.69
324.024	223.69
324.253	414.69
324.482	863.69
324.71	1860.69
324.939	2509.69
325.168	886.69
325.397	260.69
325.626	157.69
325.855	139.69
326.084	140.69
326.313	125.69
326.542	161.69
326.77	224.69
326.999	489.69
327.228	1012.69
327.457	1893.69
327.686	1493.69
327.914	442.69
328.143	310.69
328.372	320.69
328.6	197.69
328.829	149.69
329.058	155.69
329.287	147.69
329.515	127.69
329.744	153.69
329.972	253.69
330.201	433.69
330.43	600.69
330.658	307.69
330.887	175.69
331.115	133.69
331.344	102.69
331.572	107.69
331.801	107.69
332.03	117.69
332.258	104.69
332.486	105.69
332.715	100.69
332.943	93.69
333.172	102.69
333.4	117.69
333.629	126.69
333.857	159.69
334.085	234.69
334.314	411.69
334.542	739.69
334.771	703.69
334.999	242.69
335.227	143.69
335.455	110.69
335.684	119.69
335.912	109.69
336.14	86.69
336.369	91.69
336.597	109.69
336.825	103.69
337.053	87.69
337.281	94.69
337.51	96.69
337.738	103.69
337.966	113.69
338.194	113.69
338.422	98.69
338.65	99.69
338.878	98.69
339.106	91.69
339.334	88.69
339.562	87.69
339.79	100.69
340.018	87.69
340.246	93.69
340.474	87.69
340.702	97.69
340.93	97.69
341.158	91.69
341.386	105.69
341.614	104.69
341.842	96.69
342.07	95.69
342.298	91.69
342.526	101.69
342.754	85.69
342.981	96.69
343.209	89.69
343.437	86.69
343.665	106.69
343.893	87.69
344.12	90.69
344.348	88.69
344.576	87.69
344.804	92.69
345.031	95.69
345.259	114.69
345.487	103.69
345.714	92.69
345.942	94.69
346.17	88.69
346.397	86.69
346.625	88.69
346.853	95.69
347.08	101.69
347.308	90.69
347.535	99.69
347.763	110.69
347.99	104.69
348.218	91.69
348.445	88.69
348.673	104.69
348.9	95.69
349.128	112.69
349.355	104.69
349.583	88.69
349.81	100.69
350.037	105.69
350.265	82.69
350.492	96.69
350.72	104.69
350.947	84.69
351.174	115.69
351.402	106.69
351.629	94.69
351.856	100.69
352.083	102.69
352.311	117.69
352.538	103.69
352.765	127.69
352.992	109.69
353.22	105.69
353.447	93.69
353.674	117.69
353.901	116.69
354.128	79.69
354.355	84.69
354.583	88.69
354.81	94.69
355.037	101.69
355.264	93.69
355.491	95.69
355.718	93.69
355.945	86.69
356.172	94.69
356.399	89.69
356.626	100.69
356.853	90.69
357.08	99.69
357.307	87.69
357.534	102.69
357.761	97.69
357.988	93.69
358.215	93.69
358.441	82.69
358.668	97.69
358.895	92.69
359.122	92.69
359.349	81.69
359.576	103.69
359.802	94.69
360.029	119.69
360.256	117.69
360.483	111.69
360.709	85.69
360.936	93.69
361.163	91.69
361.39	104.69
361.616	100.69
361.843	93.69
362.07	94.69
362.296	102.69
362.523	96.69
362.749	97.69
362.976	87.69
363.203	95.69
363.429	92.69
363.656	93.69
363.882	89.69
364.109	97.69
364.335	75.69
364.562	68.69
364.788	73.69
365.015	96.69
365.241	92.69
365.468	106.69
365.694	108.69
365.92	89.69
366.147	88.69
366.373	81.69
366.599	100.69
366.826	99.69
367.052	91.69
367.278	105.69
367.505	86.69
367.731	95.69
367.957	80.69
368.184	91.69
368.41	103.69
368.636	105.69
368.862	120.69
369.089	108.69
369.315	97.69
369.541	101.69
369.767	102.69
369.993	85.69
370.219	74.69
370.445	81.69
370.672	96.69
370.898	97.69
371.124	93.69
371.35	89.69
371.576	82.69
371.802	92.69
372.028	77.69
372.254	81.69
372.48	96.69
372.706	93.69
372.932	79.69
373.158	99.69
373.384	93.69
373.61	107.69
373.835	104.69
374.061	106.69
374.287	95.69
374.513	85.69
374.739	79.69
374.965	67.69
375.191	89.69
375.416	84.69
375.642	93.69
375.868	93.69
376.094	112.69
376.319	89.69
376.545	95.69
376.771	78.69
376.997	99.69
377.222	94.69
377.448	101.69
377.674	85.69
377.899	91.69
378.125	99.69
378.35	79.69
378.576	99.69
378.802	91.69
379.027	98.69
379.253	83.69
379.478	101.69
379.704	96.69
379.929	97.69
380.155	96.69
380.38	104.69
380.606	95.69
380.831	88.69
381.057	102.69
381.282	104.69
381.507	86.69
381.733	95.69
381.958	95.69
382.184	88.69
382.409	104.69
382.634	96.69
382.86	98.69
383.085	89.69
383.31	107.69
383.535	92.69
383.761	112.69
383.986	96.69
384.211	96.69
384.436	101.69
384.662	89.69
384.887	102.69
385.112	107.69
385.337	108.69
385.562	94.69
385.787	105.69
386.013	99.69
386.238	116.69
386.463	112.69
386.688	111.69
386.913	99.69
387.138	94.69
387.363	103.69
387.588	93.69
387.813	100.69
388.038	105.69
388.263	99.69
388.488	110.69
388.713	93.69
388.938	95.69
389.163	101.69
389.387	91.69
389.612	99.69
389.837	92.69
390.062	91.69
390.287	108.69
390.512	105.69
390.736	78.69
390.961	95.69
391.186	97.69
391.411	98.69
391.636	91.69
391.86	90.69
392.085	83.69
392.31	71.69
392.534	88.69
392.759	90.69
392.984	90.69
393.208	98.69
393.433	105.69
393.658	96.69
393.882	94.69
394.107	81.69
394.331	77.69
394.556	96.69
394.78	96.69
395.005	69.69
395.229	89.69
395.454	87.69
395.678	85.69
395.903	84.69
396.127	75.69
396.352	82.69
396.576	100.69
396.801	84.69
397.025	99.69
397.249	95.69
397.474	94.69
397.698	91.69
397.922	105.69
398.147	94.69
398.371	81.69
398.595	95.69
398.82	101.69
399.044	91.69
399.268	89.69
399.492	86.69
399.717	87.69
399.941	94.69
400.165	95.69
400.389	87.69
400.613	90.69
400.837	85.69
401.062	96.69
401.286	90.69
401.51	87.69
401.734	92.69
401.958	97.69
402.182	116.69
402.406	165.69
402.63	116.69
402.854	111.69
403.078	92.69
403.302	83.69
403.526	90.69
403.75	87.69
403.974	99.69
404.198	97.69
404.422	88.69
404.645	79.69
404.869	97.69
405.093	113.69
405.317	102.69
405.541	104.69
405.765	99.69
405.988	115.69
406.212	155.69
406.436	238.69
406.66	145.69
406.883	100.69
407.107	104.69
407.331	110.69
407.555	95.69
407.778	98.69
408.002	99.69
408.226	93.69
408.449	94.69
408.673	99.69
408.896	101.69
409.12	111.69
409.344	89.69
409.567	100.69
409.791	93.69
410.014	103.69
410.238	90.69
410.461	97.69
410.685	88.69
410.908	88.69
411.132	83.69
411.355	105.69
411.578	108.69
411.802	95.69
412.025	89.69
412.249	96.69
412.472	109.69
412.695	114.69
412.919	107.69
413.142	92.69
413.365	94.69
413.589	85.69
413.812	87.69
414.035	94.69
414.258	100.69
414.482	75.69
414.705	78.69
414.928	76.69
415.151	96.69
415.374	99.69
415.597	89.69
415.821	75.69
416.044	95.69
416.267	85.69
416.49	108.69
416.713	92.69
416.936	92.69
417.159	88.69
417.382	88.69
417.605	95.69
417.828	100.69
418.051	104.69
418.274	89.69
418.497	67.69
418.72	89.69
418.943	90.69
419.166	92.69
419.389	98.69
419.611	90.69
419.834	77.69
420.057	87.69
420.28	105.69
420.503	90.69
420.726	91.69
420.948	88.69
421.171	110.69
421.394	88.69
421.617	87.69
421.839	80.69
422.062	85.69
422.285	94.69
422.507	108.69
422.73	89.69
422.953	90.69
423.175	85.69
423.398	85.69
423.621	89.69
423.843	93.69
424.066	75.69
424.288	97.69
424.511	84.69
424.733	86.69
424.956	101.69
425.178	123.69
425.401	81.69
425.623	104.69
425.846	93.69
426.068	100.69
426.291	81.69
426.513	106.69
426.735	75.69
426.958	106.69
427.18	119.69
427.402	135.69
427.625	184.69
427.847	169.69
428.069	172.69
428.292	117.69
428.514	91.69
428.736	91.69
428.958	95.69
429.181	87.69
429.403	97.69
429.625	84.69
429.847	88.69
430.069	106.69
430.292	94.69
430.514	97.69
430.736	87.69
430.958	105.69
431.18	84.69
431.402	84.69
431.624	81.69
431.846	85.69
432.068	83.69
432.29	87.69
432.512	102.69
432.734	105.69
432.956	100.69
433.178	113.69
433.4	100.69
433.622	109.69
433.844	98.69
434.066	91.69
434.287	95.69
434.509	89.69
434.731	105.69
434.953	77.69
435.175	105.69
435.397	108.69
435.618	84.69
435.84	114.69
436.062	131.69
436.284	115.69
436.505	111.69
436.727	111.69
436.949	94.69
437.17	102.69
437.392	99.69
437.614	83.69
437.835	112.69
438.057	127.69
438.278	114.69
438.5	112.69
438.721	117.69
438.943	95.69
439.165	83.69
439.386	93.69
439.608	98.69
439.829	112.69
440.05	124.69
440.272	149.69
440.493	93.69
440.715	91.69
440.936	80.69
441.158	97.69
441.379	79.69
441.6	91.69
441.822	92.69
442.043	100.69
442.264	104.69
442.486	103.69
442.707	83.69
442.928	111.69
443.149	131.69
443.371	131.69
443.592	124.69
443.813	124.69
444.034	96.69
444.255	75.69
444.476	79.69
444.698	97.69
444.919	103.69
445.14	107.69
445.361	139.69
445.582	124.69
445.803	143.69
446.024	131.69
446.245	151.69
446.466	106.69
446.687	88.69
446.908	95.69
447.129	87.69
447.35	81.69
447.571	101.69
447.792	94.69
448.013	100.69
448.234	96.69
448.455	110.69
448.675	113.69
448.896	117.69
449.117	86.69
449.338	103.69
449.559	125.69
449.779	125.69
450	86.69
450.221	91.69
450.442	104.69
450.662	98.69
450.883	104.69
451.104	115.69
451.324	93.69
451.545	85.69
451.766	97.69
451.986	88.69
452.207	74.69
452.428	96.69
452.648	113.69
452.869	108.69
453.089	136.69
453.31	121.69
453.53	86.69
453.751	85.69
453.971	92.69
454.192	115.69
454.412	90.69
454.633	79.69
454.853	89.69
455.073	94.69
455.294	99.69
455.514	96.69
455.734	83.69
455.955	85.69
456.175	89.69
456.395	87.69
456.616	85.69
456.836	80.69
457.056	86.69
457.276	77.69
457.497	95.69
457.717	76.69
457.937	103.69
458.157	91.69
458.377	74.69
458.598	116.69
458.818	152.69
459.038	176.69
459.258	124.69
459.478	94.69
459.698	84.69
459.918	83.69
460.138	82.69
460.358	77.69
460.578	75.69
460.798	88.69
461.018	88.69
461.238	92.69
461.458	95.69
461.678	88.69
461.898	96.69
462.118	87.69
462.338	95.69
462.558	87.69
462.777	85.69
462.997	92.69
463.217	95.69
463.437	100.69
463.657	89.69
463.876	99.69
464.096	88.69
464.316	73.69
464.536	103.69
464.755	95.69
464.975	115.69
465.195	156.69
465.414	159.69
465.634	85.69
465.854	95.69
466.073	93.69
466.293	87.69
466.512	82.69
466.732	96.69
466.951	91.69
467.171	103.69
467.391	105.69
467.61	111.69
467.829	144.69
468.049	291.69
468.268	374.69
468.488	135.69
468.707	89.69
468.927	83.69
469.146	91.69
469.365	93.69
469.585	103.69
469.804	97.69
470.023	95.69
470.243	87.69
470.462	93.69
470.681	115.69
470.901	97.69
471.12	107.69
471.339	95.69
471.558	111.69
471.777	116.69
471.997	179.69
472.216	516.69
472.435	1100.69
472.654	308.69
472.873	128.69
473.092	90.69
473.311	92.69
473.53	73.69
473.749	79.69
473.968	96.69
474.187	99.69
474.406	80.69
474.625	85.69
474.844	88.69
475.063	84.69
475.282	102.69
475.501	79.69
475.72	84.69
475.939	80.69
476.158	83.69
476.377	90.69
476.596	87.69
476.814	95.69
477.033	95.69
477.252	79.69
477.471	95.69
477.69	75.69
477.908	91.69
478.127	102.69
478.346	85.69
478.564	99.69
478.783	98.69
479.002	103.69
479.22	102.69
479.439	97.69
479.658	111.69
479.876	108.69
480.095	95.69
480.313	98.69
480.532	117.69
480.751	178.69
480.969	495.69
481.188	1927.69
481.406	1090.69
481.624	212.69
481.843	93.69
482.061	103.69
482.28	121.69
482.498	96.69
482.717	93.69
482.935	96.69
483.153	89.69
483.372	100.69
483.59	93.69
483.808	91.69
484.027	95.69
484.245	93.69
484.463	89.69
484.681	97.69
484.9	99.69
485.118	104.69
485.336	81.69
485.554	98.69
485.772	116.69
485.99	100.69
486.209	111.69
486.427	105.69
486.645	112.69
486.863	117.69
487.081	93.69
487.299	100.69
487.517	98.69
487.735	102.69
487.953	100.69
488.171	86.69
488.389	94.69
488.607	101.69
488.825	100.69
489.043	87.69
489.261	107.69
489.479	87.69
489.696	80.69
489.914	100.69
490.132	99.69
490.35	95.69
490.568	91.69
490.786	88.69
491.003	79.69
491.221	88.69
491.439	100.69
491.657	101.69
491.874	92.69
492.092	86.69
492.31	99.69
492.527	92.69
492.745	92.69
492.963	92.69
493.18	95.69
493.398	95.69
493.615	97.69
493.833	80.69
494.05	97.69
494.268	93.69
494.485	97.69
494.703	95.69
494.92	70.69
495.138	87.69
495.355	89.69
495.573	92.69
495.79	96.69
496.008	83.69
496.225	82.69
496.442	92.69
496.66	107.69
496.877	89.69
497.094	102.69
497.312	103.69
497.529	103.69
497.746	112.69
497.963	86.69
498.181	87.69
498.398	90.69
498.615	107.69
498.832	95.69
499.049	96.69
499.267	101.69
499.484	84.69
499.701	96.69
499.918	103.69
500.135	95.69
500.352	99.69
500.569	86.69
500.786	83.69
501.003	85.69
501.22	109.69
501.437	96.69
501.654	83.69
501.871	110.69
502.088	88.69
502.305	94.69
502.522	78.69
502.739	80.69
502.956	92.69
503.172	100.69
503.389	108.69
503.606	107.69
503.823	108.69
504.04	93.69
504.256	88.69
504.473	93.69
504.69	90.69
504.907	89.69
505.123	97.69
505.34	109.69
505.557	85.69
505.773	95.69
505.99	79.69
506.207	82.69
506.423	95.69
506.64	88.69
506.856	88.69
507.073	73.69
507.289	91.69
507.506	87.69
507.722	106.69
507.939	101.69
508.155	95.69
508.372	83.69
508.588	103.69
508.805	100.69
509.021	102.69
509.238	103.69
509.454	102.69
509.67	110.69
509.887	101.69
510.103	126.69
510.319	221.69
510.536	659.69
510.752	2213.69
510.968	616.69
511.184	147.69
511.401	113.69
511.617	105.69
511.833	107.69
512.049	82.69
512.265	95.69
512.481	98.69
512.698	73.69
512.914	102.69
513.13	95.69
513.346	92.69
513.562	99.69
513.778	99.69
513.994	98.69
514.21	98.69
