Data from Circ_1991_H10_HRD10591_00011.txt Node
Date: Wed Jan 03 11:51:43 EST 2024
User: Yrep
Spectrometer: HR+D1059
Trigger mode: 1
Integration Time (sec): 1.000000E-1
Scans to average: 1
Electric dark correction enabled: true
Nonlinearity correction enabled: false
Boxcar width: 0
XAxis mode: Wavelengths
Number of Pixels in Spectrum: 2048
>>>>>Begin Spectral Data<<<<<
223.165	-31
223.4	-31
223.635	-31
223.869	-26
224.104	-15
224.338	-12
224.573	-2
224.808	-15
225.042	3
225.277	-14
225.511	-3
225.746	-1
225.98	-10
226.215	26
226.449	15
226.683	22
226.918	29
227.152	34
227.387	23
227.621	37
227.856	49
228.09	51
228.324	57
228.559	57
228.793	66
229.027	65
229.262	60
229.496	63
229.73	89
229.964	79
230.199	66
230.433	79
230.667	75
230.901	86
231.136	78
231.37	87
231.604	85
231.838	74
232.072	83
232.306	84
232.541	73
232.775	73
233.009	69
233.243	98
233.477	93
233.711	78
233.945	76
234.179	81
234.413	74
234.647	77
234.881	75
235.115	82
235.349	73
235.583	80
235.817	87
236.051	73
236.285	77
236.519	80
236.753	84
236.987	84
237.221	66
237.455	77
237.689	83
237.922	79
238.156	81
238.39	86
238.624	75
238.858	92
239.091	66
239.325	77
239.559	91
239.793	86
240.027	77
240.26	80
240.494	90
240.728	68
240.961	81
241.195	81
241.429	76
241.662	79
241.896	77
242.13	85
242.363	62
242.597	78
242.83	75
243.064	86
243.298	66
243.531	75
243.765	79
243.998	59
244.232	82
244.465	69
244.699	75
244.932	78
245.166	78
245.399	79
245.633	72
245.866	76
246.099	86
246.333	73
246.566	80
246.8	79
247.033	71
247.266	74
247.5	75
247.733	85
247.966	60
248.2	77
248.433	63
248.666	75
248.899	98
249.133	80
249.366	93
249.599	90
249.832	78
250.066	75
250.299	63
250.532	77
250.765	77
250.998	77
251.231	83
251.465	86
251.698	89
251.931	77
252.164	77
252.397	77
252.63	72
252.863	81
253.096	70
253.329	103
253.562	81
253.795	85
254.028	96
254.261	90
254.494	64
254.727	87
254.96	87
255.193	69
255.426	82
255.659	73
255.892	73
256.124	88
256.357	86
256.59	77
256.823	80
257.056	78
257.289	81
257.521	93
257.754	81
257.987	80
258.22	86
258.452	87
258.685	73
258.918	94
259.151	96
259.383	77
259.616	78
259.849	94
260.081	69
260.314	83
260.547	66
260.779	82
261.012	90
261.244	78
261.477	86
261.71	88
261.942	90
262.175	109
262.407	86
262.64	75
262.872	98
263.105	92
263.337	85
263.57	73
263.802	67
264.035	89
264.267	84
264.499	79
264.732	81
264.964	71
265.197	85
265.429	83
265.661	95
265.894	68
266.126	73
266.358	83
266.591	89
266.823	82
267.055	79
267.287	86
267.52	74
267.752	76
267.984	86
268.216	80
268.448	107
268.681	85
268.913	83
269.145	76
269.377	91
269.609	83
269.841	84
270.073	81
270.306	89
270.538	95
270.77	79
271.002	90
271.234	83
271.466	92
271.698	81
271.93	95
272.162	81
272.394	88
272.626	89
272.858	79
273.09	79
273.322	81
273.553	81
273.785	96
274.017	91
274.249	68
274.481	81
274.713	77
274.945	77
275.176	86
275.408	85
275.64	84
275.872	91
276.104	103
276.335	106
276.567	107
276.799	102
277.031	103
277.262	106
277.494	97
277.726	85
277.957	85
278.189	86
278.421	87
278.652	97
278.884	81
279.115	74
279.347	76
279.579	96
279.81	101
280.042	98
280.273	101
280.505	85
280.736	85
280.968	85
281.199	78
281.431	96
281.662	78
281.894	103
282.125	91
282.356	108
282.588	121
282.819	110
283.051	85
283.282	84
283.513	105
283.745	85
283.976	73
284.207	107
284.439	79
284.67	97
284.901	86
285.132	79
285.364	79
285.595	86
285.826	87
286.057	89
286.288	85
286.52	92
286.751	87
286.982	90
287.213	84
287.444	90
287.675	84
287.906	79
288.138	97
288.369	109
288.6	102
288.831	82
289.062	81
289.293	86
289.524	76
289.755	81
289.986	81
290.217	93
290.448	87
290.679	77
290.91	77
291.141	87
291.371	89
291.602	91
291.833	83
292.064	81
292.295	90
292.526	86
292.757	77
292.987	88
293.218	84
293.449	73
293.68	86
293.91	82
294.141	94
294.372	91
294.603	100
294.833	86
295.064	75
295.295	84
295.525	79
295.756	97
295.987	111
296.217	135
296.448	98
296.679	87
296.909	96
297.14	85
297.37	90
297.601	85
297.831	81
298.062	85
298.292	100
298.523	80
298.753	91
298.984	98
299.214	97
299.445	90
299.675	99
299.905	105
300.136	78
300.366	93
300.597	94
300.827	89
301.057	82
301.288	94
301.518	89
301.748	85
301.979	98
302.209	85
302.439	103
302.669	100
302.9	87
303.13	95
303.36	87
303.59	95
303.82	97
304.051	92
304.281	90
304.511	81
304.741	87
304.971	89
305.201	94
305.431	75
305.661	75
305.891	70
306.121	91
306.352	85
306.582	98
306.812	83
307.042	82
307.272	90
307.502	111
307.731	94
307.961	91
308.191	91
308.421	86
308.651	93
308.881	89
309.111	92
309.341	86
309.571	108
309.8	97
310.03	106
310.26	98
310.49	86
310.72	88
310.949	91
311.179	89
311.409	80
311.639	92
311.868	74
312.098	105
312.328	93
312.557	92
312.787	92
313.017	103
313.246	87
313.476	90
313.706	91
313.935	81
314.165	87
314.394	95
314.624	104
314.853	103
315.083	79
315.312	75
315.542	94
315.771	101
316.001	78
316.23	97
316.46	83
316.689	99
316.919	94
317.148	88
317.377	87
317.607	95
317.836	106
318.065	96
318.295	91
318.524	106
318.753	95
318.983	89
319.212	89
319.441	93
319.67	90
319.9	89
320.129	86
320.358	98
320.587	90
320.816	101
321.046	99
321.275	93
321.504	89
321.733	83
321.962	99
322.191	95
322.42	108
322.649	99
322.878	115
323.108	102
323.337	101
323.566	110
323.795	127
324.024	173
324.253	317
324.482	654
324.71	1367
324.939	1805
325.168	690
325.397	221
325.626	137
325.855	107
326.084	120
326.313	129
326.542	153
326.77	184
326.999	357
327.228	787
327.457	1414
327.686	1101
327.914	317
328.143	203
328.372	192
328.6	149
328.829	105
329.058	128
329.287	119
329.515	111
329.744	111
329.972	132
330.201	196
330.43	271
330.658	167
330.887	128
331.115	121
331.344	104
331.572	105
331.801	105
332.03	96
332.258	97
332.486	105
332.715	94
332.943	107
333.172	94
333.4	95
333.629	93
333.857	113
334.085	143
334.314	194
334.542	281
334.771	291
334.999	120
335.227	107
335.455	105
335.684	102
335.912	94
336.14	92
336.369	100
336.597	93
336.825	88
337.053	89
337.281	91
337.51	86
337.738	71
337.966	79
338.194	99
338.422	100
338.65	98
338.878	94
339.106	81
339.334	82
339.562	98
339.79	90
340.018	92
340.246	95
340.474	81
340.702	92
340.93	95
341.158	91
341.386	82
341.614	86
341.842	92
342.07	84
342.298	100
342.526	98
342.754	103
342.981	76
343.209	96
343.437	91
343.665	81
343.893	76
344.12	94
344.348	97
344.576	97
344.804	86
345.031	90
345.259	95
345.487	93
345.714	89
345.942	84
346.17	75
346.397	84
346.625	84
346.853	86
347.08	82
347.308	86
347.535	89
347.763	93
347.99	77
348.218	102
348.445	110
348.673	83
348.9	99
349.128	106
349.355	94
349.583	83
349.81	107
350.037	95
350.265	84
350.492	86
350.72	85
350.947	93
351.174	97
351.402	100
351.629	96
351.856	107
352.083	95
352.311	99
352.538	107
352.765	99
352.992	106
353.22	107
353.447	94
353.674	106
353.901	100
354.128	94
354.355	89
354.583	97
354.81	99
355.037	88
355.264	88
355.491	93
355.718	86
355.945	100
356.172	92
356.399	80
356.626	90
356.853	100
357.08	84
357.307	89
357.534	84
357.761	94
357.988	97
358.215	94
358.441	109
358.668	105
358.895	82
359.122	84
359.349	91
359.576	79
359.802	107
360.029	93
360.256	118
360.483	92
360.709	86
360.936	85
361.163	87
361.39	103
361.616	103
361.843	92
362.07	90
362.296	91
362.523	98
362.749	82
362.976	83
363.203	97
363.429	89
363.656	93
363.882	85
364.109	86
364.335	87
364.562	84
364.788	86
365.015	101
365.241	92
365.468	99
365.694	102
365.92	94
366.147	96
366.373	87
366.599	93
366.826	85
367.052	84
367.278	88
367.505	81
367.731	88
367.957	83
368.184	86
368.41	87
368.636	116
368.862	120
369.089	99
369.315	91
369.541	97
369.767	86
369.993	88
370.219	83
370.445	101
370.672	77
370.898	98
371.124	84
371.35	85
371.576	85
371.802	92
372.028	94
372.254	94
372.48	77
372.706	84
372.932	84
373.158	93
373.384	102
373.61	89
373.835	86
374.061	97
374.287	98
374.513	88
374.739	91
374.965	91
375.191	101
375.416	73
375.642	94
375.868	87
376.094	87
376.319	95
376.545	79
376.771	106
376.997	111
377.222	85
377.448	90
377.674	84
377.899	95
378.125	108
378.35	85
378.576	101
378.802	96
379.027	93
379.253	94
379.478	97
379.704	87
379.929	86
380.155	94
380.38	95
380.606	97
380.831	109
381.057	115
381.282	97
381.507	108
381.733	110
381.958	103
382.184	108
382.409	95
382.634	107
382.86	100
383.085	101
383.31	98
383.535	112
383.761	98
383.986	103
384.211	106
384.436	109
384.662	129
384.887	124
385.112	131
385.337	120
385.562	107
385.787	120
386.013	124
386.238	134
386.463	114
386.688	124
386.913	125
387.138	118
387.363	107
387.588	105
387.813	101
388.038	102
388.263	129
388.488	133
388.713	103
388.938	108
389.163	100
389.387	82
389.612	78
389.837	85
390.062	99
390.287	89
390.512	97
390.736	98
390.961	80
391.186	97
391.411	83
391.636	93
391.86	80
392.085	86
392.31	79
392.534	86
392.759	84
392.984	86
393.208	138
393.433	176
393.658	157
393.882	116
394.107	98
394.331	84
394.556	90
394.78	89
395.005	101
395.229	100
395.454	91
395.678	102
395.903	90
396.127	90
396.352	103
396.576	95
396.801	107
397.025	137
397.249	96
397.474	95
397.698	81
397.922	106
398.147	87
398.371	90
398.595	87
398.82	94
399.044	85
399.268	99
399.492	89
399.717	86
399.941	92
400.165	100
400.389	102
400.613	99
400.837	84
401.062	84
401.286	92
401.51	77
401.734	112
401.958	93
402.182	102
402.406	130
402.63	100
402.854	95
403.078	91
403.302	86
403.526	95
403.75	92
403.974	95
404.198	87
404.422	84
404.645	77
404.869	85
405.093	81
405.317	98
405.541	89
405.765	100
405.988	110
406.212	160
406.436	182
406.66	130
406.883	90
407.107	83
407.331	98
407.555	87
407.778	98
408.002	72
408.226	89
408.449	89
408.673	94
408.896	82
409.12	93
409.344	93
409.567	97
409.791	98
410.014	93
410.238	89
410.461	103
410.685	84
410.908	77
411.132	89
411.355	83
411.578	86
411.802	94
412.025	88
412.249	85
412.472	105
412.695	101
412.919	99
413.142	86
413.365	90
413.589	83
413.812	85
414.035	90
414.258	91
414.482	87
414.705	85
414.928	87
415.151	93
415.374	91
415.597	94
415.821	78
416.044	84
416.267	85
416.49	105
416.713	99
416.936	105
417.159	91
417.382	87
417.605	90
417.828	100
418.051	107
418.274	86
418.497	71
418.72	83
418.943	80
419.166	77
419.389	83
419.611	85
419.834	98
420.057	89
420.28	111
420.503	77
420.726	71
420.948	86
421.171	85
421.394	82
421.617	93
421.839	91
422.062	92
422.285	96
422.507	112
422.73	108
422.953	103
423.175	80
423.398	86
423.621	91
423.843	92
424.066	81
424.288	86
424.511	80
424.733	95
424.956	89
425.178	89
425.401	96
425.623	79
425.846	91
426.068	81
426.291	95
426.513	70
426.735	71
426.958	87
427.18	106
427.402	126
427.625	150
427.847	132
428.069	114
428.292	93
428.514	79
428.736	102
428.958	86
429.181	96
429.403	93
429.625	91
429.847	84
430.069	96
430.292	90
430.514	86
430.736	66
430.958	84
431.18	77
431.402	91
431.624	83
431.846	87
432.068	71
432.29	83
432.512	87
432.734	86
432.956	87
433.178	88
433.4	91
433.622	81
433.844	95
434.066	80
434.287	101
434.509	75
434.731	90
434.953	83
435.175	85
435.397	82
435.618	101
435.84	97
436.062	99
436.284	102
436.505	102
436.727	89
436.949	91
437.17	79
437.392	84
437.614	81
437.835	92
438.057	118
438.278	101
438.5	103
438.721	110
438.943	97
439.165	103
439.386	93
439.608	106
439.829	100
440.05	108
440.272	118
440.493	94
440.715	92
440.936	86
441.158	97
441.379	90
441.6	82
441.822	93
442.043	93
442.264	102
442.486	98
442.707	101
442.928	97
443.149	114
443.371	119
443.592	110
443.813	105
444.034	96
444.255	95
444.476	82
444.698	82
444.919	68
445.14	142
445.361	105
445.582	111
445.803	97
446.024	114
446.245	111
446.466	109
446.687	88
446.908	73
447.129	89
447.35	97
447.571	94
447.792	84
448.013	86
448.234	104
448.455	91
448.675	95
448.896	111
449.117	101
449.338	103
449.559	101
449.779	120
450	91
450.221	93
450.442	86
450.662	89
450.883	100
451.104	99
451.324	73
451.545	83
451.766	85
451.986	85
452.207	100
452.428	90
452.648	84
452.869	94
453.089	106
453.31	101
453.53	83
453.751	84
453.971	95
454.192	96
454.412	103
454.633	99
454.853	89
455.073	83
455.294	80
455.514	96
455.734	90
455.955	83
456.175	77
456.395	85
456.616	92
456.836	85
457.056	82
457.276	89
457.497	94
457.717	76
457.937	92
458.157	83
458.377	81
458.598	98
458.818	131
459.038	139
459.258	109
459.478	69
459.698	84
459.918	85
460.138	86
460.358	87
460.578	98
460.798	77
461.018	113
461.238	88
461.458	91
461.678	60
461.898	86
462.118	82
462.338	96
462.558	81
462.777	79
462.997	69
463.217	77
463.437	77
463.657	90
463.876	84
464.096	84
464.316	86
464.536	84
464.755	86
464.975	93
465.195	164
465.414	127
465.634	96
465.854	75
466.073	78
466.293	84
466.512	93
466.732	92
466.951	94
467.171	89
467.391	87
467.61	90
467.829	110
468.049	133
468.268	177
468.488	92
468.707	89
468.927	85
469.146	95
469.365	82
469.585	76
469.804	89
470.023	98
470.243	100
470.462	118
470.681	101
470.901	79
471.12	80
471.339	93
471.558	106
471.777	89
471.997	110
472.216	231
472.435	413
472.654	151
472.873	91
473.092	98
473.311	94
473.53	68
473.749	86
473.968	92
474.187	93
474.406	97
474.625	82
474.844	84
475.063	77
475.282	88
475.501	85
475.72	100
475.939	98
476.158	93
476.377	85
476.596	87
476.814	88
477.033	81
477.252	85
477.471	88
477.69	92
477.908	94
478.127	110
478.346	93
478.564	90
478.783	83
479.002	77
479.22	84
479.439	99
479.658	83
479.876	91
480.095	99
480.313	89
480.532	109
480.751	123
480.969	223
481.188	677
481.406	411
481.624	119
481.843	94
482.061	89
482.28	85
482.498	92
482.717	89
482.935	85
483.153	103
483.372	77
483.59	75
483.808	86
484.027	77
484.245	91
484.463	86
484.681	89
484.9	87
485.118	99
485.336	104
485.554	98
485.772	94
485.99	85
486.209	109
486.427	83
486.645	108
486.863	114
487.081	86
487.299	120
487.517	98
487.735	96
487.953	79
488.171	91
488.389	93
488.607	94
488.825	95
489.043	85
489.261	87
489.479	101
489.696	90
489.914	78
490.132	92
490.35	107
490.568	97
490.786	89
491.003	82
491.221	96
491.439	94
491.657	82
491.874	93
492.092	108
492.31	79
492.527	79
492.745	84
492.963	79
493.18	95
493.398	93
493.615	91
493.833	93
494.05	83
494.268	84
494.485	81
494.703	104
494.92	82
495.138	79
495.355	97
495.573	95
495.79	80
496.008	90
496.225	79
496.442	86
496.66	84
496.877	78
497.094	85
497.312	85
497.529	89
497.746	102
497.963	89
498.181	91
498.398	97
498.615	85
498.832	86
499.049	84
499.267	90
499.484	87
499.701	90
499.918	89
500.135	90
500.352	102
500.569	87
500.786	93
501.003	87
501.22	95
501.437	92
501.654	97
501.871	94
502.088	84
502.305	89
502.522	93
502.739	85
502.956	87
503.172	94
503.389	96
503.606	99
503.823	88
504.04	88
504.256	86
504.473	90
504.69	86
504.907	106
505.123	97
505.34	74
505.557	89
505.773	73
505.99	79
506.207	74
506.423	86
506.64	80
506.856	73
507.073	93
507.289	86
507.506	76
507.722	96
507.939	96
508.155	94
508.372	82
508.588	100
508.805	91
509.021	98
509.238	99
509.454	117
509.67	105
509.887	100
510.103	137
510.319	187
510.536	600
510.752	1818
510.968	535
511.184	125
511.401	90
511.617	102
511.833	99
512.049	79
512.265	94
512.481	89
512.698	90
512.914	89
513.13	90
513.346	99
513.562	101
513.778	92
513.994	86
514.21	105
514.426	110
514.642	112
514.858	111
515.074	132
515.29	355
515.506	1097
515.721	419
515.937	143
516.153	118
516.369	90
516.585	90
516.801	86
517.016	97
517.232	81
517.448	83
517.664	84
517.879	107
518.095	97
518.311	108
518.527	94
518.742	76
518.958	100
519.173	96
519.389	77
519.605	91
519.82	83
520.036	92
520.251	110
520.467	104
520.682	103
520.898	92
521.113	106
521.329	118
521.544	147
521.76	425
521.975	1777
522.19	1100
522.406	248
522.621	127
522.836	94
523.052	81
523.267	91
523.482	82
523.698	90
523.913	114
524.128	100
524.343	100
524.559	87
524.774	89
524.989	96
525.204	103
525.419	101
525.634	86
525.849	86
526.064	70
526.28	85
526.495	73
526.71	95
526.925	76
527.14	92
527.355	87
527.57	78
527.785	100
527.999	100
528.214	103
528.429	85
528.644	85
528.859	100
529.074	95
529.289	119
529.503	150
529.718	103
529.933	87
530.148	97
530.363	83
530.577	86
530.792	90
531.007	87
531.221	100
531.436	96
531.651	100
531.865	87
532.08	94
532.295	93
532.509	104
532.724	91
532.938	99
533.153	106
533.367	79
533.582	86
533.796	83
534.011	93
534.225	95
534.44	78
534.654	87
534.868	82
535.083	82
535.297	92
535.511	101
535.726	87
535.94	90
536.154	93
536.369	88
536.583	98
536.797	95
537.011	86
537.225	101
537.44	79
537.654	67
537.868	82
538.082	73
538.296	67
538.51	81
538.724	72
538.938	97
539.153	85
539.367	96
539.581	83
539.795	96
540.009	92
540.222	94
540.436	95
540.65	101
540.864	76
541.078	89
541.292	99
541.506	95
541.72	100
541.934	82
542.147	87
542.361	86
542.575	71
542.789	84
543.002	88
543.216	87
543.43	111
543.644	93
543.857	82
544.071	100
544.285	100
544.498	89
544.712	76
544.925	79
545.139	92
545.352	92
545.566	91
545.779	89
545.993	81
546.206	91
546.42	83
546.633	95
546.847	109
547.06	85
547.274	81
547.487	102
547.7	86
547.914	81
548.127	80
548.34	91
548.554	86
548.767	99
548.98	105
549.193	98
549.407	91
549.62	91
549.833	85
550.046	86
550.259	103
550.473	95
550.686	84
550.899	89
551.112	72
551.325	87
551.538	75
551.751	95
551.964	93
552.177	89
552.39	84
552.603	94
552.816	94
553.029	65
553.242	90
553.455	89
553.667	108
553.88	98
554.093	100
554.306	96
554.519	85
554.732	97
554.944	88
555.157	83
555.37	82
555.583	87
555.795	94
556.008	96
556.221	83
556.433	82
556.646	82
556.859	94
557.071	81
557.284	100
557.496	81
557.709	85
557.921	108
558.134	101
558.346	98
558.559	110
558.771	85
558.984	91
559.196	90
559.409	82
559.621	87
559.833	93
560.046	82
560.258	89
560.47	93
560.683	75
560.895	83
561.107	84
561.32	95
561.532	86
561.744	107
561.956	87
562.168	102
562.381	87
562.593	90
562.805	91
563.017	85
563.229	93
563.441	104
563.653	97
563.865	80
564.077	67
564.289	95
564.501	90
564.713	88
564.925	80
565.137	96
565.349	91
565.561	82
565.773	86
565.985	98
566.197	85
566.408	87
566.62	103
566.832	89
567.044	94
567.255	74
567.467	93
567.679	84
567.891	83
568.102	91
568.314	66
568.526	88
568.737	90
568.949	93
569.161	83
569.372	105
569.584	94
569.795	95
570.007	123
570.218	215
570.43	121
570.641	93
570.853	90
571.064	94
571.276	84
571.487	84
571.698	94
571.91	95
572.121	74
572.333	93
572.544	83
572.755	98
572.966	81
573.178	97
573.389	97
573.6	86
573.811	82
574.023	85
574.234	89
574.445	71
574.656	85
574.867	95
575.078	100
575.289	90
575.501	101
575.712	78
575.923	101
576.134	94
576.345	96
576.556	85
576.767	81
576.978	85
577.188	87
577.399	82
577.61	78
577.821	101
578.032	111
578.243	206
578.454	576
578.665	171
578.875	102
579.086	93
579.297	85
579.508	91
579.718	89
579.929	95
580.14	84
580.35	100
580.561	74
580.772	82
580.982	86
581.193	80
581.403	86
581.614	90
581.825	80
582.035	87
582.246	91
582.456	88
582.667	70
582.877	87
583.087	80
583.298	97
583.508	97
583.719	97
583.929	86
584.139	81
584.35	75
584.56	80
