Data from Circ_1991_H10_HRD10591_00097.txt Node
Date: Wed Jan 03 11:52:00 EST 2024
User: Yrep
Spectrometer: HR+D1059
Trigger mode: 1
Integration Time (sec): 1.000000E-1
Scans to average: 1
Electric dark correction enabled: true
Nonlinearity correction enabled: false
Boxcar width: 0
XAxis mode: Wavelengths
Number of Pixels in Spectrum: 2048
>>>>>Begin Spectral Data<<<<<
223.165	-8
223.4	-8
223.635	-8
223.869	-16
224.104	-30
224.338	-23
224.573	-11
224.808	-28
225.042	16
225.277	8
225.511	-5
225.746	-9
225.98	2
226.215	5
226.449	19
226.683	17
226.918	29
227.152	34
227.387	30
227.621	43
227.856	29
228.09	46
228.324	46
228.559	61
228.793	60
229.027	63
229.262	62
229.496	72
229.73	77
229.964	79
230.199	72
230.433	82
230.667	82
230.901	80
231.136	78
231.37	78
231.604	73
231.838	84
232.072	88
232.306	80
232.541	87
232.775	91
233.009	68
233.243	78
233.477	72
233.711	75
233.945	70
234.179	65
234.413	92
234.647	78
234.881	54
235.115	67
235.349	80
235.583	74
235.817	85
236.051	69
236.285	76
236.519	82
236.753	79
236.987	89
237.221	79
237.455	75
237.689	72
237.922	75
238.156	70
238.39	80
238.624	80
238.858	80
239.091	73
239.325	74
239.559	74
239.793	93
240.027	69
240.26	91
240.494	81
240.728	94
240.961	73
241.195	76
241.429	72
241.662	74
241.896	77
242.13	63
242.363	68
242.597	94
242.83	94
243.064	73
243.298	84
243.531	62
243.765	69
243.998	85
244.232	71
244.465	100
244.699	94
244.932	81
245.166	79
245.399	60
245.633	68
245.866	69
246.099	80
246.333	84
246.566	74
246.8	81
247.033	70
247.266	80
247.5	87
247.733	80
247.966	76
248.2	77
248.433	94
248.666	92
248.899	89
249.133	85
249.366	85
249.599	87
249.832	94
250.066	81
250.299	85
250.532	79
250.765	83
250.998	73
251.231	69
251.465	82
251.698	78
251.931	80
252.164	82
252.397	86
252.63	74
252.863	65
253.096	77
253.329	90
253.562	87
253.795	80
254.028	80
254.261	77
254.494	78
254.727	88
254.96	94
255.193	76
255.426	77
255.659	81
255.892	91
256.124	79
256.357	69
256.59	81
256.823	80
257.056	92
257.289	80
257.521	77
257.754	83
257.987	75
258.22	88
258.452	78
258.685	92
258.918	88
259.151	90
259.383	88
259.616	78
259.849	89
260.081	65
260.314	84
260.547	80
260.779	80
261.012	95
261.244	84
261.477	92
261.71	59
261.942	105
262.175	117
262.407	94
262.64	84
262.872	80
263.105	92
263.337	82
263.57	85
263.802	70
264.035	81
264.267	75
264.499	94
264.732	93
264.964	85
265.197	74
265.429	94
265.661	85
265.894	84
266.126	82
266.358	79
266.591	77
266.823	66
267.055	84
267.287	86
267.52	88
267.752	85
267.984	80
268.216	92
268.448	89
268.681	76
268.913	79
269.145	89
269.377	98
269.609	82
269.841	89
270.073	76
270.306	83
270.538	84
270.77	79
271.002	88
271.234	86
271.466	88
271.698	77
271.93	80
272.162	65
272.394	88
272.626	98
272.858	80
273.09	90
273.322	85
273.553	72
273.785	80
274.017	84
274.249	87
274.481	85
274.713	92
274.945	96
275.176	65
275.408	101
275.64	90
275.872	98
276.104	103
276.335	82
276.567	88
276.799	99
277.031	100
277.262	123
277.494	97
277.726	89
277.957	71
278.189	81
278.421	84
278.652	100
278.884	85
279.115	83
279.347	86
279.579	102
279.81	110
280.042	111
280.273	142
280.505	114
280.736	82
280.968	93
281.199	81
281.431	93
281.662	96
281.894	84
282.125	78
282.356	115
282.588	137
282.819	113
283.051	100
283.282	78
283.513	88
283.745	84
283.976	82
284.207	90
284.439	76
284.67	93
284.901	80
285.132	92
285.364	85
285.595	79
285.826	97
286.057	95
286.288	58
286.52	85
286.751	83
286.982	85
287.213	92
287.444	79
287.675	92
287.906	93
288.138	90
288.369	76
288.6	88
288.831	76
289.062	85
289.293	91
289.524	93
289.755	96
289.986	92
290.217	80
290.448	86
290.679	86
290.91	95
291.141	89
291.371	73
291.602	74
291.833	88
292.064	80
292.295	94
292.526	82
292.757	89
292.987	94
293.218	90
293.449	96
293.68	89
293.91	85
294.141	90
294.372	88
294.603	90
294.833	90
295.064	86
295.295	82
295.525	89
295.756	105
295.987	109
296.217	131
296.448	115
296.679	81
296.909	104
297.14	85
297.37	95
297.601	80
297.831	85
298.062	97
298.292	97
298.523	79
298.753	96
298.984	97
299.214	80
299.445	75
299.675	91
299.905	87
300.136	84
300.366	81
300.597	94
300.827	92
301.057	89
301.288	97
301.518	88
301.748	96
301.979	98
302.209	97
302.439	84
302.669	82
302.9	100
303.13	91
303.36	88
303.59	108
303.82	110
304.051	92
304.281	80
304.511	89
304.741	88
304.971	90
305.201	88
305.431	94
305.661	88
305.891	79
306.121	92
306.352	101
306.582	116
306.812	96
307.042	98
307.272	114
307.502	116
307.731	128
307.961	100
308.191	87
308.421	95
308.651	84
308.881	94
309.111	96
309.341	86
309.571	99
309.8	82
310.03	83
310.26	89
310.49	97
310.72	84
310.949	87
311.179	107
311.409	86
311.639	96
311.868	96
312.098	83
312.328	77
312.557	111
312.787	100
313.017	109
313.246	91
313.476	82
313.706	79
313.935	95
314.165	93
314.394	86
314.624	85
314.853	99
315.083	103
315.312	100
315.542	80
315.771	80
316.001	98
316.23	89
316.46	85
316.689	103
316.919	91
317.148	92
317.377	99
317.607	84
317.836	85
318.065	102
318.295	84
318.524	82
318.753	82
318.983	82
319.212	104
319.441	102
319.67	109
319.9	84
320.129	79
320.358	91
320.587	88
320.816	89
321.046	97
321.275	96
321.504	90
321.733	93
321.962	96
322.191	94
322.42	112
322.649	111
322.878	96
323.108	119
323.337	108
323.566	135
323.795	156
324.024	197
324.253	397
324.482	844
324.71	1774
324.939	2398
325.168	843
325.397	251
325.626	149
325.855	121
326.084	106
326.313	128
326.542	136
326.77	222
326.999	465
327.228	957
327.457	1809
327.686	1459
327.914	410
328.143	268
328.372	280
328.6	201
328.829	128
329.058	127
329.287	150
329.515	132
329.744	168
329.972	224
330.201	400
330.43	558
330.658	291
330.887	163
331.115	129
331.344	108
331.572	99
331.801	102
332.03	103
332.258	88
332.486	84
332.715	110
332.943	96
333.172	92
333.4	113
333.629	123
333.857	143
334.085	219
334.314	395
334.542	706
334.771	670
334.999	214
335.227	132
335.455	95
335.684	98
335.912	87
336.14	102
336.369	95
336.597	97
336.825	97
337.053	93
337.281	102
337.51	93
337.738	108
337.966	93
338.194	97
338.422	94
338.65	88
338.878	101
339.106	102
339.334	83
339.562	80
339.79	95
340.018	105
340.246	82
340.474	99
340.702	85
340.93	89
341.158	98
341.386	95
341.614	96
341.842	93
342.07	84
342.298	97
342.526	83
342.754	102
342.981	85
343.209	88
343.437	97
343.665	77
343.893	94
344.12	86
344.348	87
344.576	86
344.804	75
345.031	94
345.259	82
345.487	79
345.714	93
345.942	98
346.17	86
346.397	75
346.625	88
346.853	97
347.08	93
347.308	86
347.535	102
347.763	107
347.99	98
348.218	92
348.445	102
348.673	107
348.9	94
349.128	88
349.355	110
349.583	98
349.81	88
350.037	96
350.265	92
350.492	85
350.72	72
350.947	98
351.174	117
351.402	108
351.629	101
351.856	107
352.083	102
352.311	91
352.538	97
352.765	87
352.992	102
353.22	111
353.447	97
353.674	100
353.901	104
354.128	96
354.355	95
354.583	87
354.81	90
355.037	84
355.264	88
355.491	93
355.718	93
355.945	88
356.172	79
356.399	91
356.626	79
356.853	92
357.08	94
357.307	93
357.534	95
357.761	102
357.988	84
358.215	92
358.441	85
358.668	97
358.895	92
359.122	81
359.349	66
359.576	82
359.802	96
360.029	118
360.256	100
360.483	102
360.709	76
360.936	93
361.163	90
361.39	82
361.616	84
361.843	85
362.07	102
362.296	95
362.523	90
362.749	88
362.976	95
363.203	92
363.429	74
363.656	79
363.882	82
364.109	92
364.335	94
364.562	77
364.788	87
365.015	99
365.241	97
365.468	97
365.694	95
365.92	101
366.147	90
366.373	80
366.599	76
366.826	92
367.052	81
367.278	98
367.505	93
367.731	85
367.957	100
368.184	87
368.41	106
368.636	97
368.862	112
369.089	86
369.315	101
369.541	81
369.767	81
369.993	81
370.219	78
370.445	93
370.672	101
370.898	84
371.124	80
371.35	73
371.576	85
371.802	72
372.028	80
372.254	90
372.48	69
372.706	99
372.932	91
373.158	81
373.384	103
373.61	89
373.835	87
374.061	89
374.287	81
374.513	90
374.739	76
374.965	85
375.191	78
375.416	87
375.642	101
375.868	102
376.094	78
376.319	80
376.545	100
376.771	89
376.997	85
377.222	93
377.448	92
377.674	85
377.899	88
378.125	91
378.35	106
378.576	95
378.802	93
379.027	93
379.253	87
379.478	83
379.704	98
379.929	82
380.155	86
380.38	94
380.606	81
380.831	85
381.057	92
381.282	91
381.507	90
381.733	81
381.958	89
382.184	92
382.409	86
382.634	84
382.86	83
383.085	99
383.31	87
383.535	85
383.761	84
383.986	96
384.211	88
384.436	90
384.662	90
384.887	98
385.112	111
385.337	96
385.562	99
385.787	105
386.013	109
386.238	92
386.463	93
386.688	104
386.913	87
387.138	96
387.363	94
387.588	81
387.813	106
388.038	108
388.263	94
388.488	103
388.713	98
388.938	85
389.163	84
389.387	87
389.612	93
389.837	99
390.062	83
390.287	85
390.512	92
390.736	67
390.961	70
391.186	89
391.411	104
391.636	93
391.86	75
392.085	86
392.31	71
392.534	89
392.759	87
392.984	86
393.208	89
393.433	92
393.658	81
393.882	79
394.107	89
394.331	88
394.556	79
394.78	77
395.005	85
395.229	91
395.454	100
395.678	84
395.903	84
396.127	85
396.352	95
396.576	81
396.801	86
397.025	91
397.249	87
397.474	79
397.698	78
397.922	96
398.147	83
398.371	74
398.595	88
398.82	81
399.044	90
399.268	96
399.492	74
399.717	83
399.941	80
400.165	94
400.389	97
400.613	84
400.837	82
401.062	88
401.286	85
401.51	88
401.734	94
401.958	94
402.182	115
402.406	141
402.63	101
402.854	98
403.078	83
403.302	64
403.526	87
403.75	96
403.974	83
404.198	85
404.422	80
404.645	81
404.869	87
405.093	99
405.317	120
405.541	106
405.765	92
405.988	108
406.212	158
406.436	194
406.66	130
406.883	93
407.107	87
407.331	92
407.555	95
407.778	97
408.002	77
408.226	84
408.449	77
408.673	83
408.896	85
409.12	94
409.344	83
409.567	80
409.791	88
410.014	92
410.238	97
410.461	96
410.685	90
410.908	91
411.132	100
411.355	109
411.578	85
411.802	98
412.025	83
412.249	104
412.472	111
412.695	118
412.919	96
413.142	86
413.365	76
413.589	84
413.812	85
414.035	102
414.258	87
414.482	76
414.705	79
414.928	84
415.151	83
415.374	81
415.597	94
415.821	97
416.044	79
416.267	89
416.49	85
416.713	88
416.936	94
417.159	93
417.382	96
417.605	106
417.828	93
418.051	82
418.274	81
418.497	84
418.72	78
418.943	75
419.166	93
419.389	102
419.611	76
419.834	85
420.057	92
420.28	79
420.503	100
420.726	92
420.948	84
421.171	103
421.394	83
421.617	95
421.839	88
422.062	83
422.285	85
422.507	83
422.73	109
422.953	87
423.175	92
423.398	94
423.621	95
423.843	87
424.066	75
424.288	91
424.511	86
424.733	91
424.956	96
425.178	92
425.401	106
425.623	92
425.846	84
426.068	92
426.291	88
426.513	93
426.735	96
426.958	89
427.18	117
427.402	140
427.625	190
427.847	161
428.069	164
428.292	106
428.514	86
428.736	92
428.958	85
429.181	90
429.403	85
429.625	86
429.847	75
430.069	90
430.292	83
430.514	89
430.736	89
430.958	82
431.18	80
431.402	83
431.624	81
431.846	84
432.068	99
432.29	92
432.512	83
432.734	91
432.956	94
433.178	94
433.4	101
433.622	83
433.844	81
434.066	89
434.287	81
434.509	94
434.731	80
434.953	88
435.175	99
435.397	77
435.618	87
435.84	89
436.062	114
436.284	122
436.505	83
436.727	98
436.949	69
437.17	86
437.392	93
437.614	91
437.835	95
438.057	122
438.278	101
438.5	81
438.721	126
438.943	90
439.165	94
439.386	80
439.608	89
439.829	106
440.05	122
440.272	144
440.493	93
440.715	82
440.936	91
441.158	82
441.379	87
441.6	98
441.822	88
442.043	83
442.264	130
442.486	107
442.707	94
442.928	92
443.149	127
443.371	109
443.592	99
443.813	102
444.034	93
444.255	95
444.476	74
444.698	86
444.919	81
445.14	124
445.361	114
445.582	108
445.803	138
446.024	120
446.245	138
446.466	107
446.687	90
446.908	104
447.129	91
447.35	86
447.571	82
447.792	102
448.013	102
448.234	99
448.455	113
448.675	105
448.896	110
449.117	105
449.338	105
449.559	121
449.779	124
450	108
450.221	92
450.442	90
450.662	89
450.883	86
451.104	118
451.324	82
451.545	84
451.766	89
451.986	85
452.207	98
452.428	90
452.648	95
452.869	117
453.089	102
453.31	100
453.53	99
453.751	104
453.971	95
454.192	104
454.412	93
454.633	94
454.853	91
455.073	89
455.294	79
455.514	104
455.734	85
455.955	82
456.175	95
456.395	84
456.616	73
456.836	81
457.056	79
457.276	82
457.497	84
457.717	95
457.937	75
458.157	87
458.377	94
458.598	108
458.818	146
459.038	154
459.258	117
459.478	99
459.698	81
459.918	96
460.138	77
460.358	63
460.578	80
460.798	79
461.018	73
461.238	100
461.458	82
461.678	78
461.898	78
462.118	88
462.338	92
462.558	109
462.777	91
462.997	97
463.217	88
463.437	80
463.657	87
463.876	98
464.096	78
464.316	99
464.536	80
464.755	90
464.975	93
465.195	162
465.414	159
465.634	98
465.854	85
466.073	89
466.293	83
466.512	88
466.732	92
466.951	90
467.171	83
467.391	88
467.61	117
467.829	131
468.049	268
468.268	365
468.488	131
468.707	93
468.927	96
469.146	88
469.365	82
469.585	89
469.804	96
470.023	88
470.243	94
470.462	106
470.681	107
470.901	85
471.12	102
471.339	96
471.558	101
471.777	108
471.997	154
472.216	489
472.435	1023
472.654	274
472.873	112
473.092	87
473.311	98
473.53	101
473.749	93
473.968	92
474.187	107
474.406	99
474.625	91
474.844	89
475.063	90
475.282	89
475.501	85
475.72	90
475.939	74
476.158	85
476.377	84
476.596	93
476.814	92
477.033	74
477.252	94
477.471	84
477.69	100
477.908	84
478.127	92
478.346	83
478.564	91
478.783	90
479.002	102
479.22	99
479.439	98
479.658	101
479.876	101
480.095	90
480.313	98
480.532	105
480.751	170
480.969	503
481.188	1764
481.406	1041
481.624	194
481.843	95
482.061	92
482.28	95
482.498	93
482.717	90
482.935	77
483.153	84
483.372	88
483.59	83
483.808	89
484.027	89
484.245	94
484.463	92
484.681	99
484.9	97
485.118	98
485.336	85
485.554	88
485.772	102
485.99	95
486.209	112
486.427	95
486.645	82
486.863	92
487.081	85
487.299	95
487.517	103
487.735	92
487.953	85
488.171	95
488.389	91
488.607	101
488.825	92
489.043	94
489.261	94
489.479	91
489.696	104
489.914	80
490.132	89
490.35	94
490.568	97
490.786	85
491.003	85
491.221	68
491.439	99
491.657	82
491.874	104
492.092	87
492.31	94
492.527	84
492.745	76
492.963	91
493.18	77
493.398	107
493.615	97
493.833	86
494.05	83
494.268	87
494.485	97
494.703	83
494.92	83
495.138	81
495.355	92
495.573	93
495.79	96
496.008	81
496.225	84
496.442	88
496.66	83
496.877	83
497.094	89
497.312	85
497.529	94
497.746	77
497.963	71
498.181	92
498.398	96
498.615	96
498.832	99
499.049	83
499.267	83
499.484	94
499.701	96
499.918	84
500.135	88
500.352	85
500.569	94
500.786	94
501.003	94
501.22	80
501.437	100
501.654	106
501.871	99
502.088	95
502.305	81
502.522	70
502.739	75
502.956	80
503.172	91
503.389	87
503.606	96
503.823	99
504.04	95
504.256	91
504.473	81
504.69	90
504.907	89
505.123	88
505.34	91
505.557	83
505.773	92
505.99	82
506.207	96
506.423	85
506.64	97
506.856	90
507.073	101
507.289	99
507.506	92
507.722	111
507.939	104
508.155	93
508.372	96
508.588	86
508.805	80
509.021	80
509.238	95
509.454	103
509.67	95
509.887	120
510.103	113
510.319	193
510.536	618
510.752	1968
510.968	562
511.184	132
511.401	113
511.617	102
511.833	112
512.049	104
512.265	82
512.481	87
512.698	90
512.914	89
513.13	105
513.346	98
513.562	91
513.778	99
513.994	92
514.21	102
514.426	98
514.642	114
514.858	100
515.074	159
515.29	394
515.506	1289
515.721	488
515.937	156
516.153	118
516.369	74
516.585	92
516.801	98
517.016	94
517.232	108
517.448	92
517.664	100
517.879	99
518.095	90
518.311	103
518.527	102
518.742	99
518.958	92
519.173	89
519.389	106
519.605	90
519.82	105
520.036	97
520.251	109
520.467	101
520.682	104
520.898	117
521.113	114
521.329	132
521.544	177
521.76	482
521.975	2144
522.19	1272
522.406	289
522.621	133
522.836	112
523.052	92
523.267	85
523.482	86
523.698	92
523.913	120
524.128	93
524.343	102
524.559	91
524.774	107
524.989	94
525.204	116
525.419	75
525.634	90
525.849	91
526.064	95
526.28	98
526.495	93
526.71	88
526.925	90
527.14	90
527.355	81
527.57	83
527.785	92
527.999	91
528.214	94
528.429	94
528.644	101
528.859	91
529.074	97
529.289	97
529.503	152
529.718	101
529.933	94
530.148	79
530.363	85
530.577	100
530.792	101
531.007	84
531.221	79
531.436	76
531.651	86
531.865	77
532.08	91
532.295	99
532.509	96
532.724	100
532.938	81
533.153	91
533.367	86
533.582	99
533.796	95
534.011	90
534.225	83
534.44	96
534.654	80
534.868	88
535.083	101
535.297	100
535.511	91
535.726	106
535.94	86
536.154	81
536.369	79
536.583	95
536.797	92
537.011	90
537.225	82
537.44	86
537.654	90
537.868	90
538.082	88
538.296	92
538.51	101
538.724	91
538.938	86
539.153	85
539.367	106
539.581	82
539.795	96
540.009	89
540.222	86
540.436	89
540.65	92
540.864	90
541.078	89
541.292	96
541.506	92
541.72	85
541.934	93
542.147	97
542.361	96
542.575	84
542.789	83
543.002	90
543.216	97
543.43	94
543.644	93
543.857	92
544.071	98
544.285	103
544.498	96
544.712	98
544.925	88
545.139	96
545.352	100
545.566	76
545.779	89
545.993	86
546.206	82
546.42	75
546.633	78
546.847	76
547.06	87
547.274	93
547.487	92
547.7	85
547.914	79
548.127	98
548.34	88
548.554	96
548.767	100
548.98	96
549.193	102
549.407	75
549.62	86
549.833	92
550.046	84
550.259	96
550.473	86
550.686	90
550.899	83
551.112	85
551.325	85
551.538	79
551.751	84
551.964	79
552.177	86
552.39	89
552.603	91
552.816	89
553.029	92
553.242	87
553.455	108
553.667	90
553.88	92
554.093	87
554.306	94
554.519	102
554.732	84
554.944	92
555.157	88
555.37	92
555.583	102
555.795	80
556.008	93
556.221	98
556.433	84
556.646	92
556.859	93
557.071	94
557.284	95
557.496	87
557.709	79
557.921	82
558.134	78
558.346	78
558.559	94
558.771	74
558.984	83
559.196	86
559.409	85
559.621	89
559.833	72
560.046	78
560.258	92
560.47	98
560.683	84
560.895	88
561.107	80
561.32	91
561.532	96
561.744	83
561.956	98
562.168	93
562.381	82
562.593	100
562.805	78
563.017	96
563.229	98
563.441	89
563.653	83
563.865	80
564.077	78
564.289	89
564.501	97
564.713	100
564.925	88
565.137	99
565.349	95
565.561	86
565.773	100
565.985	81
566.197	100
566.408	81
566.62	92
566.832	82
567.044	72
567.255	79
567.467	75
567.679	75
567.891	84
568.102	87
568.314	79
568.526	108
568.737	97
568.949	83
569.161	79
569.372	72
569.584	81
569.795	102
570.007	117
570.218	211
570.43	129
570.641	96
570.853	73
571.064	89
571.276	80
571.487	84
571.698	93
571.91	97
572.121	83
572.333	89
572.544	65
572.755	76
572.966	97
573.178	81
573.389	87
573.6	82
573.811	82
574.023	79
574.234	86
574.445	81
574.656	91
574.867	88
575.078	90
575.289	85
575.501	85
575.712	90
575.923	80
576.134	93
576.345	86
576.556	82
576.767	81
576.978	84
577.188	86
577.399	83
577.61	94
577.821	93
578.032	113
578.243	246
578.454	616
578.665	188
578.875	111
579.086	97
579.297	74
579.508	72
579.718	84
579.929	92
580.14	81
580.35	83
580.561	67
580.772	82
580.982	83
581.193	90
581.403	94
581.614	94
581.825	76
582.035	74
582.246	77
582.456	85
582.667	88
582.877	76
583.087	78
583.298	93
583.508	85
583.719	81
583.929	81
584.139	84
584.35	83
584.56	95
584.77	91
584.981	90
585.191	78
