Data from Circ_1991_H10_HRD10591_00045.txt Node
Date: Wed Jan 03 11:51:50 EST 2024
User: Yrep
Spectrometer: HR+D1059
Trigger mode: 1
Integration Time (sec): 1.000000E-1
Scans to average: 1
Electric dark correction enabled: true
Nonlinearity correction enabled: false
Boxcar width: 0
XAxis mode: Wavelengths
Number of Pixels in Spectrum: 2048
>>>>>Begin Spectral Data<<<<<
223.165	-26.38
223.4	-26.38
223.635	-26.38
223.869	-17.38
224.104	2.62
224.338	-16.38
224.573	-19.38
224.808	-14.38
225.042	-9.38
225.277	-0.38
225.511	-5.38
225.746	6.62
225.98	18.62
226.215	21.62
226.449	4.62
226.683	3.62
226.918	17.62
227.152	33.62
227.387	43.62
227.621	52.62
227.856	36.62
228.09	42.62
228.324	38.62
228.559	64.62
228.793	58.62
229.027	65.62
229.262	63.62
229.496	54.62
229.73	91.62
229.964	78.62
230.199	76.62
230.433	67.62
230.667	70.62
230.901	85.62
231.136	81.62
231.37	84.62
231.604	77.62
231.838	92.62
232.072	74.62
232.306	84.62
232.541	77.62
232.775	78.62
233.009	84.62
233.243	91.62
233.477	74.62
233.711	66.62
233.945	90.62
234.179	84.62
234.413	73.62
234.647	92.62
234.881	68.62
235.115	82.62
235.349	88.62
235.583	100.62
235.817	84.62
236.051	57.62
236.285	91.62
236.519	69.62
236.753	85.62
236.987	77.62
237.221	81.62
237.455	88.62
237.689	74.62
237.922	83.62
238.156	71.62
238.39	63.62
238.624	88.62
238.858	98.62
239.091	76.62
239.325	74.62
239.559	84.62
239.793	84.62
240.027	74.62
240.26	85.62
240.494	75.62
240.728	91.62
240.961	67.62
241.195	82.62
241.429	69.62
241.662	68.62
241.896	67.62
242.13	86.62
242.363	88.62
242.597	69.62
242.83	74.62
243.064	74.62
243.298	66.62
243.531	76.62
243.765	74.62
243.998	81.62
244.232	85.62
244.465	83.62
244.699	88.62
244.932	85.62
245.166	77.62
245.399	80.62
245.633	84.62
245.866	76.62
246.099	81.62
246.333	71.62
246.566	81.62
246.8	74.62
247.033	85.62
247.266	75.62
247.5	75.62
247.733	81.62
247.966	84.62
248.2	84.62
248.433	80.62
248.666	87.62
248.899	75.62
249.133	89.62
249.366	93.62
249.599	103.62
249.832	93.62
250.066	84.62
250.299	86.62
250.532	76.62
250.765	85.62
250.998	76.62
251.231	78.62
251.465	82.62
251.698	86.62
251.931	70.62
252.164	81.62
252.397	83.62
252.63	87.62
252.863	86.62
253.096	82.62
253.329	89.62
253.562	68.62
253.795	85.62
254.028	76.62
254.261	65.62
254.494	80.62
254.727	88.62
254.96	76.62
255.193	74.62
255.426	88.62
255.659	76.62
255.892	81.62
256.124	73.62
256.357	76.62
256.59	86.62
256.823	53.62
257.056	84.62
257.289	82.62
257.521	85.62
257.754	82.62
257.987	82.62
258.22	108.62
258.452	96.62
258.685	85.62
258.918	67.62
259.151	82.62
259.383	91.62
259.616	82.62
259.849	72.62
260.081	81.62
260.314	81.62
260.547	87.62
260.779	82.62
261.012	74.62
261.244	71.62
261.477	75.62
261.71	84.62
261.942	103.62
262.175	110.62
262.407	75.62
262.64	79.62
262.872	71.62
263.105	83.62
263.337	93.62
263.57	79.62
263.802	85.62
264.035	77.62
264.267	79.62
264.499	74.62
264.732	78.62
264.964	91.62
265.197	92.62
265.429	77.62
265.661	82.62
265.894	82.62
266.126	85.62
266.358	92.62
266.591	102.62
266.823	80.62
267.055	86.62
267.287	79.62
267.52	71.62
267.752	88.62
267.984	88.62
268.216	84.62
268.448	80.62
268.681	84.62
268.913	87.62
269.145	85.62
269.377	96.62
269.609	93.62
269.841	87.62
270.073	83.62
270.306	93.62
270.538	78.62
270.77	72.62
271.002	79.62
271.234	76.62
271.466	76.62
271.698	86.62
271.93	86.62
272.162	102.62
272.394	94.62
272.626	80.62
272.858	77.62
273.09	69.62
273.322	81.62
273.553	92.62
273.785	86.62
274.017	74.62
274.249	89.62
274.481	90.62
274.713	82.62
274.945	72.62
275.176	86.62
275.408	79.62
275.64	79.62
275.872	106.62
276.104	89.62
276.335	92.62
276.567	94.62
276.799	113.62
277.031	111.62
277.262	104.62
277.494	100.62
277.726	88.62
277.957	89.62
278.189	100.62
278.421	94.62
278.652	90.62
278.884	87.62
279.115	89.62
279.347	79.62
279.579	90.62
279.81	94.62
280.042	107.62
280.273	104.62
280.505	115.62
280.736	87.62
280.968	103.62
281.199	78.62
281.431	92.62
281.662	90.62
281.894	88.62
282.125	101.62
282.356	108.62
282.588	134.62
282.819	117.62
283.051	93.62
283.282	88.62
283.513	86.62
283.745	78.62
283.976	79.62
284.207	73.62
284.439	77.62
284.67	99.62
284.901	76.62
285.132	94.62
285.364	84.62
285.595	74.62
285.826	91.62
286.057	85.62
286.288	93.62
286.52	85.62
286.751	98.62
286.982	88.62
287.213	82.62
287.444	88.62
287.675	91.62
287.906	79.62
288.138	84.62
288.369	80.62
288.6	92.62
288.831	85.62
289.062	87.62
289.293	87.62
289.524	96.62
289.755	93.62
289.986	91.62
290.217	102.62
290.448	90.62
290.679	91.62
290.91	96.62
291.141	93.62
291.371	82.62
291.602	91.62
291.833	82.62
292.064	90.62
292.295	92.62
292.526	86.62
292.757	103.62
292.987	98.62
293.218	94.62
293.449	81.62
293.68	105.62
293.91	96.62
294.141	89.62
294.372	85.62
294.603	90.62
294.833	94.62
295.064	80.62
295.295	96.62
295.525	82.62
295.756	94.62
295.987	101.62
296.217	109.62
296.448	115.62
296.679	95.62
296.909	85.62
297.14	94.62
297.37	87.62
297.601	86.62
297.831	99.62
298.062	99.62
298.292	85.62
298.523	92.62
298.753	85.62
298.984	95.62
299.214	89.62
299.445	90.62
299.675	87.62
299.905	110.62
300.136	97.62
300.366	80.62
300.597	74.62
300.827	98.62
301.057	94.62
301.288	99.62
301.518	101.62
301.748	86.62
301.979	114.62
302.209	80.62
302.439	94.62
302.669	84.62
302.9	96.62
303.13	100.62
303.36	96.62
303.59	96.62
303.82	99.62
304.051	83.62
304.281	92.62
304.511	96.62
304.741	79.62
304.971	95.62
305.201	108.62
305.431	102.62
305.661	96.62
305.891	85.62
306.121	80.62
306.352	99.62
306.582	99.62
306.812	98.62
307.042	106.62
307.272	93.62
307.502	107.62
307.731	115.62
307.961	88.62
308.191	90.62
308.421	84.62
308.651	96.62
308.881	104.62
309.111	98.62
309.341	91.62
309.571	93.62
309.8	106.62
310.03	109.62
310.26	89.62
310.49	101.62
310.72	100.62
310.949	93.62
311.179	93.62
311.409	93.62
311.639	91.62
311.868	92.62
312.098	98.62
312.328	96.62
312.557	98.62
312.787	100.62
313.017	97.62
313.246	90.62
313.476	94.62
313.706	76.62
313.935	99.62
314.165	92.62
314.394	102.62
314.624	95.62
314.853	98.62
315.083	94.62
315.312	108.62
315.542	95.62
315.771	91.62
316.001	107.62
316.23	98.62
316.46	89.62
316.689	93.62
316.919	99.62
317.148	92.62
317.377	90.62
317.607	82.62
317.836	81.62
318.065	88.62
318.295	94.62
318.524	91.62
318.753	102.62
318.983	84.62
319.212	98.62
319.441	109.62
319.67	102.62
319.9	102.62
320.129	92.62
320.358	89.62
320.587	86.62
320.816	93.62
321.046	109.62
321.275	84.62
321.504	88.62
321.733	106.62
321.962	92.62
322.191	106.62
322.42	109.62
322.649	109.62
322.878	110.62
323.108	124.62
323.337	121.62
323.566	128.62
323.795	157.62
324.024	199.62
324.253	376.62
324.482	794.62
324.71	1655.62
324.939	2179.62
325.168	804.62
325.397	239.62
325.626	142.62
325.855	126.62
326.084	132.62
326.313	125.62
326.542	139.62
326.77	218.62
326.999	431.62
327.228	930.62
327.457	1698.62
327.686	1325.62
327.914	386.62
328.143	223.62
328.372	240.62
328.6	171.62
328.829	113.62
329.058	132.62
329.287	127.62
329.515	125.62
329.744	139.62
329.972	179.62
330.201	303.62
330.43	394.62
330.658	220.62
330.887	157.62
331.115	120.62
331.344	110.62
331.572	101.62
331.801	101.62
332.03	108.62
332.258	101.62
332.486	91.62
332.715	90.62
332.943	98.62
333.172	112.62
333.4	114.62
333.629	104.62
333.857	131.62
334.085	176.62
334.314	286.62
334.542	478.62
334.771	458.62
334.999	168.62
335.227	118.62
335.455	102.62
335.684	97.62
335.912	90.62
336.14	116.62
336.369	103.62
336.597	100.62
336.825	121.62
337.053	102.62
337.281	101.62
337.51	96.62
337.738	103.62
337.966	83.62
338.194	89.62
338.422	81.62
338.65	87.62
338.878	96.62
339.106	85.62
339.334	86.62
339.562	100.62
339.79	81.62
340.018	88.62
340.246	91.62
340.474	99.62
340.702	98.62
340.93	97.62
341.158	91.62
341.386	85.62
341.614	78.62
341.842	87.62
342.07	78.62
342.298	86.62
342.526	98.62
342.754	86.62
342.981	102.62
343.209	98.62
343.437	92.62
343.665	88.62
343.893	98.62
344.12	100.62
344.348	94.62
344.576	94.62
344.804	87.62
345.031	86.62
345.259	98.62
345.487	90.62
345.714	95.62
345.942	95.62
346.17	95.62
346.397	86.62
346.625	88.62
346.853	88.62
347.08	83.62
347.308	82.62
347.535	96.62
347.763	115.62
347.99	91.62
348.218	102.62
348.445	97.62
348.673	100.62
348.9	92.62
349.128	89.62
349.355	93.62
349.583	78.62
349.81	87.62
350.037	97.62
350.265	99.62
350.492	107.62
350.72	85.62
350.947	109.62
351.174	96.62
351.402	105.62
351.629	98.62
351.856	93.62
352.083	84.62
352.311	101.62
352.538	108.62
352.765	98.62
352.992	114.62
353.22	112.62
353.447	107.62
353.674	103.62
353.901	97.62
354.128	99.62
354.355	94.62
354.583	102.62
354.81	102.62
355.037	91.62
355.264	97.62
355.491	98.62
355.718	79.62
355.945	89.62
356.172	90.62
356.399	94.62
356.626	93.62
356.853	85.62
357.08	93.62
357.307	101.62
357.534	102.62
357.761	96.62
357.988	96.62
358.215	105.62
358.441	94.62
358.668	97.62
358.895	97.62
359.122	95.62
359.349	100.62
359.576	86.62
359.802	92.62
360.029	105.62
360.256	91.62
360.483	98.62
360.709	66.62
360.936	87.62
361.163	95.62
361.39	96.62
361.616	67.62
361.843	92.62
362.07	92.62
362.296	102.62
362.523	90.62
362.749	102.62
362.976	80.62
363.203	103.62
363.429	77.62
363.656	71.62
363.882	94.62
364.109	99.62
364.335	108.62
364.562	84.62
364.788	91.62
365.015	80.62
365.241	87.62
365.468	99.62
365.694	98.62
365.92	93.62
366.147	94.62
366.373	98.62
366.599	91.62
366.826	83.62
367.052	81.62
367.278	86.62
367.505	80.62
367.731	96.62
367.957	89.62
368.184	90.62
368.41	81.62
368.636	110.62
368.862	121.62
369.089	93.62
369.315	95.62
369.541	97.62
369.767	90.62
369.993	89.62
370.219	96.62
370.445	92.62
370.672	79.62
370.898	100.62
371.124	83.62
371.35	94.62
371.576	85.62
371.802	83.62
372.028	78.62
372.254	97.62
372.48	90.62
372.706	89.62
372.932	102.62
373.158	95.62
373.384	92.62
373.61	81.62
373.835	83.62
374.061	82.62
374.287	91.62
374.513	98.62
374.739	87.62
374.965	102.62
375.191	86.62
375.416	94.62
375.642	88.62
375.868	95.62
376.094	91.62
376.319	91.62
376.545	96.62
376.771	97.62
376.997	102.62
377.222	95.62
377.448	107.62
377.674	90.62
377.899	97.62
378.125	83.62
378.35	98.62
378.576	91.62
378.802	85.62
379.027	78.62
379.253	86.62
379.478	83.62
379.704	85.62
379.929	102.62
380.155	91.62
380.38	98.62
380.606	90.62
380.831	101.62
381.057	91.62
381.282	103.62
381.507	86.62
381.733	95.62
381.958	95.62
382.184	94.62
382.409	93.62
382.634	91.62
382.86	88.62
383.085	93.62
383.31	104.62
383.535	100.62
383.761	101.62
383.986	90.62
384.211	117.62
384.436	102.62
384.662	101.62
384.887	104.62
385.112	115.62
385.337	101.62
385.562	98.62
385.787	107.62
386.013	112.62
386.238	113.62
386.463	113.62
386.688	113.62
386.913	98.62
387.138	101.62
387.363	96.62
387.588	93.62
387.813	116.62
388.038	108.62
388.263	112.62
388.488	104.62
388.713	101.62
388.938	97.62
389.163	96.62
389.387	91.62
389.612	95.62
389.837	95.62
390.062	87.62
390.287	86.62
390.512	91.62
390.736	82.62
390.961	86.62
391.186	90.62
391.411	95.62
391.636	93.62
391.86	87.62
392.085	85.62
392.31	87.62
392.534	98.62
392.759	99.62
392.984	82.62
393.208	116.62
393.433	130.62
393.658	104.62
393.882	87.62
394.107	82.62
394.331	86.62
394.556	79.62
394.78	80.62
395.005	83.62
395.229	76.62
395.454	85.62
395.678	73.62
395.903	87.62
396.127	101.62
396.352	92.62
396.576	93.62
396.801	97.62
397.025	102.62
397.249	89.62
397.474	92.62
397.698	93.62
397.922	82.62
398.147	94.62
398.371	86.62
398.595	78.62
398.82	89.62
399.044	89.62
399.268	78.62
399.492	94.62
399.717	79.62
399.941	95.62
400.165	83.62
400.389	90.62
400.613	86.62
400.837	85.62
401.062	104.62
401.286	78.62
401.51	76.62
401.734	92.62
401.958	106.62
402.182	139.62
402.406	141.62
402.63	111.62
402.854	82.62
403.078	86.62
403.302	82.62
403.526	82.62
403.75	87.62
403.974	85.62
404.198	88.62
404.422	90.62
404.645	66.62
404.869	89.62
405.093	113.62
405.317	106.62
405.541	113.62
405.765	99.62
405.988	95.62
406.212	132.62
406.436	203.62
406.66	140.62
406.883	101.62
407.107	92.62
407.331	95.62
407.555	98.62
407.778	85.62
408.002	83.62
408.226	86.62
408.449	79.62
408.673	83.62
408.896	90.62
409.12	94.62
409.344	93.62
409.567	84.62
409.791	94.62
410.014	88.62
410.238	94.62
410.461	84.62
410.685	92.62
410.908	90.62
411.132	107.62
411.355	104.62
411.578	98.62
411.802	100.62
412.025	98.62
412.249	87.62
412.472	95.62
412.695	95.62
412.919	88.62
413.142	99.62
413.365	91.62
413.589	93.62
413.812	86.62
414.035	101.62
414.258	90.62
414.482	93.62
414.705	95.62
414.928	89.62
415.151	88.62
415.374	90.62
415.597	72.62
415.821	83.62
416.044	79.62
416.267	82.62
416.49	86.62
416.713	75.62
416.936	76.62
417.159	91.62
417.382	87.62
417.605	90.62
417.828	102.62
418.051	92.62
418.274	85.62
418.497	98.62
418.72	74.62
418.943	90.62
419.166	87.62
419.389	72.62
419.611	95.62
419.834	90.62
420.057	93.62
420.28	101.62
420.503	84.62
420.726	94.62
420.948	83.62
421.171	93.62
421.394	100.62
421.617	102.62
421.839	94.62
422.062	92.62
422.285	72.62
422.507	107.62
422.73	110.62
422.953	82.62
423.175	99.62
423.398	90.62
423.621	87.62
423.843	92.62
424.066	96.62
424.288	91.62
424.511	104.62
424.733	94.62
424.956	94.62
425.178	75.62
425.401	85.62
425.623	99.62
425.846	92.62
426.068	100.62
426.291	95.62
426.513	91.62
426.735	91.62
426.958	86.62
427.18	103.62
427.402	127.62
427.625	164.62
427.847	146.62
428.069	144.62
428.292	98.62
428.514	89.62
428.736	97.62
428.958	82.62
429.181	92.62
429.403	89.62
429.625	95.62
429.847	104.62
430.069	107.62
430.292	80.62
430.514	79.62
430.736	87.62
430.958	88.62
431.18	87.62
431.402	90.62
431.624	80.62
431.846	87.62
432.068	83.62
432.29	91.62
432.512	88.62
432.734	103.62
432.956	90.62
433.178	86.62
433.4	103.62
433.622	87.62
433.844	93.62
434.066	93.62
434.287	95.62
434.509	82.62
434.731	74.62
434.953	85.62
435.175	75.62
435.397	79.62
435.618	101.62
435.84	99.62
436.062	128.62
436.284	117.62
436.505	106.62
436.727	112.62
436.949	95.62
437.17	84.62
437.392	67.62
437.614	78.62
437.835	94.62
438.057	103.62
438.278	117.62
438.5	98.62
438.721	100.62
438.943	94.62
439.165	90.62
439.386	97.62
439.608	102.62
439.829	96.62
440.05	110.62
440.272	132.62
440.493	98.62
440.715	90.62
440.936	85.62
441.158	88.62
441.379	86.62
441.6	95.62
441.822	96.62
442.043	77.62
442.264	109.62
442.486	86.62
442.707	76.62
442.928	96.62
443.149	120.62
443.371	113.62
443.592	108.62
443.813	103.62
444.034	96.62
444.255	99.62
444.476	98.62
444.698	78.62
444.919	84.62
445.14	123.62
445.361	113.62
445.582	101.62
445.803	129.62
446.024	136.62
446.245	119.62
446.466	114.62
446.687	79.62
446.908	94.62
447.129	95.62
447.35	101.62
447.571	79.62
447.792	91.62
448.013	92.62
448.234	109.62
448.455	89.62
448.675	106.62
448.896	99.62
449.117	103.62
449.338	108.62
449.559	116.62
449.779	126.62
450	82.62
450.221	88.62
450.442	88.62
450.662	84.62
450.883	122.62
451.104	112.62
451.324	103.62
451.545	86.62
451.766	88.62
451.986	82.62
452.207	94.62
452.428	78.62
452.648	106.62
452.869	108.62
453.089	105.62
453.31	100.62
453.53	85.62
453.751	87.62
453.971	94.62
454.192	104.62
454.412	106.62
454.633	97.62
454.853	80.62
455.073	101.62
455.294	83.62
455.514	98.62
455.734	84.62
455.955	61.62
456.175	86.62
456.395	83.62
456.616	83.62
456.836	92.62
457.056	91.62
457.276	75.62
457.497	85.62
457.717	84.62
457.937	80.62
458.157	90.62
458.377	80.62
458.598	100.62
458.818	139.62
459.038	154.62
459.258	90.62
459.478	87.62
459.698	93.62
459.918	77.62
460.138	81.62
460.358	86.62
460.578	84.62
460.798	93.62
461.018	96.62
461.238	88.62
461.458	86.62
461.678	93.62
461.898	84.62
462.118	94.62
462.338	79.62
462.558	91.62
462.777	76.62
462.997	91.62
463.217	83.62
463.437	84.62
463.657	102.62
463.876	87.62
464.096	84.62
464.316	98.62
464.536	96.62
464.755	93.62
464.975	103.62
465.195	144.62
465.414	149.62
465.634	94.62
465.854	86.62
466.073	79.62
466.293	84.62
466.512	82.62
466.732	78.62
466.951	87.62
467.171	91.62
467.391	108.62
467.61	93.62
467.829	104.62
468.049	220.62
468.268	277.62
468.488	130.62
468.707	89.62
468.927	92.62
469.146	97.62
469.365	80.62
469.585	95.62
469.804	90.62
470.023	106.62
470.243	94.62
470.462	110.62
470.681	115.62
470.901	94.62
471.12	101.62
471.339	76.62
471.558	79.62
471.777	96.62
471.997	126.62
472.216	370.62
472.435	699.62
472.654	197.62
472.873	102.62
473.092	82.62
473.311	66.62
473.53	86.62
473.749	88.62
473.968	86.62
474.187	99.62
474.406	96.62
474.625	96.62
474.844	85.62
475.063	76.62
475.282	95.62
475.501	99.62
475.72	86.62
475.939	79.62
476.158	74.62
476.377	86.62
476.596	75.62
476.814	105.62
477.033	101.62
477.252	89.62
477.471	99.62
477.69	99.62
477.908	85.62
478.127	90.62
478.346	90.62
478.564	89.62
478.783	100.62
479.002	88.62
479.22	76.62
479.439	101.62
479.658	104.62
479.876	103.62
480.095	105.62
480.313	96.62
480.532	114.62
480.751	135.62
480.969	348.62
481.188	1216.62
481.406	708.62
481.624	170.62
481.843	102.62
482.061	95.62
482.28	97.62
482.498	96.62
482.717	85.62
482.935	99.62
483.153	83.62
483.372	88.62
483.59	85.62
483.808	90.62
484.027	91.62
484.245	90.62
484.463	88.62
484.681	82.62
484.9	86.62
485.118	105.62
485.336	75.62
485.554	96.62
485.772	100.62
485.99	115.62
486.209	94.62
486.427	103.62
486.645	101.62
486.863	115.62
487.081	83.62
487.299	87.62
487.517	100.62
487.735	88.62
487.953	92.62
488.171	95.62
488.389	87.62
488.607	91.62
488.825	89.62
489.043	102.62
489.261	108.62
489.479	97.62
489.696	104.62
489.914	86.62
490.132	81.62
490.35	96.62
490.568	86.62
490.786	91.62
491.003	82.62
491.221	89.62
491.439	81.62
491.657	100.62
491.874	100.62
492.092	90.62
492.31	88.62
492.527	99.62
492.745	95.62
492.963	76.62
493.18	76.62
493.398	97.62
493.615	90.62
493.833	95.62
494.05	106.62
494.268	71.62
494.485	74.62
494.703	91.62
494.92	88.62
495.138	114.62
495.355	86.62
495.573	100.62
495.79	94.62
496.008	109.62
496.225	98.62
496.442	93.62
496.66	76.62
496.877	96.62
497.094	75.62
497.312	80.62
497.529	100.62
497.746	83.62
497.963	95.62
498.181	94.62
498.398	92.62
498.615	101.62
498.832	103.62
499.049	95.62
499.267	84.62
499.484	90.62
499.701	78.62
499.918	102.62
500.135	98.62
500.352	82.62
500.569	94.62
500.786	93.62
501.003	95.62
501.22	88.62
501.437	85.62
501.654	92.62
501.871	102.62
502.088	103.62
502.305	95.62
502.522	94.62
502.739	92.62
502.956	83.62
503.172	87.62
503.389	91.62
503.606	111.62
503.823	87.62
504.04	92.62
504.256	91.62
504.473	92.62
504.69	95.62
504.907	97.62
505.123	87.62
505.34	86.62
505.557	97.62
505.773	93.62
505.99	87.62
506.207	91.62
506.423	76.62
506.64	86.62
506.856	87.62
507.073	82.62
507.289	93.62
507.506	102.62
507.722	98.62
507.939	103.62
508.155	85.62
508.372	92.62
508.588	96.62
508.805	112.62
509.021	102.62
509.238	90.62
509.454	91.62
509.67	96.62
509.887	113.62
510.103	128.62
510.319	190.62
510.536	676.62
510.752	2085.62
510.968	570.62
511.184	145.62
511.401	101.62
511.617	97.62
511.833	83.62
512.049	101.62
512.265	95.62
512.481	93.62
512.698	98.62
512.914	99.62
513.13	104.62
513.346	94.62
513.562	90.62
513.778	88.62
513.994	91.62
514.21	99.62
514.426	124.62
514.642	134.62
514.858	120.62
515.074	155.62
515.29	396.62
515.506	1261.62
