Data from Circ_1991_H10_HRD10591_00012.txt Node
Date: Wed Jan 03 11:51:43 EST 2024
User: Yrep
Spectrometer: HR+D1059
Trigger mode: 1
Integration Time (sec): 1.000000E-1
Scans to average: 1
Electric dark correction enabled: true
Nonlinearity correction enabled: false
Boxcar width: 0
XAxis mode: Wavelengths
Number of Pixels in Spectrum: 2048
>>>>>Begin Spectral Data<<<<<
223.165	-14.19
223.4	-14.19
223.635	-14.19
223.869	-18.19
224.104	-16.19
224.338	-10.19
224.573	-11.19
224.808	-17.19
225.042	-17.19
225.277	-18.19
225.511	2.81
225.746	6.81
225.98	10.81
226.215	13.81
226.449	4.81
226.683	27.81
226.918	25.81
227.152	29.81
227.387	31.81
227.621	33.81
227.856	42.81
228.09	57.81
228.324	50.81
228.559	60.81
228.793	53.81
229.027	74.81
229.262	68.81
229.496	70.81
229.73	66.81
229.964	83.81
230.199	74.81
230.433	79.81
230.667	67.81
230.901	71.81
231.136	99.81
231.37	71.81
231.604	73.81
231.838	84.81
232.072	86.81
232.306	89.81
232.541	88.81
232.775	78.81
233.009	83.81
233.243	74.81
233.477	74.81
233.711	78.81
233.945	85.81
234.179	82.81
234.413	84.81
234.647	93.81
234.881	70.81
235.115	94.81
235.349	78.81
235.583	96.81
235.817	92.81
236.051	86.81
236.285	74.81
236.519	74.81
236.753	90.81
236.987	90.81
237.221	83.81
237.455	68.81
237.689	79.81
237.922	73.81
238.156	84.81
238.39	83.81
238.624	76.81
238.858	74.81
239.091	68.81
239.325	71.81
239.559	81.81
239.793	73.81
240.027	73.81
240.26	77.81
240.494	73.81
240.728	66.81
240.961	81.81
241.195	68.81
241.429	70.81
241.662	74.81
241.896	54.81
242.13	62.81
242.363	63.81
242.597	79.81
242.83	86.81
243.064	93.81
243.298	80.81
243.531	65.81
243.765	78.81
243.998	61.81
244.232	81.81
244.465	81.81
244.699	89.81
244.932	86.81
245.166	83.81
245.399	77.81
245.633	79.81
245.866	77.81
246.099	67.81
246.333	87.81
246.566	73.81
246.8	80.81
247.033	77.81
247.266	76.81
247.5	75.81
247.733	87.81
247.966	76.81
248.2	99.81
248.433	85.81
248.666	87.81
248.899	87.81
249.133	92.81
249.366	107.81
249.599	70.81
249.832	78.81
250.066	91.81
250.299	78.81
250.532	89.81
250.765	71.81
250.998	69.81
251.231	67.81
251.465	85.81
251.698	82.81
251.931	81.81
252.164	76.81
252.397	78.81
252.63	84.81
252.863	83.81
253.096	86.81
253.329	83.81
253.562	78.81
253.795	84.81
254.028	94.81
254.261	82.81
254.494	78.81
254.727	74.81
254.96	84.81
255.193	88.81
255.426	87.81
255.659	90.81
255.892	77.81
256.124	86.81
256.357	85.81
256.59	87.81
256.823	89.81
257.056	61.81
257.289	92.81
257.521	70.81
257.754	86.81
257.987	83.81
258.22	75.81
258.452	76.81
258.685	77.81
258.918	80.81
259.151	83.81
259.383	82.81
259.616	88.81
259.849	71.81
260.081	77.81
260.314	61.81
260.547	60.81
260.779	91.81
261.012	85.81
261.244	75.81
261.477	79.81
261.71	87.81
261.942	110.81
262.175	114.81
262.407	83.81
262.64	90.81
262.872	79.81
263.105	90.81
263.337	73.81
263.57	95.81
263.802	76.81
264.035	85.81
264.267	90.81
264.499	85.81
264.732	87.81
264.964	94.81
265.197	79.81
265.429	74.81
265.661	81.81
265.894	86.81
266.126	70.81
266.358	84.81
266.591	76.81
266.823	74.81
267.055	86.81
267.287	89.81
267.52	88.81
267.752	101.81
267.984	86.81
268.216	78.81
268.448	92.81
268.681	75.81
268.913	77.81
269.145	78.81
269.377	89.81
269.609	91.81
269.841	83.81
270.073	67.81
270.306	80.81
270.538	80.81
270.77	85.81
271.002	84.81
271.234	89.81
271.466	97.81
271.698	79.81
271.93	81.81
272.162	80.81
272.394	91.81
272.626	91.81
272.858	71.81
273.09	78.81
273.322	86.81
273.553	88.81
273.785	78.81
274.017	89.81
274.249	76.81
274.481	85.81
274.713	71.81
274.945	77.81
275.176	93.81
275.408	91.81
275.64	96.81
275.872	75.81
276.104	77.81
276.335	83.81
276.567	100.81
276.799	100.81
277.031	106.81
277.262	107.81
277.494	91.81
277.726	91.81
277.957	92.81
278.189	100.81
278.421	84.81
278.652	60.81
278.884	89.81
279.115	102.81
279.347	93.81
279.579	86.81
279.81	94.81
280.042	85.81
280.273	103.81
280.505	110.81
280.736	92.81
280.968	74.81
281.199	78.81
281.431	91.81
281.662	93.81
281.894	90.81
282.125	87.81
282.356	118.81
282.588	115.81
282.819	93.81
283.051	89.81
283.282	82.81
283.513	102.81
283.745	87.81
283.976	87.81
284.207	78.81
284.439	77.81
284.67	98.81
284.901	86.81
285.132	90.81
285.364	87.81
285.595	97.81
285.826	85.81
286.057	103.81
286.288	81.81
286.52	89.81
286.751	93.81
286.982	86.81
287.213	94.81
287.444	89.81
287.675	101.81
287.906	106.81
288.138	80.81
288.369	93.81
288.6	89.81
288.831	89.81
289.062	89.81
289.293	96.81
289.524	93.81
289.755	93.81
289.986	75.81
290.217	101.81
290.448	87.81
290.679	94.81
290.91	79.81
291.141	88.81
291.371	80.81
291.602	93.81
291.833	101.81
292.064	83.81
292.295	87.81
292.526	101.81
292.757	98.81
292.987	85.81
293.218	76.81
293.449	84.81
293.68	94.81
293.91	86.81
294.141	93.81
294.372	88.81
294.603	88.81
294.833	70.81
295.064	99.81
295.295	88.81
295.525	99.81
295.756	94.81
295.987	129.81
296.217	124.81
296.448	139.81
296.679	89.81
296.909	74.81
297.14	86.81
297.37	77.81
297.601	89.81
297.831	71.81
298.062	92.81
298.292	94.81
298.523	112.81
298.753	95.81
298.984	83.81
299.214	86.81
299.445	89.81
299.675	83.81
299.905	108.81
300.136	81.81
300.366	74.81
300.597	93.81
300.827	86.81
301.057	99.81
301.288	100.81
301.518	86.81
301.748	87.81
301.979	118.81
302.209	93.81
302.439	95.81
302.669	90.81
302.9	91.81
303.13	86.81
303.36	94.81
303.59	91.81
303.82	109.81
304.051	109.81
304.281	81.81
304.511	98.81
304.741	79.81
304.971	94.81
305.201	71.81
305.431	79.81
305.661	91.81
305.891	91.81
306.121	91.81
306.352	99.81
306.582	100.81
306.812	87.81
307.042	87.81
307.272	98.81
307.502	104.81
307.731	109.81
307.961	98.81
308.191	93.81
308.421	108.81
308.651	107.81
308.881	91.81
309.111	102.81
309.341	100.81
309.571	111.81
309.8	81.81
310.03	95.81
310.26	86.81
310.49	97.81
310.72	89.81
310.949	106.81
311.179	94.81
311.409	91.81
311.639	103.81
311.868	83.81
312.098	100.81
312.328	84.81
312.557	99.81
312.787	101.81
313.017	94.81
313.246	99.81
313.476	95.81
313.706	110.81
313.935	109.81
314.165	95.81
314.394	107.81
314.624	92.81
314.853	102.81
315.083	84.81
315.312	98.81
315.542	89.81
315.771	96.81
316.001	90.81
316.23	91.81
316.46	81.81
316.689	82.81
316.919	91.81
317.148	94.81
317.377	97.81
317.607	87.81
317.836	87.81
318.065	92.81
318.295	95.81
318.524	89.81
318.753	89.81
318.983	108.81
319.212	83.81
319.441	103.81
319.67	94.81
319.9	93.81
320.129	92.81
320.358	86.81
320.587	77.81
320.816	87.81
321.046	103.81
321.275	90.81
321.504	91.81
321.733	98.81
321.962	84.81
322.191	90.81
322.42	96.81
322.649	102.81
322.878	112.81
323.108	115.81
323.337	105.81
323.566	118.81
323.795	151.81
324.024	196.81
324.253	356.81
324.482	758.81
324.71	1600.81
324.939	2159.81
325.168	795.81
325.397	248.81
325.626	131.81
325.855	127.81
326.084	119.81
326.313	123.81
326.542	141.81
326.77	212.81
326.999	415.81
327.228	852.81
327.457	1685.81
327.686	1312.81
327.914	357.81
328.143	212.81
328.372	184.81
328.6	138.81
328.829	125.81
329.058	113.81
329.287	123.81
329.515	118.81
329.744	109.81
329.972	141.81
330.201	189.81
330.43	254.81
330.658	179.81
330.887	126.81
331.115	115.81
331.344	98.81
331.572	96.81
331.801	90.81
332.03	101.81
332.258	109.81
332.486	92.81
332.715	83.81
332.943	103.81
333.172	92.81
333.4	95.81
333.629	98.81
333.857	107.81
334.085	141.81
334.314	203.81
334.542	295.81
334.771	285.81
334.999	139.81
335.227	99.81
335.455	93.81
335.684	95.81
335.912	90.81
336.14	90.81
336.369	106.81
336.597	98.81
336.825	99.81
337.053	106.81
337.281	105.81
337.51	86.81
337.738	93.81
337.966	83.81
338.194	109.81
338.422	94.81
338.65	85.81
338.878	85.81
339.106	98.81
339.334	90.81
339.562	91.81
339.79	82.81
340.018	87.81
340.246	88.81
340.474	93.81
340.702	94.81
340.93	91.81
341.158	93.81
341.386	84.81
341.614	86.81
341.842	93.81
342.07	89.81
342.298	86.81
342.526	78.81
342.754	81.81
342.981	89.81
343.209	87.81
343.437	91.81
343.665	101.81
343.893	103.81
344.12	93.81
344.348	82.81
344.576	93.81
344.804	91.81
345.031	96.81
345.259	93.81
345.487	87.81
345.714	85.81
345.942	97.81
346.17	86.81
346.397	89.81
346.625	95.81
346.853	93.81
347.08	86.81
347.308	84.81
347.535	99.81
347.763	91.81
347.99	106.81
348.218	98.81
348.445	100.81
348.673	92.81
348.9	89.81
349.128	90.81
349.355	94.81
349.583	83.81
349.81	91.81
350.037	98.81
350.265	95.81
350.492	97.81
350.72	88.81
350.947	95.81
351.174	82.81
351.402	109.81
351.629	99.81
351.856	96.81
352.083	96.81
352.311	101.81
352.538	92.81
352.765	122.81
352.992	105.81
353.22	102.81
353.447	94.81
353.674	95.81
353.901	103.81
354.128	101.81
354.355	101.81
354.583	98.81
354.81	102.81
355.037	111.81
355.264	86.81
355.491	85.81
355.718	91.81
355.945	100.81
356.172	100.81
356.399	111.81
356.626	88.81
356.853	92.81
357.08	87.81
357.307	91.81
357.534	95.81
357.761	87.81
357.988	95.81
358.215	85.81
358.441	102.81
358.668	101.81
358.895	101.81
359.122	89.81
359.349	84.81
359.576	100.81
359.802	94.81
360.029	94.81
360.256	106.81
360.483	106.81
360.709	77.81
360.936	86.81
361.163	96.81
361.39	94.81
361.616	98.81
361.843	92.81
362.07	95.81
362.296	74.81
362.523	89.81
362.749	94.81
362.976	97.81
363.203	85.81
363.429	89.81
363.656	96.81
363.882	102.81
364.109	93.81
364.335	83.81
364.562	101.81
364.788	78.81
365.015	87.81
365.241	103.81
365.468	106.81
365.694	109.81
365.92	84.81
366.147	87.81
366.373	82.81
366.599	83.81
366.826	109.81
367.052	90.81
367.278	91.81
367.505	90.81
367.731	83.81
367.957	92.81
368.184	99.81
368.41	117.81
368.636	108.81
368.862	96.81
369.089	97.81
369.315	95.81
369.541	92.81
369.767	76.81
369.993	81.81
370.219	85.81
370.445	93.81
370.672	95.81
370.898	77.81
371.124	78.81
371.35	97.81
371.576	94.81
371.802	79.81
372.028	84.81
372.254	86.81
372.48	90.81
372.706	80.81
372.932	84.81
373.158	89.81
373.384	86.81
373.61	84.81
373.835	92.81
374.061	90.81
374.287	91.81
374.513	94.81
374.739	99.81
374.965	86.81
375.191	83.81
375.416	94.81
375.642	102.81
375.868	94.81
376.094	83.81
376.319	92.81
376.545	78.81
376.771	94.81
376.997	95.81
377.222	92.81
377.448	94.81
377.674	85.81
377.899	95.81
378.125	80.81
378.35	93.81
378.576	92.81
378.802	88.81
379.027	86.81
379.253	93.81
379.478	97.81
379.704	89.81
379.929	91.81
380.155	88.81
380.38	99.81
380.606	99.81
380.831	91.81
381.057	109.81
381.282	86.81
381.507	104.81
381.733	96.81
381.958	102.81
382.184	103.81
382.409	101.81
382.634	109.81
382.86	112.81
383.085	103.81
383.31	102.81
383.535	97.81
383.761	101.81
383.986	110.81
384.211	98.81
384.436	111.81
384.662	121.81
384.887	114.81
385.112	119.81
385.337	122.81
385.562	123.81
385.787	118.81
386.013	130.81
386.238	127.81
386.463	106.81
386.688	130.81
386.913	115.81
387.138	122.81
387.363	118.81
387.588	98.81
387.813	115.81
388.038	122.81
388.263	132.81
388.488	132.81
388.713	114.81
388.938	86.81
389.163	79.81
389.387	87.81
389.612	83.81
389.837	82.81
390.062	97.81
390.287	79.81
390.512	96.81
390.736	77.81
390.961	71.81
391.186	94.81
391.411	99.81
391.636	81.81
391.86	84.81
392.085	96.81
392.31	91.81
392.534	67.81
392.759	99.81
392.984	99.81
393.208	149.81
393.433	225.81
393.658	191.81
393.882	78.81
394.107	89.81
394.331	87.81
394.556	89.81
394.78	107.81
395.005	90.81
395.229	85.81
395.454	86.81
395.678	90.81
395.903	80.81
396.127	84.81
396.352	95.81
396.576	104.81
396.801	131.81
397.025	163.81
397.249	106.81
397.474	77.81
397.698	92.81
397.922	91.81
398.147	88.81
398.371	96.81
398.595	84.81
398.82	81.81
399.044	83.81
399.268	84.81
399.492	88.81
399.717	95.81
399.941	95.81
400.165	85.81
400.389	91.81
400.613	65.81
400.837	83.81
401.062	79.81
401.286	71.81
401.51	90.81
401.734	93.81
401.958	100.81
402.182	126.81
402.406	123.81
402.63	109.81
402.854	91.81
403.078	75.81
403.302	74.81
403.526	85.81
403.75	83.81
403.974	94.81
404.198	69.81
404.422	99.81
404.645	86.81
404.869	90.81
405.093	116.81
405.317	112.81
405.541	93.81
405.765	94.81
405.988	115.81
406.212	146.81
406.436	222.81
406.66	132.81
406.883	96.81
407.107	93.81
407.331	101.81
407.555	80.81
407.778	97.81
408.002	88.81
408.226	92.81
408.449	93.81
408.673	93.81
408.896	80.81
409.12	88.81
409.344	76.81
409.567	85.81
409.791	85.81
410.014	90.81
410.238	85.81
410.461	96.81
410.685	70.81
410.908	81.81
411.132	98.81
411.355	88.81
411.578	93.81
411.802	98.81
412.025	94.81
412.249	80.81
412.472	95.81
412.695	109.81
412.919	111.81
413.142	102.81
413.365	97.81
413.589	87.81
413.812	86.81
414.035	85.81
414.258	85.81
414.482	89.81
414.705	85.81
414.928	85.81
415.151	94.81
415.374	93.81
415.597	77.81
415.821	83.81
416.044	89.81
416.267	80.81
416.49	85.81
416.713	81.81
416.936	81.81
417.159	80.81
417.382	93.81
417.605	88.81
417.828	75.81
418.051	93.81
418.274	86.81
418.497	75.81
418.72	84.81
418.943	75.81
419.166	73.81
419.389	107.81
419.611	99.81
419.834	97.81
420.057	97.81
420.28	75.81
420.503	79.81
420.726	102.81
420.948	92.81
421.171	91.81
421.394	89.81
421.617	101.81
421.839	102.81
422.062	90.81
422.285	79.81
422.507	103.81
422.73	121.81
422.953	103.81
423.175	102.81
423.398	92.81
423.621	80.81
423.843	84.81
424.066	86.81
424.288	92.81
424.511	99.81
424.733	93.81
424.956	104.81
425.178	90.81
425.401	92.81
425.623	103.81
425.846	95.81
426.068	90.81
426.291	86.81
426.513	86.81
426.735	86.81
426.958	75.81
427.18	97.81
427.402	121.81
427.625	149.81
427.847	126.81
428.069	130.81
428.292	86.81
428.514	97.81
428.736	85.81
428.958	86.81
429.181	85.81
429.403	86.81
429.625	91.81
429.847	88.81
430.069	88.81
430.292	81.81
430.514	87.81
430.736	99.81
430.958	102.81
431.18	84.81
431.402	83.81
431.624	90.81
431.846	79.81
432.068	70.81
432.29	91.81
432.512	83.81
432.734	93.81
432.956	75.81
433.178	94.81
433.4	101.81
433.622	89.81
433.844	88.81
434.066	106.81
434.287	85.81
434.509	82.81
434.731	95.81
434.953	75.81
435.175	90.81
435.397	83.81
435.618	82.81
435.84	103.81
436.062	129.81
436.284	109.81
436.505	88.81
436.727	93.81
436.949	86.81
437.17	86.81
437.392	85.81
437.614	97.81
437.835	100.81
438.057	106.81
438.278	100.81
438.5	97.81
438.721	105.81
438.943	95.81
439.165	103.81
439.386	95.81
439.608	87.81
439.829	100.81
440.05	118.81
440.272	132.81
440.493	113.81
440.715	82.81
440.936	90.81
441.158	92.81
441.379	90.81
441.6	101.81
441.822	97.81
442.043	89.81
442.264	102.81
442.486	103.81
442.707	103.81
442.928	103.81
443.149	128.81
443.371	111.81
443.592	101.81
443.813	97.81
444.034	108.81
444.255	103.81
444.476	85.81
444.698	89.81
444.919	85.81
445.14	128.81
445.361	127.81
445.582	122.81
445.803	130.81
446.024	124.81
446.245	123.81
446.466	104.81
446.687	81.81
446.908	79.81
447.129	84.81
447.35	89.81
447.571	94.81
447.792	86.81
448.013	98.81
448.234	113.81
448.455	96.81
448.675	104.81
448.896	112.81
449.117	101.81
449.338	91.81
449.559	118.81
449.779	106.81
450	89.81
450.221	76.81
450.442	82.81
450.662	74.81
450.883	103.81
451.104	105.81
451.324	97.81
451.545	83.81
451.766	81.81
451.986	83.81
452.207	91.81
452.428	94.81
452.648	95.81
452.869	115.81
453.089	103.81
453.31	100.81
453.53	93.81
453.751	78.81
453.971	95.81
454.192	91.81
454.412	96.81
454.633	86.81
454.853	87.81
455.073	89.81
455.294	84.81
455.514	98.81
455.734	96.81
455.955	72.81
456.175	92.81
456.395	85.81
456.616	80.81
456.836	85.81
457.056	91.81
457.276	57.81
457.497	85.81
457.717	79.81
457.937	85.81
458.157	89.81
458.377	90.81
458.598	93.81
458.818	136.81
459.038	134.81
459.258	107.81
459.478	93.81
459.698	86.81
459.918	91.81
460.138	89.81
460.358	86.81
460.578	78.81
460.798	87.81
461.018	86.81
461.238	82.81
461.458	77.81
461.678	79.81
461.898	65.81
462.118	75.81
462.338	88.81
462.558	91.81
462.777	92.81
462.997	76.81
463.217	73.81
463.437	73.81
463.657	75.81
463.876	86.81
464.096	91.81
464.316	86.81
464.536	91.81
464.755	95.81
464.975	97.81
465.195	140.81
465.414	147.81
465.634	98.81
465.854	79.81
466.073	94.81
466.293	91.81
466.512	82.81
466.732	85.81
466.951	90.81
467.171	94.81
467.391	102.81
467.61	97.81
467.829	115.81
468.049	146.81
468.268	167.81
468.488	107.81
468.707	97.81
468.927	75.81
469.146	81.81
469.365	92.81
469.585	81.81
469.804	97.81
470.023	101.81
470.243	96.81
470.462	91.81
470.681	104.81
470.901	98.81
471.12	85.81
471.339	67.81
471.558	86.81
471.777	85.81
471.997	123.81
472.216	243.81
472.435	411.81
472.654	141.81
472.873	91.81
473.092	87.81
473.311	73.81
473.53	84.81
473.749	84.81
473.968	98.81
474.187	107.81
474.406	90.81
474.625	92.81
474.844	94.81
475.063	83.81
475.282	85.81
475.501	95.81
475.72	95.81
475.939	90.81
476.158	86.81
476.377	85.81
476.596	87.81
476.814	81.81
477.033	91.81
477.252	78.81
477.471	83.81
477.69	86.81
477.908	89.81
478.127	84.81
478.346	87.81
478.564	80.81
478.783	94.81
479.002	92.81
479.22	86.81
479.439	103.81
479.658	94.81
479.876	83.81
480.095	89.81
480.313	95.81
480.532	104.81
480.751	137.81
480.969	237.81
481.188	720.81
481.406	425.81
481.624	125.81
481.843	91.81
482.061	80.81
482.28	82.81
482.498	93.81
482.717	92.81
482.935	84.81
483.153	78.81
483.372	86.81
483.59	84.81
483.808	77.81
484.027	72.81
484.245	89.81
484.463	101.81
484.681	85.81
484.9	90.81
485.118	93.81
485.336	76.81
485.554	83.81
485.772	89.81
485.99	102.81
486.209	96.81
486.427	102.81
486.645	99.81
486.863	118.81
487.081	98.81
487.299	84.81
487.517	108.81
487.735	95.81
487.953	82.81
488.171	101.81
488.389	102.81
488.607	97.81
488.825	86.81
489.043	80.81
489.261	90.81
489.479	77.81
489.696	71.81
489.914	90.81
490.132	80.81
490.35	100.81
490.568	85.81
490.786	85.81
491.003	90.81
491.221	79.81
491.439	89.81
491.657	78.81
491.874	76.81
492.092	79.81
492.31	89.81
492.527	82.81
492.745	87.81
492.963	93.81
493.18	80.81
493.398	78.81
493.615	111.81
493.833	99.81
494.05	91.81
494.268	87.81
494.485	73.81
494.703	80.81
494.92	101.81
495.138	84.81
495.355	87.81
495.573	98.81
495.79	98.81
496.008	75.81
496.225	84.81
496.442	82.81
496.66	98.81
496.877	84.81
497.094	85.81
497.312	82.81
497.529	92.81
497.746	88.81
497.963	71.81
498.181	86.81
498.398	98.81
498.615	111.81
498.832	89.81
499.049	89.81
499.267	98.81
499.484	78.81
499.701	93.81
499.918	103.81
500.135	84.81
500.352	95.81
500.569	84.81
500.786	95.81
501.003	84.81
501.22	94.81
501.437	95.81
501.654	78.81
501.871	101.81
502.088	90.81
502.305	91.81
502.522	93.81
502.739	83.81
502.956	92.81
503.172	86.81
503.389	100.81
503.606	92.81
503.823	95.81
504.04	89.81
504.256	87.81
504.473	95.81
504.69	79.81
504.907	74.81
505.123	96.81
505.34	83.81
505.557	97.81
505.773	77.81
505.99	95.81
506.207	89.81
506.423	91.81
506.64	101.81
506.856	98.81
507.073	85.81
507.289	95.81
507.506	94.81
507.722	109.81
507.939	110.81
508.155	99.81
508.372	89.81
508.588	102.81
508.805	101.81
509.021	84.81
509.238	89.81
509.454	94.81
509.67	102.81
509.887	98.81
510.103	125.81
510.319	194.81
510.536	688.81
510.752	2208.81
510.968	615.81
511.184	155.81
511.401	110.81
511.617	108.81
511.833	97.81
512.049	94.81
512.265	99.81
512.481	91.81
512.698	89.81
512.914	76.81
513.13	83.81
513.346	84.81
513.562	94.81
513.778	102.81
513.994	83.81
514.21	91.81
514.426	110.81
514.642	138.81
514.858	125.81
515.074	161.81
515.29	395.81
515.506	1316.81
515.721	483.81
