Data from Circ_1991_H10_HRD10591_00018.txt Node
Date: Wed Jan 03 11:51:44 EST 2024
User: Yrep
Spectrometer: HR+D1059
Trigger mode: 1
Integration Time (sec): 1.000000E-1
Scans to average: 1
Electric dark correction enabled: true
Nonlinearity correction enabled: false
Boxcar width: 0
XAxis mode: Wavelengths
Number of Pixels in Spectrum: 2048
>>>>>Begin Spectral Data<<<<<
223.165	-13.12
223.4	-13.12
223.635	-13.12
223.869	-21.12
224.104	-27.12
224.338	-10.12
224.573	-18.12
224.808	-18.12
225.042	-8.12
225.277	-12.12
225.511	-1.12
225.746	0.88
225.98	8.88
226.215	4.88
226.449	12.88
226.683	23.88
226.918	33.88
227.152	43.88
227.387	33.88
227.621	46.88
227.856	48.88
228.09	51.88
228.324	45.88
228.559	50.88
228.793	52.88
229.027	64.88
229.262	76.88
229.496	69.88
229.73	83.88
229.964	81.88
230.199	65.88
230.433	82.88
230.667	78.88
230.901	78.88
231.136	60.88
231.37	87.88
231.604	78.88
231.838	85.88
232.072	84.88
232.306	64.88
232.541	83.88
232.775	75.88
233.009	83.88
233.243	82.88
233.477	77.88
233.711	77.88
233.945	81.88
234.179	74.88
234.413	83.88
234.647	78.88
234.881	66.88
235.115	69.88
235.349	74.88
235.583	80.88
235.817	83.88
236.051	71.88
236.285	64.88
236.519	80.88
236.753	70.88
236.987	78.88
237.221	81.88
237.455	81.88
237.689	81.88
237.922	98.88
238.156	67.88
238.39	69.88
238.624	68.88
238.858	78.88
239.091	68.88
239.325	85.88
239.559	87.88
239.793	80.88
240.027	70.88
240.26	73.88
240.494	77.88
240.728	57.88
240.961	76.88
241.195	79.88
241.429	73.88
241.662	72.88
241.896	88.88
242.13	72.88
242.363	71.88
242.597	74.88
242.83	73.88
243.064	63.88
243.298	73.88
243.531	81.88
243.765	73.88
243.998	83.88
244.232	73.88
244.465	73.88
244.699	83.88
244.932	87.88
245.166	83.88
245.399	80.88
245.633	76.88
245.866	76.88
246.099	70.88
246.333	78.88
246.566	89.88
246.8	80.88
247.033	78.88
247.266	68.88
247.5	86.88
247.733	86.88
247.966	82.88
248.2	78.88
248.433	81.88
248.666	65.88
248.899	87.88
249.133	78.88
249.366	85.88
249.599	93.88
249.832	85.88
250.066	74.88
250.299	75.88
250.532	78.88
250.765	69.88
250.998	68.88
251.231	77.88
251.465	87.88
251.698	89.88
251.931	79.88
252.164	85.88
252.397	82.88
252.63	77.88
252.863	88.88
253.096	82.88
253.329	85.88
253.562	70.88
253.795	70.88
254.028	93.88
254.261	83.88
254.494	79.88
254.727	87.88
254.96	73.88
255.193	78.88
255.426	74.88
255.659	88.88
255.892	79.88
256.124	68.88
256.357	79.88
256.59	92.88
256.823	85.88
257.056	74.88
257.289	77.88
257.521	85.88
257.754	74.88
257.987	85.88
258.22	63.88
258.452	89.88
258.685	77.88
258.918	96.88
259.151	73.88
259.383	57.88
259.616	79.88
259.849	79.88
260.081	77.88
260.314	69.88
260.547	86.88
260.779	87.88
261.012	94.88
261.244	81.88
261.477	83.88
261.71	83.88
261.942	101.88
262.175	98.88
262.407	91.88
262.64	93.88
262.872	89.88
263.105	76.88
263.337	93.88
263.57	71.88
263.802	83.88
264.035	98.88
264.267	86.88
264.499	89.88
264.732	78.88
264.964	93.88
265.197	82.88
265.429	95.88
265.661	79.88
265.894	73.88
266.126	95.88
266.358	87.88
266.591	90.88
266.823	85.88
267.055	85.88
267.287	77.88
267.52	84.88
267.752	77.88
267.984	82.88
268.216	86.88
268.448	86.88
268.681	91.88
268.913	84.88
269.145	73.88
269.377	79.88
269.609	77.88
269.841	98.88
270.073	93.88
270.306	86.88
270.538	83.88
270.77	91.88
271.002	90.88
271.234	91.88
271.466	92.88
271.698	82.88
271.93	80.88
272.162	94.88
272.394	94.88
272.626	90.88
272.858	92.88
273.09	90.88
273.322	76.88
273.553	91.88
273.785	87.88
274.017	71.88
274.249	86.88
274.481	77.88
274.713	72.88
274.945	76.88
275.176	91.88
275.408	87.88
275.64	88.88
275.872	92.88
276.104	81.88
276.335	77.88
276.567	93.88
276.799	112.88
277.031	105.88
277.262	86.88
277.494	103.88
277.726	85.88
277.957	96.88
278.189	75.88
278.421	91.88
278.652	66.88
278.884	98.88
279.115	67.88
279.347	93.88
279.579	81.88
279.81	83.88
280.042	102.88
280.273	94.88
280.505	89.88
280.736	83.88
280.968	92.88
281.199	91.88
281.431	83.88
281.662	85.88
281.894	74.88
282.125	86.88
282.356	116.88
282.588	123.88
282.819	116.88
283.051	99.88
283.282	88.88
283.513	91.88
283.745	77.88
283.976	86.88
284.207	82.88
284.439	87.88
284.67	77.88
284.901	82.88
285.132	89.88
285.364	84.88
285.595	99.88
285.826	85.88
286.057	85.88
286.288	91.88
286.52	84.88
286.751	79.88
286.982	94.88
287.213	87.88
287.444	96.88
287.675	91.88
287.906	89.88
288.138	93.88
288.369	97.88
288.6	99.88
288.831	90.88
289.062	94.88
289.293	82.88
289.524	96.88
289.755	73.88
289.986	75.88
290.217	88.88
290.448	81.88
290.679	83.88
290.91	86.88
291.141	97.88
291.371	78.88
291.602	91.88
291.833	102.88
292.064	90.88
292.295	86.88
292.526	89.88
292.757	94.88
292.987	91.88
293.218	98.88
293.449	84.88
293.68	91.88
293.91	98.88
294.141	101.88
294.372	101.88
294.603	95.88
294.833	100.88
295.064	75.88
295.295	95.88
295.525	102.88
295.756	105.88
295.987	109.88
296.217	127.88
296.448	116.88
296.679	98.88
296.909	101.88
297.14	83.88
297.37	93.88
297.601	92.88
297.831	75.88
298.062	92.88
298.292	99.88
298.523	90.88
298.753	98.88
298.984	85.88
299.214	77.88
299.445	84.88
299.675	95.88
299.905	100.88
300.136	89.88
300.366	90.88
300.597	88.88
300.827	94.88
301.057	95.88
301.288	114.88
301.518	97.88
301.748	75.88
301.979	104.88
302.209	87.88
302.439	75.88
302.669	95.88
302.9	97.88
303.13	94.88
303.36	95.88
303.59	96.88
303.82	85.88
304.051	91.88
304.281	87.88
304.511	99.88
304.741	93.88
304.971	74.88
305.201	75.88
305.431	73.88
305.661	75.88
305.891	89.88
306.121	92.88
306.352	103.88
306.582	106.88
306.812	99.88
307.042	93.88
307.272	119.88
307.502	102.88
307.731	121.88
307.961	80.88
308.191	91.88
308.421	87.88
308.651	91.88
308.881	92.88
309.111	86.88
309.341	93.88
309.571	91.88
309.8	94.88
310.03	96.88
310.26	100.88
310.49	97.88
310.72	100.88
310.949	101.88
311.179	94.88
311.409	84.88
311.639	100.88
311.868	76.88
312.098	82.88
312.328	94.88
312.557	98.88
312.787	109.88
313.017	112.88
313.246	92.88
313.476	101.88
313.706	89.88
313.935	87.88
314.165	94.88
314.394	91.88
314.624	108.88
314.853	94.88
315.083	85.88
315.312	96.88
315.542	92.88
315.771	86.88
316.001	81.88
316.23	93.88
316.46	86.88
316.689	74.88
316.919	89.88
317.148	92.88
317.377	90.88
317.607	104.88
317.836	80.88
318.065	84.88
318.295	90.88
318.524	91.88
318.753	92.88
318.983	89.88
319.212	94.88
319.441	111.88
319.67	102.88
319.9	106.88
320.129	69.88
320.358	94.88
320.587	79.88
320.816	103.88
321.046	107.88
321.275	90.88
321.504	88.88
321.733	83.88
321.962	88.88
322.191	96.88
322.42	100.88
322.649	115.88
322.878	107.88
323.108	107.88
323.337	121.88
323.566	121.88
323.795	135.88
324.024	181.88
324.253	342.88
324.482	701.88
324.71	1423.88
324.939	1879.88
325.168	702.88
325.397	217.88
325.626	122.88
325.855	117.88
326.084	103.88
326.313	128.88
326.542	133.88
326.77	203.88
326.999	395.88
327.228	799.88
327.457	1440.88
327.686	1177.88
327.914	347.88
328.143	193.88
328.372	181.88
328.6	131.88
328.829	113.88
329.058	122.88
329.287	130.88
329.515	116.88
329.744	116.88
329.972	131.88
330.201	210.88
330.43	251.88
330.658	168.88
330.887	140.88
331.115	113.88
331.344	98.88
331.572	103.88
331.801	111.88
332.03	91.88
332.258	89.88
332.486	94.88
332.715	95.88
332.943	99.88
333.172	95.88
333.4	95.88
333.629	120.88
333.857	107.88
334.085	130.88
334.314	195.88
334.542	314.88
334.771	302.88
334.999	141.88
335.227	97.88
335.455	98.88
335.684	100.88
335.912	102.88
336.14	109.88
336.369	101.88
336.597	104.88
336.825	98.88
337.053	101.88
337.281	100.88
337.51	89.88
337.738	87.88
337.966	89.88
338.194	88.88
338.422	86.88
338.65	94.88
338.878	97.88
339.106	92.88
339.334	82.88
339.562	87.88
339.79	91.88
340.018	93.88
340.246	84.88
340.474	101.88
340.702	91.88
340.93	90.88
341.158	84.88
341.386	103.88
341.614	95.88
341.842	104.88
342.07	77.88
342.298	92.88
342.526	95.88
342.754	101.88
342.981	91.88
343.209	99.88
343.437	101.88
343.665	94.88
343.893	86.88
344.12	100.88
344.348	92.88
344.576	85.88
344.804	94.88
345.031	99.88
345.259	89.88
345.487	91.88
345.714	100.88
345.942	90.88
346.17	100.88
346.397	111.88
346.625	94.88
346.853	95.88
347.08	96.88
347.308	97.88
347.535	90.88
347.763	94.88
347.99	94.88
348.218	106.88
348.445	97.88
348.673	105.88
348.9	91.88
349.128	109.88
349.355	95.88
349.583	83.88
349.81	87.88
350.037	95.88
350.265	92.88
350.492	93.88
350.72	91.88
350.947	104.88
351.174	110.88
351.402	93.88
351.629	84.88
351.856	95.88
352.083	103.88
352.311	100.88
352.538	110.88
352.765	100.88
352.992	109.88
353.22	106.88
353.447	99.88
353.674	106.88
353.901	101.88
354.128	98.88
354.355	95.88
354.583	106.88
354.81	78.88
355.037	98.88
355.264	91.88
355.491	83.88
355.718	84.88
355.945	102.88
356.172	92.88
356.399	97.88
356.626	84.88
356.853	99.88
357.08	108.88
357.307	97.88
357.534	96.88
357.761	98.88
357.988	98.88
358.215	89.88
358.441	101.88
358.668	98.88
358.895	101.88
359.122	86.88
359.349	85.88
359.576	89.88
359.802	98.88
360.029	103.88
360.256	109.88
360.483	102.88
360.709	97.88
360.936	108.88
361.163	107.88
361.39	89.88
361.616	95.88
361.843	83.88
362.07	101.88
362.296	86.88
362.523	105.88
362.749	102.88
362.976	82.88
363.203	81.88
363.429	97.88
363.656	98.88
363.882	87.88
364.109	101.88
364.335	103.88
364.562	81.88
364.788	79.88
365.015	89.88
365.241	110.88
365.468	121.88
365.694	109.88
365.92	100.88
366.147	93.88
366.373	85.88
366.599	96.88
366.826	72.88
367.052	77.88
367.278	81.88
367.505	100.88
367.731	94.88
367.957	90.88
368.184	86.88
368.41	99.88
368.636	99.88
368.862	108.88
369.089	99.88
369.315	87.88
369.541	89.88
369.767	93.88
369.993	91.88
370.219	98.88
370.445	93.88
370.672	77.88
370.898	74.88
371.124	83.88
371.35	85.88
371.576	85.88
371.802	94.88
372.028	98.88
372.254	92.88
372.48	94.88
372.706	98.88
372.932	84.88
373.158	82.88
373.384	83.88
373.61	103.88
373.835	89.88
374.061	84.88
374.287	93.88
374.513	98.88
374.739	96.88
374.965	105.88
375.191	89.88
375.416	87.88
375.642	87.88
375.868	92.88
376.094	79.88
376.319	82.88
376.545	83.88
376.771	97.88
376.997	85.88
377.222	94.88
377.448	93.88
377.674	101.88
377.899	90.88
378.125	100.88
378.35	86.88
378.576	107.88
378.802	115.88
379.027	97.88
379.253	91.88
379.478	97.88
379.704	80.88
379.929	84.88
380.155	114.88
380.38	110.88
380.606	85.88
380.831	85.88
381.057	101.88
381.282	89.88
381.507	92.88
381.733	114.88
381.958	106.88
382.184	109.88
382.409	106.88
382.634	100.88
382.86	110.88
383.085	104.88
383.31	108.88
383.535	109.88
383.761	99.88
383.986	100.88
384.211	89.88
384.436	109.88
384.662	113.88
384.887	115.88
385.112	102.88
385.337	113.88
385.562	123.88
385.787	114.88
386.013	126.88
386.238	135.88
386.463	132.88
386.688	119.88
386.913	102.88
387.138	123.88
387.363	104.88
387.588	112.88
387.813	108.88
388.038	118.88
388.263	124.88
388.488	118.88
388.713	96.88
388.938	95.88
389.163	83.88
389.387	100.88
389.612	98.88
389.837	99.88
390.062	102.88
390.287	91.88
390.512	85.88
390.736	82.88
390.961	84.88
391.186	108.88
391.411	94.88
391.636	89.88
391.86	78.88
392.085	84.88
392.31	95.88
392.534	92.88
392.759	86.88
392.984	102.88
393.208	119.88
393.433	169.88
393.658	151.88
393.882	104.88
394.107	83.88
394.331	85.88
394.556	86.88
394.78	109.88
395.005	83.88
395.229	77.88
395.454	81.88
395.678	84.88
395.903	90.88
396.127	95.88
396.352	95.88
396.576	96.88
396.801	116.88
397.025	143.88
397.249	106.88
397.474	85.88
397.698	77.88
397.922	90.88
398.147	101.88
398.371	86.88
398.595	86.88
398.82	79.88
399.044	85.88
399.268	99.88
399.492	78.88
399.717	89.88
399.941	84.88
400.165	91.88
400.389	89.88
400.613	87.88
400.837	91.88
401.062	91.88
401.286	87.88
401.51	90.88
401.734	99.88
401.958	96.88
402.182	120.88
402.406	138.88
402.63	101.88
402.854	87.88
403.078	98.88
403.302	103.88
403.526	95.88
403.75	87.88
403.974	77.88
404.198	85.88
404.422	89.88
404.645	73.88
404.869	92.88
405.093	100.88
405.317	98.88
405.541	97.88
405.765	93.88
405.988	108.88
406.212	153.88
406.436	182.88
406.66	133.88
406.883	103.88
407.107	99.88
407.331	98.88
407.555	99.88
407.778	90.88
408.002	99.88
408.226	73.88
408.449	79.88
408.673	85.88
408.896	95.88
409.12	93.88
409.344	79.88
409.567	107.88
409.791	92.88
410.014	90.88
410.238	82.88
410.461	95.88
410.685	103.88
410.908	90.88
411.132	114.88
411.355	94.88
411.578	91.88
411.802	91.88
412.025	85.88
412.249	91.88
412.472	101.88
412.695	97.88
412.919	90.88
413.142	95.88
413.365	97.88
413.589	94.88
413.812	88.88
414.035	85.88
414.258	83.88
414.482	111.88
414.705	83.88
414.928	89.88
415.151	79.88
415.374	107.88
415.597	79.88
415.821	95.88
416.044	97.88
416.267	93.88
416.49	80.88
416.713	84.88
416.936	95.88
417.159	79.88
417.382	82.88
417.605	86.88
417.828	96.88
418.051	94.88
418.274	98.88
418.497	84.88
418.72	91.88
418.943	83.88
419.166	70.88
419.389	86.88
419.611	75.88
419.834	77.88
420.057	97.88
420.28	89.88
420.503	101.88
420.726	92.88
420.948	103.88
421.171	93.88
421.394	97.88
421.617	89.88
421.839	86.88
422.062	86.88
422.285	78.88
422.507	98.88
422.73	95.88
422.953	102.88
423.175	91.88
423.398	77.88
423.621	92.88
423.843	102.88
424.066	72.88
424.288	98.88
424.511	90.88
424.733	103.88
424.956	105.88
425.178	90.88
425.401	107.88
425.623	93.88
425.846	99.88
426.068	98.88
426.291	86.88
426.513	98.88
426.735	94.88
426.958	106.88
427.18	100.88
427.402	128.88
427.625	167.88
427.847	140.88
428.069	134.88
428.292	99.88
428.514	78.88
428.736	83.88
428.958	90.88
429.181	96.88
429.403	89.88
429.625	70.88
429.847	87.88
430.069	108.88
430.292	115.88
430.514	79.88
430.736	78.88
430.958	75.88
431.18	94.88
431.402	98.88
431.624	77.88
431.846	87.88
432.068	79.88
432.29	92.88
432.512	85.88
432.734	79.88
432.956	97.88
433.178	91.88
433.4	106.88
433.622	88.88
433.844	89.88
434.066	87.88
434.287	93.88
434.509	85.88
434.731	82.88
434.953	92.88
435.175	95.88
435.397	88.88
435.618	94.88
435.84	102.88
436.062	117.88
436.284	112.88
436.505	107.88
436.727	92.88
436.949	84.88
437.17	85.88
437.392	82.88
437.614	102.88
437.835	93.88
438.057	92.88
438.278	100.88
438.5	91.88
438.721	120.88
438.943	115.88
439.165	81.88
439.386	97.88
439.608	105.88
439.829	107.88
440.05	102.88
440.272	134.88
440.493	102.88
440.715	81.88
440.936	82.88
441.158	92.88
441.379	87.88
441.6	98.88
441.822	92.88
442.043	86.88
442.264	84.88
442.486	96.88
442.707	91.88
442.928	94.88
443.149	116.88
443.371	113.88
443.592	98.88
443.813	102.88
444.034	97.88
444.255	100.88
444.476	87.88
444.698	97.88
444.919	98.88
445.14	153.88
445.361	130.88
445.582	111.88
445.803	119.88
446.024	128.88
446.245	118.88
446.466	109.88
446.687	87.88
446.908	82.88
447.129	76.88
447.35	87.88
447.571	90.88
447.792	88.88
448.013	86.88
448.234	103.88
448.455	89.88
448.675	114.88
448.896	97.88
449.117	93.88
449.338	102.88
449.559	120.88
449.779	122.88
450	80.88
450.221	62.88
450.442	99.88
450.662	87.88
450.883	90.88
451.104	110.88
451.324	81.88
451.545	83.88
451.766	85.88
451.986	92.88
452.207	90.88
452.428	81.88
452.648	97.88
452.869	97.88
453.089	108.88
453.31	108.88
453.53	95.88
453.751	89.88
453.971	87.88
454.192	110.88
454.412	91.88
454.633	89.88
454.853	81.88
455.073	82.88
455.294	93.88
455.514	100.88
455.734	66.88
455.955	84.88
456.175	77.88
456.395	74.88
456.616	74.88
456.836	79.88
457.056	86.88
457.276	96.88
457.497	97.88
457.717	91.88
457.937	82.88
458.157	76.88
458.377	90.88
458.598	103.88
458.818	126.88
459.038	138.88
459.258	114.88
459.478	89.88
459.698	82.88
459.918	93.88
460.138	82.88
460.358	80.88
460.578	91.88
460.798	75.88
461.018	86.88
461.238	90.88
461.458	88.88
461.678	85.88
461.898	84.88
462.118	86.88
462.338	101.88
462.558	103.88
462.777	82.88
462.997	73.88
463.217	85.88
463.437	76.88
463.657	80.88
463.876	87.88
464.096	92.88
464.316	81.88
464.536	90.88
464.755	95.88
464.975	90.88
465.195	141.88
465.414	130.88
465.634	91.88
465.854	97.88
466.073	89.88
466.293	83.88
466.512	88.88
466.732	84.88
466.951	84.88
467.171	93.88
467.391	83.88
467.61	99.88
467.829	103.88
468.049	151.88
468.268	177.88
468.488	109.88
468.707	77.88
468.927	79.88
469.146	75.88
469.365	86.88
469.585	98.88
469.804	85.88
470.023	93.88
470.243	74.88
470.462	83.88
470.681	105.88
470.901	79.88
471.12	81.88
471.339	78.88
471.558	75.88
471.777	89.88
471.997	129.88
472.216	246.88
472.435	405.88
472.654	155.88
472.873	85.88
473.092	105.88
473.311	89.88
473.53	85.88
473.749	89.88
473.968	105.88
474.187	97.88
474.406	90.88
474.625	83.88
474.844	86.88
475.063	84.88
475.282	88.88
475.501	85.88
475.72	79.88
475.939	86.88
476.158	84.88
476.377	91.88
476.596	90.88
476.814	97.88
477.033	88.88
477.252	77.88
477.471	86.88
477.69	95.88
477.908	96.88
478.127	85.88
478.346	92.88
478.564	99.88
478.783	98.88
479.002	99.88
479.22	86.88
479.439	100.88
479.658	89.88
479.876	99.88
480.095	89.88
480.313	91.88
480.532	100.88
480.751	113.88
480.969	218.88
481.188	682.88
481.406	421.88
481.624	132.88
481.843	89.88
482.061	93.88
482.28	79.88
482.498	83.88
482.717	84.88
482.935	79.88
483.153	86.88
483.372	91.88
483.59	101.88
483.808	93.88
484.027	90.88
484.245	90.88
484.463	84.88
484.681	103.88
484.9	82.88
485.118	84.88
485.336	86.88
485.554	98.88
485.772	109.88
485.99	99.88
486.209	91.88
486.427	103.88
486.645	109.88
486.863	109.88
487.081	99.88
487.299	97.88
487.517	82.88
487.735	85.88
487.953	95.88
488.171	99.88
488.389	76.88
488.607	86.88
488.825	89.88
489.043	92.88
489.261	84.88
489.479	94.88
489.696	83.88
489.914	84.88
490.132	82.88
490.35	94.88
490.568	83.88
490.786	94.88
491.003	79.88
491.221	84.88
491.439	68.88
491.657	101.88
491.874	88.88
492.092	94.88
492.31	89.88
492.527	80.88
492.745	96.88
492.963	87.88
493.18	109.88
493.398	76.88
493.615	93.88
493.833	86.88
494.05	102.88
494.268	97.88
494.485	90.88
494.703	80.88
494.92	93.88
495.138	93.88
495.355	86.88
495.573	97.88
495.79	102.88
496.008	102.88
496.225	81.88
496.442	89.88
496.66	94.88
496.877	95.88
497.094	91.88
497.312	85.88
497.529	77.88
497.746	89.88
497.963	87.88
498.181	86.88
498.398	97.88
498.615	99.88
498.832	92.88
499.049	93.88
499.267	89.88
499.484	98.88
499.701	91.88
499.918	94.88
500.135	83.88
500.352	94.88
500.569	86.88
500.786	83.88
501.003	94.88
501.22	73.88
501.437	92.88
501.654	81.88
501.871	87.88
502.088	75.88
502.305	99.88
502.522	87.88
502.739	84.88
502.956	94.88
503.172	87.88
503.389	87.88
503.606	99.88
503.823	80.88
504.04	92.88
504.256	97.88
504.473	95.88
504.69	89.88
504.907	83.88
505.123	77.88
505.34	82.88
505.557	99.88
505.773	89.88
505.99	79.88
506.207	73.88
506.423	74.88
506.64	91.88
506.856	77.88
507.073	91.88
507.289	81.88
507.506	112.88
507.722	87.88
507.939	108.88
508.155	93.88
508.372	85.88
508.588	83.88
508.805	90.88
509.021	98.88
509.238	100.88
509.454	94.88
509.67	114.88
509.887	90.88
510.103	113.88
510.319	178.88
510.536	582.88
510.752	1814.88
510.968	528.88
511.184	130.88
511.401	94.88
511.617	95.88
511.833	103.88
512.049	87.88
512.265	88.88
512.481	94.88
512.698	83.88
512.914	98.88
513.13	83.88
513.346	79.88
513.562	96.88
513.778	78.88
513.994	91.88
514.21	103.88
514.426	106.88
514.642	118.88
514.858	115.88
515.074	133.88
515.29	336.88
515.506	1074.88
515.721	398.88
