Data from Circ_1991_H10_HRD10591_00039.txt Node
Date: Wed Jan 03 11:51:49 EST 2024
User: Yrep
Spectrometer: HR+D1059
Trigger mode: 1
Integration Time (sec): 1.000000E-1
Scans to average: 1
Electric dark correction enabled: true
Nonlinearity correction enabled: false
Boxcar width: 0
XAxis mode: Wavelengths
Number of Pixels in Spectrum: 2048
>>>>>Begin Spectral Data<<<<<
223.165	-22.62
223.4	-22.62
223.635	-22.62
223.869	-15.62
224.104	-22.62
224.338	-4.62
224.573	-7.62
224.808	-3.62
225.042	-14.62
225.277	-5.62
225.511	-3.62
225.746	6.38
225.98	-0.62
226.215	16.38
226.449	13.38
226.683	19.38
226.918	22.38
227.152	23.38
227.387	24.38
227.621	39.38
227.856	44.38
228.09	53.38
228.324	67.38
228.559	61.38
228.793	60.38
229.027	66.38
229.262	68.38
229.496	77.38
229.73	76.38
229.964	86.38
230.199	81.38
230.433	71.38
230.667	68.38
230.901	81.38
231.136	83.38
231.37	71.38
231.604	85.38
231.838	76.38
232.072	74.38
232.306	72.38
232.541	79.38
232.775	89.38
233.009	98.38
233.243	78.38
233.477	82.38
233.711	80.38
233.945	83.38
234.179	82.38
234.413	82.38
234.647	86.38
234.881	93.38
235.115	92.38
235.349	88.38
235.583	85.38
235.817	91.38
236.051	77.38
236.285	72.38
236.519	83.38
236.753	86.38
236.987	90.38
237.221	77.38
237.455	89.38
237.689	79.38
237.922	79.38
238.156	74.38
238.39	86.38
238.624	81.38
238.858	85.38
239.091	86.38
239.325	84.38
239.559	81.38
239.793	90.38
240.027	75.38
240.26	71.38
240.494	84.38
240.728	81.38
240.961	79.38
241.195	90.38
241.429	68.38
241.662	75.38
241.896	75.38
242.13	74.38
242.363	85.38
242.597	69.38
242.83	86.38
243.064	77.38
243.298	80.38
243.531	71.38
243.765	87.38
243.998	67.38
244.232	89.38
244.465	88.38
244.699	85.38
244.932	78.38
245.166	80.38
245.399	83.38
245.633	91.38
245.866	75.38
246.099	76.38
246.333	65.38
246.566	87.38
246.8	91.38
247.033	77.38
247.266	88.38
247.5	89.38
247.733	85.38
247.966	89.38
248.2	90.38
248.433	85.38
248.666	71.38
248.899	73.38
249.133	87.38
249.366	93.38
249.599	99.38
249.832	79.38
250.066	81.38
250.299	81.38
250.532	74.38
250.765	82.38
250.998	109.38
251.231	80.38
251.465	87.38
251.698	84.38
251.931	94.38
252.164	86.38
252.397	85.38
252.63	75.38
252.863	77.38
253.096	83.38
253.329	88.38
253.562	93.38
253.795	79.38
254.028	77.38
254.261	78.38
254.494	84.38
254.727	90.38
254.96	85.38
255.193	92.38
255.426	81.38
255.659	84.38
255.892	74.38
256.124	68.38
256.357	86.38
256.59	89.38
256.823	98.38
257.056	83.38
257.289	84.38
257.521	85.38
257.754	93.38
257.987	85.38
258.22	89.38
258.452	100.38
258.685	82.38
258.918	80.38
259.151	79.38
259.383	84.38
259.616	78.38
259.849	95.38
260.081	81.38
260.314	78.38
260.547	74.38
260.779	82.38
261.012	81.38
261.244	86.38
261.477	98.38
261.71	108.38
261.942	106.38
262.175	114.38
262.407	96.38
262.64	78.38
262.872	88.38
263.105	86.38
263.337	91.38
263.57	81.38
263.802	88.38
264.035	93.38
264.267	66.38
264.499	76.38
264.732	84.38
264.964	91.38
265.197	102.38
265.429	93.38
265.661	92.38
265.894	84.38
266.126	85.38
266.358	72.38
266.591	85.38
266.823	86.38
267.055	97.38
267.287	97.38
267.52	90.38
267.752	75.38
267.984	81.38
268.216	80.38
268.448	81.38
268.681	83.38
268.913	93.38
269.145	72.38
269.377	89.38
269.609	79.38
269.841	78.38
270.073	86.38
270.306	92.38
270.538	86.38
270.77	68.38
271.002	81.38
271.234	77.38
271.466	74.38
271.698	84.38
271.93	86.38
272.162	94.38
272.394	97.38
272.626	73.38
272.858	90.38
273.09	98.38
273.322	99.38
273.553	94.38
273.785	75.38
274.017	77.38
274.249	76.38
274.481	78.38
274.713	93.38
274.945	90.38
275.176	85.38
275.408	84.38
275.64	90.38
275.872	99.38
276.104	89.38
276.335	96.38
276.567	107.38
276.799	110.38
277.031	110.38
277.262	111.38
277.494	103.38
277.726	100.38
277.957	79.38
278.189	84.38
278.421	75.38
278.652	82.38
278.884	83.38
279.115	88.38
279.347	95.38
279.579	78.38
279.81	99.38
280.042	99.38
280.273	120.38
280.505	109.38
280.736	93.38
280.968	92.38
281.199	76.38
281.431	82.38
281.662	94.38
281.894	99.38
282.125	100.38
282.356	120.38
282.588	111.38
282.819	121.38
283.051	98.38
283.282	90.38
283.513	90.38
283.745	98.38
283.976	90.38
284.207	83.38
284.439	93.38
284.67	97.38
284.901	86.38
285.132	88.38
285.364	91.38
285.595	89.38
285.826	92.38
286.057	84.38
286.288	86.38
286.52	90.38
286.751	78.38
286.982	85.38
287.213	93.38
287.444	74.38
287.675	87.38
287.906	90.38
288.138	102.38
288.369	104.38
288.6	98.38
288.831	95.38
289.062	93.38
289.293	95.38
289.524	71.38
289.755	91.38
289.986	86.38
290.217	90.38
290.448	96.38
290.679	95.38
290.91	91.38
291.141	82.38
291.371	100.38
291.602	77.38
291.833	94.38
292.064	96.38
292.295	90.38
292.526	94.38
292.757	85.38
292.987	80.38
293.218	93.38
293.449	87.38
293.68	81.38
293.91	98.38
294.141	78.38
294.372	99.38
294.603	110.38
294.833	86.38
295.064	93.38
295.295	110.38
295.525	98.38
295.756	102.38
295.987	120.38
296.217	134.38
296.448	111.38
296.679	93.38
296.909	94.38
297.14	105.38
297.37	99.38
297.601	80.38
297.831	92.38
298.062	98.38
298.292	98.38
298.523	89.38
298.753	79.38
298.984	84.38
299.214	98.38
299.445	87.38
299.675	89.38
299.905	98.38
300.136	109.38
300.366	93.38
300.597	94.38
300.827	96.38
301.057	89.38
301.288	96.38
301.518	115.38
301.748	102.38
301.979	112.38
302.209	98.38
302.439	87.38
302.669	89.38
302.9	85.38
303.13	89.38
303.36	91.38
303.59	90.38
303.82	110.38
304.051	87.38
304.281	82.38
304.511	105.38
304.741	102.38
304.971	95.38
305.201	105.38
305.431	100.38
305.661	93.38
305.891	82.38
306.121	97.38
306.352	111.38
306.582	100.38
306.812	93.38
307.042	97.38
307.272	125.38
307.502	93.38
307.731	108.38
307.961	103.38
308.191	88.38
308.421	108.38
308.651	88.38
308.881	93.38
309.111	98.38
309.341	94.38
309.571	99.38
309.8	80.38
310.03	99.38
310.26	111.38
310.49	94.38
310.72	116.38
310.949	99.38
311.179	109.38
311.409	94.38
311.639	97.38
311.868	86.38
312.098	101.38
312.328	104.38
312.557	114.38
312.787	105.38
313.017	102.38
313.246	98.38
313.476	91.38
313.706	91.38
313.935	94.38
314.165	105.38
314.394	104.38
314.624	103.38
314.853	95.38
315.083	98.38
315.312	97.38
315.542	87.38
315.771	97.38
316.001	89.38
316.23	80.38
316.46	82.38
316.689	101.38
316.919	91.38
317.148	102.38
317.377	106.38
317.607	104.38
317.836	107.38
318.065	102.38
318.295	106.38
318.524	102.38
318.753	99.38
318.983	86.38
319.212	104.38
319.441	109.38
319.67	104.38
319.9	89.38
320.129	108.38
320.358	116.38
320.587	103.38
320.816	102.38
321.046	103.38
321.275	113.38
321.504	82.38
321.733	94.38
321.962	98.38
322.191	87.38
322.42	102.38
322.649	101.38
322.878	111.38
323.108	106.38
323.337	120.38
323.566	127.38
323.795	143.38
324.024	214.38
324.253	369.38
324.482	793.38
324.71	1636.38
324.939	2148.38
325.168	793.38
325.397	233.38
325.626	152.38
325.855	125.38
326.084	127.38
326.313	131.38
326.542	150.38
326.77	222.38
326.999	440.38
327.228	893.38
327.457	1662.38
327.686	1328.38
327.914	381.38
328.143	237.38
328.372	252.38
328.6	178.38
328.829	131.38
329.058	137.38
329.287	144.38
329.515	118.38
329.744	115.38
329.972	175.38
330.201	282.38
330.43	395.38
330.658	233.38
330.887	154.38
331.115	114.38
331.344	87.38
331.572	96.38
331.801	114.38
332.03	107.38
332.258	105.38
332.486	90.38
332.715	102.38
332.943	90.38
333.172	99.38
333.4	102.38
333.629	113.38
333.857	125.38
334.085	172.38
334.314	266.38
334.542	483.38
334.771	485.38
334.999	173.38
335.227	107.38
335.455	105.38
335.684	103.38
335.912	97.38
336.14	101.38
336.369	106.38
336.597	101.38
336.825	107.38
337.053	92.38
337.281	86.38
337.51	95.38
337.738	87.38
337.966	91.38
338.194	107.38
338.422	93.38
338.65	100.38
338.878	95.38
339.106	92.38
339.334	99.38
339.562	100.38
339.79	89.38
340.018	96.38
340.246	95.38
340.474	97.38
340.702	95.38
340.93	89.38
341.158	94.38
341.386	88.38
341.614	85.38
341.842	111.38
342.07	110.38
342.298	94.38
342.526	74.38
342.754	86.38
342.981	107.38
343.209	83.38
343.437	100.38
343.665	97.38
343.893	93.38
344.12	79.38
344.348	101.38
344.576	101.38
344.804	91.38
345.031	93.38
345.259	94.38
345.487	83.38
345.714	102.38
345.942	98.38
346.17	91.38
346.397	100.38
346.625	102.38
346.853	93.38
347.08	93.38
347.308	92.38
347.535	90.38
347.763	100.38
347.99	102.38
348.218	114.38
348.445	97.38
348.673	93.38
348.9	97.38
349.128	113.38
349.355	96.38
349.583	83.38
349.81	102.38
350.037	77.38
350.265	97.38
350.492	103.38
350.72	101.38
350.947	105.38
351.174	110.38
351.402	116.38
351.629	113.38
351.856	101.38
352.083	93.38
352.311	103.38
352.538	111.38
352.765	115.38
352.992	107.38
353.22	110.38
353.447	99.38
353.674	97.38
353.901	114.38
354.128	95.38
354.355	114.38
354.583	104.38
354.81	95.38
355.037	84.38
355.264	86.38
355.491	102.38
355.718	88.38
355.945	108.38
356.172	99.38
356.399	98.38
356.626	100.38
356.853	90.38
357.08	86.38
357.307	101.38
357.534	102.38
357.761	90.38
357.988	93.38
358.215	101.38
358.441	91.38
358.668	104.38
358.895	79.38
359.122	82.38
359.349	97.38
359.576	89.38
359.802	88.38
360.029	104.38
360.256	112.38
360.483	99.38
360.709	90.38
360.936	98.38
361.163	89.38
361.39	89.38
361.616	94.38
361.843	87.38
362.07	106.38
362.296	84.38
362.523	114.38
362.749	100.38
362.976	95.38
363.203	93.38
363.429	93.38
363.656	93.38
363.882	100.38
364.109	99.38
364.335	96.38
364.562	98.38
364.788	98.38
365.015	90.38
365.241	97.38
365.468	109.38
365.694	105.38
365.92	105.38
366.147	97.38
366.373	89.38
366.599	94.38
366.826	105.38
367.052	93.38
367.278	93.38
367.505	94.38
367.731	91.38
367.957	90.38
368.184	94.38
368.41	99.38
368.636	106.38
368.862	105.38
369.089	113.38
369.315	90.38
369.541	101.38
369.767	95.38
369.993	98.38
370.219	96.38
370.445	96.38
370.672	95.38
370.898	87.38
371.124	88.38
371.35	87.38
371.576	86.38
371.802	101.38
372.028	99.38
372.254	91.38
372.48	97.38
372.706	80.38
372.932	76.38
373.158	87.38
373.384	96.38
373.61	94.38
373.835	93.38
374.061	101.38
374.287	80.38
374.513	106.38
374.739	91.38
374.965	94.38
375.191	93.38
375.416	104.38
375.642	97.38
375.868	106.38
376.094	91.38
376.319	103.38
376.545	87.38
376.771	95.38
376.997	91.38
377.222	96.38
377.448	89.38
377.674	100.38
377.899	87.38
378.125	93.38
378.35	98.38
378.576	91.38
378.802	84.38
379.027	78.38
379.253	112.38
379.478	100.38
379.704	85.38
379.929	89.38
380.155	102.38
380.38	96.38
380.606	99.38
380.831	103.38
381.057	100.38
381.282	96.38
381.507	120.38
381.733	107.38
381.958	110.38
382.184	112.38
382.409	103.38
382.634	102.38
382.86	99.38
383.085	121.38
383.31	104.38
383.535	117.38
383.761	107.38
383.986	102.38
384.211	99.38
384.436	96.38
384.662	114.38
384.887	97.38
385.112	110.38
385.337	113.38
385.562	110.38
385.787	114.38
386.013	122.38
386.238	115.38
386.463	107.38
386.688	97.38
386.913	105.38
387.138	115.38
387.363	111.38
387.588	82.38
387.813	111.38
388.038	100.38
388.263	126.38
388.488	89.38
388.713	91.38
388.938	93.38
389.163	100.38
389.387	96.38
389.612	90.38
389.837	93.38
390.062	92.38
390.287	106.38
390.512	93.38
390.736	94.38
390.961	86.38
391.186	90.38
391.411	92.38
391.636	95.38
391.86	89.38
392.085	81.38
392.31	80.38
392.534	98.38
392.759	97.38
392.984	93.38
393.208	119.38
393.433	147.38
393.658	105.38
393.882	91.38
394.107	98.38
394.331	79.38
394.556	93.38
394.78	83.38
395.005	89.38
395.229	89.38
395.454	94.38
395.678	91.38
395.903	86.38
396.127	92.38
396.352	99.38
396.576	88.38
396.801	107.38
397.025	111.38
397.249	104.38
397.474	85.38
397.698	94.38
397.922	89.38
398.147	85.38
398.371	98.38
398.595	96.38
398.82	95.38
399.044	81.38
399.268	90.38
399.492	86.38
399.717	87.38
399.941	101.38
400.165	99.38
400.389	88.38
400.613	101.38
400.837	81.38
401.062	89.38
401.286	90.38
401.51	95.38
401.734	91.38
401.958	105.38
402.182	120.38
402.406	145.38
402.63	120.38
402.854	96.38
403.078	84.38
403.302	78.38
403.526	93.38
403.75	90.38
403.974	93.38
404.198	95.38
404.422	88.38
404.645	90.38
404.869	98.38
405.093	96.38
405.317	91.38
405.541	93.38
405.765	116.38
405.988	113.38
406.212	163.38
406.436	207.38
406.66	132.38
406.883	103.38
407.107	91.38
407.331	98.38
407.555	95.38
407.778	98.38
408.002	100.38
408.226	99.38
408.449	101.38
408.673	96.38
408.896	107.38
409.12	95.38
409.344	110.38
409.567	108.38
409.791	82.38
410.014	85.38
410.238	85.38
410.461	84.38
410.685	91.38
410.908	94.38
411.132	101.38
411.355	83.38
411.578	86.38
411.802	99.38
412.025	91.38
412.249	113.38
412.472	98.38
412.695	104.38
412.919	94.38
413.142	109.38
413.365	90.38
413.589	88.38
413.812	88.38
414.035	102.38
414.258	97.38
414.482	84.38
414.705	84.38
414.928	102.38
415.151	98.38
415.374	88.38
415.597	74.38
415.821	103.38
416.044	80.38
416.267	84.38
416.49	107.38
416.713	77.38
416.936	94.38
417.159	79.38
417.382	87.38
417.605	106.38
417.828	93.38
418.051	100.38
418.274	101.38
418.497	87.38
418.72	93.38
418.943	89.38
419.166	100.38
419.389	89.38
419.611	91.38
419.834	97.38
420.057	94.38
420.28	89.38
420.503	83.38
420.726	81.38
420.948	92.38
421.171	87.38
421.394	98.38
421.617	97.38
421.839	88.38
422.062	77.38
422.285	86.38
422.507	102.38
422.73	104.38
422.953	98.38
423.175	91.38
423.398	91.38
423.621	100.38
423.843	95.38
424.066	90.38
424.288	87.38
424.511	94.38
424.733	102.38
424.956	110.38
425.178	102.38
425.401	104.38
425.623	108.38
425.846	87.38
426.068	86.38
426.291	82.38
426.513	97.38
426.735	104.38
426.958	94.38
427.18	100.38
427.402	128.38
427.625	170.38
427.847	153.38
428.069	143.38
428.292	100.38
428.514	91.38
428.736	91.38
428.958	90.38
429.181	94.38
429.403	88.38
429.625	102.38
429.847	99.38
430.069	87.38
430.292	102.38
430.514	84.38
430.736	79.38
430.958	82.38
431.18	80.38
431.402	82.38
431.624	101.38
431.846	94.38
432.068	97.38
432.29	90.38
432.512	83.38
432.734	91.38
432.956	87.38
433.178	99.38
433.4	105.38
433.622	90.38
433.844	101.38
434.066	89.38
434.287	82.38
434.509	89.38
434.731	95.38
434.953	95.38
435.175	96.38
435.397	85.38
435.618	78.38
435.84	114.38
436.062	121.38
436.284	102.38
436.505	88.38
436.727	92.38
436.949	87.38
437.17	97.38
437.392	89.38
437.614	102.38
437.835	98.38
438.057	121.38
438.278	110.38
438.5	95.38
438.721	115.38
438.943	109.38
439.165	96.38
439.386	84.38
439.608	108.38
439.829	99.38
440.05	105.38
440.272	138.38
440.493	104.38
440.715	103.38
440.936	79.38
441.158	104.38
441.379	95.38
441.6	99.38
441.822	97.38
442.043	89.38
442.264	105.38
442.486	94.38
442.707	94.38
442.928	107.38
443.149	125.38
443.371	118.38
443.592	103.38
443.813	118.38
444.034	91.38
444.255	101.38
444.476	79.38
444.698	93.38
444.919	83.38
445.14	141.38
445.361	116.38
445.582	117.38
445.803	118.38
446.024	135.38
446.245	129.38
446.466	106.38
446.687	102.38
446.908	91.38
447.129	90.38
447.35	98.38
447.571	93.38
447.792	88.38
448.013	104.38
448.234	108.38
448.455	98.38
448.675	120.38
448.896	110.38
449.117	98.38
449.338	96.38
449.559	113.38
449.779	113.38
450	91.38
450.221	94.38
450.442	93.38
450.662	88.38
450.883	95.38
451.104	99.38
451.324	97.38
451.545	91.38
451.766	89.38
451.986	95.38
452.207	94.38
452.428	103.38
452.648	102.38
452.869	115.38
453.089	100.38
453.31	107.38
453.53	101.38
453.751	106.38
453.971	97.38
454.192	105.38
454.412	97.38
454.633	94.38
454.853	92.38
455.073	86.38
455.294	99.38
455.514	79.38
455.734	87.38
455.955	89.38
456.175	81.38
456.395	97.38
456.616	72.38
456.836	85.38
457.056	73.38
457.276	93.38
457.497	89.38
457.717	94.38
457.937	85.38
458.157	112.38
458.377	84.38
458.598	98.38
458.818	149.38
459.038	148.38
459.258	108.38
459.478	98.38
459.698	81.38
459.918	86.38
460.138	90.38
460.358	81.38
460.578	88.38
460.798	97.38
461.018	95.38
461.238	92.38
461.458	91.38
461.678	99.38
461.898	95.38
462.118	101.38
462.338	89.38
462.558	81.38
462.777	82.38
462.997	91.38
463.217	94.38
463.437	102.38
463.657	97.38
463.876	81.38
464.096	95.38
464.316	87.38
464.536	94.38
464.755	90.38
464.975	95.38
465.195	162.38
465.414	130.38
465.634	99.38
465.854	104.38
466.073	91.38
466.293	74.38
466.512	83.38
466.732	86.38
466.951	91.38
467.171	91.38
467.391	91.38
467.61	113.38
467.829	120.38
468.049	219.38
468.268	261.38
468.488	104.38
468.707	86.38
468.927	90.38
469.146	95.38
469.365	107.38
469.585	94.38
469.804	97.38
470.023	83.38
470.243	87.38
470.462	102.38
470.681	116.38
470.901	94.38
471.12	78.38
471.339	94.38
471.558	92.38
471.777	91.38
471.997	148.38
472.216	359.38
472.435	681.38
472.654	217.38
472.873	109.38
473.092	107.38
473.311	90.38
473.53	93.38
473.749	90.38
473.968	94.38
474.187	97.38
474.406	105.38
474.625	95.38
474.844	95.38
475.063	98.38
475.282	89.38
475.501	85.38
475.72	81.38
475.939	91.38
476.158	94.38
476.377	81.38
476.596	87.38
476.814	94.38
477.033	101.38
477.252	106.38
477.471	104.38
477.69	91.38
477.908	97.38
478.127	86.38
478.346	87.38
478.564	86.38
478.783	91.38
479.002	99.38
479.22	98.38
479.439	105.38
479.658	103.38
479.876	96.38
480.095	103.38
480.313	107.38
480.532	115.38
480.751	167.38
480.969	345.38
481.188	1202.38
481.406	713.38
481.624	158.38
481.843	95.38
482.061	98.38
482.28	79.38
482.498	93.38
482.717	101.38
482.935	90.38
483.153	90.38
483.372	98.38
483.59	88.38
483.808	87.38
484.027	94.38
484.245	101.38
484.463	91.38
484.681	99.38
484.9	80.38
485.118	106.38
485.336	93.38
485.554	101.38
485.772	102.38
485.99	105.38
486.209	91.38
486.427	97.38
486.645	97.38
486.863	114.38
487.081	98.38
487.299	104.38
487.517	98.38
487.735	88.38
487.953	82.38
488.171	72.38
488.389	104.38
488.607	105.38
488.825	89.38
489.043	89.38
489.261	86.38
489.479	103.38
489.696	81.38
489.914	81.38
490.132	99.38
490.35	89.38
490.568	90.38
490.786	90.38
491.003	101.38
491.221	92.38
491.439	92.38
491.657	84.38
491.874	88.38
492.092	92.38
492.31	93.38
492.527	93.38
492.745	87.38
492.963	97.38
493.18	79.38
493.398	110.38
493.615	109.38
493.833	80.38
494.05	100.38
494.268	93.38
494.485	93.38
494.703	86.38
494.92	83.38
495.138	86.38
495.355	111.38
495.573	101.38
495.79	90.38
496.008	101.38
496.225	91.38
496.442	94.38
496.66	94.38
496.877	93.38
497.094	89.38
497.312	74.38
497.529	96.38
497.746	84.38
497.963	93.38
498.181	79.38
498.398	96.38
498.615	93.38
498.832	103.38
499.049	95.38
499.267	83.38
499.484	89.38
499.701	99.38
499.918	94.38
500.135	98.38
500.352	99.38
500.569	94.38
500.786	89.38
501.003	88.38
501.22	89.38
501.437	85.38
501.654	93.38
501.871	98.38
502.088	94.38
502.305	95.38
502.522	106.38
502.739	82.38
502.956	95.38
503.172	105.38
503.389	86.38
503.606	117.38
503.823	96.38
504.04	93.38
504.256	99.38
504.473	97.38
504.69	91.38
504.907	102.38
505.123	91.38
505.34	96.38
505.557	97.38
505.773	87.38
505.99	105.38
506.207	88.38
506.423	105.38
506.64	86.38
506.856	102.38
507.073	90.38
507.289	94.38
507.506	91.38
507.722	105.38
507.939	114.38
508.155	101.38
508.372	112.38
508.588	86.38
508.805	79.38
509.021	92.38
509.238	86.38
509.454	97.38
509.67	102.38
509.887	104.38
510.103	123.38
510.319	197.38
510.536	659.38
510.752	2165.38
510.968	607.38
511.184	163.38
511.401	109.38
511.617	87.38
511.833	93.38
512.049	91.38
512.265	103.38
512.481	98.38
512.698	90.38
512.914	94.38
513.13	85.38
513.346	96.38
513.562	105.38
513.778	95.38
513.994	101.38
514.21	115.38
514.426	118.38
