Data from Circ_1991_H10_HRD10591_00041.txt Node
Date: Wed Jan 03 11:51:49 EST 2024
User: Yrep
Spectrometer: HR+D1059
Trigger mode: 1
Integration Time (sec): 1.000000E-1
Scans to average: 1
Electric dark correction enabled: true
Nonlinearity correction enabled: false
Boxcar width: 0
XAxis mode: Wavelengths
Number of Pixels in Spectrum: 2048
>>>>>Begin Spectral Data<<<<<
223.165	-21.81
223.4	-21.81
223.635	-21.81
223.869	-23.81
224.104	-13.81
224.338	-12.81
224.573	-19.81
224.808	-15.81
225.042	-5.81
225.277	3.19
225.511	-12.81
225.746	9.19
225.98	-7.81
226.215	15.19
226.449	18.19
226.683	39.19
226.918	30.19
227.152	19.19
227.387	21.19
227.621	47.19
227.856	40.19
228.09	46.19
228.324	49.19
228.559	71.19
228.793	60.19
229.027	66.19
229.262	77.19
229.496	72.19
229.73	86.19
229.964	79.19
230.199	67.19
230.433	83.19
230.667	81.19
230.901	82.19
231.136	74.19
231.37	84.19
231.604	83.19
231.838	72.19
232.072	80.19
232.306	94.19
232.541	76.19
232.775	86.19
233.009	87.19
233.243	70.19
233.477	88.19
233.711	96.19
233.945	78.19
234.179	80.19
234.413	71.19
234.647	79.19
234.881	77.19
235.115	80.19
235.349	76.19
235.583	71.19
235.817	84.19
236.051	84.19
236.285	84.19
236.519	84.19
236.753	99.19
236.987	94.19
237.221	97.19
237.455	82.19
237.689	79.19
237.922	73.19
238.156	73.19
238.39	74.19
238.624	81.19
238.858	71.19
239.091	89.19
239.325	83.19
239.559	86.19
239.793	94.19
240.027	100.19
240.26	88.19
240.494	95.19
240.728	67.19
240.961	76.19
241.195	74.19
241.429	78.19
241.662	69.19
241.896	93.19
242.13	81.19
242.363	78.19
242.597	81.19
242.83	95.19
243.064	79.19
243.298	88.19
243.531	79.19
243.765	82.19
243.998	87.19
244.232	76.19
244.465	73.19
244.699	88.19
244.932	89.19
245.166	72.19
245.399	79.19
245.633	79.19
245.866	78.19
246.099	80.19
246.333	73.19
246.566	79.19
246.8	76.19
247.033	82.19
247.266	84.19
247.5	74.19
247.733	80.19
247.966	78.19
248.2	84.19
248.433	81.19
248.666	84.19
248.899	84.19
249.133	80.19
249.366	100.19
249.599	108.19
249.832	97.19
250.066	84.19
250.299	83.19
250.532	80.19
250.765	95.19
250.998	92.19
251.231	94.19
251.465	74.19
251.698	93.19
251.931	100.19
252.164	90.19
252.397	94.19
252.63	77.19
252.863	81.19
253.096	86.19
253.329	76.19
253.562	86.19
253.795	94.19
254.028	73.19
254.261	86.19
254.494	82.19
254.727	83.19
254.96	79.19
255.193	93.19
255.426	85.19
255.659	84.19
255.892	82.19
256.124	99.19
256.357	89.19
256.59	87.19
256.823	78.19
257.056	78.19
257.289	87.19
257.521	80.19
257.754	88.19
257.987	75.19
258.22	89.19
258.452	86.19
258.685	93.19
258.918	82.19
259.151	83.19
259.383	74.19
259.616	80.19
259.849	81.19
260.081	85.19
260.314	88.19
260.547	96.19
260.779	86.19
261.012	96.19
261.244	92.19
261.477	95.19
261.71	108.19
261.942	109.19
262.175	113.19
262.407	77.19
262.64	94.19
262.872	90.19
263.105	86.19
263.337	88.19
263.57	100.19
263.802	89.19
264.035	99.19
264.267	78.19
264.499	92.19
264.732	80.19
264.964	68.19
265.197	77.19
265.429	81.19
265.661	82.19
265.894	92.19
266.126	84.19
266.358	73.19
266.591	99.19
266.823	85.19
267.055	71.19
267.287	80.19
267.52	80.19
267.752	95.19
267.984	93.19
268.216	81.19
268.448	76.19
268.681	77.19
268.913	79.19
269.145	93.19
269.377	83.19
269.609	90.19
269.841	79.19
270.073	95.19
270.306	96.19
270.538	90.19
270.77	92.19
271.002	86.19
271.234	105.19
271.466	110.19
271.698	73.19
271.93	80.19
272.162	80.19
272.394	92.19
272.626	91.19
272.858	93.19
273.09	87.19
273.322	80.19
273.553	89.19
273.785	92.19
274.017	76.19
274.249	84.19
274.481	91.19
274.713	93.19
274.945	89.19
275.176	98.19
275.408	92.19
275.64	84.19
275.872	111.19
276.104	96.19
276.335	94.19
276.567	102.19
276.799	121.19
277.031	113.19
277.262	116.19
277.494	106.19
277.726	82.19
277.957	93.19
278.189	92.19
278.421	88.19
278.652	83.19
278.884	82.19
279.115	93.19
279.347	94.19
279.579	98.19
279.81	102.19
280.042	104.19
280.273	109.19
280.505	96.19
280.736	99.19
280.968	86.19
281.199	97.19
281.431	87.19
281.662	84.19
281.894	70.19
282.125	108.19
282.356	119.19
282.588	146.19
282.819	128.19
283.051	95.19
283.282	87.19
283.513	98.19
283.745	88.19
283.976	92.19
284.207	83.19
284.439	100.19
284.67	85.19
284.901	95.19
285.132	83.19
285.364	71.19
285.595	78.19
285.826	103.19
286.057	91.19
286.288	68.19
286.52	96.19
286.751	92.19
286.982	93.19
287.213	105.19
287.444	101.19
287.675	80.19
287.906	94.19
288.138	90.19
288.369	86.19
288.6	86.19
288.831	86.19
289.062	91.19
289.293	95.19
289.524	78.19
289.755	85.19
289.986	87.19
290.217	96.19
290.448	85.19
290.679	77.19
290.91	107.19
291.141	111.19
291.371	86.19
291.602	96.19
291.833	90.19
292.064	85.19
292.295	82.19
292.526	93.19
292.757	80.19
292.987	97.19
293.218	98.19
293.449	91.19
293.68	92.19
293.91	80.19
294.141	92.19
294.372	86.19
294.603	90.19
294.833	89.19
295.064	94.19
295.295	95.19
295.525	105.19
295.756	102.19
295.987	117.19
296.217	137.19
296.448	122.19
296.679	96.19
296.909	103.19
297.14	95.19
297.37	90.19
297.601	97.19
297.831	95.19
298.062	98.19
298.292	99.19
298.523	90.19
298.753	107.19
298.984	88.19
299.214	94.19
299.445	94.19
299.675	88.19
299.905	111.19
300.136	85.19
300.366	90.19
300.597	89.19
300.827	95.19
301.057	92.19
301.288	112.19
301.518	102.19
301.748	98.19
301.979	116.19
302.209	92.19
302.439	89.19
302.669	89.19
302.9	101.19
303.13	105.19
303.36	87.19
303.59	113.19
303.82	119.19
304.051	101.19
304.281	95.19
304.511	90.19
304.741	87.19
304.971	86.19
305.201	100.19
305.431	96.19
305.661	110.19
305.891	92.19
306.121	96.19
306.352	104.19
306.582	103.19
306.812	102.19
307.042	88.19
307.272	116.19
307.502	133.19
307.731	108.19
307.961	103.19
308.191	94.19
308.421	98.19
308.651	105.19
308.881	88.19
309.111	99.19
309.341	96.19
309.571	100.19
309.8	82.19
310.03	110.19
310.26	95.19
310.49	112.19
310.72	118.19
310.949	101.19
311.179	103.19
311.409	96.19
311.639	100.19
311.868	95.19
312.098	97.19
312.328	98.19
312.557	104.19
312.787	106.19
313.017	102.19
313.246	92.19
313.476	95.19
313.706	89.19
313.935	102.19
314.165	104.19
314.394	107.19
314.624	100.19
314.853	99.19
315.083	92.19
315.312	93.19
315.542	81.19
315.771	97.19
316.001	98.19
316.23	110.19
316.46	104.19
316.689	89.19
316.919	89.19
317.148	96.19
317.377	104.19
317.607	111.19
317.836	106.19
318.065	82.19
318.295	92.19
318.524	98.19
318.753	102.19
318.983	80.19
319.212	97.19
319.441	116.19
319.67	112.19
319.9	100.19
320.129	88.19
320.358	90.19
320.587	101.19
320.816	96.19
321.046	106.19
321.275	85.19
321.504	85.19
321.733	93.19
321.962	104.19
322.191	101.19
322.42	107.19
322.649	116.19
322.878	112.19
323.108	111.19
323.337	129.19
323.566	133.19
323.795	146.19
324.024	224.19
324.253	427.19
324.482	902.19
324.71	1853.19
324.939	2416.19
325.168	884.19
325.397	270.19
325.626	172.19
325.855	129.19
326.084	140.19
326.313	156.19
326.542	158.19
326.77	238.19
326.999	460.19
327.228	982.19
327.457	1832.19
327.686	1477.19
327.914	437.19
328.143	263.19
328.372	263.19
328.6	176.19
328.829	128.19
329.058	143.19
329.287	131.19
329.515	121.19
329.744	146.19
329.972	218.19
330.201	313.19
330.43	417.19
330.658	234.19
330.887	170.19
331.115	129.19
331.344	105.19
331.572	98.19
331.801	102.19
332.03	115.19
332.258	98.19
332.486	104.19
332.715	100.19
332.943	86.19
333.172	97.19
333.4	107.19
333.629	127.19
333.857	159.19
334.085	199.19
334.314	314.19
334.542	518.19
334.771	491.19
334.999	192.19
335.227	102.19
335.455	109.19
335.684	92.19
335.912	102.19
336.14	107.19
336.369	94.19
336.597	106.19
336.825	103.19
337.053	81.19
337.281	93.19
337.51	85.19
337.738	107.19
337.966	105.19
338.194	112.19
338.422	98.19
338.65	92.19
338.878	92.19
339.106	101.19
339.334	94.19
339.562	90.19
339.79	108.19
340.018	84.19
340.246	98.19
340.474	96.19
340.702	99.19
340.93	96.19
341.158	106.19
341.386	105.19
341.614	94.19
341.842	87.19
342.07	94.19
342.298	80.19
342.526	98.19
342.754	85.19
342.981	93.19
343.209	93.19
343.437	92.19
343.665	85.19
343.893	87.19
344.12	102.19
344.348	103.19
344.576	96.19
344.804	93.19
345.031	101.19
345.259	109.19
345.487	99.19
345.714	99.19
345.942	97.19
346.17	99.19
346.397	82.19
346.625	103.19
346.853	106.19
347.08	101.19
347.308	84.19
347.535	99.19
347.763	111.19
347.99	112.19
348.218	103.19
348.445	101.19
348.673	104.19
348.9	105.19
349.128	93.19
349.355	97.19
349.583	94.19
349.81	100.19
350.037	96.19
350.265	84.19
350.492	102.19
350.72	87.19
350.947	91.19
351.174	110.19
351.402	103.19
351.629	110.19
351.856	120.19
352.083	102.19
352.311	119.19
352.538	106.19
352.765	121.19
352.992	106.19
353.22	126.19
353.447	119.19
353.674	96.19
353.901	85.19
354.128	104.19
354.355	97.19
354.583	99.19
354.81	90.19
355.037	94.19
355.264	102.19
355.491	91.19
355.718	102.19
355.945	84.19
356.172	104.19
356.399	90.19
356.626	92.19
356.853	99.19
357.08	93.19
357.307	93.19
357.534	98.19
357.761	80.19
357.988	96.19
358.215	100.19
358.441	90.19
358.668	87.19
358.895	108.19
359.122	94.19
359.349	97.19
359.576	98.19
359.802	109.19
360.029	109.19
360.256	131.19
360.483	93.19
360.709	111.19
360.936	99.19
361.163	85.19
361.39	88.19
361.616	88.19
361.843	91.19
362.07	91.19
362.296	94.19
362.523	92.19
362.749	90.19
362.976	98.19
363.203	99.19
363.429	103.19
363.656	92.19
363.882	93.19
364.109	90.19
364.335	114.19
364.562	94.19
364.788	83.19
365.015	92.19
365.241	90.19
365.468	123.19
365.694	114.19
365.92	101.19
366.147	78.19
366.373	97.19
366.599	112.19
366.826	96.19
367.052	93.19
367.278	89.19
367.505	85.19
367.731	91.19
367.957	90.19
368.184	95.19
368.41	99.19
368.636	99.19
368.862	100.19
369.089	116.19
369.315	99.19
369.541	98.19
369.767	93.19
369.993	96.19
370.219	80.19
370.445	73.19
370.672	73.19
370.898	96.19
371.124	92.19
371.35	91.19
371.576	92.19
371.802	85.19
372.028	83.19
372.254	84.19
372.48	87.19
372.706	104.19
372.932	92.19
373.158	87.19
373.384	92.19
373.61	90.19
373.835	94.19
374.061	92.19
374.287	89.19
374.513	97.19
374.739	94.19
374.965	86.19
375.191	91.19
375.416	92.19
375.642	95.19
375.868	81.19
376.094	96.19
376.319	98.19
376.545	98.19
376.771	99.19
376.997	96.19
377.222	102.19
377.448	81.19
377.674	100.19
377.899	94.19
378.125	80.19
378.35	93.19
378.576	80.19
378.802	96.19
379.027	94.19
379.253	100.19
379.478	98.19
379.704	108.19
379.929	84.19
380.155	99.19
380.38	103.19
380.606	99.19
380.831	92.19
381.057	95.19
381.282	92.19
381.507	82.19
381.733	92.19
381.958	92.19
382.184	103.19
382.409	106.19
382.634	110.19
382.86	100.19
383.085	106.19
383.31	98.19
383.535	97.19
383.761	95.19
383.986	92.19
384.211	103.19
384.436	92.19
384.662	94.19
384.887	122.19
385.112	115.19
385.337	114.19
385.562	116.19
385.787	101.19
386.013	113.19
386.238	114.19
386.463	111.19
386.688	104.19
386.913	95.19
387.138	112.19
387.363	102.19
387.588	107.19
387.813	112.19
388.038	112.19
388.263	117.19
388.488	109.19
388.713	100.19
388.938	96.19
389.163	96.19
389.387	87.19
389.612	101.19
389.837	114.19
390.062	92.19
390.287	92.19
390.512	92.19
390.736	77.19
390.961	79.19
391.186	102.19
391.411	98.19
391.636	101.19
391.86	83.19
392.085	82.19
392.31	82.19
392.534	80.19
392.759	96.19
392.984	94.19
393.208	118.19
393.433	144.19
393.658	114.19
393.882	96.19
394.107	84.19
394.331	81.19
394.556	90.19
394.78	99.19
395.005	88.19
395.229	93.19
395.454	92.19
395.678	72.19
395.903	87.19
396.127	99.19
396.352	89.19
396.576	103.19
396.801	100.19
397.025	111.19
397.249	97.19
397.474	103.19
397.698	93.19
397.922	97.19
398.147	92.19
398.371	80.19
398.595	74.19
398.82	87.19
399.044	85.19
399.268	95.19
399.492	90.19
399.717	100.19
399.941	83.19
400.165	97.19
400.389	97.19
400.613	103.19
400.837	101.19
401.062	99.19
401.286	77.19
401.51	102.19
401.734	104.19
401.958	103.19
402.182	121.19
402.406	175.19
402.63	123.19
402.854	92.19
403.078	84.19
403.302	89.19
403.526	82.19
403.75	87.19
403.974	93.19
404.198	83.19
404.422	99.19
404.645	84.19
404.869	94.19
405.093	112.19
405.317	101.19
405.541	115.19
405.765	113.19
405.988	110.19
406.212	169.19
406.436	240.19
406.66	135.19
406.883	96.19
407.107	94.19
407.331	95.19
407.555	90.19
407.778	99.19
408.002	108.19
408.226	77.19
408.449	83.19
408.673	102.19
408.896	100.19
409.12	86.19
409.344	102.19
409.567	104.19
409.791	81.19
410.014	116.19
410.238	89.19
410.461	87.19
410.685	110.19
410.908	87.19
411.132	107.19
411.355	104.19
411.578	92.19
411.802	90.19
412.025	94.19
412.249	95.19
412.472	103.19
412.695	103.19
412.919	109.19
413.142	87.19
413.365	92.19
413.589	85.19
413.812	94.19
414.035	84.19
414.258	97.19
414.482	90.19
414.705	77.19
414.928	89.19
415.151	90.19
415.374	92.19
415.597	99.19
415.821	93.19
416.044	96.19
416.267	88.19
416.49	98.19
416.713	100.19
416.936	101.19
417.159	90.19
417.382	103.19
417.605	94.19
417.828	87.19
418.051	89.19
418.274	92.19
418.497	94.19
418.72	78.19
418.943	93.19
419.166	101.19
419.389	93.19
419.611	95.19
419.834	84.19
420.057	91.19
420.28	84.19
420.503	82.19
420.726	87.19
420.948	101.19
421.171	98.19
421.394	107.19
421.617	88.19
421.839	88.19
422.062	81.19
422.285	79.19
422.507	102.19
422.73	96.19
422.953	106.19
423.175	94.19
423.398	99.19
423.621	96.19
423.843	107.19
424.066	86.19
424.288	103.19
424.511	95.19
424.733	102.19
424.956	111.19
425.178	102.19
425.401	112.19
425.623	108.19
425.846	92.19
426.068	72.19
426.291	80.19
426.513	89.19
426.735	97.19
426.958	105.19
427.18	117.19
427.402	143.19
427.625	184.19
427.847	146.19
428.069	149.19
428.292	119.19
428.514	96.19
428.736	82.19
428.958	85.19
429.181	85.19
429.403	78.19
429.625	85.19
429.847	99.19
430.069	99.19
430.292	96.19
430.514	91.19
430.736	89.19
430.958	85.19
431.18	93.19
431.402	92.19
431.624	95.19
431.846	88.19
432.068	79.19
432.29	83.19
432.512	97.19
432.734	88.19
432.956	84.19
433.178	98.19
433.4	104.19
433.622	101.19
433.844	98.19
434.066	95.19
434.287	88.19
434.509	95.19
434.731	94.19
434.953	78.19
435.175	89.19
435.397	85.19
435.618	100.19
435.84	97.19
436.062	130.19
436.284	117.19
436.505	111.19
436.727	111.19
436.949	89.19
437.17	91.19
437.392	94.19
437.614	109.19
437.835	110.19
438.057	122.19
438.278	102.19
438.5	112.19
438.721	123.19
438.943	114.19
439.165	90.19
439.386	105.19
439.608	97.19
439.829	111.19
440.05	130.19
440.272	135.19
440.493	101.19
440.715	86.19
440.936	90.19
441.158	94.19
441.379	100.19
441.6	102.19
441.822	103.19
442.043	106.19
442.264	101.19
442.486	102.19
442.707	95.19
442.928	119.19
443.149	124.19
443.371	129.19
443.592	111.19
443.813	102.19
444.034	108.19
444.255	92.19
444.476	86.19
444.698	94.19
444.919	82.19
445.14	141.19
445.361	120.19
445.582	117.19
445.803	153.19
446.024	138.19
446.245	146.19
446.466	119.19
446.687	97.19
446.908	100.19
447.129	85.19
447.35	95.19
447.571	94.19
447.792	97.19
448.013	95.19
448.234	116.19
448.455	99.19
448.675	116.19
448.896	130.19
449.117	92.19
449.338	106.19
449.559	133.19
449.779	137.19
450	120.19
450.221	88.19
450.442	87.19
450.662	101.19
450.883	105.19
451.104	105.19
451.324	105.19
451.545	89.19
451.766	91.19
451.986	86.19
452.207	83.19
452.428	92.19
452.648	106.19
452.869	126.19
453.089	120.19
453.31	129.19
453.53	115.19
453.751	111.19
453.971	92.19
454.192	113.19
454.412	96.19
454.633	94.19
454.853	95.19
455.073	88.19
455.294	104.19
455.514	118.19
455.734	89.19
455.955	88.19
456.175	81.19
456.395	93.19
456.616	89.19
456.836	90.19
457.056	90.19
457.276	87.19
457.497	78.19
457.717	88.19
457.937	80.19
458.157	89.19
458.377	88.19
458.598	116.19
458.818	157.19
459.038	160.19
459.258	110.19
459.478	88.19
459.698	82.19
459.918	74.19
460.138	80.19
460.358	89.19
460.578	100.19
460.798	103.19
461.018	88.19
461.238	85.19
461.458	89.19
461.678	90.19
461.898	87.19
462.118	84.19
462.338	83.19
462.558	73.19
462.777	92.19
462.997	90.19
463.217	85.19
463.437	96.19
463.657	89.19
463.876	100.19
464.096	103.19
464.316	94.19
464.536	94.19
464.755	99.19
464.975	97.19
465.195	172.19
465.414	176.19
465.634	110.19
465.854	90.19
466.073	97.19
466.293	95.19
466.512	78.19
466.732	94.19
466.951	100.19
467.171	108.19
467.391	105.19
467.61	116.19
467.829	132.19
468.049	231.19
468.268	276.19
468.488	126.19
468.707	100.19
468.927	85.19
469.146	80.19
469.365	78.19
469.585	97.19
469.804	87.19
470.023	106.19
470.243	104.19
470.462	89.19
470.681	126.19
470.901	87.19
471.12	92.19
471.339	96.19
471.558	91.19
471.777	97.19
471.997	156.19
472.216	394.19
472.435	740.19
472.654	222.19
472.873	114.19
473.092	89.19
473.311	104.19
473.53	93.19
473.749	87.19
473.968	94.19
474.187	100.19
474.406	92.19
474.625	93.19
474.844	87.19
475.063	94.19
475.282	85.19
475.501	92.19
475.72	103.19
475.939	97.19
476.158	97.19
476.377	90.19
476.596	82.19
476.814	94.19
477.033	97.19
477.252	95.19
477.471	93.19
477.69	105.19
477.908	97.19
478.127	89.19
478.346	82.19
478.564	101.19
478.783	91.19
479.002	89.19
479.22	110.19
479.439	97.19
479.658	110.19
479.876	98.19
480.095	99.19
480.313	108.19
480.532	117.19
480.751	143.19
480.969	377.19
481.188	1298.19
481.406	785.19
481.624	168.19
481.843	111.19
482.061	89.19
482.28	97.19
482.498	113.19
482.717	94.19
482.935	80.19
483.153	97.19
483.372	102.19
483.59	85.19
483.808	93.19
484.027	100.19
484.245	103.19
484.463	102.19
484.681	90.19
484.9	87.19
485.118	77.19
485.336	98.19
485.554	98.19
485.772	112.19
485.99	98.19
486.209	110.19
486.427	101.19
486.645	109.19
486.863	106.19
487.081	96.19
487.299	104.19
487.517	109.19
487.735	90.19
487.953	93.19
488.171	86.19
488.389	99.19
488.607	98.19
488.825	105.19
489.043	96.19
489.261	99.19
489.479	76.19
489.696	70.19
489.914	91.19
490.132	94.19
490.35	90.19
490.568	82.19
490.786	88.19
491.003	94.19
491.221	95.19
491.439	87.19
491.657	76.19
491.874	92.19
492.092	86.19
492.31	101.19
492.527	101.19
492.745	90.19
492.963	102.19
493.18	94.19
493.398	107.19
493.615	92.19
493.833	98.19
494.05	92.19
494.268	105.19
494.485	85.19
494.703	108.19
494.92	94.19
495.138	82.19
495.355	93.19
495.573	93.19
495.79	92.19
496.008	88.19
496.225	87.19
496.442	95.19
496.66	98.19
496.877	90.19
497.094	93.19
497.312	104.19
497.529	84.19
497.746	97.19
497.963	89.19
498.181	97.19
498.398	106.19
498.615	124.19
498.832	98.19
499.049	97.19
499.267	102.19
499.484	84.19
499.701	87.19
499.918	88.19
500.135	81.19
500.352	85.19
500.569	92.19
500.786	100.19
501.003	86.19
501.22	86.19
501.437	95.19
501.654	94.19
501.871	105.19
502.088	89.19
502.305	86.19
502.522	90.19
502.739	91.19
502.956	106.19
503.172	107.19
503.389	101.19
503.606	120.19
503.823	93.19
504.04	97.19
504.256	96.19
504.473	85.19
504.69	94.19
504.907	87.19
505.123	108.19
505.34	100.19
505.557	96.19
505.773	97.19
505.99	93.19
506.207	97.19
506.423	87.19
506.64	87.19
506.856	85.19
507.073	93.19
507.289	102.19
507.506	107.19
507.722	109.19
507.939	100.19
508.155	92.19
508.372	102.19
508.588	104.19
508.805	96.19
509.021	120.19
509.238	98.19
509.454	96.19
509.67	109.19
509.887	112.19
510.103	146.19
510.319	219.19
510.536	761.19
510.752	2576.19
510.968	680.19
511.184	162.19
511.401	116.19
511.617	104.19
511.833	105.19
512.049	94.19
512.265	93.19
512.481	92.19
512.698	90.19
512.914	88.19
513.13	103.19
513.346	88.19
513.562	92.19
513.778	99.19
