Data from Circ_1991_H10_HRD10591_00010.txt Node
Date: Wed Jan 03 11:51:43 EST 2024
User: Yrep
Spectrometer: HR+D1059
Trigger mode: 1
Integration Time (sec): 1.000000E-1
Scans to average: 1
Electric dark correction enabled: true
Nonlinearity correction enabled: false
Boxcar width: 0
XAxis mode: Wavelengths
Number of Pixels in Spectrum: 2048
>>>>>Begin Spectral Data<<<<<
223.165	-7
223.4	-7
223.635	-7
223.869	-31
224.104	-27
224.338	-17
224.573	-8
224.808	-8
225.042	-4
225.277	-5
225.511	-10
225.746	-1
225.98	7
226.215	7
226.449	17
226.683	25
226.918	25
227.152	37
227.387	34
227.621	37
227.856	56
228.09	44
228.324	46
228.559	64
228.793	62
229.027	45
229.262	67
229.496	74
229.73	65
229.964	73
230.199	66
230.433	69
230.667	83
230.901	89
231.136	63
231.37	80
231.604	67
231.838	64
232.072	81
232.306	86
232.541	82
232.775	82
233.009	83
233.243	63
233.477	73
233.711	81
233.945	81
234.179	81
234.413	100
234.647	65
234.881	80
235.115	79
235.349	71
235.583	62
235.817	75
236.051	73
236.285	77
236.519	88
236.753	82
236.987	78
237.221	82
237.455	81
237.689	80
237.922	78
238.156	73
238.39	77
238.624	76
238.858	86
239.091	75
239.325	77
239.559	83
239.793	76
240.027	74
240.26	71
240.494	75
240.728	89
240.961	78
241.195	95
241.429	83
241.662	83
241.896	79
242.13	75
242.363	73
242.597	81
242.83	80
243.064	78
243.298	68
243.531	83
243.765	80
243.998	77
244.232	82
244.465	85
244.699	86
244.932	90
245.166	77
245.399	78
245.633	72
245.866	77
246.099	86
246.333	80
246.566	70
246.8	82
247.033	81
247.266	73
247.5	59
247.733	83
247.966	76
248.2	82
248.433	86
248.666	87
248.899	82
249.133	77
249.366	87
249.599	92
249.832	78
250.066	81
250.299	76
250.532	77
250.765	86
250.998	58
251.231	75
251.465	94
251.698	61
251.931	91
252.164	86
252.397	86
252.63	76
252.863	81
253.096	79
253.329	90
253.562	80
253.795	74
254.028	93
254.261	94
254.494	75
254.727	84
254.96	90
255.193	92
255.426	77
255.659	79
255.892	78
256.124	83
256.357	80
256.59	69
256.823	90
257.056	97
257.289	85
257.521	75
257.754	77
257.987	84
258.22	84
258.452	81
258.685	92
258.918	93
259.151	81
259.383	84
259.616	78
259.849	89
260.081	82
260.314	73
260.547	92
260.779	90
261.012	69
261.244	74
261.477	90
261.71	90
261.942	87
262.175	96
262.407	79
262.64	83
262.872	86
263.105	79
263.337	74
263.57	85
263.802	85
264.035	74
264.267	83
264.499	74
264.732	93
264.964	80
265.197	77
265.429	74
265.661	81
265.894	88
266.126	97
266.358	79
266.591	85
266.823	95
267.055	89
267.287	84
267.52	73
267.752	89
267.984	71
268.216	80
268.448	80
268.681	95
268.913	85
269.145	90
269.377	70
269.609	77
269.841	79
270.073	86
270.306	74
270.538	100
270.77	82
271.002	85
271.234	98
271.466	96
271.698	79
271.93	87
272.162	89
272.394	89
272.626	79
272.858	105
273.09	74
273.322	82
273.553	94
273.785	88
274.017	79
274.249	85
274.481	80
274.713	75
274.945	86
275.176	71
275.408	88
275.64	96
275.872	78
276.104	86
276.335	94
276.567	93
276.799	99
277.031	109
277.262	96
277.494	84
277.726	87
277.957	76
278.189	88
278.421	87
278.652	71
278.884	94
279.115	83
279.347	88
279.579	93
279.81	92
280.042	88
280.273	110
280.505	104
280.736	86
280.968	96
281.199	86
281.431	86
281.662	98
281.894	87
282.125	88
282.356	107
282.588	114
282.819	104
283.051	86
283.282	83
283.513	90
283.745	73
283.976	79
284.207	84
284.439	92
284.67	82
284.901	88
285.132	86
285.364	93
285.595	92
285.826	87
286.057	93
286.288	67
286.52	79
286.751	61
286.982	89
287.213	79
287.444	77
287.675	94
287.906	73
288.138	90
288.369	93
288.6	97
288.831	81
289.062	98
289.293	98
289.524	98
289.755	86
289.986	91
290.217	73
290.448	77
290.679	91
290.91	95
291.141	97
291.371	101
291.602	91
291.833	91
292.064	82
292.295	87
292.526	86
292.757	92
292.987	81
293.218	73
293.449	100
293.68	101
293.91	83
294.141	86
294.372	89
294.603	92
294.833	89
295.064	85
295.295	79
295.525	85
295.756	84
295.987	109
296.217	129
296.448	122
296.679	90
296.909	84
297.14	92
297.37	84
297.601	95
297.831	89
298.062	102
298.292	98
298.523	77
298.753	93
298.984	101
299.214	100
299.445	80
299.675	91
299.905	89
300.136	84
300.366	88
300.597	94
300.827	82
301.057	92
301.288	103
301.518	87
301.748	89
301.979	100
302.209	87
302.439	69
302.669	78
302.9	82
303.13	81
303.36	108
303.59	107
303.82	110
304.051	90
304.281	83
304.511	101
304.741	75
304.971	80
305.201	101
305.431	83
305.661	85
305.891	91
306.121	70
306.352	104
306.582	110
306.812	91
307.042	96
307.272	99
307.502	120
307.731	111
307.961	96
308.191	81
308.421	93
308.651	87
308.881	88
309.111	87
309.341	96
309.571	97
309.8	104
310.03	97
310.26	101
310.49	102
310.72	82
310.949	96
311.179	82
311.409	100
311.639	111
311.868	89
312.098	86
312.328	101
312.557	98
312.787	96
313.017	98
313.246	92
313.476	103
313.706	97
313.935	92
314.165	100
314.394	91
314.624	92
314.853	68
315.083	82
315.312	86
315.542	101
315.771	109
316.001	102
316.23	78
316.46	81
316.689	101
316.919	90
317.148	94
317.377	90
317.607	85
317.836	89
318.065	107
318.295	99
318.524	84
318.753	98
318.983	91
319.212	97
319.441	98
319.67	97
319.9	85
320.129	101
320.358	100
320.587	87
320.816	98
321.046	102
321.275	93
321.504	90
321.733	98
321.962	93
322.191	98
322.42	85
322.649	96
322.878	110
323.108	108
323.337	111
323.566	121
323.795	157
324.024	185
324.253	341
324.482	713
324.71	1372
324.939	1877
325.168	687
325.397	206
325.626	132
325.855	133
326.084	118
326.313	121
326.542	129
326.77	210
326.999	405
327.228	764
327.457	1415
327.686	1127
327.914	359
328.143	206
328.372	199
328.6	121
328.829	108
329.058	113
329.287	118
329.515	107
329.744	120
329.972	153
330.201	214
330.43	246
330.658	162
330.887	127
331.115	104
331.344	91
331.572	95
331.801	95
332.03	106
332.258	105
332.486	95
332.715	95
332.943	97
333.172	96
333.4	108
333.629	101
333.857	113
334.085	162
334.314	211
334.542	301
334.771	291
334.999	135
335.227	102
335.455	102
335.684	98
335.912	106
336.14	94
336.369	91
336.597	91
336.825	100
337.053	90
337.281	108
337.51	91
337.738	93
337.966	91
338.194	82
338.422	97
338.65	83
338.878	87
339.106	84
339.334	100
339.562	77
339.79	96
340.018	75
340.246	85
340.474	85
340.702	91
340.93	93
341.158	91
341.386	97
341.614	85
341.842	103
342.07	102
342.298	74
342.526	97
342.754	91
342.981	90
343.209	90
343.437	94
343.665	91
343.893	97
344.12	94
344.348	97
344.576	95
344.804	103
345.031	92
345.259	98
345.487	95
345.714	87
345.942	88
346.17	90
346.397	94
346.625	87
346.853	101
347.08	81
347.308	89
347.535	93
347.763	92
347.99	92
348.218	84
348.445	107
348.673	93
348.9	78
349.128	105
349.355	95
349.583	99
349.81	85
350.037	84
350.265	75
350.492	103
350.72	97
350.947	84
351.174	98
351.402	89
351.629	88
351.856	121
352.083	94
352.311	99
352.538	107
352.765	101
352.992	109
353.22	100
353.447	95
353.674	93
353.901	83
354.128	104
354.355	97
354.583	106
354.81	101
355.037	103
355.264	96
355.491	100
355.718	97
355.945	102
356.172	115
356.399	89
356.626	86
356.853	91
357.08	82
357.307	98
357.534	100
357.761	93
357.988	99
358.215	115
358.441	96
358.668	106
358.895	87
359.122	107
359.349	80
359.576	80
359.802	101
360.029	114
360.256	107
360.483	107
360.709	83
360.936	97
361.163	98
361.39	106
361.616	105
361.843	86
362.07	94
362.296	91
362.523	84
362.749	83
362.976	87
363.203	87
363.429	100
363.656	94
363.882	96
364.109	79
364.335	95
364.562	88
364.788	81
365.015	86
365.241	99
365.468	111
365.694	105
365.92	93
366.147	104
366.373	88
366.599	94
366.826	82
367.052	79
367.278	89
367.505	100
367.731	90
367.957	87
368.184	90
368.41	98
368.636	99
368.862	126
369.089	99
369.315	89
369.541	101
369.767	99
369.993	87
370.219	100
370.445	83
370.672	73
370.898	93
371.124	71
371.35	88
371.576	103
371.802	83
372.028	89
372.254	99
372.48	91
372.706	82
372.932	89
373.158	92
373.384	90
373.61	93
373.835	100
374.061	90
374.287	101
374.513	80
374.739	97
374.965	92
375.191	101
375.416	75
375.642	93
375.868	92
376.094	97
376.319	89
376.545	87
376.771	77
376.997	92
377.222	96
377.448	82
377.674	91
377.899	93
378.125	99
378.35	106
378.576	94
378.802	91
379.027	101
379.253	99
379.478	95
379.704	109
379.929	85
380.155	95
380.38	99
380.606	94
380.831	94
381.057	98
381.282	111
381.507	96
381.733	110
381.958	111
382.184	105
382.409	106
382.634	110
382.86	110
383.085	106
383.31	93
383.535	103
383.761	118
383.986	99
384.211	94
384.436	107
384.662	110
384.887	130
385.112	130
385.337	111
385.562	112
385.787	118
386.013	124
386.238	140
386.463	129
386.688	126
386.913	112
387.138	145
387.363	132
387.588	113
387.813	116
388.038	130
388.263	130
388.488	120
388.713	103
388.938	100
389.163	94
389.387	96
389.612	104
389.837	113
390.062	109
390.287	86
390.512	95
390.736	91
390.961	100
391.186	95
391.411	106
391.636	101
391.86	90
392.085	91
392.31	74
392.534	100
392.759	85
392.984	95
393.208	116
393.433	176
393.658	131
393.882	90
394.107	84
394.331	79
394.556	92
394.78	102
395.005	89
395.229	73
395.454	81
395.678	73
395.903	94
396.127	91
396.352	98
396.576	101
396.801	110
397.025	142
397.249	95
397.474	83
397.698	78
397.922	79
398.147	81
398.371	97
398.595	76
398.82	71
399.044	83
399.268	86
399.492	84
399.717	100
399.941	93
400.165	96
400.389	87
400.613	88
400.837	89
401.062	86
401.286	95
401.51	79
401.734	89
401.958	102
402.182	130
402.406	147
402.63	103
402.854	99
403.078	97
403.302	85
403.526	94
403.75	92
403.974	74
404.198	87
404.422	86
404.645	83
404.869	93
405.093	93
405.317	103
405.541	107
405.765	92
405.988	102
406.212	139
406.436	190
406.66	125
406.883	108
407.107	76
407.331	100
407.555	81
407.778	98
408.002	110
408.226	88
408.449	103
408.673	92
408.896	83
409.12	93
409.344	109
409.567	99
409.791	104
410.014	95
410.238	70
410.461	93
410.685	101
410.908	100
411.132	102
411.355	107
411.578	98
411.802	96
412.025	91
412.249	82
412.472	96
412.695	103
412.919	93
413.142	91
413.365	90
413.589	89
413.812	76
414.035	91
414.258	95
414.482	82
414.705	94
414.928	87
415.151	100
415.374	100
415.597	74
415.821	90
416.044	75
416.267	102
416.49	91
416.713	87
416.936	94
417.159	96
417.382	103
417.605	100
417.828	101
418.051	98
418.274	74
418.497	83
418.72	88
418.943	85
419.166	89
419.389	92
419.611	88
419.834	88
420.057	96
420.28	82
420.503	89
420.726	84
420.948	81
421.171	90
421.394	99
421.617	89
421.839	95
422.062	87
422.285	95
422.507	93
422.73	122
422.953	91
423.175	104
423.398	76
423.621	91
423.843	79
424.066	94
424.288	80
424.511	90
424.733	89
424.956	81
425.178	98
425.401	87
425.623	92
425.846	85
426.068	92
426.291	82
426.513	75
426.735	90
426.958	93
427.18	99
427.402	116
427.625	141
427.847	137
428.069	122
428.292	92
428.514	89
428.736	84
428.958	89
429.181	87
429.403	81
429.625	91
429.847	88
430.069	99
430.292	80
430.514	77
430.736	86
430.958	76
431.18	71
431.402	83
431.624	78
431.846	89
432.068	81
432.29	95
432.512	89
432.734	85
432.956	81
433.178	98
433.4	100
433.622	94
433.844	89
434.066	87
434.287	93
434.509	87
434.731	92
434.953	97
435.175	78
435.397	93
435.618	79
435.84	100
436.062	113
436.284	113
436.505	101
436.727	87
436.949	100
437.17	95
437.392	86
437.614	98
437.835	102
438.057	98
438.278	99
438.5	114
438.721	106
438.943	99
439.165	97
439.386	97
439.608	97
439.829	99
440.05	123
440.272	121
440.493	93
440.715	89
440.936	85
441.158	103
441.379	79
441.6	75
441.822	89
442.043	90
442.264	105
442.486	98
442.707	91
442.928	100
443.149	99
443.371	126
443.592	99
443.813	107
444.034	113
444.255	81
444.476	94
444.698	76
444.919	95
445.14	121
445.361	125
445.582	110
445.803	129
446.024	131
446.245	116
446.466	93
446.687	87
446.908	85
447.129	108
447.35	82
447.571	95
447.792	81
448.013	90
448.234	97
448.455	105
448.675	110
448.896	100
449.117	97
449.338	84
449.559	109
449.779	116
450	112
450.221	97
450.442	85
450.662	77
450.883	99
451.104	101
451.324	89
451.545	79
451.766	83
451.986	82
452.207	80
452.428	84
452.648	93
452.869	101
453.089	97
453.31	118
453.53	88
453.751	98
453.971	106
454.192	107
454.412	101
454.633	80
454.853	82
455.073	89
455.294	86
455.514	86
455.734	71
455.955	86
456.175	83
456.395	83
456.616	86
456.836	79
457.056	83
457.276	86
457.497	92
457.717	85
457.937	87
458.157	91
458.377	103
458.598	94
458.818	123
459.038	128
459.258	103
459.478	80
459.698	86
459.918	97
460.138	81
460.358	91
460.578	89
460.798	85
461.018	104
461.238	95
461.458	86
461.678	86
461.898	95
462.118	89
462.338	79
462.558	89
462.777	86
462.997	91
463.217	90
463.437	76
463.657	85
463.876	85
464.096	89
464.316	88
464.536	85
464.755	86
464.975	98
465.195	138
465.414	131
465.634	105
465.854	83
466.073	85
466.293	82
466.512	84
466.732	88
466.951	92
467.171	85
467.391	92
467.61	100
467.829	103
468.049	165
468.268	181
468.488	85
468.707	82
468.927	84
469.146	79
469.365	84
469.585	83
469.804	93
470.023	73
470.243	86
470.462	96
470.681	93
470.901	90
471.12	95
471.339	91
471.558	91
471.777	102
471.997	115
472.216	246
472.435	429
472.654	137
472.873	93
473.092	83
473.311	86
473.53	82
473.749	76
473.968	91
474.187	98
474.406	108
474.625	86
474.844	91
475.063	103
475.282	95
475.501	87
475.72	82
475.939	94
476.158	75
476.377	73
476.596	91
476.814	96
477.033	83
477.252	84
477.471	86
477.69	83
477.908	89
478.127	98
478.346	81
478.564	86
478.783	94
479.002	91
479.22	81
479.439	95
479.658	101
479.876	91
480.095	86
480.313	86
480.532	86
480.751	114
480.969	245
481.188	754
481.406	459
481.624	120
481.843	94
482.061	82
482.28	71
482.498	84
482.717	82
482.935	82
483.153	84
483.372	81
483.59	85
483.808	87
484.027	85
484.245	76
484.463	97
484.681	108
484.9	91
485.118	87
485.336	86
485.554	98
485.772	102
485.99	111
486.209	104
486.427	105
486.645	101
486.863	102
487.081	99
487.299	97
487.517	98
487.735	90
487.953	89
488.171	97
488.389	84
488.607	102
488.825	87
489.043	70
489.261	89
489.479	92
489.696	83
489.914	81
490.132	84
490.35	98
490.568	81
490.786	78
491.003	83
491.221	86
491.439	94
491.657	100
491.874	85
492.092	84
492.31	93
492.527	76
492.745	85
492.963	89
493.18	81
493.398	92
493.615	85
493.833	86
494.05	90
494.268	90
494.485	83
494.703	95
494.92	100
495.138	74
495.355	89
495.573	89
495.79	102
496.008	100
496.225	86
496.442	96
496.66	96
496.877	94
497.094	89
497.312	83
497.529	92
497.746	97
497.963	82
498.181	89
498.398	93
498.615	105
498.832	102
499.049	83
499.267	79
499.484	81
499.701	77
499.918	82
500.135	86
500.352	82
500.569	76
500.786	103
501.003	94
501.22	90
501.437	82
501.654	93
501.871	107
502.088	101
502.305	83
502.522	85
502.739	95
502.956	99
503.172	80
503.389	84
503.606	109
503.823	90
504.04	92
504.256	88
504.473	76
504.69	83
504.907	90
505.123	96
505.34	86
505.557	94
505.773	89
505.99	92
506.207	92
506.423	82
506.64	78
506.856	81
507.073	93
507.289	85
507.506	97
507.722	110
507.939	94
508.155	91
508.372	88
508.588	97
508.805	89
509.021	89
509.238	99
509.454	97
509.67	93
509.887	115
510.103	123
510.319	177
510.536	618
510.752	1957
510.968	528
511.184	134
511.401	99
511.617	85
511.833	93
512.049	94
512.265	107
512.481	93
512.698	100
512.914	89
513.13	81
513.346	90
513.562	91
513.778	80
513.994	96
514.21	84
514.426	85
514.642	127
514.858	111
515.074	144
515.29	354
515.506	1170
515.721	426
515.937	129
516.153	107
516.369	86
516.585	91
516.801	98
517.016	88
517.232	98
517.448	101
517.664	86
517.879	89
518.095	89
518.311	83
518.527	82
518.742	73
518.958	79
519.173	90
519.389	92
519.605	109
519.82	106
520.036	97
520.251	108
520.467	91
520.682	93
520.898	106
521.113	102
521.329	122
521.544	177
521.76	431
521.975	1865
522.19	1122
522.406	250
522.621	112
522.836	98
523.052	109
523.267	98
523.482	75
523.698	103
523.913	122
524.128	99
524.343	84
524.559	90
524.774	96
524.989	90
525.204	90
525.419	100
525.634	84
525.849	85
526.064	101
526.28	92
526.495	103
526.71	99
526.925	78
527.14	74
527.355	71
527.57	82
527.785	83
527.999	83
528.214	97
528.429	88
528.644	102
528.859	88
529.074	92
529.289	122
529.503	149
529.718	107
529.933	92
530.148	102
530.363	80
530.577	94
530.792	87
531.007	79
531.221	87
531.436	98
531.651	83
531.865	83
532.08	99
532.295	90
532.509	84
532.724	89
532.938	89
533.153	92
533.367	100
533.582	94
533.796	91
534.011	92
534.225	94
534.44	96
534.654	85
534.868	91
535.083	88
535.297	98
535.511	86
535.726	102
535.94	81
536.154	93
536.369	101
536.583	93
536.797	96
537.011	81
537.225	96
537.44	102
537.654	87
537.868	95
538.082	90
538.296	81
538.51	83
538.724	99
538.938	87
539.153	94
539.367	101
539.581	99
539.795	105
540.009	86
540.222	80
540.436	97
540.65	87
540.864	92
541.078	105
541.292	96
541.506	97
541.72	93
541.934	92
542.147	90
542.361	94
542.575	87
542.789	88
543.002	90
543.216	101
543.43	102
543.644	96
543.857	81
544.071	88
544.285	71
544.498	90
544.712	88
544.925	89
545.139	83
545.352	70
545.566	82
545.779	101
545.993	83
546.206	94
546.42	92
546.633	98
546.847	99
547.06	84
547.274	94
547.487	73
547.7	89
547.914	82
548.127	78
548.34	84
548.554	93
548.767	81
548.98	97
549.193	81
549.407	102
549.62	89
549.833	94
550.046	100
550.259	105
550.473	82
550.686	76
550.899	87
551.112	87
551.325	94
551.538	90
551.751	87
551.964	98
552.177	81
552.39	83
552.603	112
552.816	105
553.029	83
553.242	87
553.455	95
553.667	109
553.88	94
554.093	84
554.306	103
554.519	92
554.732	96
554.944	100
555.157	96
555.37	86
555.583	103
555.795	86
556.008	78
556.221	86
556.433	84
556.646	94
556.859	89
557.071	73
557.284	92
557.496	87
557.709	93
557.921	80
558.134	82
558.346	96
558.559	85
558.771	79
558.984	93
559.196	91
559.409	106
559.621	79
559.833	81
560.046	92
560.258	91
560.47	85
560.683	87
560.895	84
561.107	78
561.32	92
561.532	81
561.744	77
561.956	91
562.168	94
562.381	74
562.593	100
562.805	75
563.017	84
563.229	95
563.441	84
563.653	75
563.865	102
564.077	102
564.289	81
564.501	77
564.713	87
564.925	85
565.137	89
565.349	87
565.561	86
565.773	98
565.985	99
566.197	99
566.408	77
566.62	83
566.832	86
567.044	86
567.255	89
567.467	88
567.679	78
567.891	79
568.102	79
568.314	106
568.526	92
568.737	80
568.949	79
569.161	75
569.372	85
569.584	101
569.795	95
570.007	112
570.218	206
570.43	111
570.641	105
570.853	94
571.064	89
571.276	89
571.487	93
571.698	76
571.91	78
572.121	88
572.333	95
572.544	89
572.755	96
572.966	73
573.178	92
573.389	102
573.6	88
573.811	97
574.023	70
574.234	80
574.445	89
574.656	90
574.867	82
575.078	90
575.289	92
575.501	92
575.712	78
575.923	77
576.134	87
576.345	86
576.556	77
576.767	87
576.978	106
577.188	90
577.399	91
577.61	87
577.821	78
578.032	102
578.243	215
578.454	630
578.665	185
578.875	101
579.086	100
579.297	93
579.508	100
579.718	105
579.929	82
580.14	73
580.35	96
580.561	86
580.772	94
580.982	83
581.193	75
581.403	70
581.614	77
581.825	82
582.035	83
582.246	76
582.456	94
582.667	80
582.877	98
583.087	92
583.298	79
583.508	100
583.719	90
583.929	73
584.139	95
