Data from Circ_1991_H10_HRD10591_00079.txt Node
Date: Wed Jan 03 11:51:57 EST 2024
User: Yrep
Spectrometer: HR+D1059
Trigger mode: 1
Integration Time (sec): 1.000000E-1
Scans to average: 1
Electric dark correction enabled: true
Nonlinearity correction enabled: false
Boxcar width: 0
XAxis mode: Wavelengths
Number of Pixels in Spectrum: 2048
>>>>>Begin Spectral Data<<<<<
223.165	-28.62
223.4	-28.62
223.635	-28.62
223.869	-21.62
224.104	-11.62
224.338	-13.62
224.573	-13.62
224.808	-12.62
225.042	-12.62
225.277	5.38
225.511	-16.62
225.746	-8.62
225.98	13.38
226.215	6.38
226.449	11.38
226.683	25.38
226.918	39.38
227.152	38.38
227.387	36.38
227.621	26.38
227.856	61.38
228.09	41.38
228.324	47.38
228.559	50.38
228.793	51.38
229.027	77.38
229.262	63.38
229.496	70.38
229.73	85.38
229.964	101.38
230.199	79.38
230.433	70.38
230.667	75.38
230.901	82.38
231.136	85.38
231.37	83.38
231.604	81.38
231.838	79.38
232.072	97.38
232.306	83.38
232.541	92.38
232.775	87.38
233.009	87.38
233.243	80.38
233.477	92.38
233.711	74.38
233.945	64.38
234.179	73.38
234.413	83.38
234.647	72.38
234.881	75.38
235.115	91.38
235.349	73.38
235.583	83.38
235.817	80.38
236.051	66.38
236.285	67.38
236.519	72.38
236.753	68.38
236.987	71.38
237.221	96.38
237.455	77.38
237.689	79.38
237.922	72.38
238.156	75.38
238.39	69.38
238.624	82.38
238.858	81.38
239.091	88.38
239.325	69.38
239.559	101.38
239.793	87.38
240.027	96.38
240.26	83.38
240.494	75.38
240.728	88.38
240.961	85.38
241.195	76.38
241.429	75.38
241.662	78.38
241.896	68.38
242.13	70.38
242.363	78.38
242.597	79.38
242.83	79.38
243.064	85.38
243.298	78.38
243.531	80.38
243.765	72.38
243.998	79.38
244.232	85.38
244.465	95.38
244.699	93.38
244.932	85.38
245.166	76.38
245.399	76.38
245.633	83.38
245.866	78.38
246.099	80.38
246.333	74.38
246.566	83.38
246.8	89.38
247.033	87.38
247.266	84.38
247.5	68.38
247.733	71.38
247.966	71.38
248.2	92.38
248.433	87.38
248.666	81.38
248.899	79.38
249.133	75.38
249.366	99.38
249.599	95.38
249.832	78.38
250.066	92.38
250.299	70.38
250.532	84.38
250.765	75.38
250.998	85.38
251.231	90.38
251.465	79.38
251.698	75.38
251.931	85.38
252.164	88.38
252.397	81.38
252.63	84.38
252.863	94.38
253.096	88.38
253.329	70.38
253.562	86.38
253.795	95.38
254.028	77.38
254.261	94.38
254.494	79.38
254.727	76.38
254.96	75.38
255.193	74.38
255.426	85.38
255.659	69.38
255.892	93.38
256.124	87.38
256.357	73.38
256.59	78.38
256.823	85.38
257.056	78.38
257.289	93.38
257.521	82.38
257.754	94.38
257.987	100.38
258.22	96.38
258.452	85.38
258.685	95.38
258.918	73.38
259.151	95.38
259.383	89.38
259.616	85.38
259.849	87.38
260.081	73.38
260.314	91.38
260.547	79.38
260.779	95.38
261.012	82.38
261.244	91.38
261.477	99.38
261.71	118.38
261.942	126.38
262.175	124.38
262.407	93.38
262.64	91.38
262.872	84.38
263.105	87.38
263.337	98.38
263.57	85.38
263.802	100.38
264.035	82.38
264.267	81.38
264.499	77.38
264.732	94.38
264.964	76.38
265.197	84.38
265.429	93.38
265.661	98.38
265.894	79.38
266.126	83.38
266.358	77.38
266.591	95.38
266.823	83.38
267.055	88.38
267.287	69.38
267.52	81.38
267.752	90.38
267.984	83.38
268.216	89.38
268.448	86.38
268.681	80.38
268.913	77.38
269.145	79.38
269.377	88.38
269.609	87.38
269.841	95.38
270.073	85.38
270.306	79.38
270.538	79.38
270.77	95.38
271.002	92.38
271.234	88.38
271.466	85.38
271.698	97.38
271.93	93.38
272.162	93.38
272.394	93.38
272.626	90.38
272.858	85.38
273.09	79.38
273.322	75.38
273.553	85.38
273.785	84.38
274.017	94.38
274.249	95.38
274.481	86.38
274.713	84.38
274.945	84.38
275.176	91.38
275.408	87.38
275.64	91.38
275.872	96.38
276.104	102.38
276.335	91.38
276.567	113.38
276.799	117.38
277.031	134.38
277.262	125.38
277.494	100.38
277.726	88.38
277.957	94.38
278.189	91.38
278.421	89.38
278.652	104.38
278.884	81.38
279.115	94.38
279.347	82.38
279.579	95.38
279.81	104.38
280.042	120.38
280.273	140.38
280.505	116.38
280.736	92.38
280.968	93.38
281.199	93.38
281.431	81.38
281.662	84.38
281.894	97.38
282.125	105.38
282.356	113.38
282.588	148.38
282.819	103.38
283.051	93.38
283.282	68.38
283.513	94.38
283.745	92.38
283.976	91.38
284.207	88.38
284.439	86.38
284.67	88.38
284.901	76.38
285.132	90.38
285.364	106.38
285.595	94.38
285.826	87.38
286.057	93.38
286.288	81.38
286.52	98.38
286.751	100.38
286.982	89.38
287.213	83.38
287.444	83.38
287.675	87.38
287.906	83.38
288.138	100.38
288.369	92.38
288.6	92.38
288.831	84.38
289.062	76.38
289.293	80.38
289.524	86.38
289.755	80.38
289.986	89.38
290.217	79.38
290.448	80.38
290.679	90.38
290.91	93.38
291.141	92.38
291.371	97.38
291.602	89.38
291.833	83.38
292.064	88.38
292.295	89.38
292.526	76.38
292.757	96.38
292.987	84.38
293.218	85.38
293.449	94.38
293.68	96.38
293.91	96.38
294.141	83.38
294.372	97.38
294.603	100.38
294.833	93.38
295.064	91.38
295.295	98.38
295.525	96.38
295.756	103.38
295.987	114.38
296.217	150.38
296.448	132.38
296.679	93.38
296.909	83.38
297.14	83.38
297.37	88.38
297.601	86.38
297.831	79.38
298.062	86.38
298.292	91.38
298.523	87.38
298.753	90.38
298.984	89.38
299.214	79.38
299.445	86.38
299.675	78.38
299.905	110.38
300.136	89.38
300.366	87.38
300.597	90.38
300.827	93.38
301.057	95.38
301.288	118.38
301.518	85.38
301.748	99.38
301.979	127.38
302.209	100.38
302.439	83.38
302.669	91.38
302.9	97.38
303.13	93.38
303.36	100.38
303.59	123.38
303.82	118.38
304.051	98.38
304.281	96.38
304.511	102.38
304.741	80.38
304.971	93.38
305.201	87.38
305.431	83.38
305.661	86.38
305.891	96.38
306.121	86.38
306.352	106.38
306.582	113.38
306.812	107.38
307.042	104.38
307.272	124.38
307.502	132.38
307.731	127.38
307.961	133.38
308.191	95.38
308.421	95.38
308.651	96.38
308.881	87.38
309.111	84.38
309.341	110.38
309.571	99.38
309.8	98.38
310.03	97.38
310.26	92.38
310.49	117.38
310.72	98.38
310.949	114.38
311.179	96.38
311.409	87.38
311.639	96.38
311.868	96.38
312.098	104.38
312.328	104.38
312.557	106.38
312.787	127.38
313.017	107.38
313.246	103.38
313.476	95.38
313.706	92.38
313.935	102.38
314.165	104.38
314.394	107.38
314.624	103.38
314.853	90.38
315.083	83.38
315.312	97.38
315.542	95.38
315.771	81.38
316.001	95.38
316.23	97.38
316.46	92.38
316.689	101.38
316.919	96.38
317.148	85.38
317.377	107.38
317.607	102.38
317.836	104.38
318.065	87.38
318.295	92.38
318.524	95.38
318.753	90.38
318.983	110.38
319.212	79.38
319.441	106.38
319.67	117.38
319.9	95.38
320.129	86.38
320.358	102.38
320.587	90.38
320.816	93.38
321.046	93.38
321.275	103.38
321.504	91.38
321.733	98.38
321.962	114.38
322.191	115.38
322.42	107.38
322.649	139.38
322.878	126.38
323.108	145.38
323.337	121.38
323.566	155.38
323.795	169.38
324.024	224.38
324.253	447.38
324.482	1010.38
324.71	2095.38
324.939	2933.38
325.168	1025.38
325.397	277.38
325.626	163.38
325.855	133.38
326.084	133.38
326.313	141.38
326.542	175.38
326.77	263.38
326.999	539.38
327.228	1135.38
327.457	2135.38
327.686	1689.38
327.914	483.38
328.143	359.38
328.372	361.38
328.6	240.38
328.829	152.38
329.058	152.38
329.287	144.38
329.515	147.38
329.744	176.38
329.972	277.38
330.201	489.38
330.43	717.38
330.658	375.38
330.887	213.38
331.115	136.38
331.344	124.38
331.572	119.38
331.801	102.38
332.03	118.38
332.258	109.38
332.486	98.38
332.715	97.38
332.943	88.38
333.172	108.38
333.4	112.38
333.629	120.38
333.857	179.38
334.085	264.38
334.314	469.38
334.542	856.38
334.771	818.38
334.999	273.38
335.227	139.38
335.455	108.38
335.684	113.38
335.912	96.38
336.14	101.38
336.369	117.38
336.597	118.38
336.825	98.38
337.053	100.38
337.281	100.38
337.51	97.38
337.738	91.38
337.966	93.38
338.194	99.38
338.422	102.38
338.65	103.38
338.878	88.38
339.106	86.38
339.334	87.38
339.562	88.38
339.79	93.38
340.018	89.38
340.246	94.38
340.474	97.38
340.702	100.38
340.93	88.38
341.158	101.38
341.386	95.38
341.614	109.38
341.842	103.38
342.07	102.38
342.298	101.38
342.526	81.38
342.754	89.38
342.981	90.38
343.209	95.38
343.437	87.38
343.665	92.38
343.893	98.38
344.12	80.38
344.348	99.38
344.576	90.38
344.804	105.38
345.031	117.38
345.259	105.38
345.487	77.38
345.714	98.38
345.942	100.38
346.17	90.38
346.397	85.38
346.625	92.38
346.853	99.38
347.08	94.38
347.308	108.38
347.535	89.38
347.763	103.38
347.99	108.38
348.218	103.38
348.445	87.38
348.673	96.38
348.9	110.38
349.128	95.38
349.355	89.38
349.583	89.38
349.81	106.38
350.037	103.38
350.265	89.38
350.492	104.38
350.72	103.38
350.947	101.38
351.174	103.38
351.402	123.38
351.629	100.38
351.856	110.38
352.083	112.38
352.311	98.38
352.538	111.38
352.765	104.38
352.992	118.38
353.22	105.38
353.447	101.38
353.674	97.38
353.901	104.38
354.128	104.38
354.355	97.38
354.583	93.38
354.81	94.38
355.037	92.38
355.264	91.38
355.491	95.38
355.718	80.38
355.945	93.38
356.172	100.38
356.399	99.38
356.626	99.38
356.853	86.38
357.08	101.38
357.307	76.38
357.534	97.38
357.761	103.38
357.988	106.38
358.215	95.38
358.441	87.38
358.668	93.38
358.895	99.38
359.122	101.38
359.349	73.38
359.576	94.38
359.802	126.38
360.029	120.38
360.256	131.38
360.483	97.38
360.709	86.38
360.936	80.38
361.163	86.38
361.39	94.38
361.616	104.38
361.843	95.38
362.07	102.38
362.296	103.38
362.523	117.38
362.749	105.38
362.976	91.38
363.203	92.38
363.429	96.38
363.656	99.38
363.882	93.38
364.109	95.38
364.335	90.38
364.562	98.38
364.788	94.38
365.015	96.38
365.241	103.38
365.468	108.38
365.694	100.38
365.92	97.38
366.147	97.38
366.373	83.38
366.599	84.38
366.826	90.38
367.052	82.38
367.278	94.38
367.505	88.38
367.731	87.38
367.957	91.38
368.184	93.38
368.41	110.38
368.636	111.38
368.862	116.38
369.089	94.38
369.315	96.38
369.541	98.38
369.767	104.38
369.993	97.38
370.219	104.38
370.445	101.38
370.672	96.38
370.898	94.38
371.124	79.38
371.35	97.38
371.576	100.38
371.802	94.38
372.028	104.38
372.254	101.38
372.48	94.38
372.706	89.38
372.932	86.38
373.158	75.38
373.384	98.38
373.61	99.38
373.835	96.38
374.061	103.38
374.287	105.38
374.513	85.38
374.739	100.38
374.965	95.38
375.191	80.38
375.416	82.38
375.642	77.38
375.868	94.38
376.094	90.38
376.319	79.38
376.545	102.38
376.771	93.38
376.997	91.38
377.222	102.38
377.448	81.38
377.674	91.38
377.899	87.38
378.125	90.38
378.35	102.38
378.576	101.38
378.802	98.38
379.027	98.38
379.253	97.38
379.478	96.38
379.704	109.38
379.929	93.38
380.155	87.38
380.38	109.38
380.606	97.38
380.831	92.38
381.057	109.38
381.282	96.38
381.507	88.38
381.733	110.38
381.958	88.38
382.184	102.38
382.409	106.38
382.634	95.38
382.86	103.38
383.085	104.38
383.31	95.38
383.535	93.38
383.761	106.38
383.986	96.38
384.211	103.38
384.436	106.38
384.662	95.38
384.887	95.38
385.112	119.38
385.337	116.38
385.562	104.38
385.787	119.38
386.013	99.38
386.238	118.38
386.463	121.38
386.688	108.38
386.913	100.38
387.138	125.38
387.363	116.38
387.588	104.38
387.813	102.38
388.038	100.38
388.263	112.38
388.488	113.38
388.713	86.38
388.938	92.38
389.163	98.38
389.387	91.38
389.612	99.38
389.837	84.38
390.062	88.38
390.287	84.38
390.512	85.38
390.736	83.38
390.961	91.38
391.186	97.38
391.411	85.38
391.636	92.38
391.86	104.38
392.085	97.38
392.31	80.38
392.534	77.38
392.759	81.38
392.984	85.38
393.208	105.38
393.433	104.38
393.658	105.38
393.882	96.38
394.107	100.38
394.331	95.38
394.556	79.38
394.78	83.38
395.005	72.38
395.229	79.38
395.454	101.38
395.678	92.38
395.903	68.38
396.127	98.38
396.352	91.38
396.576	92.38
396.801	91.38
397.025	92.38
397.249	98.38
397.474	96.38
397.698	91.38
397.922	83.38
398.147	100.38
398.371	100.38
398.595	90.38
398.82	88.38
399.044	102.38
399.268	84.38
399.492	83.38
399.717	92.38
399.941	99.38
400.165	98.38
400.389	80.38
400.613	98.38
400.837	88.38
401.062	80.38
401.286	83.38
401.51	89.38
401.734	104.38
401.958	110.38
402.182	139.38
402.406	176.38
402.63	143.38
402.854	92.38
403.078	85.38
403.302	87.38
403.526	82.38
403.75	97.38
403.974	99.38
404.198	84.38
404.422	75.38
404.645	88.38
404.869	96.38
405.093	113.38
405.317	125.38
405.541	115.38
405.765	112.38
405.988	128.38
406.212	190.38
406.436	271.38
406.66	163.38
406.883	106.38
407.107	104.38
407.331	101.38
407.555	113.38
407.778	104.38
408.002	84.38
408.226	94.38
408.449	91.38
408.673	78.38
408.896	98.38
409.12	94.38
409.344	95.38
409.567	85.38
409.791	88.38
410.014	107.38
410.238	96.38
410.461	88.38
410.685	93.38
410.908	91.38
411.132	93.38
411.355	104.38
411.578	89.38
411.802	90.38
412.025	69.38
412.249	82.38
412.472	100.38
412.695	115.38
412.919	83.38
413.142	88.38
413.365	87.38
413.589	92.38
413.812	83.38
414.035	89.38
414.258	87.38
414.482	87.38
414.705	76.38
414.928	81.38
415.151	99.38
415.374	88.38
415.597	87.38
415.821	107.38
416.044	97.38
416.267	80.38
416.49	87.38
416.713	86.38
416.936	98.38
417.159	100.38
417.382	75.38
417.605	99.38
417.828	113.38
418.051	84.38
418.274	84.38
418.497	100.38
418.72	100.38
418.943	92.38
419.166	111.38
419.389	87.38
419.611	81.38
419.834	98.38
420.057	83.38
420.28	105.38
420.503	81.38
420.726	91.38
420.948	104.38
421.171	97.38
421.394	97.38
421.617	80.38
421.839	91.38
422.062	85.38
422.285	99.38
422.507	104.38
422.73	110.38
422.953	106.38
423.175	89.38
423.398	89.38
423.621	86.38
423.843	91.38
424.066	83.38
424.288	82.38
424.511	94.38
424.733	95.38
424.956	95.38
425.178	104.38
425.401	97.38
425.623	114.38
425.846	103.38
426.068	91.38
426.291	107.38
426.513	95.38
426.735	79.38
426.958	112.38
427.18	128.38
427.402	168.38
427.625	219.38
427.847	192.38
428.069	177.38
428.292	102.38
428.514	90.38
428.736	99.38
428.958	98.38
429.181	80.38
429.403	91.38
429.625	87.38
429.847	101.38
430.069	87.38
430.292	100.38
430.514	82.38
430.736	88.38
430.958	88.38
431.18	90.38
431.402	84.38
431.624	88.38
431.846	87.38
432.068	79.38
432.29	94.38
432.512	112.38
432.734	79.38
432.956	83.38
433.178	89.38
433.4	99.38
433.622	88.38
433.844	92.38
434.066	92.38
434.287	85.38
434.509	85.38
434.731	100.38
434.953	100.38
435.175	69.38
435.397	96.38
435.618	93.38
435.84	103.38
436.062	127.38
436.284	115.38
436.505	101.38
436.727	103.38
436.949	96.38
437.17	87.38
437.392	105.38
437.614	99.38
437.835	115.38
438.057	136.38
438.278	118.38
438.5	106.38
438.721	118.38
438.943	110.38
439.165	101.38
439.386	91.38
439.608	100.38
439.829	110.38
440.05	140.38
440.272	160.38
440.493	104.38
440.715	97.38
440.936	99.38
441.158	89.38
441.379	85.38
441.6	93.38
441.822	110.38
442.043	105.38
442.264	111.38
442.486	118.38
442.707	102.38
442.928	113.38
443.149	142.38
443.371	139.38
443.592	109.38
443.813	128.38
444.034	126.38
444.255	89.38
444.476	92.38
444.698	83.38
444.919	100.38
445.14	136.38
445.361	128.38
445.582	124.38
445.803	144.38
446.024	159.38
446.245	161.38
446.466	112.38
446.687	96.38
446.908	95.38
447.129	102.38
447.35	88.38
447.571	84.38
447.792	83.38
448.013	114.38
448.234	125.38
448.455	102.38
448.675	115.38
448.896	111.38
449.117	93.38
449.338	108.38
449.559	132.38
449.779	136.38
450	89.38
450.221	95.38
450.442	98.38
450.662	95.38
450.883	117.38
451.104	101.38
451.324	102.38
451.545	98.38
451.766	92.38
451.986	96.38
452.207	84.38
452.428	100.38
452.648	94.38
452.869	119.38
453.089	115.38
453.31	117.38
453.53	103.38
453.751	96.38
453.971	106.38
454.192	108.38
454.412	89.38
454.633	87.38
454.853	96.38
455.073	82.38
455.294	100.38
455.514	108.38
455.734	97.38
455.955	107.38
456.175	89.38
456.395	81.38
456.616	78.38
456.836	77.38
457.056	90.38
457.276	97.38
457.497	69.38
457.717	88.38
457.937	95.38
458.157	75.38
458.377	97.38
458.598	117.38
458.818	173.38
459.038	196.38
459.258	113.38
459.478	87.38
459.698	90.38
459.918	97.38
460.138	86.38
460.358	91.38
460.578	85.38
460.798	92.38
461.018	95.38
461.238	85.38
461.458	92.38
461.678	89.38
461.898	87.38
462.118	97.38
462.338	92.38
462.558	89.38
462.777	84.38
462.997	97.38
463.217	105.38
463.437	109.38
463.657	93.38
463.876	83.38
464.096	96.38
464.316	98.38
464.536	81.38
464.755	96.38
464.975	110.38
465.195	169.38
465.414	180.38
465.634	111.38
465.854	99.38
466.073	85.38
466.293	107.38
466.512	87.38
466.732	86.38
466.951	91.38
467.171	112.38
467.391	107.38
467.61	115.38
467.829	154.38
468.049	320.38
468.268	448.38
468.488	160.38
468.707	90.38
468.927	99.38
469.146	83.38
469.365	104.38
469.585	102.38
469.804	103.38
470.023	97.38
470.243	105.38
470.462	127.38
470.681	140.38
470.901	107.38
471.12	93.38
471.339	89.38
471.558	97.38
471.777	130.38
471.997	187.38
472.216	614.38
472.435	1267.38
472.654	328.38
472.873	127.38
473.092	103.38
473.311	98.38
473.53	95.38
473.749	93.38
473.968	109.38
474.187	118.38
474.406	110.38
474.625	96.38
474.844	81.38
475.063	88.38
475.282	82.38
475.501	92.38
475.72	95.38
475.939	88.38
476.158	89.38
476.377	103.38
476.596	93.38
476.814	95.38
477.033	99.38
477.252	92.38
477.471	84.38
477.69	93.38
477.908	85.38
478.127	95.38
478.346	92.38
478.564	102.38
478.783	101.38
479.002	97.38
479.22	99.38
479.439	97.38
479.658	120.38
479.876	96.38
480.095	109.38
480.313	120.38
480.532	139.38
480.751	207.38
480.969	553.38
481.188	2184.38
481.406	1282.38
481.624	226.38
481.843	121.38
482.061	97.38
482.28	86.38
482.498	80.38
482.717	107.38
482.935	83.38
483.153	98.38
483.372	92.38
483.59	71.38
483.808	85.38
484.027	83.38
484.245	86.38
484.463	82.38
484.681	100.38
484.9	87.38
485.118	108.38
485.336	92.38
485.554	86.38
485.772	93.38
485.99	96.38
486.209	118.38
486.427	107.38
486.645	112.38
486.863	106.38
487.081	95.38
487.299	95.38
487.517	98.38
487.735	96.38
487.953	100.38
488.171	82.38
488.389	103.38
488.607	97.38
488.825	96.38
489.043	100.38
489.261	86.38
489.479	90.38
489.696	95.38
489.914	102.38
490.132	95.38
490.35	91.38
490.568	95.38
490.786	96.38
491.003	87.38
491.221	78.38
491.439	97.38
491.657	83.38
491.874	94.38
492.092	82.38
492.31	92.38
492.527	116.38
492.745	93.38
492.963	97.38
493.18	91.38
493.398	98.38
493.615	94.38
493.833	107.38
494.05	83.38
494.268	85.38
494.485	91.38
494.703	93.38
494.92	103.38
495.138	99.38
495.355	90.38
495.573	90.38
495.79	94.38
496.008	84.38
496.225	114.38
496.442	87.38
496.66	99.38
496.877	74.38
497.094	85.38
497.312	76.38
497.529	93.38
497.746	88.38
497.963	88.38
498.181	96.38
498.398	85.38
498.615	115.38
498.832	127.38
499.049	87.38
499.267	80.38
499.484	91.38
499.701	97.38
499.918	85.38
500.135	76.38
500.352	111.38
500.569	77.38
500.786	105.38
501.003	110.38
501.22	100.38
501.437	102.38
501.654	96.38
501.871	109.38
502.088	99.38
502.305	93.38
502.522	100.38
502.739	104.38
502.956	93.38
503.172	104.38
503.389	101.38
503.606	105.38
503.823	92.38
504.04	108.38
504.256	82.38
504.473	95.38
504.69	98.38
504.907	107.38
505.123	91.38
505.34	93.38
505.557	72.38
505.773	91.38
505.99	83.38
506.207	101.38
506.423	82.38
506.64	100.38
506.856	87.38
507.073	90.38
507.289	97.38
507.506	105.38
507.722	101.38
507.939	118.38
508.155	99.38
508.372	99.38
508.588	111.38
508.805	91.38
509.021	88.38
509.238	99.38
509.454	111.38
509.67	103.38
509.887	114.38
510.103	136.38
510.319	221.38
510.536	861.38
510.752	2861.38
510.968	782.38
511.184	185.38
511.401	119.38
511.617	108.38
511.833	115.38
512.049	95.38
512.265	97.38
512.481	117.38
512.698	91.38
512.914	86.38
513.13	110.38
513.346	100.38
513.562	101.38
