Data from Circ_1991_H10_HRD10591_00054.txt Node
Date: Wed Jan 03 11:51:52 EST 2024
User: Yrep
Spectrometer: HR+D1059
Trigger mode: 1
Integration Time (sec): 1.000000E-1
Scans to average: 1
Electric dark correction enabled: true
Nonlinearity correction enabled: false
Boxcar width: 0
XAxis mode: Wavelengths
Number of Pixels in Spectrum: 2048
>>>>>Begin Spectral Data<<<<<
223.165	-8.12
223.4	-8.12
223.635	-8.12
223.869	-19.12
224.104	-21.12
224.338	-6.12
224.573	-21.12
224.808	-24.12
225.042	-12.12
225.277	1.88
225.511	-14.12
225.746	12.88
225.98	11.88
226.215	17.88
226.449	19.88
226.683	16.88
226.918	27.88
227.152	16.88
227.387	36.88
227.621	31.88
227.856	41.88
228.09	33.88
228.324	47.88
228.559	46.88
228.793	42.88
229.027	68.88
229.262	62.88
229.496	91.88
229.73	66.88
229.964	79.88
230.199	61.88
230.433	62.88
230.667	69.88
230.901	73.88
231.136	60.88
231.37	76.88
231.604	69.88
231.838	61.88
232.072	77.88
232.306	73.88
232.541	63.88
232.775	83.88
233.009	81.88
233.243	71.88
233.477	84.88
233.711	68.88
233.945	82.88
234.179	79.88
234.413	83.88
234.647	66.88
234.881	89.88
235.115	68.88
235.349	63.88
235.583	90.88
235.817	73.88
236.051	71.88
236.285	83.88
236.519	80.88
236.753	81.88
236.987	76.88
237.221	103.88
237.455	90.88
237.689	78.88
237.922	72.88
238.156	64.88
238.39	68.88
238.624	67.88
238.858	74.88
239.091	65.88
239.325	90.88
239.559	89.88
239.793	71.88
240.027	73.88
240.26	73.88
240.494	66.88
240.728	86.88
240.961	66.88
241.195	91.88
241.429	71.88
241.662	45.88
241.896	61.88
242.13	79.88
242.363	83.88
242.597	76.88
242.83	78.88
243.064	71.88
243.298	76.88
243.531	84.88
243.765	81.88
243.998	75.88
244.232	68.88
244.465	85.88
244.699	77.88
244.932	82.88
245.166	66.88
245.399	86.88
245.633	63.88
245.866	75.88
246.099	70.88
246.333	71.88
246.566	83.88
246.8	83.88
247.033	76.88
247.266	74.88
247.5	77.88
247.733	74.88
247.966	58.88
248.2	77.88
248.433	89.88
248.666	69.88
248.899	70.88
249.133	85.88
249.366	98.88
249.599	77.88
249.832	88.88
250.066	75.88
250.299	77.88
250.532	79.88
250.765	69.88
250.998	75.88
251.231	69.88
251.465	75.88
251.698	80.88
251.931	81.88
252.164	88.88
252.397	75.88
252.63	89.88
252.863	73.88
253.096	71.88
253.329	64.88
253.562	83.88
253.795	69.88
254.028	78.88
254.261	89.88
254.494	72.88
254.727	74.88
254.96	77.88
255.193	81.88
255.426	78.88
255.659	66.88
255.892	83.88
256.124	87.88
256.357	74.88
256.59	79.88
256.823	87.88
257.056	74.88
257.289	73.88
257.521	63.88
257.754	73.88
257.987	81.88
258.22	75.88
258.452	73.88
258.685	76.88
258.918	77.88
259.151	77.88
259.383	66.88
259.616	88.88
259.849	87.88
260.081	78.88
260.314	80.88
260.547	79.88
260.779	75.88
261.012	78.88
261.244	87.88
261.477	76.88
261.71	93.88
261.942	91.88
262.175	117.88
262.407	100.88
262.64	84.88
262.872	81.88
263.105	87.88
263.337	93.88
263.57	80.88
263.802	72.88
264.035	80.88
264.267	84.88
264.499	74.88
264.732	84.88
264.964	84.88
265.197	86.88
265.429	82.88
265.661	83.88
265.894	79.88
266.126	83.88
266.358	74.88
266.591	86.88
266.823	75.88
267.055	75.88
267.287	74.88
267.52	83.88
267.752	84.88
267.984	79.88
268.216	94.88
268.448	101.88
268.681	88.88
268.913	92.88
269.145	86.88
269.377	84.88
269.609	74.88
269.841	84.88
270.073	83.88
270.306	77.88
270.538	76.88
270.77	70.88
271.002	86.88
271.234	95.88
271.466	94.88
271.698	89.88
271.93	88.88
272.162	88.88
272.394	99.88
272.626	85.88
272.858	73.88
273.09	64.88
273.322	78.88
273.553	85.88
273.785	81.88
274.017	74.88
274.249	97.88
274.481	88.88
274.713	96.88
274.945	92.88
275.176	71.88
275.408	91.88
275.64	93.88
275.872	102.88
276.104	89.88
276.335	85.88
276.567	84.88
276.799	100.88
277.031	109.88
277.262	112.88
277.494	99.88
277.726	77.88
277.957	87.88
278.189	94.88
278.421	81.88
278.652	89.88
278.884	89.88
279.115	94.88
279.347	99.88
279.579	95.88
279.81	87.88
280.042	96.88
280.273	116.88
280.505	94.88
280.736	92.88
280.968	87.88
281.199	69.88
281.431	85.88
281.662	83.88
281.894	80.88
282.125	87.88
282.356	108.88
282.588	115.88
282.819	112.88
283.051	94.88
283.282	64.88
283.513	71.88
283.745	87.88
283.976	78.88
284.207	71.88
284.439	63.88
284.67	79.88
284.901	82.88
285.132	80.88
285.364	82.88
285.595	76.88
285.826	74.88
286.057	82.88
286.288	81.88
286.52	87.88
286.751	91.88
286.982	81.88
287.213	82.88
287.444	83.88
287.675	87.88
287.906	76.88
288.138	75.88
288.369	84.88
288.6	93.88
288.831	98.88
289.062	92.88
289.293	87.88
289.524	76.88
289.755	67.88
289.986	84.88
290.217	92.88
290.448	87.88
290.679	94.88
290.91	82.88
291.141	83.88
291.371	80.88
291.602	92.88
291.833	84.88
292.064	91.88
292.295	87.88
292.526	85.88
292.757	92.88
292.987	94.88
293.218	94.88
293.449	80.88
293.68	92.88
293.91	91.88
294.141	84.88
294.372	79.88
294.603	90.88
294.833	103.88
295.064	85.88
295.295	78.88
295.525	87.88
295.756	85.88
295.987	112.88
296.217	125.88
296.448	120.88
296.679	90.88
296.909	90.88
297.14	89.88
297.37	107.88
297.601	88.88
297.831	85.88
298.062	78.88
298.292	82.88
298.523	93.88
298.753	83.88
298.984	84.88
299.214	88.88
299.445	88.88
299.675	97.88
299.905	104.88
300.136	93.88
300.366	95.88
300.597	101.88
300.827	112.88
301.057	91.88
301.288	87.88
301.518	99.88
301.748	99.88
301.979	108.88
302.209	83.88
302.439	90.88
302.669	91.88
302.9	107.88
303.13	90.88
303.36	104.88
303.59	90.88
303.82	103.88
304.051	86.88
304.281	87.88
304.511	78.88
304.741	77.88
304.971	78.88
305.201	67.88
305.431	82.88
305.661	97.88
305.891	94.88
306.121	86.88
306.352	93.88
306.582	99.88
306.812	89.88
307.042	90.88
307.272	112.88
307.502	119.88
307.731	113.88
307.961	108.88
308.191	85.88
308.421	96.88
308.651	92.88
308.881	93.88
309.111	96.88
309.341	95.88
309.571	103.88
309.8	92.88
310.03	97.88
310.26	84.88
310.49	92.88
310.72	105.88
310.949	97.88
311.179	99.88
311.409	82.88
311.639	101.88
311.868	101.88
312.098	96.88
312.328	91.88
312.557	106.88
312.787	96.88
313.017	103.88
313.246	98.88
313.476	81.88
313.706	91.88
313.935	103.88
314.165	111.88
314.394	117.88
314.624	90.88
314.853	83.88
315.083	80.88
315.312	89.88
315.542	97.88
315.771	105.88
316.001	99.88
316.23	97.88
316.46	85.88
316.689	65.88
316.919	88.88
317.148	101.88
317.377	98.88
317.607	82.88
317.836	85.88
318.065	92.88
318.295	90.88
318.524	89.88
318.753	101.88
318.983	89.88
319.212	101.88
319.441	107.88
319.67	110.88
319.9	95.88
320.129	72.88
320.358	85.88
320.587	97.88
320.816	100.88
321.046	84.88
321.275	89.88
321.504	89.88
321.733	79.88
321.962	81.88
322.191	97.88
322.42	100.88
322.649	114.88
322.878	108.88
323.108	111.88
323.337	109.88
323.566	145.88
323.795	160.88
324.024	207.88
324.253	365.88
324.482	817.88
324.71	1654.88
324.939	2215.88
325.168	819.88
325.397	238.88
325.626	141.88
325.855	138.88
326.084	120.88
326.313	126.88
326.542	153.88
326.77	218.88
326.999	461.88
327.228	913.88
327.457	1723.88
327.686	1357.88
327.914	391.88
328.143	257.88
328.372	263.88
328.6	163.88
328.829	124.88
329.058	117.88
329.287	123.88
329.515	129.88
329.744	133.88
329.972	191.88
330.201	324.88
330.43	439.88
330.658	240.88
330.887	172.88
331.115	129.88
331.344	111.88
331.572	97.88
331.801	102.88
332.03	91.88
332.258	90.88
332.486	86.88
332.715	103.88
332.943	100.88
333.172	97.88
333.4	90.88
333.629	120.88
333.857	142.88
334.085	197.88
334.314	324.88
334.542	574.88
334.771	547.88
334.999	194.88
335.227	109.88
335.455	119.88
335.684	100.88
335.912	97.88
336.14	113.88
336.369	101.88
336.597	99.88
336.825	102.88
337.053	87.88
337.281	81.88
337.51	70.88
337.738	89.88
337.966	87.88
338.194	102.88
338.422	79.88
338.65	91.88
338.878	106.88
339.106	87.88
339.334	89.88
339.562	88.88
339.79	84.88
340.018	81.88
340.246	88.88
340.474	98.88
340.702	87.88
340.93	90.88
341.158	77.88
341.386	96.88
341.614	104.88
341.842	85.88
342.07	100.88
342.298	83.88
342.526	98.88
342.754	94.88
342.981	92.88
343.209	82.88
343.437	85.88
343.665	77.88
343.893	98.88
344.12	83.88
344.348	94.88
344.576	79.88
344.804	82.88
345.031	93.88
345.259	93.88
345.487	88.88
345.714	99.88
345.942	80.88
346.17	104.88
346.397	95.88
346.625	83.88
346.853	90.88
347.08	79.88
347.308	89.88
347.535	81.88
347.763	87.88
347.99	99.88
348.218	94.88
348.445	97.88
348.673	86.88
348.9	88.88
349.128	89.88
349.355	85.88
349.583	89.88
349.81	101.88
350.037	90.88
350.265	92.88
350.492	84.88
350.72	94.88
350.947	110.88
351.174	100.88
351.402	107.88
351.629	105.88
351.856	99.88
352.083	92.88
352.311	102.88
352.538	94.88
352.765	96.88
352.992	119.88
353.22	97.88
353.447	92.88
353.674	100.88
353.901	78.88
354.128	105.88
354.355	89.88
354.583	89.88
354.81	88.88
355.037	90.88
355.264	90.88
355.491	92.88
355.718	89.88
355.945	89.88
356.172	98.88
356.399	96.88
356.626	97.88
356.853	88.88
357.08	94.88
357.307	94.88
357.534	82.88
357.761	85.88
357.988	96.88
358.215	101.88
358.441	72.88
358.668	87.88
358.895	92.88
359.122	97.88
359.349	89.88
359.576	95.88
359.802	85.88
360.029	105.88
360.256	110.88
360.483	102.88
360.709	93.88
360.936	91.88
361.163	92.88
361.39	85.88
361.616	92.88
361.843	96.88
362.07	95.88
362.296	106.88
362.523	77.88
362.749	99.88
362.976	97.88
363.203	92.88
363.429	83.88
363.656	81.88
363.882	85.88
364.109	96.88
364.335	90.88
364.562	80.88
364.788	91.88
365.015	88.88
365.241	95.88
365.468	111.88
365.694	104.88
365.92	98.88
366.147	85.88
366.373	81.88
366.599	79.88
366.826	89.88
367.052	81.88
367.278	92.88
367.505	83.88
367.731	93.88
367.957	83.88
368.184	94.88
368.41	100.88
368.636	103.88
368.862	132.88
369.089	107.88
369.315	83.88
369.541	92.88
369.767	80.88
369.993	81.88
370.219	72.88
370.445	105.88
370.672	91.88
370.898	89.88
371.124	99.88
371.35	87.88
371.576	71.88
371.802	96.88
372.028	91.88
372.254	82.88
372.48	89.88
372.706	64.88
372.932	79.88
373.158	92.88
373.384	97.88
373.61	85.88
373.835	81.88
374.061	78.88
374.287	90.88
374.513	74.88
374.739	93.88
374.965	77.88
375.191	104.88
375.416	94.88
375.642	87.88
375.868	95.88
376.094	97.88
376.319	88.88
376.545	94.88
376.771	77.88
376.997	92.88
377.222	89.88
377.448	84.88
377.674	88.88
377.899	74.88
378.125	82.88
378.35	96.88
378.576	89.88
378.802	106.88
379.027	83.88
379.253	92.88
379.478	92.88
379.704	85.88
379.929	84.88
380.155	97.88
380.38	97.88
380.606	96.88
380.831	96.88
381.057	86.88
381.282	82.88
381.507	102.88
381.733	90.88
381.958	105.88
382.184	80.88
382.409	101.88
382.634	101.88
382.86	102.88
383.085	101.88
383.31	93.88
383.535	99.88
383.761	101.88
383.986	77.88
384.211	90.88
384.436	83.88
384.662	95.88
384.887	100.88
385.112	106.88
385.337	96.88
385.562	95.88
385.787	86.88
386.013	102.88
386.238	122.88
386.463	94.88
386.688	95.88
386.913	97.88
387.138	108.88
387.363	91.88
387.588	84.88
387.813	93.88
388.038	93.88
388.263	110.88
388.488	103.88
388.713	95.88
388.938	94.88
389.163	85.88
389.387	81.88
389.612	93.88
389.837	79.88
390.062	81.88
390.287	97.88
390.512	90.88
390.736	96.88
390.961	97.88
391.186	89.88
391.411	92.88
391.636	86.88
391.86	76.88
392.085	93.88
392.31	85.88
392.534	94.88
392.759	75.88
392.984	75.88
393.208	107.88
393.433	115.88
393.658	115.88
393.882	92.88
394.107	80.88
394.331	80.88
394.556	85.88
394.78	85.88
395.005	79.88
395.229	88.88
395.454	77.88
395.678	75.88
395.903	93.88
396.127	86.88
396.352	87.88
396.576	92.88
396.801	91.88
397.025	106.88
397.249	83.88
397.474	88.88
397.698	79.88
397.922	83.88
398.147	79.88
398.371	84.88
398.595	79.88
398.82	68.88
399.044	84.88
399.268	75.88
399.492	82.88
399.717	82.88
399.941	85.88
400.165	96.88
400.389	98.88
400.613	84.88
400.837	81.88
401.062	90.88
401.286	87.88
401.51	80.88
401.734	67.88
401.958	90.88
402.182	113.88
402.406	153.88
402.63	122.88
402.854	96.88
403.078	91.88
403.302	76.88
403.526	82.88
403.75	82.88
403.974	82.88
404.198	84.88
404.422	79.88
404.645	90.88
404.869	96.88
405.093	97.88
405.317	100.88
405.541	96.88
405.765	77.88
405.988	119.88
406.212	160.88
406.436	234.88
406.66	147.88
406.883	111.88
407.107	91.88
407.331	82.88
407.555	91.88
407.778	93.88
408.002	90.88
408.226	86.88
408.449	81.88
408.673	64.88
408.896	97.88
409.12	98.88
409.344	88.88
409.567	89.88
409.791	77.88
410.014	92.88
410.238	98.88
410.461	91.88
410.685	85.88
410.908	84.88
411.132	98.88
411.355	83.88
411.578	83.88
411.802	87.88
412.025	80.88
412.249	93.88
412.472	98.88
412.695	108.88
412.919	112.88
413.142	86.88
413.365	80.88
413.589	80.88
413.812	74.88
414.035	87.88
414.258	95.88
414.482	91.88
414.705	82.88
414.928	86.88
415.151	89.88
415.374	82.88
415.597	66.88
415.821	80.88
416.044	89.88
416.267	100.88
416.49	85.88
416.713	73.88
416.936	75.88
417.159	74.88
417.382	87.88
417.605	95.88
417.828	101.88
418.051	97.88
418.274	82.88
418.497	88.88
418.72	79.88
418.943	81.88
419.166	99.88
419.389	83.88
419.611	102.88
419.834	77.88
420.057	93.88
420.28	85.88
420.503	91.88
420.726	83.88
420.948	80.88
421.171	83.88
421.394	90.88
421.617	89.88
421.839	83.88
422.062	95.88
422.285	76.88
422.507	90.88
422.73	111.88
422.953	89.88
423.175	93.88
423.398	79.88
423.621	82.88
423.843	81.88
424.066	87.88
424.288	88.88
424.511	104.88
424.733	95.88
424.956	105.88
425.178	101.88
425.401	95.88
425.623	97.88
425.846	84.88
426.068	83.88
426.291	77.88
426.513	88.88
426.735	101.88
426.958	101.88
427.18	96.88
427.402	122.88
427.625	176.88
427.847	155.88
428.069	144.88
428.292	91.88
428.514	100.88
428.736	91.88
428.958	88.88
429.181	82.88
429.403	93.88
429.625	99.88
429.847	90.88
430.069	106.88
430.292	84.88
430.514	85.88
430.736	78.88
430.958	69.88
431.18	82.88
431.402	96.88
431.624	90.88
431.846	84.88
432.068	89.88
432.29	77.88
432.512	95.88
432.734	90.88
432.956	84.88
433.178	89.88
433.4	93.88
433.622	84.88
433.844	84.88
434.066	90.88
434.287	73.88
434.509	91.88
434.731	80.88
434.953	80.88
435.175	87.88
435.397	82.88
435.618	64.88
435.84	87.88
436.062	120.88
436.284	114.88
436.505	81.88
436.727	100.88
436.949	86.88
437.17	84.88
437.392	98.88
437.614	89.88
437.835	99.88
438.057	98.88
438.278	103.88
438.5	84.88
438.721	112.88
438.943	90.88
439.165	90.88
439.386	81.88
439.608	100.88
439.829	92.88
440.05	128.88
440.272	123.88
440.493	91.88
440.715	76.88
440.936	82.88
441.158	75.88
441.379	101.88
441.6	72.88
441.822	85.88
442.043	101.88
442.264	98.88
442.486	89.88
442.707	102.88
442.928	94.88
443.149	116.88
443.371	119.88
443.592	106.88
443.813	99.88
444.034	81.88
444.255	67.88
444.476	84.88
444.698	88.88
444.919	88.88
445.14	121.88
445.361	115.88
445.582	117.88
445.803	159.88
446.024	129.88
446.245	132.88
446.466	119.88
446.687	89.88
446.908	92.88
447.129	82.88
447.35	81.88
447.571	97.88
447.792	90.88
448.013	99.88
448.234	94.88
448.455	88.88
448.675	103.88
448.896	100.88
449.117	93.88
449.338	105.88
449.559	114.88
449.779	113.88
450	113.88
450.221	80.88
450.442	65.88
450.662	99.88
450.883	95.88
451.104	106.88
451.324	94.88
451.545	89.88
451.766	90.88
451.986	76.88
452.207	80.88
452.428	75.88
452.648	87.88
452.869	107.88
453.089	103.88
453.31	101.88
453.53	89.88
453.751	86.88
453.971	104.88
454.192	106.88
454.412	98.88
454.633	92.88
454.853	87.88
455.073	82.88
455.294	95.88
455.514	85.88
455.734	77.88
455.955	69.88
456.175	80.88
456.395	89.88
456.616	86.88
456.836	89.88
457.056	87.88
457.276	81.88
457.497	83.88
457.717	83.88
457.937	93.88
458.157	95.88
458.377	95.88
458.598	117.88
458.818	130.88
459.038	160.88
459.258	103.88
459.478	89.88
459.698	91.88
459.918	65.88
460.138	75.88
460.358	71.88
460.578	69.88
460.798	87.88
461.018	83.88
461.238	78.88
461.458	86.88
461.678	92.88
461.898	80.88
462.118	85.88
462.338	76.88
462.558	66.88
462.777	94.88
462.997	93.88
463.217	95.88
463.437	96.88
463.657	74.88
463.876	89.88
464.096	79.88
464.316	96.88
464.536	101.88
464.755	99.88
464.975	106.88
465.195	155.88
465.414	143.88
465.634	92.88
465.854	68.88
466.073	98.88
466.293	91.88
466.512	79.88
466.732	80.88
466.951	82.88
467.171	87.88
467.391	82.88
467.61	113.88
467.829	104.88
468.049	236.88
468.268	306.88
468.488	106.88
468.707	82.88
468.927	81.88
469.146	82.88
469.365	65.88
469.585	73.88
469.804	98.88
470.023	93.88
470.243	93.88
470.462	76.88
470.681	111.88
470.901	87.88
471.12	103.88
471.339	85.88
471.558	88.88
471.777	98.88
471.997	146.88
472.216	427.88
472.435	797.88
472.654	239.88
472.873	109.88
473.092	91.88
473.311	78.88
473.53	59.88
473.749	84.88
473.968	84.88
474.187	106.88
474.406	93.88
474.625	78.88
474.844	84.88
475.063	83.88
475.282	81.88
475.501	71.88
475.72	91.88
475.939	77.88
476.158	87.88
476.377	81.88
476.596	90.88
476.814	89.88
477.033	90.88
477.252	95.88
477.471	85.88
477.69	81.88
477.908	66.88
478.127	94.88
478.346	98.88
478.564	87.88
478.783	85.88
479.002	91.88
479.22	88.88
479.439	106.88
479.658	107.88
479.876	97.88
480.095	107.88
480.313	97.88
480.532	117.88
480.751	172.88
480.969	417.88
481.188	1468.88
481.406	831.88
481.624	161.88
481.843	107.88
482.061	86.88
482.28	87.88
482.498	93.88
482.717	94.88
482.935	87.88
483.153	92.88
483.372	82.88
483.59	90.88
483.808	81.88
484.027	96.88
484.245	103.88
484.463	86.88
484.681	85.88
484.9	90.88
485.118	92.88
485.336	81.88
485.554	88.88
485.772	95.88
485.99	84.88
486.209	109.88
486.427	97.88
486.645	114.88
486.863	103.88
487.081	82.88
487.299	95.88
487.517	105.88
487.735	87.88
487.953	94.88
488.171	92.88
488.389	88.88
488.607	100.88
488.825	93.88
489.043	98.88
489.261	90.88
489.479	72.88
489.696	92.88
489.914	92.88
490.132	91.88
490.35	91.88
490.568	76.88
490.786	76.88
491.003	80.88
491.221	93.88
491.439	87.88
491.657	98.88
491.874	87.88
492.092	106.88
492.31	89.88
492.527	98.88
492.745	80.88
492.963	78.88
493.18	80.88
493.398	107.88
493.615	73.88
493.833	86.88
494.05	86.88
494.268	82.88
494.485	83.88
494.703	93.88
494.92	84.88
495.138	88.88
495.355	80.88
495.573	84.88
495.79	98.88
496.008	103.88
496.225	93.88
496.442	95.88
496.66	82.88
496.877	78.88
497.094	94.88
497.312	93.88
497.529	90.88
497.746	93.88
497.963	99.88
498.181	76.88
498.398	85.88
498.615	96.88
498.832	95.88
499.049	92.88
499.267	91.88
499.484	77.88
499.701	96.88
499.918	88.88
500.135	82.88
500.352	88.88
500.569	82.88
500.786	94.88
501.003	87.88
501.22	76.88
501.437	91.88
501.654	87.88
501.871	95.88
502.088	103.88
502.305	81.88
502.522	92.88
502.739	71.88
502.956	78.88
503.172	86.88
503.389	101.88
503.606	94.88
503.823	101.88
504.04	84.88
504.256	89.88
504.473	73.88
504.69	88.88
504.907	95.88
505.123	80.88
505.34	94.88
505.557	78.88
505.773	80.88
505.99	67.88
506.207	75.88
506.423	87.88
506.64	82.88
506.856	91.88
507.073	97.88
507.289	84.88
507.506	103.88
507.722	114.88
507.939	120.88
508.155	92.88
508.372	88.88
508.588	100.88
508.805	81.88
509.021	91.88
509.238	93.88
509.454	96.88
509.67	97.88
509.887	113.88
510.103	120.88
510.319	191.88
510.536	719.88
510.752	2394.88
510.968	634.88
511.184	153.88
511.401	89.88
511.617	94.88
511.833	94.88
512.049	87.88
512.265	94.88
512.481	83.88
512.698	90.88
512.914	83.88
513.13	104.88
513.346	83.88
513.562	87.88
513.778	95.88
513.994	91.88
514.21	110.88
514.426	116.88
514.642	131.88
514.858	139.88
515.074	173.88
515.29	440.88
515.506	1470.88
515.721	526.88
515.937	141.88
516.153	108.88
