Data from Circ_1991_H10_HRD10591_00004.txt Node
Date: Wed Jan 03 11:51:42 EST 2024
User: Yrep
Spectrometer: HR+D1059
Trigger mode: 1
Integration Time (sec): 1.000000E-1
Scans to average: 1
Electric dark correction enabled: true
Nonlinearity correction enabled: false
Boxcar width: 0
XAxis mode: Wavelengths
Number of Pixels in Spectrum: 2048
>>>>>Begin Spectral Data<<<<<
223.165	-9.44
223.4	-9.44
223.635	-9.44
223.869	-16.44
224.104	-31.44
224.338	-18.44
224.573	-12.44
224.808	-23.44
225.042	-6.44
225.277	0.56
225.511	3.56
225.746	2.56
225.98	-1.44
226.215	16.56
226.449	24.56
226.683	12.56
226.918	27.56
227.152	31.56
227.387	48.56
227.621	43.56
227.856	40.56
228.09	47.56
228.324	51.56
228.559	51.56
228.793	54.56
229.027	76.56
229.262	62.56
229.496	65.56
229.73	79.56
229.964	75.56
230.199	60.56
230.433	77.56
230.667	83.56
230.901	73.56
231.136	59.56
231.37	64.56
231.604	76.56
231.838	80.56
232.072	76.56
232.306	72.56
232.541	85.56
232.775	85.56
233.009	89.56
233.243	77.56
233.477	85.56
233.711	84.56
233.945	73.56
234.179	84.56
234.413	77.56
234.647	85.56
234.881	90.56
235.115	84.56
235.349	90.56
235.583	71.56
235.817	71.56
236.051	71.56
236.285	100.56
236.519	75.56
236.753	73.56
236.987	86.56
237.221	83.56
237.455	79.56
237.689	72.56
237.922	70.56
238.156	74.56
238.39	78.56
238.624	76.56
238.858	56.56
239.091	84.56
239.325	73.56
239.559	84.56
239.793	81.56
240.027	79.56
240.26	82.56
240.494	82.56
240.728	77.56
240.961	76.56
241.195	62.56
241.429	75.56
241.662	72.56
241.896	77.56
242.13	86.56
242.363	71.56
242.597	89.56
242.83	83.56
243.064	76.56
243.298	72.56
243.531	83.56
243.765	89.56
243.998	76.56
244.232	83.56
244.465	73.56
244.699	82.56
244.932	63.56
245.166	71.56
245.399	80.56
245.633	84.56
245.866	97.56
246.099	70.56
246.333	87.56
246.566	84.56
246.8	80.56
247.033	79.56
247.266	83.56
247.5	86.56
247.733	97.56
247.966	78.56
248.2	85.56
248.433	85.56
248.666	85.56
248.899	76.56
249.133	82.56
249.366	90.56
249.599	86.56
249.832	77.56
250.066	67.56
250.299	94.56
250.532	85.56
250.765	89.56
250.998	76.56
251.231	79.56
251.465	80.56
251.698	78.56
251.931	79.56
252.164	86.56
252.397	82.56
252.63	75.56
252.863	80.56
253.096	84.56
253.329	88.56
253.562	86.56
253.795	89.56
254.028	86.56
254.261	76.56
254.494	71.56
254.727	88.56
254.96	81.56
255.193	75.56
255.426	71.56
255.659	76.56
255.892	82.56
256.124	76.56
256.357	89.56
256.59	81.56
256.823	72.56
257.056	68.56
257.289	73.56
257.521	82.56
257.754	96.56
257.987	85.56
258.22	95.56
258.452	75.56
258.685	85.56
258.918	81.56
259.151	69.56
259.383	85.56
259.616	79.56
259.849	81.56
260.081	78.56
260.314	89.56
260.547	94.56
260.779	83.56
261.012	77.56
261.244	65.56
261.477	80.56
261.71	89.56
261.942	100.56
262.175	116.56
262.407	94.56
262.64	79.56
262.872	70.56
263.105	87.56
263.337	86.56
263.57	75.56
263.802	89.56
264.035	64.56
264.267	83.56
264.499	79.56
264.732	91.56
264.964	86.56
265.197	76.56
265.429	95.56
265.661	93.56
265.894	94.56
266.126	105.56
266.358	89.56
266.591	84.56
266.823	92.56
267.055	76.56
267.287	83.56
267.52	75.56
267.752	88.56
267.984	79.56
268.216	82.56
268.448	81.56
268.681	86.56
268.913	93.56
269.145	71.56
269.377	83.56
269.609	85.56
269.841	79.56
270.073	94.56
270.306	94.56
270.538	81.56
270.77	95.56
271.002	91.56
271.234	84.56
271.466	89.56
271.698	90.56
271.93	95.56
272.162	91.56
272.394	87.56
272.626	73.56
272.858	84.56
273.09	88.56
273.322	104.56
273.553	92.56
273.785	72.56
274.017	89.56
274.249	72.56
274.481	95.56
274.713	91.56
274.945	81.56
275.176	86.56
275.408	88.56
275.64	86.56
275.872	92.56
276.104	87.56
276.335	88.56
276.567	97.56
276.799	99.56
277.031	93.56
277.262	95.56
277.494	100.56
277.726	82.56
277.957	77.56
278.189	85.56
278.421	87.56
278.652	86.56
278.884	97.56
279.115	83.56
279.347	79.56
279.579	93.56
279.81	84.56
280.042	94.56
280.273	93.56
280.505	96.56
280.736	88.56
280.968	94.56
281.199	90.56
281.431	97.56
281.662	96.56
281.894	85.56
282.125	95.56
282.356	117.56
282.588	121.56
282.819	109.56
283.051	95.56
283.282	88.56
283.513	97.56
283.745	89.56
283.976	83.56
284.207	96.56
284.439	87.56
284.67	84.56
284.901	86.56
285.132	78.56
285.364	81.56
285.595	81.56
285.826	86.56
286.057	96.56
286.288	97.56
286.52	79.56
286.751	86.56
286.982	82.56
287.213	83.56
287.444	89.56
287.675	83.56
287.906	88.56
288.138	104.56
288.369	90.56
288.6	95.56
288.831	87.56
289.062	101.56
289.293	89.56
289.524	82.56
289.755	87.56
289.986	86.56
290.217	82.56
290.448	85.56
290.679	91.56
290.91	87.56
291.141	95.56
291.371	98.56
291.602	75.56
291.833	89.56
292.064	92.56
292.295	87.56
292.526	93.56
292.757	81.56
292.987	104.56
293.218	84.56
293.449	86.56
293.68	94.56
293.91	91.56
294.141	83.56
294.372	85.56
294.603	103.56
294.833	91.56
295.064	89.56
295.295	77.56
295.525	94.56
295.756	110.56
295.987	96.56
296.217	110.56
296.448	118.56
296.679	92.56
296.909	101.56
297.14	80.56
297.37	87.56
297.601	91.56
297.831	83.56
298.062	88.56
298.292	86.56
298.523	111.56
298.753	105.56
298.984	103.56
299.214	98.56
299.445	96.56
299.675	97.56
299.905	99.56
300.136	86.56
300.366	106.56
300.597	110.56
300.827	113.56
301.057	100.56
301.288	104.56
301.518	93.56
301.748	82.56
301.979	103.56
302.209	86.56
302.439	93.56
302.669	84.56
302.9	97.56
303.13	91.56
303.36	102.56
303.59	89.56
303.82	91.56
304.051	93.56
304.281	92.56
304.511	91.56
304.741	96.56
304.971	84.56
305.201	85.56
305.431	93.56
305.661	90.56
305.891	100.56
306.121	102.56
306.352	84.56
306.582	92.56
306.812	85.56
307.042	92.56
307.272	99.56
307.502	107.56
307.731	94.56
307.961	97.56
308.191	94.56
308.421	94.56
308.651	101.56
308.881	110.56
309.111	96.56
309.341	102.56
309.571	101.56
309.8	86.56
310.03	86.56
310.26	92.56
310.49	98.56
310.72	104.56
310.949	106.56
311.179	103.56
311.409	102.56
311.639	97.56
311.868	95.56
312.098	98.56
312.328	92.56
312.557	91.56
312.787	103.56
313.017	99.56
313.246	88.56
313.476	95.56
313.706	104.56
313.935	88.56
314.165	91.56
314.394	83.56
314.624	93.56
314.853	94.56
315.083	95.56
315.312	99.56
315.542	96.56
315.771	100.56
316.001	93.56
316.23	99.56
316.46	89.56
316.689	95.56
316.919	95.56
317.148	95.56
317.377	85.56
317.607	92.56
317.836	100.56
318.065	87.56
318.295	88.56
318.524	88.56
318.753	98.56
318.983	94.56
319.212	111.56
319.441	112.56
319.67	104.56
319.9	100.56
320.129	91.56
320.358	91.56
320.587	104.56
320.816	104.56
321.046	96.56
321.275	101.56
321.504	92.56
321.733	80.56
321.962	97.56
322.191	102.56
322.42	99.56
322.649	103.56
322.878	122.56
323.108	109.56
323.337	126.56
323.566	130.56
323.795	133.56
324.024	195.56
324.253	335.56
324.482	683.56
324.71	1480.56
324.939	1939.56
325.168	708.56
325.397	207.56
325.626	134.56
325.855	106.56
326.084	109.56
326.313	120.56
326.542	145.56
326.77	184.56
326.999	397.56
327.228	841.56
327.457	1538.56
327.686	1202.56
327.914	337.56
328.143	200.56
328.372	175.56
328.6	133.56
328.829	103.56
329.058	114.56
329.287	119.56
329.515	98.56
329.744	114.56
329.972	135.56
330.201	184.56
330.43	230.56
330.658	153.56
330.887	139.56
331.115	125.56
331.344	83.56
331.572	112.56
331.801	106.56
332.03	93.56
332.258	104.56
332.486	99.56
332.715	88.56
332.943	85.56
333.172	94.56
333.4	110.56
333.629	126.56
333.857	105.56
334.085	142.56
334.314	181.56
334.542	279.56
334.771	265.56
334.999	139.56
335.227	105.56
335.455	100.56
335.684	101.56
335.912	99.56
336.14	90.56
336.369	100.56
336.597	99.56
336.825	95.56
337.053	95.56
337.281	88.56
337.51	97.56
337.738	96.56
337.966	89.56
338.194	99.56
338.422	88.56
338.65	99.56
338.878	87.56
339.106	87.56
339.334	91.56
339.562	87.56
339.79	103.56
340.018	102.56
340.246	96.56
340.474	91.56
340.702	86.56
340.93	107.56
341.158	101.56
341.386	100.56
341.614	95.56
341.842	97.56
342.07	87.56
342.298	95.56
342.526	95.56
342.754	88.56
342.981	90.56
343.209	93.56
343.437	100.56
343.665	87.56
343.893	77.56
344.12	105.56
344.348	90.56
344.576	86.56
344.804	85.56
345.031	97.56
345.259	99.56
345.487	97.56
345.714	92.56
345.942	99.56
346.17	90.56
346.397	104.56
346.625	75.56
346.853	94.56
347.08	97.56
347.308	94.56
347.535	100.56
347.763	95.56
347.99	84.56
348.218	96.56
348.445	95.56
348.673	101.56
348.9	96.56
349.128	94.56
349.355	93.56
349.583	103.56
349.81	84.56
350.037	81.56
350.265	97.56
350.492	95.56
350.72	99.56
350.947	94.56
351.174	105.56
351.402	107.56
351.629	102.56
351.856	104.56
352.083	98.56
352.311	88.56
352.538	82.56
352.765	111.56
352.992	118.56
353.22	112.56
353.447	93.56
353.674	85.56
353.901	97.56
354.128	94.56
354.355	93.56
354.583	90.56
354.81	107.56
355.037	92.56
355.264	99.56
355.491	93.56
355.718	102.56
355.945	109.56
356.172	88.56
356.399	100.56
356.626	99.56
356.853	96.56
357.08	99.56
357.307	97.56
357.534	107.56
357.761	95.56
357.988	90.56
358.215	112.56
358.441	105.56
358.668	104.56
358.895	89.56
359.122	83.56
359.349	110.56
359.576	97.56
359.802	84.56
360.029	103.56
360.256	100.56
360.483	92.56
360.709	90.56
360.936	93.56
361.163	83.56
361.39	92.56
361.616	90.56
361.843	82.56
362.07	94.56
362.296	83.56
362.523	83.56
362.749	89.56
362.976	95.56
363.203	80.56
363.429	85.56
363.656	95.56
363.882	98.56
364.109	101.56
364.335	92.56
364.562	93.56
364.788	98.56
365.015	103.56
365.241	98.56
365.468	105.56
365.694	102.56
365.92	97.56
366.147	85.56
366.373	100.56
366.599	83.56
366.826	89.56
367.052	91.56
367.278	80.56
367.505	89.56
367.731	92.56
367.957	84.56
368.184	98.56
368.41	97.56
368.636	105.56
368.862	110.56
369.089	107.56
369.315	89.56
369.541	102.56
369.767	94.56
369.993	95.56
370.219	94.56
370.445	76.56
370.672	86.56
370.898	99.56
371.124	84.56
371.35	84.56
371.576	87.56
371.802	85.56
372.028	86.56
372.254	82.56
372.48	81.56
372.706	81.56
372.932	87.56
373.158	95.56
373.384	108.56
373.61	98.56
373.835	91.56
374.061	90.56
374.287	95.56
374.513	101.56
374.739	94.56
374.965	90.56
375.191	89.56
375.416	88.56
375.642	83.56
375.868	94.56
376.094	71.56
376.319	92.56
376.545	93.56
376.771	90.56
376.997	98.56
377.222	79.56
377.448	87.56
377.674	105.56
377.899	84.56
378.125	95.56
378.35	103.56
378.576	96.56
378.802	94.56
379.027	86.56
379.253	104.56
379.478	83.56
379.704	75.56
379.929	96.56
380.155	107.56
380.38	95.56
380.606	104.56
380.831	112.56
381.057	120.56
381.282	115.56
381.507	108.56
381.733	109.56
381.958	101.56
382.184	105.56
382.409	100.56
382.634	116.56
382.86	117.56
383.085	125.56
383.31	122.56
383.535	117.56
383.761	108.56
383.986	105.56
384.211	110.56
384.436	129.56
384.662	125.56
384.887	124.56
385.112	142.56
385.337	126.56
385.562	147.56
385.787	124.56
386.013	125.56
386.238	129.56
386.463	135.56
386.688	129.56
386.913	139.56
387.138	134.56
387.363	123.56
387.588	117.56
387.813	116.56
388.038	145.56
388.263	148.56
388.488	143.56
388.713	120.56
388.938	109.56
389.163	85.56
389.387	93.56
389.612	97.56
389.837	108.56
390.062	93.56
390.287	85.56
390.512	97.56
390.736	86.56
390.961	92.56
391.186	110.56
391.411	100.56
391.636	95.56
391.86	94.56
392.085	91.56
392.31	101.56
392.534	86.56
392.759	86.56
392.984	102.56
393.208	137.56
393.433	182.56
393.658	148.56
393.882	96.56
394.107	104.56
394.331	103.56
394.556	101.56
394.78	83.56
395.005	104.56
395.229	91.56
395.454	85.56
395.678	90.56
395.903	84.56
396.127	86.56
396.352	91.56
396.576	112.56
396.801	120.56
397.025	152.56
397.249	103.56
397.474	95.56
397.698	94.56
397.922	95.56
398.147	78.56
398.371	84.56
398.595	79.56
398.82	86.56
399.044	92.56
399.268	79.56
399.492	83.56
399.717	88.56
399.941	113.56
400.165	93.56
400.389	95.56
400.613	98.56
400.837	96.56
401.062	94.56
401.286	94.56
401.51	92.56
401.734	87.56
401.958	99.56
402.182	113.56
402.406	142.56
402.63	103.56
402.854	82.56
403.078	80.56
403.302	84.56
403.526	82.56
403.75	96.56
403.974	93.56
404.198	104.56
404.422	85.56
404.645	90.56
404.869	93.56
405.093	90.56
405.317	96.56
405.541	78.56
405.765	88.56
405.988	111.56
406.212	161.56
406.436	197.56
406.66	136.56
406.883	103.56
407.107	90.56
407.331	97.56
407.555	92.56
407.778	88.56
408.002	72.56
408.226	81.56
408.449	95.56
408.673	80.56
408.896	91.56
409.12	92.56
409.344	92.56
409.567	83.56
409.791	97.56
410.014	93.56
410.238	87.56
410.461	96.56
410.685	85.56
410.908	97.56
411.132	111.56
411.355	98.56
411.578	88.56
411.802	84.56
412.025	82.56
412.249	97.56
412.472	89.56
412.695	103.56
412.919	100.56
413.142	91.56
413.365	86.56
413.589	101.56
413.812	86.56
414.035	82.56
414.258	96.56
414.482	96.56
414.705	80.56
414.928	99.56
415.151	92.56
415.374	98.56
415.597	96.56
415.821	98.56
416.044	95.56
416.267	91.56
416.49	79.56
416.713	90.56
416.936	111.56
417.159	84.56
417.382	86.56
417.605	96.56
417.828	84.56
418.051	86.56
418.274	97.56
418.497	95.56
418.72	93.56
418.943	78.56
419.166	92.56
419.389	96.56
419.611	99.56
419.834	89.56
420.057	95.56
420.28	92.56
420.503	89.56
420.726	85.56
420.948	97.56
421.171	101.56
421.394	97.56
421.617	102.56
421.839	87.56
422.062	83.56
422.285	94.56
422.507	96.56
422.73	132.56
422.953	110.56
423.175	82.56
423.398	93.56
423.621	93.56
423.843	94.56
424.066	93.56
424.288	101.56
424.511	95.56
424.733	83.56
424.956	102.56
425.178	96.56
425.401	93.56
425.623	99.56
425.846	90.56
426.068	69.56
426.291	95.56
426.513	95.56
426.735	85.56
426.958	96.56
427.18	98.56
427.402	129.56
427.625	144.56
427.847	127.56
428.069	122.56
428.292	75.56
428.514	90.56
428.736	76.56
428.958	87.56
429.181	87.56
429.403	76.56
429.625	87.56
429.847	99.56
430.069	91.56
430.292	117.56
430.514	97.56
430.736	93.56
430.958	87.56
431.18	89.56
431.402	76.56
431.624	86.56
431.846	76.56
432.068	93.56
432.29	86.56
432.512	105.56
432.734	83.56
432.956	90.56
433.178	91.56
433.4	84.56
433.622	85.56
433.844	100.56
434.066	83.56
434.287	84.56
434.509	95.56
434.731	90.56
434.953	99.56
435.175	94.56
435.397	85.56
435.618	83.56
435.84	100.56
436.062	113.56
436.284	115.56
436.505	91.56
436.727	101.56
436.949	99.56
437.17	65.56
437.392	95.56
437.614	103.56
437.835	96.56
438.057	107.56
438.278	105.56
438.5	102.56
438.721	129.56
438.943	96.56
439.165	87.56
439.386	94.56
439.608	89.56
439.829	95.56
440.05	115.56
440.272	129.56
440.493	108.56
440.715	93.56
440.936	85.56
441.158	83.56
441.379	109.56
441.6	95.56
441.822	91.56
442.043	79.56
442.264	98.56
442.486	87.56
442.707	75.56
442.928	99.56
443.149	124.56
443.371	116.56
443.592	113.56
443.813	114.56
444.034	99.56
444.255	79.56
444.476	100.56
444.698	94.56
444.919	80.56
445.14	119.56
445.361	123.56
445.582	112.56
445.803	130.56
446.024	134.56
446.245	116.56
446.466	109.56
446.687	91.56
446.908	97.56
447.129	79.56
447.35	101.56
447.571	94.56
447.792	84.56
448.013	99.56
448.234	102.56
448.455	98.56
448.675	114.56
448.896	93.56
449.117	107.56
449.338	98.56
449.559	116.56
449.779	123.56
450	101.56
450.221	79.56
450.442	86.56
450.662	83.56
450.883	106.56
451.104	100.56
451.324	95.56
451.545	84.56
451.766	99.56
451.986	87.56
452.207	87.56
452.428	95.56
452.648	86.56
452.869	112.56
453.089	107.56
453.31	97.56
453.53	87.56
453.751	87.56
453.971	103.56
454.192	97.56
454.412	78.56
454.633	85.56
454.853	100.56
455.073	72.56
455.294	92.56
455.514	105.56
455.734	83.56
455.955	84.56
456.175	81.56
456.395	86.56
456.616	77.56
456.836	87.56
457.056	84.56
457.276	84.56
457.497	86.56
457.717	85.56
457.937	96.56
458.157	89.56
458.377	76.56
458.598	93.56
458.818	130.56
459.038	137.56
459.258	113.56
459.478	93.56
459.698	82.56
459.918	72.56
460.138	97.56
460.358	85.56
460.578	86.56
460.798	104.56
461.018	83.56
461.238	79.56
461.458	93.56
461.678	97.56
461.898	79.56
462.118	77.56
462.338	64.56
462.558	89.56
462.777	94.56
462.997	88.56
463.217	76.56
463.437	88.56
463.657	79.56
463.876	80.56
464.096	81.56
464.316	96.56
464.536	95.56
464.755	101.56
464.975	91.56
465.195	132.56
465.414	122.56
465.634	80.56
465.854	78.56
466.073	80.56
466.293	83.56
466.512	84.56
466.732	89.56
466.951	87.56
467.171	86.56
467.391	92.56
467.61	84.56
467.829	105.56
468.049	126.56
468.268	162.56
468.488	104.56
468.707	91.56
468.927	99.56
469.146	87.56
469.365	84.56
469.585	96.56
469.804	107.56
470.023	88.56
470.243	89.56
470.462	93.56
470.681	100.56
470.901	77.56
471.12	70.56
471.339	84.56
471.558	103.56
471.777	107.56
471.997	93.56
472.216	210.56
472.435	373.56
472.654	156.56
472.873	90.56
473.092	85.56
473.311	77.56
473.53	89.56
473.749	87.56
473.968	91.56
474.187	83.56
474.406	91.56
474.625	89.56
474.844	83.56
475.063	92.56
475.282	94.56
475.501	95.56
475.72	88.56
475.939	87.56
476.158	90.56
476.377	93.56
476.596	83.56
476.814	94.56
477.033	77.56
477.252	91.56
477.471	94.56
477.69	77.56
477.908	96.56
478.127	93.56
478.346	97.56
478.564	96.56
478.783	93.56
479.002	89.56
479.22	95.56
479.439	103.56
479.658	101.56
479.876	110.56
480.095	82.56
480.313	94.56
480.532	101.56
480.751	129.56
480.969	202.56
481.188	603.56
481.406	386.56
481.624	111.56
481.843	97.56
482.061	78.56
482.28	106.56
482.498	87.56
482.717	88.56
482.935	67.56
483.153	80.56
483.372	83.56
483.59	80.56
483.808	97.56
484.027	103.56
484.245	95.56
484.463	89.56
484.681	88.56
484.9	98.56
485.118	91.56
485.336	109.56
485.554	100.56
485.772	100.56
485.99	112.56
486.209	96.56
486.427	94.56
486.645	113.56
486.863	109.56
487.081	102.56
487.299	95.56
487.517	97.56
487.735	88.56
487.953	98.56
488.171	85.56
488.389	92.56
488.607	98.56
488.825	82.56
489.043	80.56
489.261	92.56
489.479	95.56
489.696	85.56
489.914	88.56
490.132	84.56
490.35	91.56
490.568	84.56
490.786	89.56
491.003	107.56
491.221	92.56
491.439	93.56
491.657	88.56
491.874	100.56
492.092	82.56
492.31	89.56
492.527	83.56
492.745	88.56
492.963	81.56
493.18	85.56
493.398	102.56
493.615	85.56
493.833	83.56
494.05	91.56
494.268	83.56
494.485	91.56
494.703	101.56
494.92	80.56
495.138	81.56
495.355	91.56
495.573	89.56
495.79	82.56
496.008	103.56
496.225	68.56
496.442	88.56
496.66	99.56
496.877	79.56
497.094	100.56
497.312	87.56
497.529	96.56
497.746	78.56
497.963	89.56
498.181	69.56
498.398	94.56
498.615	103.56
498.832	101.56
499.049	94.56
499.267	94.56
499.484	90.56
499.701	82.56
499.918	100.56
500.135	99.56
500.352	91.56
500.569	91.56
500.786	100.56
501.003	96.56
501.22	95.56
501.437	86.56
501.654	99.56
501.871	111.56
502.088	88.56
502.305	99.56
502.522	95.56
502.739	87.56
502.956	79.56
503.172	95.56
503.389	99.56
503.606	93.56
503.823	100.56
504.04	86.56
504.256	86.56
504.473	90.56
504.69	85.56
504.907	88.56
505.123	75.56
505.34	92.56
505.557	96.56
505.773	94.56
505.99	97.56
506.207	89.56
506.423	92.56
506.64	96.56
506.856	94.56
507.073	83.56
507.289	88.56
507.506	75.56
507.722	99.56
507.939	99.56
508.155	80.56
508.372	87.56
508.588	94.56
508.805	100.56
509.021	103.56
509.238	83.56
509.454	105.56
509.67	96.56
509.887	85.56
510.103	118.56
510.319	176.56
510.536	565.56
510.752	1683.56
510.968	479.56
511.184	141.56
511.401	103.56
511.617	98.56
511.833	92.56
512.049	87.56
512.265	92.56
512.481	101.56
512.698	92.56
512.914	84.56
513.13	80.56
513.346	83.56
513.562	85.56
513.778	106.56
513.994	105.56
514.21	94.56
514.426	107.56
514.642	115.56
514.858	115.56
515.074	134.56
515.29	307.56
