Data from Circ_1991_H10_HRD10591_00037.txt Node
Date: Wed Jan 03 11:51:48 EST 2024
User: Yrep
Spectrometer: HR+D1059
Trigger mode: 1
Integration Time (sec): 1.000000E-1
Scans to average: 1
Electric dark correction enabled: true
Nonlinearity correction enabled: false
Boxcar width: 0
XAxis mode: Wavelengths
Number of Pixels in Spectrum: 2048
>>>>>Begin Spectral Data<<<<<
223.165	-13.88
223.4	-13.88
223.635	-13.88
223.869	-13.88
224.104	-22.88
224.338	-17.88
224.573	-28.88
224.808	-19.88
225.042	-11.88
225.277	-2.88
225.511	-2.88
225.746	13.12
225.98	-1.88
226.215	8.12
226.449	24.12
226.683	40.12
226.918	29.12
227.152	22.12
227.387	43.12
227.621	61.12
227.856	56.12
228.09	30.12
228.324	54.12
228.559	60.12
228.793	54.12
229.027	71.12
229.262	66.12
229.496	73.12
229.73	82.12
229.964	88.12
230.199	80.12
230.433	68.12
230.667	86.12
230.901	76.12
231.136	77.12
231.37	90.12
231.604	79.12
231.838	74.12
232.072	77.12
232.306	74.12
232.541	78.12
232.775	74.12
233.009	95.12
233.243	83.12
233.477	76.12
233.711	85.12
233.945	84.12
234.179	76.12
234.413	99.12
234.647	79.12
234.881	84.12
235.115	71.12
235.349	80.12
235.583	80.12
235.817	90.12
236.051	69.12
236.285	98.12
236.519	86.12
236.753	82.12
236.987	80.12
237.221	83.12
237.455	91.12
237.689	91.12
237.922	78.12
238.156	67.12
238.39	69.12
238.624	67.12
238.858	85.12
239.091	78.12
239.325	78.12
239.559	83.12
239.793	80.12
240.027	80.12
240.26	90.12
240.494	69.12
240.728	59.12
240.961	76.12
241.195	92.12
241.429	101.12
241.662	86.12
241.896	87.12
242.13	86.12
242.363	76.12
242.597	75.12
242.83	84.12
243.064	79.12
243.298	77.12
243.531	77.12
243.765	86.12
243.998	90.12
244.232	78.12
244.465	74.12
244.699	74.12
244.932	84.12
245.166	78.12
245.399	82.12
245.633	79.12
245.866	77.12
246.099	77.12
246.333	82.12
246.566	78.12
246.8	92.12
247.033	75.12
247.266	75.12
247.5	87.12
247.733	83.12
247.966	65.12
248.2	81.12
248.433	81.12
248.666	76.12
248.899	78.12
249.133	86.12
249.366	95.12
249.599	94.12
249.832	77.12
250.066	77.12
250.299	75.12
250.532	92.12
250.765	78.12
250.998	83.12
251.231	77.12
251.465	70.12
251.698	76.12
251.931	84.12
252.164	78.12
252.397	69.12
252.63	87.12
252.863	68.12
253.096	67.12
253.329	90.12
253.562	78.12
253.795	78.12
254.028	82.12
254.261	83.12
254.494	76.12
254.727	88.12
254.96	80.12
255.193	69.12
255.426	70.12
255.659	82.12
255.892	81.12
256.124	70.12
256.357	71.12
256.59	81.12
256.823	87.12
257.056	83.12
257.289	89.12
257.521	74.12
257.754	86.12
257.987	69.12
258.22	86.12
258.452	93.12
258.685	80.12
258.918	85.12
259.151	82.12
259.383	78.12
259.616	85.12
259.849	82.12
260.081	104.12
260.314	92.12
260.547	81.12
260.779	60.12
261.012	82.12
261.244	88.12
261.477	79.12
261.71	80.12
261.942	111.12
262.175	103.12
262.407	94.12
262.64	91.12
262.872	90.12
263.105	86.12
263.337	77.12
263.57	88.12
263.802	87.12
264.035	83.12
264.267	85.12
264.499	87.12
264.732	85.12
264.964	71.12
265.197	92.12
265.429	84.12
265.661	83.12
265.894	87.12
266.126	92.12
266.358	78.12
266.591	84.12
266.823	96.12
267.055	78.12
267.287	84.12
267.52	95.12
267.752	93.12
267.984	85.12
268.216	76.12
268.448	93.12
268.681	82.12
268.913	75.12
269.145	80.12
269.377	81.12
269.609	88.12
269.841	77.12
270.073	96.12
270.306	88.12
270.538	79.12
270.77	86.12
271.002	76.12
271.234	88.12
271.466	85.12
271.698	95.12
271.93	100.12
272.162	78.12
272.394	81.12
272.626	89.12
272.858	90.12
273.09	76.12
273.322	85.12
273.553	80.12
273.785	88.12
274.017	80.12
274.249	99.12
274.481	72.12
274.713	91.12
274.945	76.12
275.176	89.12
275.408	95.12
275.64	91.12
275.872	100.12
276.104	84.12
276.335	98.12
276.567	97.12
276.799	101.12
277.031	100.12
277.262	106.12
277.494	84.12
277.726	78.12
277.957	99.12
278.189	96.12
278.421	96.12
278.652	85.12
278.884	68.12
279.115	75.12
279.347	79.12
279.579	99.12
279.81	94.12
280.042	104.12
280.273	116.12
280.505	106.12
280.736	92.12
280.968	92.12
281.199	87.12
281.431	90.12
281.662	69.12
281.894	81.12
282.125	86.12
282.356	113.12
282.588	135.12
282.819	114.12
283.051	92.12
283.282	91.12
283.513	93.12
283.745	81.12
283.976	93.12
284.207	92.12
284.439	91.12
284.67	88.12
284.901	75.12
285.132	83.12
285.364	74.12
285.595	88.12
285.826	92.12
286.057	98.12
286.288	84.12
286.52	92.12
286.751	87.12
286.982	93.12
287.213	69.12
287.444	88.12
287.675	90.12
287.906	87.12
288.138	70.12
288.369	96.12
288.6	92.12
288.831	90.12
289.062	94.12
289.293	78.12
289.524	86.12
289.755	84.12
289.986	88.12
290.217	89.12
290.448	105.12
290.679	81.12
290.91	79.12
291.141	79.12
291.371	92.12
291.602	96.12
291.833	90.12
292.064	86.12
292.295	88.12
292.526	79.12
292.757	103.12
292.987	77.12
293.218	90.12
293.449	84.12
293.68	95.12
293.91	88.12
294.141	103.12
294.372	86.12
294.603	71.12
294.833	90.12
295.064	102.12
295.295	81.12
295.525	95.12
295.756	98.12
295.987	117.12
296.217	128.12
296.448	127.12
296.679	109.12
296.909	97.12
297.14	99.12
297.37	94.12
297.601	87.12
297.831	74.12
298.062	93.12
298.292	86.12
298.523	97.12
298.753	86.12
298.984	99.12
299.214	95.12
299.445	81.12
299.675	85.12
299.905	90.12
300.136	93.12
300.366	99.12
300.597	85.12
300.827	83.12
301.057	92.12
301.288	90.12
301.518	96.12
301.748	86.12
301.979	112.12
302.209	90.12
302.439	70.12
302.669	90.12
302.9	98.12
303.13	116.12
303.36	80.12
303.59	118.12
303.82	108.12
304.051	86.12
304.281	95.12
304.511	106.12
304.741	98.12
304.971	95.12
305.201	99.12
305.431	85.12
305.661	80.12
305.891	87.12
306.121	94.12
306.352	106.12
306.582	111.12
306.812	104.12
307.042	98.12
307.272	103.12
307.502	105.12
307.731	117.12
307.961	108.12
308.191	92.12
308.421	89.12
308.651	88.12
308.881	94.12
309.111	99.12
309.341	87.12
309.571	92.12
309.8	94.12
310.03	100.12
310.26	97.12
310.49	97.12
310.72	113.12
310.949	104.12
311.179	104.12
311.409	80.12
311.639	96.12
311.868	105.12
312.098	100.12
312.328	87.12
312.557	95.12
312.787	94.12
313.017	84.12
313.246	83.12
313.476	101.12
313.706	90.12
313.935	86.12
314.165	99.12
314.394	95.12
314.624	95.12
314.853	92.12
315.083	107.12
315.312	118.12
315.542	85.12
315.771	90.12
316.001	93.12
316.23	104.12
316.46	98.12
316.689	90.12
316.919	92.12
317.148	102.12
317.377	90.12
317.607	96.12
317.836	79.12
318.065	93.12
318.295	99.12
318.524	95.12
318.753	88.12
318.983	100.12
319.212	106.12
319.441	120.12
319.67	98.12
319.9	92.12
320.129	95.12
320.358	102.12
320.587	101.12
320.816	96.12
321.046	102.12
321.275	93.12
321.504	100.12
321.733	87.12
321.962	97.12
322.191	95.12
322.42	104.12
322.649	112.12
322.878	112.12
323.108	104.12
323.337	121.12
323.566	129.12
323.795	145.12
324.024	178.12
324.253	349.12
324.482	772.12
324.71	1518.12
324.939	2094.12
325.168	760.12
325.397	222.12
325.626	143.12
325.855	130.12
326.084	108.12
326.313	137.12
326.542	128.12
326.77	222.12
326.999	425.12
327.228	869.12
327.457	1588.12
327.686	1234.12
327.914	363.12
328.143	230.12
328.372	233.12
328.6	158.12
328.829	122.12
329.058	115.12
329.287	133.12
329.515	114.12
329.744	138.12
329.972	195.12
330.201	278.12
330.43	350.12
330.658	202.12
330.887	154.12
331.115	115.12
331.344	112.12
331.572	109.12
331.801	95.12
332.03	96.12
332.258	92.12
332.486	102.12
332.715	91.12
332.943	92.12
333.172	107.12
333.4	115.12
333.629	115.12
333.857	139.12
334.085	180.12
334.314	254.12
334.542	460.12
334.771	430.12
334.999	159.12
335.227	109.12
335.455	104.12
335.684	99.12
335.912	90.12
336.14	91.12
336.369	98.12
336.597	116.12
336.825	116.12
337.053	114.12
337.281	92.12
337.51	107.12
337.738	75.12
337.966	93.12
338.194	89.12
338.422	86.12
338.65	102.12
338.878	92.12
339.106	90.12
339.334	97.12
339.562	101.12
339.79	95.12
340.018	90.12
340.246	98.12
340.474	91.12
340.702	94.12
340.93	101.12
341.158	97.12
341.386	88.12
341.614	92.12
341.842	104.12
342.07	96.12
342.298	92.12
342.526	86.12
342.754	83.12
342.981	90.12
343.209	94.12
343.437	100.12
343.665	74.12
343.893	96.12
344.12	112.12
344.348	96.12
344.576	93.12
344.804	96.12
345.031	92.12
345.259	103.12
345.487	95.12
345.714	96.12
345.942	87.12
346.17	94.12
346.397	92.12
346.625	86.12
346.853	74.12
347.08	87.12
347.308	81.12
347.535	85.12
347.763	105.12
347.99	92.12
348.218	101.12
348.445	113.12
348.673	83.12
348.9	101.12
349.128	100.12
349.355	97.12
349.583	89.12
349.81	96.12
350.037	94.12
350.265	94.12
350.492	110.12
350.72	110.12
350.947	105.12
351.174	104.12
351.402	108.12
351.629	111.12
351.856	107.12
352.083	92.12
352.311	109.12
352.538	110.12
352.765	95.12
352.992	95.12
353.22	117.12
353.447	101.12
353.674	111.12
353.901	106.12
354.128	93.12
354.355	110.12
354.583	104.12
354.81	94.12
355.037	98.12
355.264	89.12
355.491	90.12
355.718	83.12
355.945	81.12
356.172	82.12
356.399	95.12
356.626	92.12
356.853	103.12
357.08	86.12
357.307	91.12
357.534	86.12
357.761	89.12
357.988	93.12
358.215	109.12
358.441	92.12
358.668	104.12
358.895	96.12
359.122	89.12
359.349	99.12
359.576	86.12
359.802	94.12
360.029	98.12
360.256	98.12
360.483	84.12
360.709	93.12
360.936	102.12
361.163	90.12
361.39	103.12
361.616	85.12
361.843	86.12
362.07	101.12
362.296	96.12
362.523	94.12
362.749	82.12
362.976	84.12
363.203	74.12
363.429	92.12
363.656	93.12
363.882	90.12
364.109	82.12
364.335	69.12
364.562	79.12
364.788	84.12
365.015	98.12
365.241	106.12
365.468	108.12
365.694	95.12
365.92	92.12
366.147	90.12
366.373	91.12
366.599	80.12
366.826	86.12
367.052	94.12
367.278	90.12
367.505	94.12
367.731	104.12
367.957	83.12
368.184	83.12
368.41	92.12
368.636	120.12
368.862	122.12
369.089	113.12
369.315	85.12
369.541	89.12
369.767	80.12
369.993	82.12
370.219	98.12
370.445	91.12
370.672	88.12
370.898	79.12
371.124	86.12
371.35	86.12
371.576	71.12
371.802	78.12
372.028	93.12
372.254	78.12
372.48	105.12
372.706	88.12
372.932	94.12
373.158	102.12
373.384	90.12
373.61	92.12
373.835	98.12
374.061	92.12
374.287	87.12
374.513	94.12
374.739	91.12
374.965	105.12
375.191	79.12
375.416	87.12
375.642	85.12
375.868	94.12
376.094	101.12
376.319	94.12
376.545	72.12
376.771	84.12
376.997	83.12
377.222	95.12
377.448	101.12
377.674	88.12
377.899	103.12
378.125	89.12
378.35	83.12
378.576	107.12
378.802	114.12
379.027	92.12
379.253	92.12
379.478	106.12
379.704	85.12
379.929	107.12
380.155	99.12
380.38	99.12
380.606	98.12
380.831	88.12
381.057	99.12
381.282	100.12
381.507	88.12
381.733	95.12
381.958	95.12
382.184	102.12
382.409	112.12
382.634	103.12
382.86	108.12
383.085	105.12
383.31	103.12
383.535	99.12
383.761	100.12
383.986	95.12
384.211	90.12
384.436	104.12
384.662	108.12
384.887	124.12
385.112	100.12
385.337	108.12
385.562	101.12
385.787	98.12
386.013	117.12
386.238	113.12
386.463	102.12
386.688	111.12
386.913	114.12
387.138	110.12
387.363	91.12
387.588	108.12
387.813	98.12
388.038	106.12
388.263	110.12
388.488	112.12
388.713	104.12
388.938	92.12
389.163	103.12
389.387	103.12
389.612	91.12
389.837	87.12
390.062	92.12
390.287	101.12
390.512	107.12
390.736	96.12
390.961	97.12
391.186	103.12
391.411	99.12
391.636	90.12
391.86	78.12
392.085	95.12
392.31	87.12
392.534	82.12
392.759	95.12
392.984	83.12
393.208	111.12
393.433	141.12
393.658	141.12
393.882	90.12
394.107	75.12
394.331	87.12
394.556	87.12
394.78	94.12
395.005	74.12
395.229	109.12
395.454	69.12
395.678	75.12
395.903	87.12
396.127	94.12
396.352	95.12
396.576	87.12
396.801	100.12
397.025	112.12
397.249	87.12
397.474	84.12
397.698	91.12
397.922	84.12
398.147	74.12
398.371	88.12
398.595	96.12
398.82	87.12
399.044	86.12
399.268	75.12
399.492	93.12
399.717	90.12
399.941	84.12
400.165	91.12
400.389	75.12
400.613	85.12
400.837	90.12
401.062	89.12
401.286	99.12
401.51	102.12
401.734	93.12
401.958	96.12
402.182	116.12
402.406	132.12
402.63	115.12
402.854	106.12
403.078	95.12
403.302	88.12
403.526	84.12
403.75	90.12
403.974	74.12
404.198	72.12
404.422	82.12
404.645	78.12
404.869	86.12
405.093	105.12
405.317	97.12
405.541	113.12
405.765	100.12
405.988	106.12
406.212	164.12
406.436	208.12
406.66	133.12
406.883	94.12
407.107	90.12
407.331	92.12
407.555	106.12
407.778	90.12
408.002	91.12
408.226	85.12
408.449	82.12
408.673	82.12
408.896	88.12
409.12	93.12
409.344	95.12
409.567	100.12
409.791	93.12
410.014	100.12
410.238	85.12
410.461	85.12
410.685	94.12
410.908	78.12
411.132	95.12
411.355	97.12
411.578	86.12
411.802	80.12
412.025	83.12
412.249	84.12
412.472	95.12
412.695	108.12
412.919	94.12
413.142	92.12
413.365	104.12
413.589	87.12
413.812	86.12
414.035	95.12
414.258	100.12
414.482	93.12
414.705	93.12
414.928	85.12
415.151	88.12
415.374	80.12
415.597	78.12
415.821	95.12
416.044	88.12
416.267	95.12
416.49	75.12
416.713	103.12
416.936	81.12
417.159	92.12
417.382	84.12
417.605	90.12
417.828	92.12
418.051	106.12
418.274	94.12
418.497	83.12
418.72	74.12
418.943	88.12
419.166	86.12
419.389	93.12
419.611	82.12
419.834	82.12
420.057	77.12
420.28	98.12
420.503	89.12
420.726	75.12
420.948	90.12
421.171	91.12
421.394	100.12
421.617	95.12
421.839	90.12
422.062	80.12
422.285	81.12
422.507	93.12
422.73	102.12
422.953	115.12
423.175	99.12
423.398	94.12
423.621	82.12
423.843	99.12
424.066	94.12
424.288	93.12
424.511	86.12
424.733	90.12
424.956	100.12
425.178	114.12
425.401	93.12
425.623	95.12
425.846	92.12
426.068	97.12
426.291	95.12
426.513	96.12
426.735	82.12
426.958	94.12
427.18	93.12
427.402	126.12
427.625	156.12
427.847	147.12
428.069	133.12
428.292	91.12
428.514	92.12
428.736	83.12
428.958	90.12
429.181	78.12
429.403	87.12
429.625	92.12
429.847	97.12
430.069	86.12
430.292	95.12
430.514	90.12
430.736	83.12
430.958	87.12
431.18	79.12
431.402	75.12
431.624	94.12
431.846	90.12
432.068	80.12
432.29	83.12
432.512	98.12
432.734	88.12
432.956	88.12
433.178	93.12
433.4	90.12
433.622	95.12
433.844	79.12
434.066	103.12
434.287	91.12
434.509	88.12
434.731	78.12
434.953	89.12
435.175	93.12
435.397	89.12
435.618	96.12
435.84	97.12
436.062	130.12
436.284	118.12
436.505	102.12
436.727	89.12
436.949	82.12
437.17	77.12
437.392	99.12
437.614	78.12
437.835	92.12
438.057	104.12
438.278	103.12
438.5	105.12
438.721	110.12
438.943	104.12
439.165	98.12
439.386	88.12
439.608	86.12
439.829	93.12
440.05	124.12
440.272	129.12
440.493	100.12
440.715	96.12
440.936	81.12
441.158	95.12
441.379	74.12
441.6	100.12
441.822	100.12
442.043	82.12
442.264	100.12
442.486	93.12
442.707	104.12
442.928	105.12
443.149	130.12
443.371	117.12
443.592	102.12
443.813	113.12
444.034	87.12
444.255	90.12
444.476	98.12
444.698	86.12
444.919	84.12
445.14	136.12
445.361	122.12
445.582	120.12
445.803	139.12
446.024	124.12
446.245	144.12
446.466	98.12
446.687	95.12
446.908	88.12
447.129	84.12
447.35	79.12
447.571	90.12
447.792	90.12
448.013	93.12
448.234	96.12
448.455	94.12
448.675	108.12
448.896	99.12
449.117	100.12
449.338	115.12
449.559	108.12
449.779	131.12
450	101.12
450.221	93.12
450.442	100.12
450.662	102.12
450.883	100.12
451.104	103.12
451.324	94.12
451.545	83.12
451.766	93.12
451.986	86.12
452.207	85.12
452.428	78.12
452.648	108.12
452.869	100.12
453.089	97.12
453.31	118.12
453.53	93.12
453.751	92.12
453.971	100.12
454.192	94.12
454.412	94.12
454.633	91.12
454.853	93.12
455.073	95.12
455.294	104.12
455.514	103.12
455.734	100.12
455.955	98.12
456.175	76.12
456.395	86.12
456.616	79.12
456.836	99.12
457.056	93.12
457.276	92.12
457.497	76.12
457.717	79.12
457.937	88.12
458.157	68.12
458.377	90.12
458.598	116.12
458.818	148.12
459.038	142.12
459.258	109.12
459.478	94.12
459.698	77.12
459.918	79.12
460.138	85.12
460.358	88.12
460.578	95.12
460.798	90.12
461.018	95.12
461.238	85.12
461.458	81.12
461.678	94.12
461.898	86.12
462.118	86.12
462.338	79.12
462.558	86.12
462.777	86.12
462.997	99.12
463.217	108.12
463.437	92.12
463.657	80.12
463.876	90.12
464.096	93.12
464.316	91.12
464.536	95.12
464.755	90.12
464.975	107.12
465.195	145.12
465.414	156.12
465.634	90.12
465.854	84.12
466.073	91.12
466.293	82.12
466.512	104.12
466.732	96.12
466.951	76.12
467.171	90.12
467.391	103.12
467.61	111.12
467.829	106.12
468.049	187.12
468.268	244.12
468.488	115.12
468.707	106.12
468.927	90.12
469.146	82.12
469.365	79.12
469.585	91.12
469.804	88.12
470.023	90.12
470.243	90.12
470.462	100.12
470.681	100.12
470.901	92.12
471.12	83.12
471.339	96.12
471.558	95.12
471.777	101.12
471.997	146.12
472.216	325.12
472.435	654.12
472.654	199.12
472.873	108.12
473.092	88.12
473.311	102.12
473.53	81.12
473.749	97.12
473.968	84.12
474.187	102.12
474.406	104.12
474.625	84.12
474.844	91.12
475.063	83.12
475.282	92.12
475.501	80.12
475.72	87.12
475.939	86.12
476.158	85.12
476.377	75.12
476.596	86.12
476.814	96.12
477.033	94.12
477.252	80.12
477.471	85.12
477.69	82.12
477.908	77.12
478.127	78.12
478.346	86.12
478.564	92.12
478.783	102.12
479.002	99.12
479.22	102.12
479.439	94.12
479.658	104.12
479.876	104.12
480.095	95.12
480.313	105.12
480.532	100.12
480.751	130.12
480.969	331.12
481.188	1148.12
481.406	666.12
481.624	151.12
481.843	90.12
482.061	96.12
482.28	89.12
482.498	90.12
482.717	86.12
482.935	78.12
483.153	90.12
483.372	90.12
483.59	93.12
483.808	88.12
484.027	92.12
484.245	98.12
484.463	83.12
484.681	86.12
484.9	82.12
485.118	89.12
485.336	90.12
485.554	88.12
485.772	105.12
485.99	95.12
486.209	101.12
486.427	101.12
486.645	115.12
486.863	109.12
487.081	96.12
487.299	78.12
487.517	95.12
487.735	82.12
487.953	92.12
488.171	101.12
488.389	100.12
488.607	93.12
488.825	94.12
489.043	87.12
489.261	80.12
489.479	81.12
489.696	96.12
489.914	99.12
490.132	96.12
490.35	96.12
490.568	83.12
490.786	91.12
491.003	91.12
491.221	85.12
491.439	91.12
491.657	99.12
491.874	80.12
492.092	86.12
492.31	90.12
492.527	81.12
492.745	91.12
492.963	87.12
493.18	89.12
493.398	100.12
493.615	84.12
493.833	86.12
494.05	82.12
494.268	98.12
494.485	96.12
494.703	85.12
494.92	95.12
495.138	94.12
495.355	98.12
495.573	93.12
495.79	95.12
496.008	87.12
496.225	79.12
496.442	87.12
496.66	91.12
496.877	87.12
497.094	87.12
497.312	82.12
497.529	80.12
497.746	81.12
497.963	99.12
498.181	85.12
498.398	93.12
498.615	104.12
498.832	105.12
499.049	85.12
499.267	95.12
499.484	98.12
499.701	87.12
499.918	84.12
500.135	71.12
500.352	83.12
500.569	79.12
500.786	86.12
501.003	85.12
501.22	87.12
501.437	84.12
501.654	99.12
501.871	110.12
502.088	107.12
502.305	99.12
502.522	98.12
502.739	94.12
502.956	95.12
503.172	93.12
503.389	93.12
503.606	97.12
503.823	83.12
504.04	76.12
504.256	94.12
504.473	85.12
504.69	92.12
504.907	104.12
505.123	89.12
505.34	84.12
505.557	92.12
505.773	91.12
505.99	81.12
506.207	92.12
506.423	89.12
506.64	83.12
506.856	94.12
507.073	94.12
507.289	87.12
507.506	90.12
507.722	104.12
507.939	108.12
508.155	100.12
508.372	83.12
508.588	83.12
508.805	102.12
509.021	98.12
509.238	100.12
509.454	89.12
509.67	115.12
509.887	107.12
510.103	114.12
510.319	196.12
510.536	674.12
510.752	2095.12
510.968	599.12
511.184	148.12
511.401	108.12
511.617	95.12
511.833	93.12
512.049	89.12
512.265	104.12
512.481	90.12
512.698	78.12
512.914	95.12
513.13	84.12
513.346	86.12
513.562	96.12
513.778	95.12
513.994	104.12
514.21	99.12
514.426	113.12
514.642	132.12
514.858	119.12
515.074	150.12
515.29	386.12
