Data from Circ_1991_H10_HRD10591_00096.txt Node
Date: Wed Jan 03 11:52:00 EST 2024
User: Yrep
Spectrometer: HR+D1059
Trigger mode: 1
Integration Time (sec): 1.000000E-1
Scans to average: 1
Electric dark correction enabled: true
Nonlinearity correction enabled: false
Boxcar width: 0
XAxis mode: Wavelengths
Number of Pixels in Spectrum: 2048
>>>>>Begin Spectral Data<<<<<
223.165	-5.31
223.4	-5.31
223.635	-5.31
223.869	-19.31
224.104	-30.31
224.338	-10.31
224.573	-16.31
224.808	-10.31
225.042	-8.31
225.277	-8.31
225.511	-8.31
225.746	4.69
225.98	-2.31
226.215	27.69
226.449	19.69
226.683	15.69
226.918	25.69
227.152	25.69
227.387	29.69
227.621	37.69
227.856	33.69
228.09	30.69
228.324	59.69
228.559	59.69
228.793	45.69
229.027	59.69
229.262	59.69
229.496	80.69
229.73	96.69
229.964	87.69
230.199	81.69
230.433	76.69
230.667	68.69
230.901	64.69
231.136	82.69
231.37	81.69
231.604	83.69
231.838	79.69
232.072	68.69
232.306	85.69
232.541	86.69
232.775	77.69
233.009	62.69
233.243	68.69
233.477	70.69
233.711	70.69
233.945	76.69
234.179	79.69
234.413	90.69
234.647	82.69
234.881	82.69
235.115	67.69
235.349	69.69
235.583	73.69
235.817	87.69
236.051	77.69
236.285	74.69
236.519	78.69
236.753	88.69
236.987	75.69
237.221	89.69
237.455	94.69
237.689	69.69
237.922	61.69
238.156	75.69
238.39	77.69
238.624	76.69
238.858	70.69
239.091	64.69
239.325	77.69
239.559	70.69
239.793	66.69
240.027	90.69
240.26	81.69
240.494	93.69
240.728	76.69
240.961	78.69
241.195	72.69
241.429	85.69
241.662	70.69
241.896	71.69
242.13	83.69
242.363	89.69
242.597	86.69
242.83	88.69
243.064	73.69
243.298	64.69
243.531	65.69
243.765	82.69
243.998	91.69
244.232	93.69
244.465	92.69
244.699	74.69
244.932	65.69
245.166	63.69
245.399	80.69
245.633	77.69
245.866	79.69
246.099	79.69
246.333	82.69
246.566	80.69
246.8	98.69
247.033	71.69
247.266	95.69
247.5	85.69
247.733	82.69
247.966	74.69
248.2	73.69
248.433	87.69
248.666	78.69
248.899	83.69
249.133	87.69
249.366	100.69
249.599	102.69
249.832	91.69
250.066	78.69
250.299	64.69
250.532	78.69
250.765	77.69
250.998	73.69
251.231	77.69
251.465	86.69
251.698	90.69
251.931	86.69
252.164	83.69
252.397	78.69
252.63	85.69
252.863	77.69
253.096	82.69
253.329	86.69
253.562	90.69
253.795	89.69
254.028	69.69
254.261	75.69
254.494	90.69
254.727	80.69
254.96	81.69
255.193	81.69
255.426	80.69
255.659	79.69
255.892	93.69
256.124	82.69
256.357	93.69
256.59	77.69
256.823	92.69
257.056	88.69
257.289	83.69
257.521	87.69
257.754	80.69
257.987	77.69
258.22	81.69
258.452	100.69
258.685	94.69
258.918	77.69
259.151	67.69
259.383	94.69
259.616	69.69
259.849	75.69
260.081	76.69
260.314	80.69
260.547	71.69
260.779	79.69
261.012	90.69
261.244	90.69
261.477	87.69
261.71	88.69
261.942	112.69
262.175	123.69
262.407	90.69
262.64	81.69
262.872	77.69
263.105	75.69
263.337	82.69
263.57	91.69
263.802	85.69
264.035	83.69
264.267	90.69
264.499	92.69
264.732	74.69
264.964	81.69
265.197	77.69
265.429	86.69
265.661	71.69
265.894	75.69
266.126	78.69
266.358	78.69
266.591	81.69
266.823	74.69
267.055	91.69
267.287	77.69
267.52	92.69
267.752	84.69
267.984	92.69
268.216	84.69
268.448	83.69
268.681	73.69
268.913	82.69
269.145	94.69
269.377	90.69
269.609	88.69
269.841	75.69
270.073	73.69
270.306	76.69
270.538	81.69
270.77	77.69
271.002	83.69
271.234	84.69
271.466	90.69
271.698	75.69
271.93	84.69
272.162	86.69
272.394	83.69
272.626	81.69
272.858	87.69
273.09	81.69
273.322	87.69
273.553	93.69
273.785	78.69
274.017	81.69
274.249	89.69
274.481	77.69
274.713	79.69
274.945	91.69
275.176	81.69
275.408	86.69
275.64	93.69
275.872	102.69
276.104	93.69
276.335	85.69
276.567	81.69
276.799	132.69
277.031	129.69
277.262	128.69
277.494	118.69
277.726	101.69
277.957	78.69
278.189	88.69
278.421	86.69
278.652	109.69
278.884	89.69
279.115	83.69
279.347	86.69
279.579	105.69
279.81	117.69
280.042	122.69
280.273	159.69
280.505	131.69
280.736	88.69
280.968	79.69
281.199	70.69
281.431	92.69
281.662	77.69
281.894	92.69
282.125	99.69
282.356	113.69
282.588	153.69
282.819	123.69
283.051	92.69
283.282	83.69
283.513	83.69
283.745	84.69
283.976	95.69
284.207	81.69
284.439	89.69
284.67	90.69
284.901	77.69
285.132	81.69
285.364	69.69
285.595	85.69
285.826	82.69
286.057	75.69
286.288	90.69
286.52	84.69
286.751	80.69
286.982	87.69
287.213	82.69
287.444	95.69
287.675	94.69
287.906	89.69
288.138	73.69
288.369	97.69
288.6	90.69
288.831	85.69
289.062	89.69
289.293	87.69
289.524	69.69
289.755	85.69
289.986	88.69
290.217	82.69
290.448	80.69
290.679	83.69
290.91	79.69
291.141	85.69
291.371	94.69
291.602	88.69
291.833	86.69
292.064	97.69
292.295	81.69
292.526	85.69
292.757	82.69
292.987	91.69
293.218	89.69
293.449	87.69
293.68	77.69
293.91	90.69
294.141	97.69
294.372	85.69
294.603	86.69
294.833	80.69
295.064	94.69
295.295	94.69
295.525	94.69
295.756	94.69
295.987	121.69
296.217	141.69
296.448	135.69
296.679	89.69
296.909	92.69
297.14	88.69
297.37	86.69
297.601	83.69
297.831	85.69
298.062	94.69
298.292	91.69
298.523	76.69
298.753	92.69
298.984	79.69
299.214	91.69
299.445	90.69
299.675	89.69
299.905	103.69
300.136	96.69
300.366	90.69
300.597	87.69
300.827	87.69
301.057	118.69
301.288	108.69
301.518	91.69
301.748	109.69
301.979	119.69
302.209	103.69
302.439	98.69
302.669	87.69
302.9	89.69
303.13	88.69
303.36	97.69
303.59	96.69
303.82	120.69
304.051	78.69
304.281	97.69
304.511	97.69
304.741	93.69
304.971	75.69
305.201	80.69
305.431	90.69
305.661	91.69
305.891	91.69
306.121	110.69
306.352	102.69
306.582	97.69
306.812	103.69
307.042	115.69
307.272	130.69
307.502	128.69
307.731	160.69
307.961	110.69
308.191	93.69
308.421	103.69
308.651	89.69
308.881	100.69
309.111	99.69
309.341	102.69
309.571	97.69
309.8	100.69
310.03	107.69
310.26	101.69
310.49	101.69
310.72	110.69
310.949	95.69
311.179	90.69
311.409	94.69
311.639	106.69
311.868	102.69
312.098	107.69
312.328	99.69
312.557	107.69
312.787	117.69
313.017	129.69
313.246	106.69
313.476	93.69
313.706	89.69
313.935	92.69
314.165	110.69
314.394	98.69
314.624	108.69
314.853	86.69
315.083	92.69
315.312	97.69
315.542	76.69
315.771	103.69
316.001	99.69
316.23	98.69
316.46	93.69
316.689	94.69
316.919	92.69
317.148	102.69
317.377	103.69
317.607	98.69
317.836	88.69
318.065	86.69
318.295	90.69
318.524	89.69
318.753	85.69
318.983	95.69
319.212	102.69
319.441	116.69
319.67	102.69
319.9	91.69
320.129	95.69
320.358	82.69
320.587	99.69
320.816	86.69
321.046	112.69
321.275	88.69
321.504	106.69
321.733	84.69
321.962	112.69
322.191	100.69
322.42	102.69
322.649	114.69
322.878	106.69
323.108	122.69
323.337	117.69
323.566	132.69
323.795	165.69
324.024	218.69
324.253	458.69
324.482	1001.69
324.71	2144.69
324.939	2987.69
325.168	1059.69
325.397	301.69
325.626	163.69
325.855	136.69
326.084	132.69
326.313	137.69
326.542	171.69
326.77	272.69
326.999	546.69
327.228	1146.69
327.457	2239.69
327.686	1814.69
327.914	524.69
328.143	370.69
328.372	427.69
328.6	267.69
328.829	149.69
329.058	145.69
329.287	153.69
329.515	142.69
329.744	172.69
329.972	289.69
330.201	549.69
330.43	820.69
330.658	397.69
330.887	201.69
331.115	145.69
331.344	116.69
331.572	112.69
331.801	114.69
332.03	116.69
332.258	90.69
332.486	92.69
332.715	84.69
332.943	99.69
333.172	114.69
333.4	103.69
333.629	137.69
333.857	161.69
334.085	262.69
334.314	541.69
334.542	1011.69
334.771	926.69
334.999	273.69
335.227	134.69
335.455	103.69
335.684	94.69
335.912	99.69
336.14	109.69
336.369	93.69
336.597	112.69
336.825	98.69
337.053	96.69
337.281	74.69
337.51	93.69
337.738	97.69
337.966	104.69
338.194	102.69
338.422	102.69
338.65	104.69
338.878	94.69
339.106	87.69
339.334	99.69
339.562	93.69
339.79	84.69
340.018	89.69
340.246	84.69
340.474	106.69
340.702	95.69
340.93	77.69
341.158	98.69
341.386	91.69
341.614	107.69
341.842	126.69
342.07	94.69
342.298	97.69
342.526	100.69
342.754	84.69
342.981	91.69
343.209	79.69
343.437	92.69
343.665	81.69
343.893	89.69
344.12	96.69
344.348	82.69
344.576	87.69
344.804	95.69
345.031	98.69
345.259	114.69
345.487	89.69
345.714	97.69
345.942	91.69
346.17	87.69
346.397	98.69
346.625	102.69
346.853	90.69
347.08	78.69
347.308	92.69
347.535	95.69
347.763	94.69
347.99	96.69
348.218	104.69
348.445	115.69
348.673	100.69
348.9	92.69
349.128	91.69
349.355	101.69
349.583	99.69
349.81	89.69
350.037	90.69
350.265	95.69
350.492	91.69
350.72	97.69
350.947	97.69
351.174	95.69
351.402	129.69
351.629	97.69
351.856	100.69
352.083	97.69
352.311	125.69
352.538	101.69
352.765	103.69
352.992	106.69
353.22	108.69
353.447	113.69
353.674	105.69
353.901	116.69
354.128	97.69
354.355	91.69
354.583	93.69
354.81	102.69
355.037	112.69
355.264	94.69
355.491	93.69
355.718	104.69
355.945	92.69
356.172	109.69
356.399	108.69
356.626	95.69
356.853	77.69
357.08	92.69
357.307	96.69
357.534	89.69
357.761	99.69
357.988	98.69
358.215	92.69
358.441	84.69
358.668	92.69
358.895	104.69
359.122	89.69
359.349	86.69
359.576	102.69
359.802	103.69
360.029	146.69
360.256	119.69
360.483	114.69
360.709	95.69
360.936	95.69
361.163	93.69
361.39	86.69
361.616	94.69
361.843	92.69
362.07	90.69
362.296	101.69
362.523	100.69
362.749	90.69
362.976	91.69
363.203	105.69
363.429	103.69
363.656	93.69
363.882	83.69
364.109	97.69
364.335	94.69
364.562	105.69
364.788	86.69
365.015	87.69
365.241	85.69
365.468	112.69
365.694	120.69
365.92	84.69
366.147	94.69
366.373	108.69
366.599	86.69
366.826	86.69
367.052	86.69
367.278	88.69
367.505	91.69
367.731	92.69
367.957	102.69
368.184	94.69
368.41	110.69
368.636	103.69
368.862	128.69
369.089	109.69
369.315	102.69
369.541	100.69
369.767	80.69
369.993	99.69
370.219	110.69
370.445	82.69
370.672	101.69
370.898	90.69
371.124	87.69
371.35	78.69
371.576	84.69
371.802	89.69
372.028	83.69
372.254	97.69
372.48	83.69
372.706	84.69
372.932	79.69
373.158	82.69
373.384	93.69
373.61	86.69
373.835	89.69
374.061	87.69
374.287	97.69
374.513	85.69
374.739	97.69
374.965	82.69
375.191	97.69
375.416	90.69
375.642	84.69
375.868	99.69
376.094	101.69
376.319	83.69
376.545	95.69
376.771	83.69
376.997	86.69
377.222	90.69
377.448	87.69
377.674	96.69
377.899	78.69
378.125	81.69
378.35	88.69
378.576	93.69
378.802	84.69
379.027	96.69
379.253	84.69
379.478	86.69
379.704	84.69
379.929	90.69
380.155	76.69
380.38	102.69
380.606	93.69
380.831	100.69
381.057	99.69
381.282	98.69
381.507	100.69
381.733	102.69
381.958	94.69
382.184	101.69
382.409	101.69
382.634	91.69
382.86	99.69
383.085	91.69
383.31	87.69
383.535	98.69
383.761	98.69
383.986	102.69
384.211	91.69
384.436	101.69
384.662	100.69
384.887	102.69
385.112	84.69
385.337	102.69
385.562	97.69
385.787	100.69
386.013	103.69
386.238	113.69
386.463	95.69
386.688	107.69
386.913	103.69
387.138	98.69
387.363	105.69
387.588	83.69
387.813	91.69
388.038	110.69
388.263	112.69
388.488	106.69
388.713	99.69
388.938	92.69
389.163	98.69
389.387	100.69
389.612	102.69
389.837	85.69
390.062	95.69
390.287	96.69
390.512	84.69
390.736	97.69
390.961	86.69
391.186	92.69
391.411	91.69
391.636	106.69
391.86	90.69
392.085	89.69
392.31	92.69
392.534	82.69
392.759	94.69
392.984	77.69
393.208	86.69
393.433	113.69
393.658	94.69
393.882	77.69
394.107	89.69
394.331	81.69
394.556	89.69
394.78	82.69
395.005	81.69
395.229	85.69
395.454	80.69
395.678	84.69
395.903	95.69
396.127	77.69
396.352	95.69
396.576	90.69
396.801	81.69
397.025	101.69
397.249	76.69
397.474	83.69
397.698	93.69
397.922	95.69
398.147	81.69
398.371	89.69
398.595	88.69
398.82	92.69
399.044	81.69
399.268	86.69
399.492	89.69
399.717	85.69
399.941	89.69
400.165	89.69
400.389	80.69
400.613	94.69
400.837	100.69
401.062	89.69
401.286	87.69
401.51	98.69
401.734	84.69
401.958	93.69
402.182	125.69
402.406	170.69
402.63	126.69
402.854	96.69
403.078	86.69
403.302	90.69
403.526	98.69
403.75	88.69
403.974	67.69
404.198	98.69
404.422	99.69
404.645	105.69
404.869	91.69
405.093	102.69
405.317	119.69
405.541	112.69
405.765	118.69
405.988	129.69
406.212	172.69
406.436	255.69
406.66	158.69
406.883	111.69
407.107	100.69
407.331	108.69
407.555	111.69
407.778	99.69
408.002	91.69
408.226	87.69
408.449	92.69
408.673	88.69
408.896	89.69
409.12	89.69
409.344	121.69
409.567	82.69
409.791	86.69
410.014	86.69
410.238	86.69
410.461	81.69
410.685	93.69
410.908	92.69
411.132	104.69
411.355	108.69
411.578	101.69
411.802	104.69
412.025	108.69
412.249	85.69
412.472	113.69
412.695	142.69
412.919	99.69
413.142	97.69
413.365	93.69
413.589	82.69
413.812	95.69
414.035	83.69
414.258	100.69
414.482	93.69
414.705	95.69
414.928	84.69
415.151	95.69
415.374	99.69
415.597	81.69
415.821	93.69
416.044	87.69
416.267	94.69
416.49	86.69
416.713	79.69
416.936	96.69
417.159	83.69
417.382	96.69
417.605	102.69
417.828	93.69
418.051	101.69
418.274	70.69
418.497	91.69
418.72	89.69
418.943	76.69
419.166	94.69
419.389	82.69
419.611	79.69
419.834	88.69
420.057	99.69
420.28	74.69
420.503	100.69
420.726	92.69
420.948	91.69
421.171	90.69
421.394	95.69
421.617	91.69
421.839	91.69
422.062	93.69
422.285	83.69
422.507	99.69
422.73	110.69
422.953	90.69
423.175	103.69
423.398	92.69
423.621	83.69
423.843	102.69
424.066	89.69
424.288	78.69
424.511	101.69
424.733	96.69
424.956	103.69
425.178	97.69
425.401	99.69
425.623	98.69
425.846	104.69
426.068	90.69
426.291	107.69
426.513	107.69
426.735	86.69
426.958	85.69
427.18	110.69
427.402	168.69
427.625	212.69
427.847	202.69
428.069	199.69
428.292	118.69
428.514	90.69
428.736	88.69
428.958	75.69
429.181	85.69
429.403	100.69
429.625	79.69
429.847	105.69
430.069	115.69
430.292	105.69
430.514	78.69
430.736	86.69
430.958	94.69
431.18	102.69
431.402	98.69
431.624	92.69
431.846	86.69
432.068	83.69
432.29	85.69
432.512	90.69
432.734	85.69
432.956	95.69
433.178	110.69
433.4	95.69
433.622	85.69
433.844	98.69
434.066	81.69
434.287	95.69
434.509	84.69
434.731	91.69
434.953	98.69
435.175	86.69
435.397	91.69
435.618	91.69
435.84	93.69
436.062	147.69
436.284	136.69
436.505	110.69
436.727	109.69
436.949	103.69
437.17	83.69
437.392	95.69
437.614	93.69
437.835	119.69
438.057	136.69
438.278	123.69
438.5	121.69
438.721	148.69
438.943	117.69
439.165	100.69
439.386	82.69
439.608	85.69
439.829	100.69
440.05	156.69
440.272	191.69
440.493	91.69
440.715	99.69
440.936	85.69
441.158	78.69
441.379	100.69
441.6	86.69
441.822	101.69
442.043	103.69
442.264	113.69
442.486	123.69
442.707	89.69
442.928	118.69
443.149	154.69
443.371	162.69
443.592	125.69
443.813	130.69
444.034	123.69
444.255	100.69
444.476	90.69
444.698	85.69
444.919	100.69
445.14	126.69
445.361	113.69
445.582	122.69
445.803	173.69
446.024	165.69
446.245	173.69
446.466	118.69
446.687	98.69
446.908	102.69
447.129	93.69
447.35	93.69
447.571	82.69
447.792	98.69
448.013	108.69
448.234	108.69
448.455	111.69
448.675	133.69
448.896	133.69
449.117	97.69
449.338	96.69
449.559	135.69
449.779	148.69
450	98.69
450.221	91.69
450.442	97.69
450.662	99.69
450.883	103.69
451.104	132.69
451.324	100.69
451.545	82.69
451.766	84.69
451.986	83.69
452.207	103.69
452.428	97.69
452.648	94.69
452.869	107.69
453.089	133.69
453.31	132.69
453.53	99.69
453.751	87.69
453.971	101.69
454.192	118.69
454.412	113.69
454.633	77.69
454.853	94.69
455.073	87.69
455.294	95.69
455.514	106.69
455.734	99.69
455.955	89.69
456.175	76.69
456.395	81.69
456.616	74.69
456.836	86.69
457.056	96.69
457.276	76.69
457.497	83.69
457.717	79.69
457.937	85.69
458.157	94.69
458.377	96.69
458.598	113.69
458.818	190.69
459.038	187.69
459.258	131.69
459.478	86.69
459.698	81.69
459.918	76.69
460.138	99.69
460.358	81.69
460.578	86.69
460.798	86.69
461.018	89.69
461.238	84.69
461.458	83.69
461.678	92.69
461.898	96.69
462.118	92.69
462.338	98.69
462.558	83.69
462.777	77.69
462.997	84.69
463.217	87.69
463.437	91.69
463.657	94.69
463.876	87.69
464.096	95.69
464.316	98.69
464.536	95.69
464.755	91.69
464.975	112.69
465.195	203.69
465.414	185.69
465.634	89.69
465.854	92.69
466.073	101.69
466.293	87.69
466.512	95.69
466.732	90.69
466.951	74.69
467.171	100.69
467.391	97.69
467.61	118.69
467.829	150.69
468.049	338.69
468.268	479.69
468.488	157.69
468.707	106.69
468.927	93.69
469.146	79.69
469.365	89.69
469.585	91.69
469.804	99.69
470.023	109.69
470.243	91.69
470.462	102.69
470.681	112.69
470.901	108.69
471.12	83.69
471.339	111.69
471.558	106.69
471.777	113.69
471.997	194.69
472.216	643.69
472.435	1422.69
472.654	356.69
472.873	121.69
473.092	93.69
473.311	100.69
473.53	75.69
473.749	86.69
473.968	121.69
474.187	112.69
474.406	107.69
474.625	95.69
474.844	85.69
475.063	77.69
475.282	98.69
475.501	90.69
475.72	79.69
475.939	90.69
476.158	102.69
476.377	94.69
476.596	104.69
476.814	112.69
477.033	91.69
477.252	94.69
477.471	86.69
477.69	81.69
477.908	87.69
478.127	90.69
478.346	108.69
478.564	99.69
478.783	97.69
479.002	86.69
479.22	92.69
479.439	103.69
479.658	99.69
479.876	102.69
480.095	111.69
480.313	104.69
480.532	118.69
480.751	191.69
480.969	645.69
481.188	2454.69
481.406	1427.69
481.624	241.69
481.843	113.69
482.061	106.69
482.28	89.69
482.498	93.69
482.717	98.69
482.935	89.69
483.153	102.69
483.372	85.69
483.59	83.69
483.808	91.69
484.027	94.69
484.245	94.69
484.463	98.69
484.681	97.69
484.9	91.69
485.118	91.69
485.336	84.69
485.554	97.69
485.772	97.69
485.99	103.69
486.209	107.69
486.427	101.69
486.645	119.69
486.863	126.69
487.081	101.69
487.299	97.69
487.517	98.69
487.735	95.69
487.953	89.69
488.171	91.69
488.389	94.69
488.607	109.69
488.825	83.69
489.043	99.69
489.261	91.69
489.479	95.69
489.696	83.69
489.914	74.69
490.132	92.69
490.35	99.69
490.568	104.69
490.786	92.69
491.003	82.69
491.221	93.69
491.439	86.69
491.657	88.69
491.874	87.69
492.092	89.69
492.31	101.69
492.527	102.69
492.745	93.69
492.963	98.69
493.18	77.69
493.398	93.69
493.615	96.69
493.833	83.69
494.05	100.69
494.268	92.69
494.485	86.69
494.703	94.69
494.92	94.69
495.138	100.69
495.355	91.69
495.573	95.69
495.79	80.69
496.008	82.69
496.225	86.69
496.442	94.69
496.66	95.69
496.877	95.69
497.094	103.69
497.312	83.69
497.529	100.69
497.746	90.69
497.963	104.69
498.181	110.69
498.398	100.69
498.615	109.69
498.832	113.69
499.049	100.69
499.267	93.69
499.484	96.69
499.701	99.69
499.918	83.69
500.135	98.69
500.352	96.69
500.569	82.69
500.786	95.69
501.003	88.69
501.22	79.69
501.437	89.69
501.654	89.69
501.871	109.69
502.088	107.69
502.305	92.69
502.522	85.69
502.739	74.69
502.956	86.69
503.172	89.69
503.389	85.69
503.606	114.69
503.823	103.69
504.04	93.69
504.256	93.69
504.473	98.69
504.69	86.69
504.907	97.69
505.123	87.69
505.34	75.69
505.557	76.69
505.773	94.69
505.99	91.69
506.207	88.69
506.423	78.69
506.64	93.69
506.856	80.69
507.073	99.69
507.289	93.69
507.506	92.69
507.722	127.69
507.939	125.69
508.155	110.69
508.372	97.69
508.588	92.69
508.805	103.69
509.021	97.69
509.238	92.69
509.454	81.69
509.67	97.69
509.887	108.69
510.103	137.69
510.319	206.69
510.536	751.69
510.752	2553.69
510.968	685.69
511.184	172.69
511.401	106.69
511.617	109.69
511.833	82.69
512.049	95.69
512.265	81.69
512.481	89.69
512.698	100.69
512.914	97.69
513.13	81.69
513.346	92.69
513.562	89.69
513.778	98.69
513.994	110.69
514.21	93.69
514.426	119.69
