Data from Circ_1991_H10_HRD10591_00090.txt Node
Date: Wed Jan 03 11:51:59 EST 2024
User: Yrep
Spectrometer: HR+D1059
Trigger mode: 1
Integration Time (sec): 1.000000E-1
Scans to average: 1
Electric dark correction enabled: true
Nonlinearity correction enabled: false
Boxcar width: 0
XAxis mode: Wavelengths
Number of Pixels in Spectrum: 2048
>>>>>Begin Spectral Data<<<<<
223.165	-16.31
223.4	-16.31
223.635	-16.31
223.869	-22.31
224.104	-22.31
224.338	-18.31
224.573	-19.31
224.808	-18.31
225.042	-13.31
225.277	-15.31
225.511	5.69
225.746	5.69
225.98	-0.31
226.215	30.69
226.449	12.69
226.683	20.69
226.918	32.69
227.152	37.69
227.387	34.69
227.621	31.69
227.856	51.69
228.09	46.69
228.324	59.69
228.559	60.69
228.793	56.69
229.027	57.69
229.262	61.69
229.496	70.69
229.73	79.69
229.964	83.69
230.199	61.69
230.433	83.69
230.667	75.69
230.901	69.69
231.136	79.69
231.37	84.69
231.604	85.69
231.838	90.69
232.072	71.69
232.306	83.69
232.541	63.69
232.775	74.69
233.009	93.69
233.243	80.69
233.477	74.69
233.711	78.69
233.945	90.69
234.179	96.69
234.413	76.69
234.647	84.69
234.881	86.69
235.115	77.69
235.349	61.69
235.583	79.69
235.817	88.69
236.051	93.69
236.285	70.69
236.519	83.69
236.753	74.69
236.987	76.69
237.221	91.69
237.455	93.69
237.689	63.69
237.922	86.69
238.156	86.69
238.39	87.69
238.624	70.69
238.858	83.69
239.091	83.69
239.325	82.69
239.559	82.69
239.793	91.69
240.027	74.69
240.26	80.69
240.494	76.69
240.728	70.69
240.961	80.69
241.195	79.69
241.429	73.69
241.662	79.69
241.896	64.69
242.13	79.69
242.363	84.69
242.597	76.69
242.83	68.69
243.064	78.69
243.298	85.69
243.531	76.69
243.765	72.69
243.998	69.69
244.232	80.69
244.465	96.69
244.699	82.69
244.932	91.69
245.166	72.69
245.399	75.69
245.633	79.69
245.866	82.69
246.099	79.69
246.333	75.69
246.566	82.69
246.8	84.69
247.033	83.69
247.266	77.69
247.5	68.69
247.733	77.69
247.966	74.69
248.2	90.69
248.433	85.69
248.666	74.69
248.899	72.69
249.133	97.69
249.366	95.69
249.599	102.69
249.832	75.69
250.066	82.69
250.299	75.69
250.532	89.69
250.765	91.69
250.998	73.69
251.231	74.69
251.465	70.69
251.698	85.69
251.931	77.69
252.164	73.69
252.397	87.69
252.63	84.69
252.863	80.69
253.096	86.69
253.329	87.69
253.562	77.69
253.795	99.69
254.028	96.69
254.261	74.69
254.494	74.69
254.727	78.69
254.96	94.69
255.193	90.69
255.426	94.69
255.659	78.69
255.892	83.69
256.124	94.69
256.357	79.69
256.59	86.69
256.823	81.69
257.056	67.69
257.289	83.69
257.521	88.69
257.754	75.69
257.987	76.69
258.22	78.69
258.452	70.69
258.685	82.69
258.918	84.69
259.151	73.69
259.383	82.69
259.616	87.69
259.849	71.69
260.081	89.69
260.314	91.69
260.547	94.69
260.779	92.69
261.012	99.69
261.244	84.69
261.477	97.69
261.71	88.69
261.942	94.69
262.175	121.69
262.407	88.69
262.64	75.69
262.872	95.69
263.105	88.69
263.337	86.69
263.57	72.69
263.802	78.69
264.035	92.69
264.267	81.69
264.499	81.69
264.732	85.69
264.964	80.69
265.197	87.69
265.429	78.69
265.661	75.69
265.894	76.69
266.126	79.69
266.358	85.69
266.591	87.69
266.823	75.69
267.055	85.69
267.287	87.69
267.52	76.69
267.752	95.69
267.984	89.69
268.216	79.69
268.448	70.69
268.681	75.69
268.913	79.69
269.145	91.69
269.377	86.69
269.609	74.69
269.841	74.69
270.073	90.69
270.306	83.69
270.538	94.69
270.77	77.69
271.002	80.69
271.234	77.69
271.466	99.69
271.698	79.69
271.93	89.69
272.162	93.69
272.394	82.69
272.626	79.69
272.858	110.69
273.09	89.69
273.322	69.69
273.553	80.69
273.785	68.69
274.017	76.69
274.249	90.69
274.481	99.69
274.713	91.69
274.945	98.69
275.176	85.69
275.408	77.69
275.64	86.69
275.872	101.69
276.104	108.69
276.335	86.69
276.567	104.69
276.799	114.69
277.031	116.69
277.262	103.69
277.494	93.69
277.726	100.69
277.957	95.69
278.189	90.69
278.421	84.69
278.652	96.69
278.884	80.69
279.115	98.69
279.347	88.69
279.579	88.69
279.81	106.69
280.042	121.69
280.273	139.69
280.505	118.69
280.736	106.69
280.968	98.69
281.199	93.69
281.431	95.69
281.662	93.69
281.894	80.69
282.125	80.69
282.356	123.69
282.588	145.69
282.819	122.69
283.051	86.69
283.282	83.69
283.513	94.69
283.745	93.69
283.976	92.69
284.207	94.69
284.439	93.69
284.67	95.69
284.901	73.69
285.132	89.69
285.364	89.69
285.595	96.69
285.826	74.69
286.057	96.69
286.288	84.69
286.52	86.69
286.751	80.69
286.982	91.69
287.213	76.69
287.444	93.69
287.675	91.69
287.906	78.69
288.138	89.69
288.369	91.69
288.6	94.69
288.831	81.69
289.062	83.69
289.293	91.69
289.524	83.69
289.755	77.69
289.986	86.69
290.217	92.69
290.448	79.69
290.679	91.69
290.91	93.69
291.141	76.69
291.371	85.69
291.602	60.69
291.833	74.69
292.064	84.69
292.295	85.69
292.526	81.69
292.757	89.69
292.987	80.69
293.218	91.69
293.449	81.69
293.68	76.69
293.91	79.69
294.141	87.69
294.372	87.69
294.603	75.69
294.833	97.69
295.064	79.69
295.295	83.69
295.525	87.69
295.756	86.69
295.987	105.69
296.217	129.69
296.448	128.69
296.679	94.69
296.909	94.69
297.14	84.69
297.37	102.69
297.601	85.69
297.831	85.69
298.062	96.69
298.292	81.69
298.523	99.69
298.753	95.69
298.984	92.69
299.214	82.69
299.445	94.69
299.675	86.69
299.905	93.69
300.136	77.69
300.366	88.69
300.597	82.69
300.827	92.69
301.057	104.69
301.288	103.69
301.518	99.69
301.748	92.69
301.979	91.69
302.209	91.69
302.439	86.69
302.669	98.69
302.9	96.69
303.13	91.69
303.36	96.69
303.59	97.69
303.82	98.69
304.051	100.69
304.281	91.69
304.511	96.69
304.741	80.69
304.971	86.69
305.201	105.69
305.431	94.69
305.661	89.69
305.891	82.69
306.121	90.69
306.352	94.69
306.582	107.69
306.812	89.69
307.042	102.69
307.272	113.69
307.502	125.69
307.731	111.69
307.961	109.69
308.191	88.69
308.421	87.69
308.651	93.69
308.881	97.69
309.111	91.69
309.341	90.69
309.571	102.69
309.8	91.69
310.03	96.69
310.26	98.69
310.49	92.69
310.72	94.69
310.949	102.69
311.179	99.69
311.409	105.69
311.639	97.69
311.868	77.69
312.098	91.69
312.328	84.69
312.557	91.69
312.787	121.69
313.017	94.69
313.246	84.69
313.476	90.69
313.706	79.69
313.935	89.69
314.165	94.69
314.394	96.69
314.624	94.69
314.853	100.69
315.083	95.69
315.312	99.69
315.542	88.69
315.771	96.69
316.001	93.69
316.23	99.69
316.46	93.69
316.689	84.69
316.919	92.69
317.148	111.69
317.377	86.69
317.607	89.69
317.836	95.69
318.065	91.69
318.295	92.69
318.524	86.69
318.753	91.69
318.983	88.69
319.212	110.69
319.441	107.69
319.67	106.69
319.9	98.69
320.129	96.69
320.358	85.69
320.587	90.69
320.816	106.69
321.046	99.69
321.275	107.69
321.504	85.69
321.733	104.69
321.962	107.69
322.191	98.69
322.42	104.69
322.649	121.69
322.878	103.69
323.108	107.69
323.337	119.69
323.566	129.69
323.795	146.69
324.024	209.69
324.253	440.69
324.482	929.69
324.71	1947.69
324.939	2645.69
325.168	946.69
325.397	262.69
325.626	146.69
325.855	131.69
326.084	130.69
326.313	118.69
326.542	182.69
326.77	243.69
326.999	481.69
327.228	1041.69
327.457	2025.69
327.686	1610.69
327.914	465.69
328.143	301.69
328.372	328.69
328.6	207.69
328.829	148.69
329.058	129.69
329.287	150.69
329.515	137.69
329.744	153.69
329.972	233.69
330.201	414.69
330.43	606.69
330.658	309.69
330.887	167.69
331.115	123.69
331.344	114.69
331.572	104.69
331.801	119.69
332.03	106.69
332.258	101.69
332.486	107.69
332.715	100.69
332.943	101.69
333.172	103.69
333.4	106.69
333.629	114.69
333.857	155.69
334.085	229.69
334.314	399.69
334.542	755.69
334.771	722.69
334.999	235.69
335.227	125.69
335.455	97.69
335.684	100.69
335.912	110.69
336.14	94.69
336.369	98.69
336.597	100.69
336.825	105.69
337.053	85.69
337.281	98.69
337.51	95.69
337.738	98.69
337.966	98.69
338.194	108.69
338.422	104.69
338.65	94.69
338.878	93.69
339.106	91.69
339.334	92.69
339.562	92.69
339.79	75.69
340.018	93.69
340.246	81.69
340.474	90.69
340.702	108.69
340.93	107.69
341.158	80.69
341.386	80.69
341.614	89.69
341.842	98.69
342.07	91.69
342.298	95.69
342.526	86.69
342.754	99.69
342.981	98.69
343.209	95.69
343.437	93.69
343.665	91.69
343.893	90.69
344.12	82.69
344.348	98.69
344.576	96.69
344.804	103.69
345.031	86.69
345.259	98.69
345.487	91.69
345.714	87.69
345.942	81.69
346.17	110.69
346.397	95.69
346.625	94.69
346.853	97.69
347.08	83.69
347.308	89.69
347.535	92.69
347.763	101.69
347.99	99.69
348.218	91.69
348.445	98.69
348.673	98.69
348.9	95.69
349.128	97.69
349.355	90.69
349.583	90.69
349.81	93.69
350.037	88.69
350.265	96.69
350.492	110.69
350.72	90.69
350.947	111.69
351.174	102.69
351.402	115.69
351.629	106.69
351.856	100.69
352.083	111.69
352.311	102.69
352.538	116.69
352.765	98.69
352.992	111.69
353.22	101.69
353.447	95.69
353.674	96.69
353.901	101.69
354.128	89.69
354.355	93.69
354.583	99.69
354.81	104.69
355.037	90.69
355.264	91.69
355.491	88.69
355.718	79.69
355.945	96.69
356.172	91.69
356.399	94.69
356.626	96.69
356.853	68.69
357.08	91.69
357.307	92.69
357.534	80.69
357.761	82.69
357.988	89.69
358.215	94.69
358.441	101.69
358.668	93.69
358.895	81.69
359.122	97.69
359.349	95.69
359.576	89.69
359.802	82.69
360.029	101.69
360.256	119.69
360.483	99.69
360.709	81.69
360.936	80.69
361.163	85.69
361.39	87.69
361.616	85.69
361.843	95.69
362.07	93.69
362.296	97.69
362.523	99.69
362.749	95.69
362.976	92.69
363.203	91.69
363.429	97.69
363.656	97.69
363.882	97.69
364.109	94.69
364.335	78.69
364.562	93.69
364.788	75.69
365.015	100.69
365.241	88.69
365.468	106.69
365.694	102.69
365.92	92.69
366.147	100.69
366.373	92.69
366.599	89.69
366.826	87.69
367.052	91.69
367.278	87.69
367.505	94.69
367.731	92.69
367.957	83.69
368.184	88.69
368.41	103.69
368.636	100.69
368.862	110.69
369.089	104.69
369.315	86.69
369.541	96.69
369.767	81.69
369.993	77.69
370.219	76.69
370.445	66.69
370.672	88.69
370.898	97.69
371.124	93.69
371.35	89.69
371.576	90.69
371.802	99.69
372.028	92.69
372.254	97.69
372.48	100.69
372.706	90.69
372.932	85.69
373.158	90.69
373.384	82.69
373.61	82.69
373.835	94.69
374.061	80.69
374.287	102.69
374.513	95.69
374.739	95.69
374.965	82.69
375.191	107.69
375.416	95.69
375.642	90.69
375.868	99.69
376.094	79.69
376.319	91.69
376.545	98.69
376.771	93.69
376.997	84.69
377.222	73.69
377.448	102.69
377.674	77.69
377.899	91.69
378.125	101.69
378.35	88.69
378.576	83.69
378.802	91.69
379.027	97.69
379.253	79.69
379.478	100.69
379.704	87.69
379.929	98.69
380.155	105.69
380.38	84.69
380.606	94.69
380.831	92.69
381.057	109.69
381.282	106.69
381.507	93.69
381.733	101.69
381.958	102.69
382.184	86.69
382.409	94.69
382.634	88.69
382.86	101.69
383.085	99.69
383.31	93.69
383.535	98.69
383.761	102.69
383.986	89.69
384.211	92.69
384.436	89.69
384.662	114.69
384.887	113.69
385.112	94.69
385.337	97.69
385.562	91.69
385.787	81.69
386.013	99.69
386.238	117.69
386.463	98.69
386.688	108.69
386.913	107.69
387.138	101.69
387.363	103.69
387.588	91.69
387.813	87.69
388.038	84.69
388.263	107.69
388.488	114.69
388.713	103.69
388.938	110.69
389.163	99.69
389.387	83.69
389.612	81.69
389.837	78.69
390.062	94.69
390.287	97.69
390.512	93.69
390.736	87.69
390.961	95.69
391.186	83.69
391.411	86.69
391.636	93.69
391.86	96.69
392.085	94.69
392.31	89.69
392.534	85.69
392.759	93.69
392.984	70.69
393.208	93.69
393.433	88.69
393.658	92.69
393.882	84.69
394.107	83.69
394.331	81.69
394.556	89.69
394.78	107.69
395.005	90.69
395.229	91.69
395.454	89.69
395.678	75.69
395.903	86.69
396.127	86.69
396.352	89.69
396.576	93.69
396.801	102.69
397.025	79.69
397.249	89.69
397.474	99.69
397.698	93.69
397.922	82.69
398.147	90.69
398.371	96.69
398.595	108.69
398.82	78.69
399.044	76.69
399.268	90.69
399.492	76.69
399.717	89.69
399.941	84.69
400.165	96.69
400.389	89.69
400.613	85.69
400.837	91.69
401.062	87.69
401.286	84.69
401.51	96.69
401.734	99.69
401.958	100.69
402.182	129.69
402.406	165.69
402.63	126.69
402.854	98.69
403.078	97.69
403.302	87.69
403.526	87.69
403.75	78.69
403.974	103.69
404.198	94.69
404.422	89.69
404.645	102.69
404.869	94.69
405.093	110.69
405.317	114.69
405.541	109.69
405.765	98.69
405.988	123.69
406.212	161.69
406.436	220.69
406.66	140.69
406.883	103.69
407.107	101.69
407.331	97.69
407.555	102.69
407.778	98.69
408.002	80.69
408.226	84.69
408.449	75.69
408.673	97.69
408.896	84.69
409.12	90.69
409.344	81.69
409.567	92.69
409.791	92.69
410.014	84.69
410.238	81.69
410.461	94.69
410.685	84.69
410.908	99.69
411.132	96.69
411.355	90.69
411.578	89.69
411.802	86.69
412.025	86.69
412.249	92.69
412.472	100.69
412.695	99.69
412.919	99.69
413.142	83.69
413.365	84.69
413.589	81.69
413.812	76.69
414.035	105.69
414.258	100.69
414.482	91.69
414.705	87.69
414.928	95.69
415.151	89.69
415.374	103.69
415.597	84.69
415.821	84.69
416.044	98.69
416.267	86.69
416.49	78.69
416.713	81.69
416.936	84.69
417.159	79.69
417.382	83.69
417.605	101.69
417.828	93.69
418.051	103.69
418.274	94.69
418.497	87.69
418.72	88.69
418.943	87.69
419.166	90.69
419.389	93.69
419.611	99.69
419.834	81.69
420.057	96.69
420.28	93.69
420.503	91.69
420.726	93.69
420.948	96.69
421.171	94.69
421.394	96.69
421.617	90.69
421.839	89.69
422.062	85.69
422.285	89.69
422.507	99.69
422.73	100.69
422.953	92.69
423.175	88.69
423.398	94.69
423.621	89.69
423.843	83.69
424.066	73.69
424.288	78.69
424.511	89.69
424.733	93.69
424.956	95.69
425.178	101.69
425.401	110.69
425.623	99.69
425.846	95.69
426.068	113.69
426.291	83.69
426.513	96.69
426.735	94.69
426.958	101.69
427.18	109.69
427.402	145.69
427.625	188.69
427.847	164.69
428.069	162.69
428.292	111.69
428.514	100.69
428.736	82.69
428.958	89.69
429.181	74.69
429.403	77.69
429.625	87.69
429.847	91.69
430.069	84.69
430.292	92.69
430.514	75.69
430.736	102.69
430.958	90.69
431.18	95.69
431.402	83.69
431.624	85.69
431.846	100.69
432.068	85.69
432.29	85.69
432.512	91.69
432.734	78.69
432.956	81.69
433.178	102.69
433.4	105.69
433.622	98.69
433.844	100.69
434.066	92.69
434.287	91.69
434.509	77.69
434.731	94.69
434.953	83.69
435.175	88.69
435.397	97.69
435.618	82.69
435.84	108.69
436.062	134.69
436.284	120.69
436.505	104.69
436.727	99.69
436.949	85.69
437.17	85.69
437.392	80.69
437.614	106.69
437.835	100.69
438.057	121.69
438.278	110.69
438.5	96.69
438.721	121.69
438.943	111.69
439.165	89.69
439.386	92.69
439.608	88.69
439.829	97.69
440.05	137.69
440.272	154.69
440.493	105.69
440.715	77.69
440.936	80.69
441.158	91.69
441.379	86.69
441.6	88.69
441.822	82.69
442.043	85.69
442.264	114.69
442.486	108.69
442.707	96.69
442.928	97.69
443.149	138.69
443.371	134.69
443.592	116.69
443.813	112.69
444.034	117.69
444.255	87.69
444.476	90.69
444.698	102.69
444.919	91.69
445.14	114.69
445.361	118.69
445.582	104.69
445.803	136.69
446.024	151.69
446.245	151.69
446.466	115.69
446.687	91.69
446.908	88.69
447.129	81.69
447.35	77.69
447.571	75.69
447.792	93.69
448.013	88.69
448.234	95.69
448.455	98.69
448.675	117.69
448.896	122.69
449.117	107.69
449.338	100.69
449.559	123.69
449.779	143.69
450	104.69
450.221	89.69
450.442	79.69
450.662	89.69
450.883	106.69
451.104	103.69
451.324	85.69
451.545	87.69
451.766	85.69
451.986	72.69
452.207	84.69
452.428	89.69
452.648	86.69
452.869	87.69
453.089	104.69
453.31	105.69
453.53	92.69
453.751	87.69
453.971	98.69
454.192	114.69
454.412	95.69
454.633	87.69
454.853	88.69
455.073	80.69
455.294	100.69
455.514	104.69
455.734	89.69
455.955	87.69
456.175	89.69
456.395	93.69
456.616	95.69
456.836	94.69
457.056	93.69
457.276	93.69
457.497	91.69
457.717	92.69
457.937	82.69
458.157	77.69
458.377	98.69
458.598	109.69
458.818	147.69
459.038	154.69
459.258	99.69
459.478	97.69
459.698	64.69
459.918	89.69
460.138	83.69
460.358	80.69
460.578	96.69
460.798	98.69
461.018	94.69
461.238	96.69
461.458	78.69
461.678	87.69
461.898	81.69
462.118	81.69
462.338	94.69
462.558	76.69
462.777	78.69
462.997	90.69
463.217	99.69
463.437	84.69
463.657	77.69
463.876	83.69
464.096	98.69
464.316	103.69
464.536	103.69
464.755	105.69
464.975	110.69
465.195	162.69
465.414	164.69
465.634	93.69
465.854	91.69
466.073	78.69
466.293	91.69
466.512	85.69
466.732	95.69
466.951	76.69
467.171	99.69
467.391	89.69
467.61	108.69
467.829	134.69
468.049	274.69
468.268	382.69
468.488	130.69
468.707	84.69
468.927	78.69
469.146	87.69
469.365	79.69
469.585	87.69
469.804	99.69
470.023	100.69
470.243	94.69
470.462	109.69
470.681	110.69
470.901	94.69
471.12	102.69
471.339	92.69
471.558	99.69
471.777	125.69
471.997	190.69
472.216	511.69
472.435	1074.69
472.654	299.69
472.873	108.69
473.092	95.69
473.311	96.69
473.53	105.69
473.749	94.69
473.968	97.69
474.187	100.69
474.406	81.69
474.625	84.69
474.844	94.69
475.063	90.69
475.282	96.69
475.501	79.69
475.72	101.69
475.939	95.69
476.158	99.69
476.377	93.69
476.596	77.69
476.814	81.69
477.033	87.69
477.252	91.69
477.471	97.69
477.69	89.69
477.908	95.69
478.127	79.69
478.346	103.69
478.564	103.69
478.783	99.69
479.002	91.69
479.22	98.69
479.439	106.69
479.658	113.69
479.876	110.69
480.095	100.69
480.313	110.69
480.532	117.69
480.751	183.69
480.969	493.69
481.188	1893.69
481.406	1098.69
481.624	205.69
481.843	111.69
482.061	87.69
482.28	90.69
482.498	77.69
482.717	89.69
482.935	90.69
483.153	91.69
483.372	82.69
483.59	93.69
483.808	85.69
484.027	76.69
484.245	84.69
484.463	85.69
484.681	91.69
484.9	89.69
485.118	89.69
485.336	104.69
485.554	96.69
485.772	94.69
485.99	106.69
486.209	94.69
486.427	95.69
486.645	108.69
486.863	111.69
487.081	103.69
487.299	94.69
487.517	88.69
487.735	89.69
487.953	90.69
488.171	102.69
488.389	90.69
488.607	102.69
488.825	94.69
489.043	86.69
489.261	89.69
489.479	87.69
489.696	98.69
489.914	95.69
490.132	86.69
490.35	85.69
490.568	83.69
490.786	79.69
491.003	91.69
491.221	90.69
491.439	100.69
491.657	91.69
491.874	96.69
492.092	86.69
492.31	106.69
492.527	95.69
492.745	92.69
492.963	96.69
493.18	86.69
493.398	99.69
493.615	82.69
493.833	96.69
494.05	78.69
494.268	95.69
494.485	92.69
494.703	90.69
494.92	102.69
495.138	89.69
495.355	95.69
495.573	89.69
495.79	92.69
496.008	84.69
496.225	82.69
496.442	95.69
496.66	99.69
496.877	97.69
497.094	82.69
497.312	98.69
497.529	85.69
497.746	84.69
497.963	85.69
498.181	93.69
498.398	96.69
498.615	99.69
498.832	88.69
499.049	89.69
499.267	89.69
499.484	98.69
499.701	98.69
499.918	79.69
500.135	93.69
500.352	92.69
500.569	86.69
500.786	98.69
501.003	92.69
501.22	91.69
501.437	86.69
501.654	101.69
501.871	111.69
502.088	95.69
502.305	103.69
502.522	106.69
502.739	99.69
502.956	77.69
503.172	96.69
503.389	98.69
503.606	94.69
503.823	94.69
504.04	79.69
504.256	85.69
504.473	84.69
504.69	85.69
504.907	85.69
505.123	90.69
505.34	95.69
505.557	86.69
505.773	87.69
505.99	93.69
506.207	93.69
506.423	91.69
506.64	99.69
506.856	87.69
507.073	81.69
507.289	104.69
507.506	89.69
507.722	115.69
507.939	116.69
508.155	93.69
508.372	90.69
508.588	100.69
508.805	81.69
509.021	104.69
509.238	81.69
509.454	96.69
509.67	111.69
509.887	103.69
510.103	130.69
510.319	202.69
510.536	661.69
510.752	2189.69
510.968	598.69
511.184	159.69
511.401	113.69
511.617	101.69
511.833	99.69
512.049	99.69
512.265	91.69
512.481	86.69
512.698	102.69
512.914	94.69
513.13	86.69
513.346	91.69
513.562	100.69
513.778	111.69
513.994	99.69
514.21	110.69
514.426	120.69
514.642	135.69
514.858	129.69
515.074	162.69
515.29	444.69
