Data from Circ_1991_H10_HRD10591_00062.txt Node
Date: Wed Jan 03 11:51:53 EST 2024
User: Yrep
Spectrometer: HR+D1059
Trigger mode: 1
Integration Time (sec): 1.000000E-1
Scans to average: 1
Electric dark correction enabled: true
Nonlinearity correction enabled: false
Boxcar width: 0
XAxis mode: Wavelengths
Number of Pixels in Spectrum: 2048
>>>>>Begin Spectral Data<<<<<
223.165	-11.25
223.4	-11.25
223.635	-11.25
223.869	-13.25
224.104	-15.25
224.338	-22.25
224.573	-17.25
224.808	-25.25
225.042	-19.25
225.277	-4.25
225.511	-14.25
225.746	5.75
225.98	7.75
226.215	23.75
226.449	16.75
226.683	30.75
226.918	20.75
227.152	36.75
227.387	40.75
227.621	38.75
227.856	52.75
228.09	31.75
228.324	59.75
228.559	62.75
228.793	62.75
229.027	58.75
229.262	59.75
229.496	67.75
229.73	71.75
229.964	83.75
230.199	69.75
230.433	92.75
230.667	78.75
230.901	84.75
231.136	78.75
231.37	84.75
231.604	58.75
231.838	66.75
232.072	70.75
232.306	85.75
232.541	87.75
232.775	86.75
233.009	91.75
233.243	86.75
233.477	80.75
233.711	71.75
233.945	77.75
234.179	79.75
234.413	96.75
234.647	87.75
234.881	94.75
235.115	76.75
235.349	83.75
235.583	79.75
235.817	85.75
236.051	78.75
236.285	89.75
236.519	82.75
236.753	97.75
236.987	84.75
237.221	75.75
237.455	76.75
237.689	91.75
237.922	98.75
238.156	96.75
238.39	62.75
238.624	74.75
238.858	65.75
239.091	72.75
239.325	78.75
239.559	80.75
239.793	65.75
240.027	77.75
240.26	92.75
240.494	79.75
240.728	80.75
240.961	89.75
241.195	79.75
241.429	80.75
241.662	66.75
241.896	86.75
242.13	71.75
242.363	81.75
242.597	81.75
242.83	79.75
243.064	83.75
243.298	84.75
243.531	58.75
243.765	85.75
243.998	72.75
244.232	78.75
244.465	80.75
244.699	86.75
244.932	58.75
245.166	78.75
245.399	86.75
245.633	76.75
245.866	82.75
246.099	86.75
246.333	90.75
246.566	72.75
246.8	82.75
247.033	88.75
247.266	69.75
247.5	71.75
247.733	83.75
247.966	77.75
248.2	93.75
248.433	76.75
248.666	88.75
248.899	92.75
249.133	93.75
249.366	100.75
249.599	92.75
249.832	80.75
250.066	83.75
250.299	83.75
250.532	72.75
250.765	70.75
250.998	66.75
251.231	69.75
251.465	92.75
251.698	74.75
251.931	81.75
252.164	69.75
252.397	87.75
252.63	77.75
252.863	76.75
253.096	74.75
253.329	81.75
253.562	87.75
253.795	83.75
254.028	86.75
254.261	70.75
254.494	75.75
254.727	87.75
254.96	86.75
255.193	87.75
255.426	94.75
255.659	87.75
255.892	94.75
256.124	94.75
256.357	100.75
256.59	84.75
256.823	78.75
257.056	85.75
257.289	87.75
257.521	68.75
257.754	77.75
257.987	74.75
258.22	98.75
258.452	90.75
258.685	94.75
258.918	84.75
259.151	88.75
259.383	82.75
259.616	90.75
259.849	71.75
260.081	74.75
260.314	79.75
260.547	84.75
260.779	80.75
261.012	102.75
261.244	90.75
261.477	91.75
261.71	101.75
261.942	122.75
262.175	117.75
262.407	78.75
262.64	86.75
262.872	87.75
263.105	79.75
263.337	82.75
263.57	84.75
263.802	87.75
264.035	80.75
264.267	80.75
264.499	90.75
264.732	67.75
264.964	97.75
265.197	87.75
265.429	84.75
265.661	89.75
265.894	77.75
266.126	102.75
266.358	99.75
266.591	92.75
266.823	93.75
267.055	72.75
267.287	89.75
267.52	80.75
267.752	87.75
267.984	80.75
268.216	80.75
268.448	84.75
268.681	87.75
268.913	99.75
269.145	83.75
269.377	95.75
269.609	85.75
269.841	99.75
270.073	91.75
270.306	69.75
270.538	82.75
270.77	92.75
271.002	98.75
271.234	85.75
271.466	98.75
271.698	71.75
271.93	98.75
272.162	94.75
272.394	87.75
272.626	90.75
272.858	102.75
273.09	82.75
273.322	92.75
273.553	102.75
273.785	94.75
274.017	87.75
274.249	87.75
274.481	81.75
274.713	88.75
274.945	84.75
275.176	97.75
275.408	88.75
275.64	96.75
275.872	90.75
276.104	91.75
276.335	87.75
276.567	97.75
276.799	101.75
277.031	113.75
277.262	113.75
277.494	100.75
277.726	91.75
277.957	92.75
278.189	97.75
278.421	86.75
278.652	101.75
278.884	82.75
279.115	83.75
279.347	83.75
279.579	93.75
279.81	84.75
280.042	126.75
280.273	139.75
280.505	98.75
280.736	92.75
280.968	88.75
281.199	96.75
281.431	88.75
281.662	83.75
281.894	88.75
282.125	90.75
282.356	108.75
282.588	142.75
282.819	108.75
283.051	90.75
283.282	91.75
283.513	94.75
283.745	81.75
283.976	83.75
284.207	86.75
284.439	91.75
284.67	90.75
284.901	101.75
285.132	98.75
285.364	79.75
285.595	80.75
285.826	85.75
286.057	94.75
286.288	90.75
286.52	90.75
286.751	79.75
286.982	88.75
287.213	77.75
287.444	88.75
287.675	93.75
287.906	95.75
288.138	80.75
288.369	95.75
288.6	89.75
288.831	94.75
289.062	82.75
289.293	92.75
289.524	91.75
289.755	87.75
289.986	90.75
290.217	91.75
290.448	88.75
290.679	99.75
290.91	70.75
291.141	87.75
291.371	95.75
291.602	97.75
291.833	88.75
292.064	99.75
292.295	83.75
292.526	91.75
292.757	78.75
292.987	94.75
293.218	84.75
293.449	79.75
293.68	80.75
293.91	90.75
294.141	109.75
294.372	86.75
294.603	94.75
294.833	96.75
295.064	75.75
295.295	85.75
295.525	90.75
295.756	115.75
295.987	118.75
296.217	148.75
296.448	122.75
296.679	84.75
296.909	100.75
297.14	83.75
297.37	91.75
297.601	85.75
297.831	85.75
298.062	89.75
298.292	92.75
298.523	90.75
298.753	91.75
298.984	94.75
299.214	86.75
299.445	87.75
299.675	97.75
299.905	106.75
300.136	90.75
300.366	92.75
300.597	86.75
300.827	85.75
301.057	103.75
301.288	102.75
301.518	90.75
301.748	87.75
301.979	88.75
302.209	91.75
302.439	90.75
302.669	96.75
302.9	92.75
303.13	100.75
303.36	91.75
303.59	107.75
303.82	134.75
304.051	103.75
304.281	88.75
304.511	98.75
304.741	64.75
304.971	90.75
305.201	94.75
305.431	91.75
305.661	83.75
305.891	89.75
306.121	82.75
306.352	93.75
306.582	94.75
306.812	102.75
307.042	99.75
307.272	114.75
307.502	117.75
307.731	110.75
307.961	108.75
308.191	95.75
308.421	81.75
308.651	83.75
308.881	98.75
309.111	89.75
309.341	100.75
309.571	106.75
309.8	91.75
310.03	110.75
310.26	97.75
310.49	96.75
310.72	88.75
310.949	103.75
311.179	92.75
311.409	93.75
311.639	93.75
311.868	96.75
312.098	91.75
312.328	107.75
312.557	109.75
312.787	106.75
313.017	106.75
313.246	94.75
313.476	108.75
313.706	96.75
313.935	85.75
314.165	89.75
314.394	107.75
314.624	86.75
314.853	108.75
315.083	100.75
315.312	77.75
315.542	92.75
315.771	96.75
316.001	91.75
316.23	85.75
316.46	96.75
316.689	81.75
316.919	85.75
317.148	99.75
317.377	92.75
317.607	87.75
317.836	90.75
318.065	100.75
318.295	104.75
318.524	96.75
318.753	78.75
318.983	88.75
319.212	95.75
319.441	106.75
319.67	104.75
319.9	100.75
320.129	69.75
320.358	99.75
320.587	96.75
320.816	97.75
321.046	112.75
321.275	110.75
321.504	97.75
321.733	95.75
321.962	93.75
322.191	105.75
322.42	111.75
322.649	105.75
322.878	107.75
323.108	111.75
323.337	131.75
323.566	131.75
323.795	161.75
324.024	206.75
324.253	410.75
324.482	885.75
324.71	1891.75
324.939	2559.75
325.168	938.75
325.397	261.75
325.626	163.75
325.855	122.75
326.084	122.75
326.313	144.75
326.542	160.75
326.77	231.75
326.999	482.75
327.228	1014.75
327.457	1918.75
327.686	1577.75
327.914	444.75
328.143	285.75
328.372	307.75
328.6	197.75
328.829	154.75
329.058	119.75
329.287	135.75
329.515	146.75
329.744	158.75
329.972	227.75
330.201	410.75
330.43	579.75
330.658	283.75
330.887	168.75
331.115	134.75
331.344	104.75
331.572	90.75
331.801	93.75
332.03	111.75
332.258	112.75
332.486	90.75
332.715	95.75
332.943	105.75
333.172	95.75
333.4	110.75
333.629	118.75
333.857	156.75
334.085	234.75
334.314	400.75
334.542	716.75
334.771	653.75
334.999	216.75
335.227	119.75
335.455	104.75
335.684	105.75
335.912	92.75
336.14	99.75
336.369	99.75
336.597	109.75
336.825	116.75
337.053	94.75
337.281	88.75
337.51	98.75
337.738	106.75
337.966	103.75
338.194	96.75
338.422	98.75
338.65	106.75
338.878	106.75
339.106	75.75
339.334	77.75
339.562	81.75
339.79	103.75
340.018	107.75
340.246	90.75
340.474	97.75
340.702	94.75
340.93	68.75
341.158	95.75
341.386	87.75
341.614	95.75
341.842	90.75
342.07	94.75
342.298	106.75
342.526	94.75
342.754	96.75
342.981	81.75
343.209	94.75
343.437	114.75
343.665	99.75
343.893	92.75
344.12	97.75
344.348	102.75
344.576	90.75
344.804	84.75
345.031	86.75
345.259	70.75
345.487	102.75
345.714	93.75
345.942	90.75
346.17	86.75
346.397	90.75
346.625	95.75
346.853	93.75
347.08	92.75
347.308	92.75
347.535	103.75
347.763	100.75
347.99	87.75
348.218	96.75
348.445	110.75
348.673	108.75
348.9	82.75
349.128	100.75
349.355	87.75
349.583	84.75
349.81	90.75
350.037	93.75
350.265	95.75
350.492	87.75
350.72	78.75
350.947	105.75
351.174	109.75
351.402	124.75
351.629	103.75
351.856	90.75
352.083	102.75
352.311	99.75
352.538	103.75
352.765	111.75
352.992	111.75
353.22	106.75
353.447	102.75
353.674	103.75
353.901	90.75
354.128	101.75
354.355	101.75
354.583	108.75
354.81	92.75
355.037	101.75
355.264	96.75
355.491	96.75
355.718	105.75
355.945	91.75
356.172	104.75
356.399	92.75
356.626	90.75
356.853	103.75
357.08	99.75
357.307	90.75
357.534	76.75
357.761	96.75
357.988	108.75
358.215	103.75
358.441	83.75
358.668	95.75
358.895	75.75
359.122	82.75
359.349	94.75
359.576	87.75
359.802	104.75
360.029	109.75
360.256	98.75
360.483	78.75
360.709	85.75
360.936	98.75
361.163	101.75
361.39	84.75
361.616	94.75
361.843	97.75
362.07	96.75
362.296	97.75
362.523	89.75
362.749	99.75
362.976	92.75
363.203	82.75
363.429	85.75
363.656	72.75
363.882	94.75
364.109	92.75
364.335	93.75
364.562	98.75
364.788	109.75
365.015	95.75
365.241	100.75
365.468	104.75
365.694	98.75
365.92	87.75
366.147	84.75
366.373	91.75
366.599	84.75
366.826	84.75
367.052	96.75
367.278	93.75
367.505	87.75
367.731	104.75
367.957	100.75
368.184	90.75
368.41	101.75
368.636	109.75
368.862	122.75
369.089	100.75
369.315	98.75
369.541	87.75
369.767	101.75
369.993	84.75
370.219	81.75
370.445	96.75
370.672	86.75
370.898	82.75
371.124	92.75
371.35	80.75
371.576	86.75
371.802	75.75
372.028	93.75
372.254	94.75
372.48	96.75
372.706	95.75
372.932	87.75
373.158	106.75
373.384	90.75
373.61	91.75
373.835	85.75
374.061	92.75
374.287	80.75
374.513	98.75
374.739	94.75
374.965	82.75
375.191	84.75
375.416	83.75
375.642	88.75
375.868	96.75
376.094	76.75
376.319	99.75
376.545	90.75
376.771	101.75
376.997	88.75
377.222	109.75
377.448	90.75
377.674	72.75
377.899	85.75
378.125	92.75
378.35	75.75
378.576	87.75
378.802	80.75
379.027	79.75
379.253	93.75
379.478	78.75
379.704	76.75
379.929	106.75
380.155	103.75
380.38	103.75
380.606	103.75
380.831	92.75
381.057	82.75
381.282	87.75
381.507	94.75
381.733	91.75
381.958	97.75
382.184	98.75
382.409	87.75
382.634	108.75
382.86	90.75
383.085	96.75
383.31	97.75
383.535	84.75
383.761	84.75
383.986	95.75
384.211	98.75
384.436	94.75
384.662	106.75
384.887	98.75
385.112	87.75
385.337	105.75
385.562	96.75
385.787	108.75
386.013	110.75
386.238	111.75
386.463	100.75
386.688	114.75
386.913	108.75
387.138	108.75
387.363	102.75
387.588	97.75
387.813	103.75
388.038	104.75
388.263	112.75
388.488	112.75
388.713	104.75
388.938	77.75
389.163	92.75
389.387	78.75
389.612	85.75
389.837	102.75
390.062	85.75
390.287	93.75
390.512	101.75
390.736	73.75
390.961	88.75
391.186	90.75
391.411	98.75
391.636	94.75
391.86	100.75
392.085	92.75
392.31	77.75
392.534	96.75
392.759	91.75
392.984	102.75
393.208	98.75
393.433	125.75
393.658	111.75
393.882	90.75
394.107	83.75
394.331	87.75
394.556	99.75
394.78	83.75
395.005	96.75
395.229	91.75
395.454	88.75
395.678	88.75
395.903	93.75
396.127	82.75
396.352	84.75
396.576	83.75
396.801	93.75
397.025	107.75
397.249	97.75
397.474	103.75
397.698	85.75
397.922	86.75
398.147	89.75
398.371	90.75
398.595	74.75
398.82	80.75
399.044	85.75
399.268	96.75
399.492	90.75
399.717	89.75
399.941	87.75
400.165	70.75
400.389	95.75
400.613	86.75
400.837	81.75
401.062	97.75
401.286	88.75
401.51	84.75
401.734	93.75
401.958	107.75
402.182	121.75
402.406	146.75
402.63	120.75
402.854	99.75
403.078	104.75
403.302	78.75
403.526	99.75
403.75	97.75
403.974	90.75
404.198	80.75
404.422	93.75
404.645	90.75
404.869	85.75
405.093	109.75
405.317	114.75
405.541	112.75
405.765	97.75
405.988	112.75
406.212	161.75
406.436	196.75
406.66	146.75
406.883	96.75
407.107	86.75
407.331	102.75
407.555	92.75
407.778	95.75
408.002	86.75
408.226	76.75
408.449	90.75
408.673	88.75
408.896	88.75
409.12	100.75
409.344	97.75
409.567	79.75
409.791	97.75
410.014	110.75
410.238	98.75
410.461	88.75
410.685	93.75
410.908	97.75
411.132	102.75
411.355	99.75
411.578	92.75
411.802	83.75
412.025	87.75
412.249	88.75
412.472	87.75
412.695	104.75
412.919	92.75
413.142	83.75
413.365	97.75
413.589	81.75
413.812	88.75
414.035	80.75
414.258	87.75
414.482	78.75
414.705	78.75
414.928	93.75
415.151	87.75
415.374	81.75
415.597	89.75
415.821	93.75
416.044	85.75
416.267	88.75
416.49	90.75
416.713	91.75
416.936	69.75
417.159	85.75
417.382	85.75
417.605	91.75
417.828	111.75
418.051	93.75
418.274	110.75
418.497	87.75
418.72	96.75
418.943	94.75
419.166	86.75
419.389	78.75
419.611	87.75
419.834	99.75
420.057	84.75
420.28	98.75
420.503	86.75
420.726	91.75
420.948	78.75
421.171	96.75
421.394	81.75
421.617	91.75
421.839	85.75
422.062	94.75
422.285	95.75
422.507	99.75
422.73	112.75
422.953	97.75
423.175	94.75
423.398	95.75
423.621	85.75
423.843	79.75
424.066	94.75
424.288	78.75
424.511	90.75
424.733	90.75
424.956	103.75
425.178	97.75
425.401	99.75
425.623	99.75
425.846	97.75
426.068	94.75
426.291	88.75
426.513	90.75
426.735	78.75
426.958	91.75
427.18	130.75
427.402	124.75
427.625	184.75
427.847	173.75
428.069	189.75
428.292	109.75
428.514	93.75
428.736	77.75
428.958	96.75
429.181	97.75
429.403	100.75
429.625	101.75
429.847	87.75
430.069	99.75
430.292	86.75
430.514	88.75
430.736	94.75
430.958	92.75
431.18	84.75
431.402	80.75
431.624	89.75
431.846	66.75
432.068	85.75
432.29	94.75
432.512	82.75
432.734	84.75
432.956	104.75
433.178	90.75
433.4	94.75
433.622	84.75
433.844	90.75
434.066	96.75
434.287	95.75
434.509	95.75
434.731	95.75
434.953	84.75
435.175	90.75
435.397	93.75
435.618	103.75
435.84	98.75
436.062	126.75
436.284	120.75
436.505	114.75
436.727	110.75
436.949	95.75
437.17	95.75
437.392	83.75
437.614	100.75
437.835	94.75
438.057	99.75
438.278	115.75
438.5	108.75
438.721	115.75
438.943	102.75
439.165	96.75
439.386	91.75
439.608	92.75
439.829	105.75
440.05	143.75
440.272	143.75
440.493	94.75
440.715	88.75
440.936	66.75
441.158	82.75
441.379	96.75
441.6	90.75
441.822	94.75
442.043	99.75
442.264	97.75
442.486	102.75
442.707	96.75
442.928	116.75
443.149	131.75
443.371	120.75
443.592	106.75
443.813	123.75
444.034	105.75
444.255	92.75
444.476	87.75
444.698	90.75
444.919	87.75
445.14	124.75
445.361	124.75
445.582	117.75
445.803	156.75
446.024	144.75
446.245	135.75
446.466	121.75
446.687	94.75
446.908	88.75
447.129	82.75
447.35	80.75
447.571	86.75
447.792	92.75
448.013	114.75
448.234	103.75
448.455	104.75
448.675	115.75
448.896	110.75
449.117	103.75
449.338	96.75
449.559	122.75
449.779	119.75
450	103.75
450.221	78.75
450.442	86.75
450.662	91.75
450.883	105.75
451.104	104.75
451.324	106.75
451.545	90.75
451.766	87.75
451.986	82.75
452.207	99.75
452.428	90.75
452.648	88.75
452.869	112.75
453.089	93.75
453.31	110.75
453.53	88.75
453.751	87.75
453.971	99.75
454.192	110.75
454.412	98.75
454.633	100.75
454.853	74.75
455.073	78.75
455.294	78.75
455.514	111.75
455.734	98.75
455.955	87.75
456.175	87.75
456.395	70.75
456.616	86.75
456.836	88.75
457.056	85.75
457.276	82.75
457.497	85.75
457.717	88.75
457.937	99.75
458.157	89.75
458.377	84.75
458.598	101.75
458.818	146.75
459.038	154.75
459.258	124.75
459.478	104.75
459.698	95.75
459.918	90.75
460.138	88.75
460.358	94.75
460.578	101.75
460.798	103.75
461.018	96.75
461.238	92.75
461.458	77.75
461.678	85.75
461.898	89.75
462.118	91.75
462.338	95.75
462.558	83.75
462.777	82.75
462.997	96.75
463.217	104.75
463.437	89.75
463.657	97.75
463.876	92.75
464.096	96.75
464.316	79.75
464.536	108.75
464.755	96.75
464.975	112.75
465.195	164.75
465.414	172.75
465.634	102.75
465.854	95.75
466.073	102.75
466.293	84.75
466.512	91.75
466.732	78.75
466.951	87.75
467.171	88.75
467.391	98.75
467.61	105.75
467.829	151.75
468.049	284.75
468.268	369.75
468.488	135.75
468.707	95.75
468.927	77.75
469.146	78.75
469.365	90.75
469.585	90.75
469.804	104.75
470.023	80.75
470.243	106.75
470.462	100.75
470.681	113.75
470.901	93.75
471.12	92.75
471.339	104.75
471.558	95.75
471.777	109.75
471.997	170.75
472.216	494.75
472.435	1055.75
472.654	271.75
472.873	114.75
473.092	92.75
473.311	87.75
473.53	97.75
473.749	90.75
473.968	92.75
474.187	108.75
474.406	89.75
474.625	83.75
474.844	82.75
475.063	78.75
475.282	95.75
475.501	89.75
475.72	94.75
475.939	95.75
476.158	85.75
476.377	83.75
476.596	97.75
476.814	97.75
477.033	95.75
477.252	85.75
477.471	96.75
477.69	80.75
477.908	92.75
478.127	99.75
478.346	95.75
478.564	106.75
478.783	107.75
479.002	101.75
479.22	97.75
479.439	96.75
479.658	107.75
479.876	119.75
480.095	98.75
480.313	97.75
480.532	110.75
480.751	174.75
480.969	486.75
481.188	1814.75
481.406	1062.75
481.624	204.75
481.843	109.75
482.061	85.75
482.28	80.75
482.498	86.75
482.717	82.75
482.935	84.75
483.153	91.75
483.372	89.75
483.59	82.75
483.808	91.75
484.027	96.75
484.245	76.75
484.463	87.75
484.681	89.75
484.9	90.75
485.118	101.75
485.336	99.75
485.554	88.75
485.772	102.75
485.99	110.75
486.209	86.75
486.427	107.75
486.645	103.75
486.863	112.75
487.081	98.75
487.299	98.75
487.517	107.75
487.735	94.75
487.953	92.75
488.171	103.75
488.389	105.75
488.607	98.75
488.825	90.75
489.043	94.75
489.261	81.75
489.479	78.75
489.696	90.75
489.914	96.75
490.132	91.75
490.35	94.75
490.568	80.75
490.786	85.75
491.003	76.75
491.221	87.75
491.439	94.75
491.657	88.75
491.874	99.75
492.092	84.75
492.31	90.75
492.527	82.75
492.745	99.75
492.963	90.75
493.18	90.75
493.398	100.75
493.615	85.75
493.833	80.75
494.05	95.75
494.268	75.75
494.485	95.75
494.703	88.75
494.92	92.75
495.138	94.75
495.355	79.75
495.573	89.75
495.79	90.75
496.008	90.75
496.225	92.75
496.442	103.75
496.66	101.75
496.877	79.75
497.094	86.75
497.312	84.75
497.529	92.75
497.746	102.75
497.963	85.75
498.181	102.75
498.398	96.75
498.615	121.75
498.832	104.75
499.049	86.75
499.267	90.75
499.484	83.75
499.701	85.75
499.918	84.75
500.135	81.75
500.352	92.75
500.569	99.75
500.786	111.75
501.003	98.75
501.22	78.75
501.437	92.75
501.654	108.75
501.871	107.75
502.088	87.75
502.305	95.75
502.522	73.75
502.739	90.75
502.956	85.75
503.172	90.75
503.389	100.75
503.606	93.75
503.823	94.75
504.04	101.75
504.256	100.75
504.473	97.75
504.69	91.75
504.907	87.75
505.123	87.75
505.34	100.75
505.557	95.75
505.773	91.75
505.99	78.75
506.207	92.75
506.423	92.75
506.64	77.75
506.856	87.75
507.073	91.75
507.289	83.75
507.506	96.75
507.722	110.75
507.939	116.75
508.155	89.75
508.372	78.75
508.588	94.75
508.805	94.75
509.021	87.75
509.238	101.75
509.454	101.75
509.67	111.75
509.887	92.75
510.103	126.75
510.319	217.75
510.536	719.75
510.752	2366.75
510.968	644.75
511.184	155.75
511.401	103.75
511.617	106.75
511.833	83.75
512.049	92.75
512.265	79.75
512.481	89.75
512.698	96.75
512.914	94.75
513.13	99.75
513.346	86.75
513.562	86.75
513.778	85.75
513.994	86.75
514.21	102.75
514.426	107.75
514.642	131.75
514.858	117.75
515.074	148.75
