Data from Circ_1991_H10_HRD10591_00021.txt Node
Date: Wed Jan 03 11:51:45 EST 2024
User: Yrep
Spectrometer: HR+D1059
Trigger mode: 1
Integration Time (sec): 1.000000E-1
Scans to average: 1
Electric dark correction enabled: true
Nonlinearity correction enabled: false
Boxcar width: 0
XAxis mode: Wavelengths
Number of Pixels in Spectrum: 2048
>>>>>Begin Spectral Data<<<<<
223.165	-15.38
223.4	-15.38
223.635	-15.38
223.869	-12.38
224.104	-35.38
224.338	-14.38
224.573	-13.38
224.808	-15.38
225.042	-21.38
225.277	7.62
225.511	-19.38
225.746	10.62
225.98	-2.38
226.215	12.62
226.449	29.62
226.683	34.62
226.918	12.62
227.152	41.62
227.387	53.62
227.621	37.62
227.856	47.62
228.09	47.62
228.324	55.62
228.559	63.62
228.793	60.62
229.027	58.62
229.262	67.62
229.496	65.62
229.73	91.62
229.964	86.62
230.199	90.62
230.433	80.62
230.667	78.62
230.901	69.62
231.136	80.62
231.37	83.62
231.604	86.62
231.838	85.62
232.072	86.62
232.306	75.62
232.541	85.62
232.775	76.62
233.009	84.62
233.243	84.62
233.477	73.62
233.711	93.62
233.945	82.62
234.179	85.62
234.413	86.62
234.647	64.62
234.881	90.62
235.115	75.62
235.349	76.62
235.583	86.62
235.817	75.62
236.051	77.62
236.285	80.62
236.519	87.62
236.753	78.62
236.987	84.62
237.221	90.62
237.455	86.62
237.689	84.62
237.922	79.62
238.156	91.62
238.39	86.62
238.624	69.62
238.858	67.62
239.091	72.62
239.325	77.62
239.559	79.62
239.793	87.62
240.027	88.62
240.26	72.62
240.494	86.62
240.728	90.62
240.961	60.62
241.195	87.62
241.429	85.62
241.662	71.62
241.896	69.62
242.13	87.62
242.363	87.62
242.597	86.62
242.83	79.62
243.064	72.62
243.298	81.62
243.531	79.62
243.765	68.62
243.998	89.62
244.232	75.62
244.465	89.62
244.699	84.62
244.932	80.62
245.166	72.62
245.399	61.62
245.633	89.62
245.866	71.62
246.099	80.62
246.333	88.62
246.566	69.62
246.8	84.62
247.033	93.62
247.266	79.62
247.5	71.62
247.733	89.62
247.966	83.62
248.2	94.62
248.433	92.62
248.666	76.62
248.899	86.62
249.133	71.62
249.366	99.62
249.599	109.62
249.832	91.62
250.066	78.62
250.299	71.62
250.532	78.62
250.765	80.62
250.998	70.62
251.231	83.62
251.465	81.62
251.698	72.62
251.931	92.62
252.164	80.62
252.397	81.62
252.63	88.62
252.863	80.62
253.096	79.62
253.329	71.62
253.562	83.62
253.795	86.62
254.028	84.62
254.261	76.62
254.494	64.62
254.727	70.62
254.96	89.62
255.193	87.62
255.426	92.62
255.659	83.62
255.892	81.62
256.124	71.62
256.357	101.62
256.59	86.62
256.823	87.62
257.056	83.62
257.289	80.62
257.521	97.62
257.754	76.62
257.987	80.62
258.22	80.62
258.452	85.62
258.685	78.62
258.918	85.62
259.151	83.62
259.383	85.62
259.616	78.62
259.849	71.62
260.081	89.62
260.314	101.62
260.547	85.62
260.779	85.62
261.012	82.62
261.244	105.62
261.477	108.62
261.71	79.62
261.942	117.62
262.175	113.62
262.407	110.62
262.64	92.62
262.872	73.62
263.105	84.62
263.337	77.62
263.57	79.62
263.802	93.62
264.035	78.62
264.267	82.62
264.499	86.62
264.732	83.62
264.964	86.62
265.197	85.62
265.429	79.62
265.661	91.62
265.894	100.62
266.126	91.62
266.358	98.62
266.591	82.62
266.823	85.62
267.055	82.62
267.287	81.62
267.52	92.62
267.752	84.62
267.984	88.62
268.216	89.62
268.448	86.62
268.681	100.62
268.913	75.62
269.145	83.62
269.377	83.62
269.609	78.62
269.841	75.62
270.073	81.62
270.306	80.62
270.538	87.62
270.77	77.62
271.002	81.62
271.234	91.62
271.466	68.62
271.698	89.62
271.93	81.62
272.162	83.62
272.394	86.62
272.626	90.62
272.858	96.62
273.09	79.62
273.322	84.62
273.553	79.62
273.785	102.62
274.017	92.62
274.249	96.62
274.481	80.62
274.713	76.62
274.945	94.62
275.176	94.62
275.408	102.62
275.64	82.62
275.872	67.62
276.104	88.62
276.335	97.62
276.567	101.62
276.799	127.62
277.031	101.62
277.262	112.62
277.494	95.62
277.726	87.62
277.957	86.62
278.189	77.62
278.421	94.62
278.652	85.62
278.884	90.62
279.115	102.62
279.347	91.62
279.579	83.62
279.81	85.62
280.042	108.62
280.273	118.62
280.505	85.62
280.736	101.62
280.968	83.62
281.199	83.62
281.431	92.62
281.662	96.62
281.894	84.62
282.125	102.62
282.356	122.62
282.588	153.62
282.819	121.62
283.051	88.62
283.282	91.62
283.513	91.62
283.745	77.62
283.976	80.62
284.207	92.62
284.439	113.62
284.67	99.62
284.901	91.62
285.132	97.62
285.364	98.62
285.595	82.62
285.826	79.62
286.057	97.62
286.288	100.62
286.52	98.62
286.751	90.62
286.982	95.62
287.213	86.62
287.444	92.62
287.675	85.62
287.906	97.62
288.138	94.62
288.369	85.62
288.6	87.62
288.831	79.62
289.062	97.62
289.293	95.62
289.524	96.62
289.755	88.62
289.986	87.62
290.217	84.62
290.448	93.62
290.679	92.62
290.91	89.62
291.141	89.62
291.371	90.62
291.602	88.62
291.833	88.62
292.064	81.62
292.295	94.62
292.526	86.62
292.757	82.62
292.987	93.62
293.218	81.62
293.449	95.62
293.68	87.62
293.91	88.62
294.141	104.62
294.372	94.62
294.603	101.62
294.833	93.62
295.064	91.62
295.295	85.62
295.525	93.62
295.756	101.62
295.987	103.62
296.217	145.62
296.448	124.62
296.679	87.62
296.909	87.62
297.14	87.62
297.37	84.62
297.601	82.62
297.831	108.62
298.062	98.62
298.292	97.62
298.523	92.62
298.753	107.62
298.984	98.62
299.214	92.62
299.445	94.62
299.675	105.62
299.905	85.62
300.136	97.62
300.366	91.62
300.597	99.62
300.827	90.62
301.057	107.62
301.288	105.62
301.518	104.62
301.748	93.62
301.979	88.62
302.209	99.62
302.439	75.62
302.669	87.62
302.9	87.62
303.13	104.62
303.36	81.62
303.59	112.62
303.82	92.62
304.051	99.62
304.281	98.62
304.511	87.62
304.741	93.62
304.971	102.62
305.201	86.62
305.431	95.62
305.661	109.62
305.891	85.62
306.121	82.62
306.352	97.62
306.582	102.62
306.812	107.62
307.042	103.62
307.272	102.62
307.502	93.62
307.731	96.62
307.961	97.62
308.191	100.62
308.421	94.62
308.651	93.62
308.881	93.62
309.111	113.62
309.341	109.62
309.571	102.62
309.8	98.62
310.03	100.62
310.26	96.62
310.49	99.62
310.72	107.62
310.949	114.62
311.179	92.62
311.409	87.62
311.639	95.62
311.868	104.62
312.098	90.62
312.328	96.62
312.557	101.62
312.787	104.62
313.017	123.62
313.246	103.62
313.476	109.62
313.706	110.62
313.935	93.62
314.165	94.62
314.394	97.62
314.624	112.62
314.853	115.62
315.083	91.62
315.312	91.62
315.542	92.62
315.771	93.62
316.001	86.62
316.23	81.62
316.46	84.62
316.689	86.62
316.919	90.62
317.148	93.62
317.377	100.62
317.607	85.62
317.836	96.62
318.065	100.62
318.295	98.62
318.524	94.62
318.753	91.62
318.983	88.62
319.212	97.62
319.441	114.62
319.67	109.62
319.9	93.62
320.129	97.62
320.358	91.62
320.587	91.62
320.816	118.62
321.046	106.62
321.275	97.62
321.504	103.62
321.733	89.62
321.962	87.62
322.191	88.62
322.42	122.62
322.649	115.62
322.878	113.62
323.108	116.62
323.337	114.62
323.566	127.62
323.795	147.62
324.024	217.62
324.253	392.62
324.482	864.62
324.71	1737.62
324.939	2339.62
325.168	861.62
325.397	239.62
325.626	127.62
325.855	133.62
326.084	125.62
326.313	147.62
326.542	162.62
326.77	220.62
326.999	439.62
327.228	935.62
327.457	1777.62
327.686	1381.62
327.914	392.62
328.143	236.62
328.372	223.62
328.6	164.62
328.829	125.62
329.058	128.62
329.287	119.62
329.515	133.62
329.744	130.62
329.972	192.62
330.201	254.62
330.43	345.62
330.658	205.62
330.887	157.62
331.115	133.62
331.344	104.62
331.572	104.62
331.801	97.62
332.03	97.62
332.258	91.62
332.486	95.62
332.715	106.62
332.943	91.62
333.172	100.62
333.4	101.62
333.629	96.62
333.857	134.62
334.085	160.62
334.314	268.62
334.542	419.62
334.771	398.62
334.999	167.62
335.227	109.62
335.455	114.62
335.684	113.62
335.912	103.62
336.14	88.62
336.369	93.62
336.597	87.62
336.825	102.62
337.053	92.62
337.281	100.62
337.51	90.62
337.738	89.62
337.966	104.62
338.194	75.62
338.422	104.62
338.65	81.62
338.878	100.62
339.106	97.62
339.334	103.62
339.562	104.62
339.79	91.62
340.018	91.62
340.246	97.62
340.474	94.62
340.702	81.62
340.93	89.62
341.158	86.62
341.386	101.62
341.614	92.62
341.842	92.62
342.07	90.62
342.298	102.62
342.526	83.62
342.754	84.62
342.981	112.62
343.209	79.62
343.437	105.62
343.665	92.62
343.893	92.62
344.12	81.62
344.348	100.62
344.576	84.62
344.804	96.62
345.031	98.62
345.259	103.62
345.487	102.62
345.714	101.62
345.942	90.62
346.17	98.62
346.397	90.62
346.625	102.62
346.853	85.62
347.08	100.62
347.308	100.62
347.535	100.62
347.763	110.62
347.99	103.62
348.218	88.62
348.445	114.62
348.673	88.62
348.9	91.62
349.128	105.62
349.355	100.62
349.583	81.62
349.81	91.62
350.037	88.62
350.265	77.62
350.492	93.62
350.72	96.62
350.947	102.62
351.174	100.62
351.402	108.62
351.629	115.62
351.856	87.62
352.083	105.62
352.311	101.62
352.538	115.62
352.765	112.62
352.992	99.62
353.22	126.62
353.447	113.62
353.674	90.62
353.901	98.62
354.128	102.62
354.355	89.62
354.583	116.62
354.81	109.62
355.037	89.62
355.264	83.62
355.491	104.62
355.718	111.62
355.945	99.62
356.172	101.62
356.399	106.62
356.626	92.62
356.853	84.62
357.08	100.62
357.307	95.62
357.534	100.62
357.761	94.62
357.988	94.62
358.215	105.62
358.441	95.62
358.668	92.62
358.895	108.62
359.122	100.62
359.349	87.62
359.576	99.62
359.802	99.62
360.029	108.62
360.256	107.62
360.483	100.62
360.709	89.62
360.936	97.62
361.163	99.62
361.39	104.62
361.616	90.62
361.843	97.62
362.07	87.62
362.296	82.62
362.523	95.62
362.749	92.62
362.976	99.62
363.203	86.62
363.429	96.62
363.656	105.62
363.882	84.62
364.109	88.62
364.335	96.62
364.562	88.62
364.788	78.62
365.015	89.62
365.241	103.62
365.468	108.62
365.694	105.62
365.92	94.62
366.147	95.62
366.373	88.62
366.599	85.62
366.826	91.62
367.052	92.62
367.278	89.62
367.505	87.62
367.731	95.62
367.957	94.62
368.184	94.62
368.41	88.62
368.636	105.62
368.862	113.62
369.089	111.62
369.315	91.62
369.541	86.62
369.767	91.62
369.993	91.62
370.219	80.62
370.445	91.62
370.672	85.62
370.898	71.62
371.124	91.62
371.35	102.62
371.576	81.62
371.802	104.62
372.028	91.62
372.254	89.62
372.48	92.62
372.706	86.62
372.932	89.62
373.158	96.62
373.384	100.62
373.61	87.62
373.835	84.62
374.061	102.62
374.287	94.62
374.513	90.62
374.739	99.62
374.965	78.62
375.191	94.62
375.416	94.62
375.642	104.62
375.868	83.62
376.094	95.62
376.319	92.62
376.545	76.62
376.771	87.62
376.997	101.62
377.222	86.62
377.448	96.62
377.674	89.62
377.899	106.62
378.125	92.62
378.35	86.62
378.576	105.62
378.802	110.62
379.027	81.62
379.253	100.62
379.478	103.62
379.704	92.62
379.929	92.62
380.155	110.62
380.38	102.62
380.606	99.62
380.831	107.62
381.057	98.62
381.282	92.62
381.507	95.62
381.733	100.62
381.958	83.62
382.184	102.62
382.409	107.62
382.634	100.62
382.86	93.62
383.085	111.62
383.31	89.62
383.535	104.62
383.761	115.62
383.986	108.62
384.211	107.62
384.436	99.62
384.662	118.62
384.887	117.62
385.112	117.62
385.337	114.62
385.562	103.62
385.787	111.62
386.013	123.62
386.238	140.62
386.463	125.62
386.688	107.62
386.913	122.62
387.138	126.62
387.363	111.62
387.588	100.62
387.813	117.62
388.038	111.62
388.263	123.62
388.488	101.62
388.713	103.62
388.938	102.62
389.163	103.62
389.387	94.62
389.612	95.62
389.837	96.62
390.062	74.62
390.287	83.62
390.512	98.62
390.736	96.62
390.961	98.62
391.186	84.62
391.411	98.62
391.636	102.62
391.86	90.62
392.085	93.62
392.31	92.62
392.534	84.62
392.759	80.62
392.984	99.62
393.208	131.62
393.433	172.62
393.658	147.62
393.882	96.62
394.107	81.62
394.331	83.62
394.556	105.62
394.78	85.62
395.005	88.62
395.229	102.62
395.454	87.62
395.678	87.62
395.903	72.62
396.127	91.62
396.352	85.62
396.576	99.62
396.801	121.62
397.025	127.62
397.249	105.62
397.474	83.62
397.698	89.62
397.922	91.62
398.147	80.62
398.371	83.62
398.595	93.62
398.82	81.62
399.044	78.62
399.268	82.62
399.492	81.62
399.717	100.62
399.941	96.62
400.165	99.62
400.389	80.62
400.613	78.62
400.837	83.62
401.062	81.62
401.286	77.62
401.51	102.62
401.734	94.62
401.958	92.62
402.182	113.62
402.406	150.62
402.63	123.62
402.854	105.62
403.078	80.62
403.302	91.62
403.526	83.62
403.75	92.62
403.974	92.62
404.198	84.62
404.422	91.62
404.645	93.62
404.869	103.62
405.093	94.62
405.317	108.62
405.541	108.62
405.765	114.62
405.988	123.62
406.212	175.62
406.436	225.62
406.66	135.62
406.883	101.62
407.107	100.62
407.331	89.62
407.555	95.62
407.778	87.62
408.002	92.62
408.226	99.62
408.449	83.62
408.673	95.62
408.896	88.62
409.12	112.62
409.344	97.62
409.567	99.62
409.791	103.62
410.014	86.62
410.238	95.62
410.461	101.62
410.685	91.62
410.908	101.62
411.132	101.62
411.355	88.62
411.578	95.62
411.802	80.62
412.025	75.62
412.249	90.62
412.472	98.62
412.695	98.62
412.919	91.62
413.142	99.62
413.365	98.62
413.589	93.62
413.812	88.62
414.035	87.62
414.258	85.62
414.482	91.62
414.705	86.62
414.928	97.62
415.151	80.62
415.374	92.62
415.597	91.62
415.821	83.62
416.044	82.62
416.267	87.62
416.49	72.62
416.713	97.62
416.936	103.62
417.159	96.62
417.382	118.62
417.605	92.62
417.828	91.62
418.051	94.62
418.274	91.62
418.497	100.62
418.72	84.62
418.943	95.62
419.166	93.62
419.389	63.62
419.611	77.62
419.834	84.62
420.057	90.62
420.28	92.62
420.503	85.62
420.726	99.62
420.948	97.62
421.171	97.62
421.394	81.62
421.617	97.62
421.839	91.62
422.062	92.62
422.285	87.62
422.507	109.62
422.73	114.62
422.953	91.62
423.175	71.62
423.398	91.62
423.621	92.62
423.843	85.62
424.066	89.62
424.288	99.62
424.511	85.62
424.733	102.62
424.956	96.62
425.178	104.62
425.401	112.62
425.623	96.62
425.846	84.62
426.068	95.62
426.291	85.62
426.513	97.62
426.735	95.62
426.958	100.62
427.18	111.62
427.402	128.62
427.625	175.62
427.847	156.62
428.069	145.62
428.292	105.62
428.514	97.62
428.736	95.62
428.958	85.62
429.181	92.62
429.403	93.62
429.625	98.62
429.847	86.62
430.069	87.62
430.292	96.62
430.514	91.62
430.736	88.62
430.958	86.62
431.18	89.62
431.402	85.62
431.624	81.62
431.846	88.62
432.068	97.62
432.29	92.62
432.512	96.62
432.734	87.62
432.956	83.62
433.178	110.62
433.4	95.62
433.622	89.62
433.844	93.62
434.066	98.62
434.287	83.62
434.509	95.62
434.731	89.62
434.953	101.62
435.175	90.62
435.397	86.62
435.618	90.62
435.84	102.62
436.062	110.62
436.284	123.62
436.505	91.62
436.727	87.62
436.949	80.62
437.17	99.62
437.392	87.62
437.614	96.62
437.835	96.62
438.057	106.62
438.278	116.62
438.5	114.62
438.721	116.62
438.943	95.62
439.165	96.62
439.386	104.62
439.608	95.62
439.829	105.62
440.05	134.62
440.272	139.62
440.493	95.62
440.715	85.62
440.936	77.62
441.158	85.62
441.379	82.62
441.6	93.62
441.822	90.62
442.043	100.62
442.264	97.62
442.486	103.62
442.707	102.62
442.928	100.62
443.149	114.62
443.371	124.62
443.592	110.62
443.813	101.62
444.034	117.62
444.255	93.62
444.476	95.62
444.698	103.62
444.919	100.62
445.14	144.62
445.361	120.62
445.582	124.62
445.803	133.62
446.024	139.62
446.245	124.62
446.466	116.62
446.687	93.62
446.908	103.62
447.129	93.62
447.35	89.62
447.571	87.62
447.792	96.62
448.013	103.62
448.234	100.62
448.455	94.62
448.675	120.62
448.896	114.62
449.117	82.62
449.338	100.62
449.559	119.62
449.779	102.62
450	107.62
450.221	80.62
450.442	94.62
450.662	83.62
450.883	108.62
451.104	111.62
451.324	94.62
451.545	88.62
451.766	81.62
451.986	100.62
452.207	105.62
452.428	95.62
452.648	98.62
452.869	98.62
453.089	121.62
453.31	123.62
453.53	77.62
453.751	99.62
453.971	84.62
454.192	111.62
454.412	88.62
454.633	96.62
454.853	80.62
455.073	84.62
455.294	75.62
455.514	93.62
455.734	87.62
455.955	78.62
456.175	82.62
456.395	81.62
456.616	88.62
456.836	86.62
457.056	93.62
457.276	80.62
457.497	105.62
457.717	104.62
457.937	72.62
458.157	88.62
458.377	74.62
458.598	106.62
458.818	148.62
459.038	167.62
459.258	107.62
459.478	83.62
459.698	79.62
459.918	76.62
460.138	75.62
460.358	90.62
460.578	82.62
460.798	94.62
461.018	93.62
461.238	84.62
461.458	102.62
461.678	94.62
461.898	71.62
462.118	87.62
462.338	84.62
462.558	87.62
462.777	87.62
462.997	92.62
463.217	94.62
463.437	101.62
463.657	85.62
463.876	81.62
464.096	80.62
464.316	97.62
464.536	94.62
464.755	91.62
464.975	101.62
465.195	153.62
465.414	152.62
465.634	95.62
465.854	81.62
466.073	93.62
466.293	79.62
466.512	86.62
466.732	89.62
466.951	86.62
467.171	100.62
467.391	111.62
467.61	98.62
467.829	114.62
468.049	181.62
468.268	230.62
468.488	113.62
468.707	88.62
468.927	94.62
469.146	91.62
469.365	91.62
469.585	83.62
469.804	85.62
470.023	99.62
470.243	93.62
470.462	102.62
470.681	118.62
470.901	103.62
471.12	96.62
471.339	85.62
471.558	96.62
471.777	92.62
471.997	136.62
472.216	321.62
472.435	604.62
472.654	183.62
472.873	103.62
473.092	81.62
473.311	94.62
473.53	79.62
473.749	91.62
473.968	99.62
474.187	101.62
474.406	80.62
474.625	84.62
474.844	93.62
475.063	88.62
475.282	80.62
475.501	81.62
475.72	91.62
475.939	93.62
476.158	86.62
476.377	94.62
476.596	90.62
476.814	94.62
477.033	89.62
477.252	99.62
477.471	93.62
477.69	84.62
477.908	89.62
478.127	95.62
478.346	80.62
478.564	91.62
478.783	95.62
479.002	97.62
479.22	101.62
479.439	109.62
479.658	104.62
479.876	105.62
480.095	101.62
480.313	108.62
480.532	111.62
480.751	131.62
480.969	312.62
481.188	1051.62
481.406	655.62
481.624	154.62
481.843	98.62
482.061	99.62
482.28	105.62
482.498	84.62
482.717	98.62
482.935	79.62
483.153	93.62
483.372	88.62
483.59	93.62
483.808	79.62
484.027	89.62
484.245	90.62
484.463	97.62
484.681	99.62
484.9	89.62
485.118	101.62
485.336	100.62
485.554	97.62
485.772	113.62
485.99	105.62
486.209	113.62
486.427	117.62
486.645	100.62
486.863	110.62
487.081	103.62
487.299	94.62
487.517	95.62
487.735	92.62
487.953	100.62
488.171	104.62
488.389	99.62
488.607	100.62
488.825	93.62
489.043	84.62
489.261	100.62
489.479	85.62
489.696	91.62
489.914	87.62
490.132	98.62
490.35	100.62
490.568	94.62
490.786	81.62
491.003	87.62
491.221	87.62
491.439	91.62
491.657	95.62
491.874	89.62
492.092	94.62
492.31	79.62
492.527	98.62
492.745	100.62
492.963	90.62
493.18	81.62
493.398	95.62
493.615	108.62
493.833	100.62
494.05	93.62
494.268	88.62
494.485	102.62
494.703	93.62
494.92	92.62
495.138	95.62
495.355	104.62
495.573	97.62
495.79	87.62
496.008	107.62
496.225	98.62
496.442	87.62
496.66	104.62
496.877	88.62
497.094	92.62
497.312	100.62
497.529	93.62
497.746	85.62
497.963	92.62
498.181	81.62
498.398	99.62
498.615	115.62
498.832	100.62
499.049	76.62
499.267	93.62
499.484	95.62
499.701	96.62
499.918	93.62
500.135	86.62
500.352	95.62
500.569	110.62
500.786	78.62
501.003	89.62
501.22	91.62
501.437	88.62
501.654	93.62
501.871	101.62
502.088	96.62
502.305	90.62
502.522	97.62
502.739	86.62
502.956	93.62
503.172	101.62
503.389	97.62
503.606	98.62
503.823	95.62
504.04	106.62
504.256	94.62
504.473	85.62
504.69	87.62
504.907	87.62
505.123	80.62
505.34	89.62
505.557	83.62
505.773	94.62
505.99	94.62
506.207	78.62
506.423	81.62
506.64	87.62
506.856	99.62
507.073	92.62
507.289	91.62
507.506	100.62
507.722	109.62
507.939	116.62
508.155	91.62
508.372	89.62
508.588	94.62
508.805	95.62
509.021	90.62
509.238	99.62
509.454	93.62
509.67	103.62
509.887	116.62
510.103	114.62
510.319	225.62
510.536	755.62
510.752	2366.62
510.968	648.62
511.184	158.62
511.401	106.62
511.617	110.62
511.833	110.62
512.049	95.62
512.265	93.62
512.481	89.62
512.698	109.62
512.914	85.62
513.13	90.62
513.346	86.62
513.562	86.62
513.778	97.62
513.994	112.62
514.21	108.62
