Data from Circ_1991_H10_HRD10591_00091.txt Node
Date: Wed Jan 03 11:51:59 EST 2024
User: Yrep
Spectrometer: HR+D1059
Trigger mode: 1
Integration Time (sec): 1.000000E-1
Scans to average: 1
Electric dark correction enabled: true
Nonlinearity correction enabled: false
Boxcar width: 0
XAxis mode: Wavelengths
Number of Pixels in Spectrum: 2048
>>>>>Begin Spectral Data<<<<<
223.165	-23
223.4	-23
223.635	-23
223.869	-3
224.104	-21
224.338	-21
224.573	-22
224.808	-20
225.042	-7
225.277	-20
225.511	-6
225.746	12
225.98	18
226.215	22
226.449	14
226.683	20
226.918	27
227.152	30
227.387	33
227.621	34
227.856	48
228.09	22
228.324	56
228.559	56
228.793	49
229.027	73
229.262	77
229.496	64
229.73	88
229.964	68
230.199	88
230.433	84
230.667	81
230.901	74
231.136	76
231.37	70
231.604	92
231.838	68
232.072	80
232.306	85
232.541	82
232.775	80
233.009	90
233.243	88
233.477	91
233.711	83
233.945	86
234.179	96
234.413	81
234.647	83
234.881	77
235.115	80
235.349	64
235.583	79
235.817	96
236.051	75
236.285	69
236.519	54
236.753	82
236.987	78
237.221	81
237.455	98
237.689	68
237.922	80
238.156	62
238.39	85
238.624	83
238.858	83
239.091	76
239.325	82
239.559	101
239.793	96
240.027	75
240.26	78
240.494	73
240.728	75
240.961	67
241.195	84
241.429	78
241.662	63
241.896	77
242.13	86
242.363	75
242.597	69
242.83	84
243.064	78
243.298	95
243.531	88
243.765	72
243.998	75
244.232	77
244.465	76
244.699	85
244.932	81
245.166	92
245.399	74
245.633	73
245.866	67
246.099	64
246.333	78
246.566	61
246.8	68
247.033	85
247.266	80
247.5	72
247.733	76
247.966	69
248.2	70
248.433	79
248.666	69
248.899	84
249.133	85
249.366	97
249.599	98
249.832	76
250.066	76
250.299	71
250.532	75
250.765	84
250.998	74
251.231	72
251.465	84
251.698	84
251.931	83
252.164	72
252.397	68
252.63	92
252.863	78
253.096	80
253.329	73
253.562	90
253.795	73
254.028	65
254.261	78
254.494	90
254.727	75
254.96	93
255.193	80
255.426	72
255.659	70
255.892	85
256.124	80
256.357	91
256.59	93
256.823	89
257.056	89
257.289	88
257.521	84
257.754	84
257.987	91
258.22	89
258.452	88
258.685	86
258.918	76
259.151	82
259.383	77
259.616	90
259.849	84
260.081	93
260.314	80
260.547	84
260.779	97
261.012	89
261.244	92
261.477	83
261.71	82
261.942	102
262.175	113
262.407	100
262.64	89
262.872	87
263.105	94
263.337	81
263.57	92
263.802	83
264.035	77
264.267	70
264.499	82
264.732	102
264.964	77
265.197	88
265.429	82
265.661	85
265.894	72
266.126	88
266.358	82
266.591	67
266.823	78
267.055	72
267.287	80
267.52	93
267.752	101
267.984	83
268.216	93
268.448	88
268.681	83
268.913	94
269.145	89
269.377	101
269.609	68
269.841	79
270.073	100
270.306	94
270.538	88
270.77	86
271.002	90
271.234	85
271.466	91
271.698	90
271.93	101
272.162	83
272.394	93
272.626	81
272.858	86
273.09	69
273.322	91
273.553	80
273.785	94
274.017	82
274.249	97
274.481	84
274.713	78
274.945	83
275.176	83
275.408	94
275.64	97
275.872	100
276.104	99
276.335	99
276.567	100
276.799	113
277.031	120
277.262	143
277.494	98
277.726	82
277.957	83
278.189	95
278.421	80
278.652	102
278.884	92
279.115	83
279.347	76
279.579	89
279.81	110
280.042	113
280.273	148
280.505	116
280.736	92
280.968	94
281.199	86
281.431	93
281.662	82
281.894	73
282.125	109
282.356	116
282.588	138
282.819	104
283.051	91
283.282	82
283.513	108
283.745	83
283.976	84
284.207	100
284.439	99
284.67	90
284.901	90
285.132	93
285.364	96
285.595	105
285.826	88
286.057	95
286.288	99
286.52	92
286.751	90
286.982	85
287.213	96
287.444	93
287.675	88
287.906	89
288.138	78
288.369	103
288.6	95
288.831	79
289.062	78
289.293	107
289.524	86
289.755	81
289.986	76
290.217	88
290.448	89
290.679	79
290.91	90
291.141	65
291.371	86
291.602	97
291.833	92
292.064	90
292.295	77
292.526	96
292.757	95
292.987	89
293.218	97
293.449	83
293.68	94
293.91	82
294.141	84
294.372	94
294.603	72
294.833	83
295.064	80
295.295	96
295.525	90
295.756	102
295.987	115
296.217	130
296.448	125
296.679	88
296.909	83
297.14	81
297.37	80
297.601	82
297.831	86
298.062	89
298.292	84
298.523	86
298.753	74
298.984	84
299.214	82
299.445	91
299.675	108
299.905	91
300.136	91
300.366	94
300.597	89
300.827	95
301.057	101
301.288	105
301.518	94
301.748	88
301.979	91
302.209	93
302.439	91
302.669	79
302.9	84
303.13	89
303.36	94
303.59	99
303.82	120
304.051	93
304.281	88
304.511	86
304.741	92
304.971	90
305.201	85
305.431	88
305.661	91
305.891	85
306.121	99
306.352	102
306.582	109
306.812	98
307.042	106
307.272	114
307.502	118
307.731	117
307.961	100
308.191	95
308.421	74
308.651	92
308.881	108
309.111	88
309.341	95
309.571	102
309.8	85
310.03	96
310.26	98
310.49	96
310.72	96
310.949	103
311.179	97
311.409	79
311.639	96
311.868	92
312.098	105
312.328	94
312.557	94
312.787	108
313.017	108
313.246	102
313.476	92
313.706	89
313.935	98
314.165	108
314.394	90
314.624	116
314.853	96
315.083	92
315.312	100
315.542	88
315.771	86
316.001	84
316.23	80
316.46	88
316.689	80
316.919	77
317.148	101
317.377	93
317.607	101
317.836	99
318.065	85
318.295	97
318.524	84
318.753	98
318.983	88
319.212	112
319.441	100
319.67	100
319.9	93
320.129	80
320.358	97
320.587	100
320.816	102
321.046	96
321.275	94
321.504	94
321.733	82
321.962	90
322.191	101
322.42	92
322.649	113
322.878	113
323.108	122
323.337	131
323.566	139
323.795	151
324.024	229
324.253	418
324.482	906
324.71	1932
324.939	2570
325.168	922
325.397	276
325.626	164
325.855	133
326.084	117
326.313	131
326.542	165
326.77	232
326.999	482
327.228	1015
327.457	1939
327.686	1614
327.914	460
328.143	323
328.372	330
328.6	223
328.829	129
329.058	138
329.287	147
329.515	123
329.744	146
329.972	240
330.201	456
330.43	628
330.658	309
330.887	185
331.115	133
331.344	96
331.572	100
331.801	104
332.03	116
332.258	83
332.486	90
332.715	98
332.943	102
333.172	103
333.4	113
333.629	122
333.857	155
334.085	227
334.314	451
334.542	769
334.771	750
334.999	231
335.227	114
335.455	105
335.684	114
335.912	100
336.14	108
336.369	101
336.597	103
336.825	96
337.053	103
337.281	100
337.51	89
337.738	85
337.966	88
338.194	90
338.422	97
338.65	104
338.878	108
339.106	88
339.334	90
339.562	101
339.79	94
340.018	87
340.246	83
340.474	94
340.702	90
340.93	85
341.158	101
341.386	103
341.614	93
341.842	95
342.07	104
342.298	103
342.526	97
342.754	96
342.981	95
343.209	79
343.437	105
343.665	85
343.893	97
344.12	90
344.348	86
344.576	92
344.804	97
345.031	104
345.259	92
345.487	89
345.714	107
345.942	97
346.17	95
346.397	90
346.625	99
346.853	82
347.08	86
347.308	87
347.535	87
347.763	91
347.99	88
348.218	87
348.445	94
348.673	98
348.9	91
349.128	108
349.355	95
349.583	82
349.81	84
350.037	95
350.265	108
350.492	96
350.72	107
350.947	93
351.174	96
351.402	102
351.629	87
351.856	107
352.083	107
352.311	100
352.538	101
352.765	105
352.992	117
353.22	96
353.447	97
353.674	94
353.901	99
354.128	108
354.355	91
354.583	77
354.81	90
355.037	88
355.264	100
355.491	104
355.718	104
355.945	89
356.172	85
356.399	93
356.626	80
356.853	108
357.08	78
357.307	76
357.534	98
357.761	84
357.988	97
358.215	92
358.441	93
358.668	89
358.895	89
359.122	80
359.349	81
359.576	77
359.802	90
360.029	115
360.256	113
360.483	90
360.709	84
360.936	91
361.163	97
361.39	94
361.616	96
361.843	87
362.07	111
362.296	83
362.523	88
362.749	89
362.976	96
363.203	84
363.429	74
363.656	84
363.882	86
364.109	83
364.335	94
364.562	77
364.788	91
365.015	84
365.241	118
365.468	95
365.694	106
365.92	95
366.147	90
366.373	74
366.599	78
366.826	74
367.052	68
367.278	88
367.505	82
367.731	94
367.957	87
368.184	85
368.41	93
368.636	108
368.862	102
369.089	95
369.315	96
369.541	97
369.767	84
369.993	80
370.219	89
370.445	86
370.672	97
370.898	85
371.124	93
371.35	92
371.576	87
371.802	95
372.028	86
372.254	76
372.48	72
372.706	72
372.932	91
373.158	80
373.384	101
373.61	90
373.835	80
374.061	88
374.287	89
374.513	84
374.739	91
374.965	82
375.191	79
375.416	84
375.642	89
375.868	86
376.094	92
376.319	88
376.545	81
376.771	93
376.997	97
377.222	93
377.448	92
377.674	86
377.899	87
378.125	84
378.35	93
378.576	84
378.802	107
379.027	93
379.253	75
379.478	88
379.704	92
379.929	93
380.155	93
380.38	85
380.606	85
380.831	91
381.057	100
381.282	101
381.507	89
381.733	97
381.958	91
382.184	80
382.409	96
382.634	94
382.86	92
383.085	102
383.31	93
383.535	112
383.761	100
383.986	100
384.211	77
384.436	96
384.662	79
384.887	94
385.112	93
385.337	89
385.562	110
385.787	100
386.013	115
386.238	104
386.463	104
386.688	94
386.913	97
387.138	93
387.363	93
387.588	111
387.813	99
388.038	94
388.263	93
388.488	121
388.713	90
388.938	85
389.163	97
389.387	88
389.612	100
389.837	87
390.062	68
390.287	84
390.512	90
390.736	94
390.961	94
391.186	97
391.411	87
391.636	77
391.86	85
392.085	85
392.31	73
392.534	78
392.759	86
392.984	82
393.208	87
393.433	90
393.658	104
393.882	76
394.107	84
394.331	73
394.556	80
394.78	84
395.005	83
395.229	86
395.454	102
395.678	77
395.903	83
396.127	89
396.352	96
396.576	89
396.801	84
397.025	89
397.249	74
397.474	74
397.698	90
397.922	85
398.147	87
398.371	93
398.595	77
398.82	95
399.044	88
399.268	92
399.492	78
399.717	92
399.941	80
400.165	76
400.389	91
400.613	94
400.837	73
401.062	76
401.286	91
401.51	92
401.734	85
401.958	102
402.182	106
402.406	138
402.63	125
402.854	88
403.078	94
403.302	90
403.526	89
403.75	84
403.974	79
404.198	83
404.422	77
404.645	90
404.869	95
405.093	73
405.317	105
405.541	104
405.765	94
405.988	127
406.212	177
406.436	221
406.66	162
406.883	94
407.107	84
407.331	102
407.555	113
407.778	99
408.002	82
408.226	94
408.449	94
408.673	93
408.896	97
409.12	92
409.344	88
409.567	82
409.791	89
410.014	98
410.238	100
410.461	83
410.685	96
410.908	92
411.132	93
411.355	84
411.578	99
411.802	93
412.025	86
412.249	89
412.472	96
412.695	113
412.919	93
413.142	92
413.365	92
413.589	89
413.812	92
414.035	91
414.258	76
414.482	96
414.705	85
414.928	77
415.151	88
415.374	85
415.597	92
415.821	83
416.044	85
416.267	74
416.49	80
416.713	94
416.936	90
417.159	82
417.382	97
417.605	87
417.828	84
418.051	90
418.274	88
418.497	76
418.72	80
418.943	83
419.166	71
419.389	102
419.611	88
419.834	84
420.057	93
420.28	73
420.503	86
420.726	72
420.948	67
421.171	96
421.394	96
421.617	90
421.839	82
422.062	73
422.285	90
422.507	107
422.73	83
422.953	97
423.175	88
423.398	89
423.621	86
423.843	79
424.066	79
424.288	94
424.511	88
424.733	117
424.956	97
425.178	106
425.401	89
425.623	91
425.846	82
426.068	93
426.291	82
426.513	88
426.735	86
426.958	99
427.18	102
427.402	149
427.625	200
427.847	163
428.069	158
428.292	112
428.514	93
428.736	68
428.958	82
429.181	86
429.403	96
429.625	99
429.847	73
430.069	91
430.292	92
430.514	93
430.736	98
430.958	81
431.18	80
431.402	88
431.624	73
431.846	82
432.068	94
432.29	84
432.512	85
432.734	85
432.956	88
433.178	92
433.4	90
433.622	100
433.844	93
434.066	87
434.287	92
434.509	92
434.731	89
434.953	87
435.175	82
435.397	83
435.618	86
435.84	106
436.062	136
436.284	102
436.505	100
436.727	99
436.949	93
437.17	88
437.392	91
437.614	98
437.835	108
438.057	125
438.278	115
438.5	107
438.721	111
438.943	101
439.165	66
439.386	85
439.608	96
439.829	98
440.05	114
440.272	144
440.493	93
440.715	82
440.936	76
441.158	95
441.379	77
441.6	91
441.822	86
442.043	88
442.264	108
442.486	111
442.707	91
442.928	109
443.149	141
443.371	143
443.592	99
443.813	109
444.034	105
444.255	74
444.476	93
444.698	90
444.919	78
445.14	120
445.361	121
445.582	109
445.803	136
446.024	137
446.245	132
446.466	112
446.687	100
446.908	96
447.129	75
447.35	94
447.571	98
447.792	88
448.013	108
448.234	105
448.455	93
448.675	120
448.896	116
449.117	96
449.338	110
449.559	131
449.779	152
450	101
450.221	92
450.442	88
450.662	93
450.883	105
451.104	119
451.324	81
451.545	94
451.766	76
451.986	73
452.207	84
452.428	71
452.648	100
452.869	116
453.089	109
453.31	126
453.53	101
453.751	85
453.971	102
454.192	114
454.412	91
454.633	79
454.853	81
455.073	85
455.294	85
455.514	86
455.734	85
455.955	85
456.175	90
456.395	85
456.616	89
456.836	99
457.056	83
457.276	99
457.497	100
457.717	67
457.937	95
458.157	87
458.377	92
458.598	101
458.818	167
459.038	166
459.258	117
459.478	90
459.698	93
459.918	76
460.138	78
460.358	92
460.578	92
460.798	82
461.018	82
461.238	85
461.458	85
461.678	81
461.898	88
462.118	94
462.338	85
462.558	89
462.777	88
462.997	88
463.217	98
463.437	86
463.657	96
463.876	91
464.096	84
464.316	94
464.536	84
464.755	100
464.975	104
465.195	177
465.414	160
465.634	107
465.854	74
466.073	90
466.293	80
466.512	78
466.732	96
466.951	80
467.171	81
467.391	93
467.61	121
467.829	132
468.049	294
468.268	385
468.488	134
468.707	101
468.927	79
469.146	84
469.365	89
469.585	83
469.804	93
470.023	87
470.243	98
470.462	96
470.681	116
470.901	80
471.12	65
471.339	100
471.558	96
471.777	121
471.997	178
472.216	541
472.435	1118
472.654	313
472.873	114
473.092	85
473.311	81
473.53	91
473.749	89
473.968	92
474.187	109
474.406	96
474.625	76
474.844	90
475.063	72
475.282	80
475.501	74
475.72	92
475.939	95
476.158	99
476.377	74
476.596	81
476.814	77
477.033	84
477.252	91
477.471	84
477.69	94
477.908	82
478.127	89
478.346	92
478.564	95
478.783	99
479.002	91
479.22	102
479.439	110
479.658	105
479.876	96
480.095	110
480.313	90
480.532	105
480.751	175
480.969	503
481.188	2001
481.406	1135
481.624	204
481.843	119
482.061	96
482.28	95
482.498	88
482.717	89
482.935	94
483.153	91
483.372	90
483.59	92
483.808	82
484.027	93
484.245	90
484.463	85
484.681	97
484.9	85
485.118	87
485.336	85
485.554	107
485.772	97
485.99	88
486.209	98
486.427	99
486.645	107
486.863	101
487.081	104
487.299	72
487.517	97
487.735	74
487.953	92
488.171	94
488.389	85
488.607	92
488.825	84
489.043	84
489.261	86
489.479	95
489.696	87
489.914	79
490.132	78
490.35	91
490.568	93
490.786	74
491.003	84
491.221	93
491.439	102
491.657	84
491.874	81
492.092	85
492.31	95
492.527	97
492.745	106
492.963	94
493.18	91
493.398	97
493.615	98
493.833	89
494.05	97
494.268	74
494.485	90
494.703	100
494.92	83
495.138	98
495.355	91
495.573	78
495.79	85
496.008	74
496.225	84
496.442	93
496.66	93
496.877	88
497.094	99
497.312	93
497.529	82
497.746	80
497.963	89
498.181	84
498.398	93
498.615	110
498.832	101
499.049	82
499.267	92
499.484	99
499.701	72
499.918	92
500.135	83
500.352	80
500.569	94
500.786	96
501.003	97
501.22	86
501.437	92
501.654	89
501.871	114
502.088	88
502.305	82
502.522	86
502.739	89
502.956	88
503.172	98
503.389	96
503.606	105
503.823	95
504.04	99
504.256	88
504.473	85
504.69	87
504.907	100
505.123	89
505.34	76
505.557	85
505.773	93
505.99	88
506.207	92
506.423	86
506.64	87
506.856	73
507.073	90
507.289	94
507.506	87
507.722	122
507.939	124
508.155	102
508.372	89
508.588	88
508.805	96
509.021	111
509.238	104
509.454	117
509.67	89
509.887	114
510.103	123
510.319	193
510.536	691
510.752	2320
510.968	653
511.184	163
511.401	108
511.617	108
511.833	92
512.049	86
512.265	91
512.481	93
512.698	96
512.914	74
513.13	82
513.346	78
513.562	99
513.778	93
513.994	95
514.21	108
514.426	114
514.642	134
514.858	123
515.074	166
515.29	473
515.506	1596
515.721	550
515.937	157
516.153	113
516.369	108
516.585	92
516.801	109
517.016	89
517.232	83
517.448	99
517.664	89
517.879	92
518.095	108
518.311	110
518.527	102
518.742	70
518.958	81
519.173	89
519.389	103
519.605	96
519.82	87
520.036	123
520.251	127
520.467	108
520.682	102
520.898	100
521.113	112
521.329	128
521.544	212
521.76	620
521.975	2613
522.19	1590
522.406	324
522.621	141
522.836	100
523.052	98
523.267	92
523.482	90
523.698	122
523.913	129
524.128	100
524.343	87
524.559	85
524.774	88
524.989	108
525.204	100
525.419	98
525.634	85
525.849	101
526.064	86
526.28	88
526.495	82
526.71	92
526.925	80
527.14	80
527.355	92
527.57	86
527.785	80
527.999	83
528.214	100
528.429	88
528.644	96
528.859	92
529.074	93
529.289	125
529.503	195
529.718	105
529.933	105
530.148	85
530.363	85
530.577	94
530.792	104
531.007	84
531.221	85
531.436	100
531.651	81
531.865	81
532.08	88
532.295	70
532.509	85
532.724	84
532.938	91
533.153	100
533.367	85
533.582	86
533.796	89
534.011	101
534.225	79
534.44	91
534.654	94
534.868	85
535.083	79
535.297	101
535.511	99
535.726	62
535.94	92
536.154	83
536.369	97
536.583	84
536.797	100
537.011	97
537.225	94
537.44	89
537.654	91
537.868	89
538.082	97
538.296	102
538.51	89
538.724	94
538.938	90
539.153	89
539.367	101
539.581	93
539.795	94
540.009	94
540.222	97
540.436	97
540.65	90
540.864	89
541.078	104
541.292	94
541.506	93
541.72	93
541.934	74
542.147	90
542.361	81
542.575	95
542.789	85
543.002	86
543.216	85
543.43	93
543.644	89
543.857	98
544.071	73
544.285	97
544.498	98
544.712	83
544.925	90
545.139	94
545.352	102
545.566	95
545.779	88
545.993	104
546.206	93
546.42	77
546.633	85
546.847	96
547.06	85
547.274	92
547.487	85
547.7	80
547.914	85
548.127	99
548.34	83
548.554	77
548.767	84
548.98	88
549.193	92
549.407	94
549.62	92
549.833	83
550.046	91
550.259	88
550.473	88
550.686	85
550.899	90
551.112	98
551.325	87
551.538	88
551.751	98
551.964	80
552.177	89
552.39	79
552.603	75
552.816	92
553.029	98
553.242	93
553.455	99
553.667	105
553.88	108
554.093	100
554.306	86
554.519	101
554.732	91
554.944	90
555.157	75
555.37	91
555.583	96
555.795	88
556.008	105
556.221	85
556.433	93
556.646	84
556.859	84
557.071	85
557.284	82
557.496	93
557.709	78
557.921	80
558.134	93
558.346	69
558.559	90
558.771	90
558.984	93
559.196	90
559.409	81
559.621	96
559.833	88
560.046	94
560.258	90
560.47	105
560.683	94
560.895	100
561.107	105
561.32	78
561.532	83
561.744	85
561.956	75
562.168	86
562.381	92
562.593	92
562.805	93
563.017	84
563.229	93
563.441	90
563.653	86
563.865	94
564.077	88
564.289	74
564.501	81
564.713	90
564.925	94
565.137	101
565.349	104
565.561	97
565.773	93
565.985	72
566.197	84
566.408	94
566.62	82
566.832	86
567.044	91
567.255	93
567.467	83
567.679	85
567.891	83
568.102	84
568.314	74
568.526	85
568.737	92
568.949	85
569.161	87
569.372	80
569.584	86
569.795	90
570.007	105
570.218	225
570.43	150
570.641	85
570.853	82
571.064	92
571.276	71
571.487	86
571.698	84
571.91	96
572.121	82
572.333	93
572.544	82
572.755	94
572.966	88
573.178	87
573.389	77
573.6	77
573.811	89
574.023	83
574.234	88
574.445	85
574.656	76
574.867	83
575.078	79
575.289	80
575.501	92
575.712	85
575.923	93
576.134	79
576.345	90
576.556	84
576.767	86
576.978	93
577.188	75
577.399	97
577.61	96
577.821	105
578.032	112
578.243	261
578.454	730
578.665	193
578.875	90
579.086	86
579.297	88
579.508	91
579.718	103
579.929	93
580.14	102
580.35	84
580.561	89
580.772	84
580.982	77
581.193	90
581.403	96
581.614	90
581.825	86
582.035	80
582.246	75
582.456	76
582.667	84
582.877	94
583.087	76
583.298	88
583.508	84
583.719	102
583.929	69
584.139	85
