Data from Circ_1991_H10_HRD10591_00055.txt Node
Date: Wed Jan 03 11:51:52 EST 2024
User: Yrep
Spectrometer: HR+D1059
Trigger mode: 1
Integration Time (sec): 1.000000E-1
Scans to average: 1
Electric dark correction enabled: true
Nonlinearity correction enabled: false
Boxcar width: 0
XAxis mode: Wavelengths
Number of Pixels in Spectrum: 2048
>>>>>Begin Spectral Data<<<<<
223.165	-18.38
223.4	-18.38
223.635	-18.38
223.869	-7.38
224.104	-33.38
224.338	-30.38
224.573	-19.38
224.808	-12.38
225.042	0.62
225.277	-5.38
225.511	7.62
225.746	4.62
225.98	14.62
226.215	9.62
226.449	5.62
226.683	28.62
226.918	25.62
227.152	29.62
227.387	47.62
227.621	52.62
227.856	51.62
228.09	56.62
228.324	55.62
228.559	67.62
228.793	59.62
229.027	70.62
229.262	66.62
229.496	87.62
229.73	91.62
229.964	79.62
230.199	62.62
230.433	60.62
230.667	85.62
230.901	81.62
231.136	77.62
231.37	87.62
231.604	91.62
231.838	89.62
232.072	61.62
232.306	93.62
232.541	75.62
232.775	90.62
233.009	69.62
233.243	72.62
233.477	89.62
233.711	79.62
233.945	89.62
234.179	79.62
234.413	93.62
234.647	87.62
234.881	79.62
235.115	66.62
235.349	78.62
235.583	87.62
235.817	79.62
236.051	83.62
236.285	77.62
236.519	79.62
236.753	79.62
236.987	77.62
237.221	71.62
237.455	79.62
237.689	75.62
237.922	88.62
238.156	81.62
238.39	73.62
238.624	77.62
238.858	77.62
239.091	95.62
239.325	75.62
239.559	84.62
239.793	75.62
240.027	73.62
240.26	80.62
240.494	72.62
240.728	77.62
240.961	69.62
241.195	88.62
241.429	95.62
241.662	72.62
241.896	72.62
242.13	68.62
242.363	81.62
242.597	84.62
242.83	79.62
243.064	83.62
243.298	76.62
243.531	76.62
243.765	66.62
243.998	81.62
244.232	75.62
244.465	86.62
244.699	103.62
244.932	91.62
245.166	70.62
245.399	67.62
245.633	83.62
245.866	87.62
246.099	80.62
246.333	87.62
246.566	87.62
246.8	79.62
247.033	82.62
247.266	82.62
247.5	87.62
247.733	68.62
247.966	75.62
248.2	71.62
248.433	71.62
248.666	84.62
248.899	69.62
249.133	86.62
249.366	102.62
249.599	92.62
249.832	89.62
250.066	83.62
250.299	81.62
250.532	84.62
250.765	104.62
250.998	81.62
251.231	88.62
251.465	97.62
251.698	88.62
251.931	84.62
252.164	80.62
252.397	81.62
252.63	93.62
252.863	85.62
253.096	75.62
253.329	80.62
253.562	87.62
253.795	76.62
254.028	85.62
254.261	92.62
254.494	82.62
254.727	88.62
254.96	73.62
255.193	79.62
255.426	71.62
255.659	71.62
255.892	84.62
256.124	96.62
256.357	78.62
256.59	82.62
256.823	91.62
257.056	87.62
257.289	84.62
257.521	72.62
257.754	84.62
257.987	84.62
258.22	87.62
258.452	87.62
258.685	96.62
258.918	83.62
259.151	71.62
259.383	68.62
259.616	76.62
259.849	72.62
260.081	88.62
260.314	85.62
260.547	84.62
260.779	94.62
261.012	75.62
261.244	69.62
261.477	78.62
261.71	97.62
261.942	125.62
262.175	124.62
262.407	86.62
262.64	93.62
262.872	88.62
263.105	73.62
263.337	88.62
263.57	87.62
263.802	86.62
264.035	96.62
264.267	79.62
264.499	86.62
264.732	88.62
264.964	84.62
265.197	88.62
265.429	78.62
265.661	83.62
265.894	76.62
266.126	82.62
266.358	86.62
266.591	84.62
266.823	78.62
267.055	87.62
267.287	83.62
267.52	77.62
267.752	92.62
267.984	84.62
268.216	82.62
268.448	87.62
268.681	84.62
268.913	81.62
269.145	79.62
269.377	83.62
269.609	84.62
269.841	99.62
270.073	83.62
270.306	89.62
270.538	89.62
270.77	93.62
271.002	77.62
271.234	94.62
271.466	99.62
271.698	83.62
271.93	89.62
272.162	94.62
272.394	93.62
272.626	96.62
272.858	88.62
273.09	90.62
273.322	88.62
273.553	80.62
273.785	93.62
274.017	83.62
274.249	90.62
274.481	73.62
274.713	93.62
274.945	93.62
275.176	88.62
275.408	85.62
275.64	98.62
275.872	71.62
276.104	96.62
276.335	98.62
276.567	95.62
276.799	118.62
277.031	121.62
277.262	124.62
277.494	110.62
277.726	95.62
277.957	89.62
278.189	76.62
278.421	105.62
278.652	86.62
278.884	86.62
279.115	81.62
279.347	90.62
279.579	113.62
279.81	103.62
280.042	126.62
280.273	139.62
280.505	104.62
280.736	107.62
280.968	80.62
281.199	103.62
281.431	89.62
281.662	85.62
281.894	102.62
282.125	87.62
282.356	114.62
282.588	136.62
282.819	119.62
283.051	78.62
283.282	96.62
283.513	97.62
283.745	77.62
283.976	93.62
284.207	87.62
284.439	95.62
284.67	83.62
284.901	95.62
285.132	102.62
285.364	93.62
285.595	90.62
285.826	89.62
286.057	99.62
286.288	92.62
286.52	96.62
286.751	75.62
286.982	95.62
287.213	76.62
287.444	92.62
287.675	78.62
287.906	78.62
288.138	86.62
288.369	78.62
288.6	102.62
288.831	96.62
289.062	85.62
289.293	88.62
289.524	82.62
289.755	97.62
289.986	81.62
290.217	83.62
290.448	81.62
290.679	87.62
290.91	86.62
291.141	100.62
291.371	93.62
291.602	91.62
291.833	88.62
292.064	81.62
292.295	87.62
292.526	87.62
292.757	92.62
292.987	90.62
293.218	92.62
293.449	85.62
293.68	84.62
293.91	84.62
294.141	78.62
294.372	100.62
294.603	88.62
294.833	76.62
295.064	83.62
295.295	81.62
295.525	76.62
295.756	100.62
295.987	126.62
296.217	132.62
296.448	127.62
296.679	87.62
296.909	80.62
297.14	95.62
297.37	108.62
297.601	87.62
297.831	92.62
298.062	93.62
298.292	91.62
298.523	77.62
298.753	87.62
298.984	91.62
299.214	91.62
299.445	97.62
299.675	93.62
299.905	91.62
300.136	96.62
300.366	91.62
300.597	98.62
300.827	93.62
301.057	97.62
301.288	105.62
301.518	91.62
301.748	78.62
301.979	107.62
302.209	107.62
302.439	100.62
302.669	88.62
302.9	98.62
303.13	104.62
303.36	96.62
303.59	109.62
303.82	121.62
304.051	101.62
304.281	92.62
304.511	98.62
304.741	95.62
304.971	98.62
305.201	90.62
305.431	87.62
305.661	96.62
305.891	88.62
306.121	86.62
306.352	107.62
306.582	95.62
306.812	81.62
307.042	103.62
307.272	123.62
307.502	137.62
307.731	124.62
307.961	104.62
308.191	77.62
308.421	100.62
308.651	76.62
308.881	97.62
309.111	89.62
309.341	99.62
309.571	110.62
309.8	85.62
310.03	107.62
310.26	104.62
310.49	104.62
310.72	96.62
310.949	101.62
311.179	101.62
311.409	87.62
311.639	79.62
311.868	95.62
312.098	96.62
312.328	101.62
312.557	91.62
312.787	113.62
313.017	94.62
313.246	95.62
313.476	95.62
313.706	93.62
313.935	87.62
314.165	98.62
314.394	105.62
314.624	88.62
314.853	104.62
315.083	96.62
315.312	107.62
315.542	96.62
315.771	91.62
316.001	84.62
316.23	74.62
316.46	95.62
316.689	91.62
316.919	86.62
317.148	91.62
317.377	88.62
317.607	93.62
317.836	102.62
318.065	85.62
318.295	94.62
318.524	84.62
318.753	85.62
318.983	94.62
319.212	87.62
319.441	118.62
319.67	115.62
319.9	109.62
320.129	106.62
320.358	99.62
320.587	81.62
320.816	99.62
321.046	99.62
321.275	108.62
321.504	95.62
321.733	98.62
321.962	112.62
322.191	107.62
322.42	116.62
322.649	126.62
322.878	118.62
323.108	123.62
323.337	121.62
323.566	133.62
323.795	153.62
324.024	217.62
324.253	436.62
324.482	894.62
324.71	1915.62
324.939	2591.62
325.168	935.62
325.397	253.62
325.626	166.62
325.855	134.62
326.084	121.62
326.313	129.62
326.542	164.62
326.77	237.62
326.999	461.62
327.228	1041.62
327.457	1958.62
327.686	1591.62
327.914	451.62
328.143	308.62
328.372	323.62
328.6	197.62
328.829	122.62
329.058	139.62
329.287	132.62
329.515	130.62
329.744	159.62
329.972	230.62
330.201	405.62
330.43	536.62
330.658	282.62
330.887	163.62
331.115	139.62
331.344	106.62
331.572	104.62
331.801	115.62
332.03	109.62
332.258	103.62
332.486	101.62
332.715	100.62
332.943	94.62
333.172	107.62
333.4	118.62
333.629	123.62
333.857	163.62
334.085	223.62
334.314	396.62
334.542	687.62
334.771	626.62
334.999	208.62
335.227	118.62
335.455	101.62
335.684	111.62
335.912	103.62
336.14	110.62
336.369	108.62
336.597	116.62
336.825	114.62
337.053	107.62
337.281	83.62
337.51	83.62
337.738	95.62
337.966	96.62
338.194	100.62
338.422	95.62
338.65	83.62
338.878	90.62
339.106	92.62
339.334	100.62
339.562	86.62
339.79	85.62
340.018	104.62
340.246	95.62
340.474	99.62
340.702	102.62
340.93	92.62
341.158	97.62
341.386	90.62
341.614	99.62
341.842	108.62
342.07	84.62
342.298	96.62
342.526	82.62
342.754	91.62
342.981	95.62
343.209	96.62
343.437	100.62
343.665	97.62
343.893	92.62
344.12	78.62
344.348	99.62
344.576	97.62
344.804	77.62
345.031	99.62
345.259	102.62
345.487	95.62
345.714	96.62
345.942	93.62
346.17	103.62
346.397	86.62
346.625	104.62
346.853	76.62
347.08	76.62
347.308	100.62
347.535	98.62
347.763	107.62
347.99	91.62
348.218	112.62
348.445	103.62
348.673	104.62
348.9	97.62
349.128	104.62
349.355	96.62
349.583	108.62
349.81	85.62
350.037	98.62
350.265	99.62
350.492	96.62
350.72	107.62
350.947	113.62
351.174	113.62
351.402	111.62
351.629	109.62
351.856	93.62
352.083	95.62
352.311	120.62
352.538	118.62
352.765	102.62
352.992	110.62
353.22	105.62
353.447	99.62
353.674	93.62
353.901	82.62
354.128	105.62
354.355	99.62
354.583	97.62
354.81	93.62
355.037	102.62
355.264	95.62
355.491	96.62
355.718	87.62
355.945	99.62
356.172	86.62
356.399	105.62
356.626	83.62
356.853	91.62
357.08	96.62
357.307	99.62
357.534	85.62
357.761	82.62
357.988	100.62
358.215	95.62
358.441	90.62
358.668	93.62
358.895	89.62
359.122	85.62
359.349	86.62
359.576	101.62
359.802	96.62
360.029	118.62
360.256	113.62
360.483	100.62
360.709	96.62
360.936	101.62
361.163	82.62
361.39	85.62
361.616	91.62
361.843	87.62
362.07	95.62
362.296	99.62
362.523	88.62
362.749	96.62
362.976	83.62
363.203	82.62
363.429	91.62
363.656	86.62
363.882	103.62
364.109	89.62
364.335	85.62
364.562	89.62
364.788	99.62
365.015	86.62
365.241	101.62
365.468	119.62
365.694	113.62
365.92	105.62
366.147	103.62
366.373	92.62
366.599	78.62
366.826	79.62
367.052	95.62
367.278	96.62
367.505	92.62
367.731	82.62
367.957	102.62
368.184	87.62
368.41	102.62
368.636	113.62
368.862	124.62
369.089	96.62
369.315	105.62
369.541	110.62
369.767	101.62
369.993	91.62
370.219	107.62
370.445	87.62
370.672	102.62
370.898	81.62
371.124	96.62
371.35	109.62
371.576	90.62
371.802	79.62
372.028	81.62
372.254	82.62
372.48	83.62
372.706	92.62
372.932	80.62
373.158	93.62
373.384	88.62
373.61	84.62
373.835	100.62
374.061	93.62
374.287	94.62
374.513	71.62
374.739	87.62
374.965	100.62
375.191	89.62
375.416	101.62
375.642	96.62
375.868	91.62
376.094	84.62
376.319	93.62
376.545	93.62
376.771	82.62
376.997	79.62
377.222	95.62
377.448	98.62
377.674	86.62
377.899	79.62
378.125	86.62
378.35	92.62
378.576	92.62
378.802	96.62
379.027	98.62
379.253	105.62
379.478	94.62
379.704	84.62
379.929	84.62
380.155	86.62
380.38	94.62
380.606	82.62
380.831	103.62
381.057	104.62
381.282	107.62
381.507	93.62
381.733	99.62
381.958	102.62
382.184	100.62
382.409	105.62
382.634	111.62
382.86	91.62
383.085	94.62
383.31	103.62
383.535	95.62
383.761	107.62
383.986	91.62
384.211	97.62
384.436	105.62
384.662	92.62
384.887	107.62
385.112	102.62
385.337	95.62
385.562	104.62
385.787	99.62
386.013	103.62
386.238	101.62
386.463	104.62
386.688	108.62
386.913	111.62
387.138	109.62
387.363	111.62
387.588	113.62
387.813	114.62
388.038	103.62
388.263	115.62
388.488	109.62
388.713	104.62
388.938	94.62
389.163	86.62
389.387	119.62
389.612	84.62
389.837	117.62
390.062	109.62
390.287	98.62
390.512	104.62
390.736	101.62
390.961	93.62
391.186	97.62
391.411	92.62
391.636	92.62
391.86	94.62
392.085	88.62
392.31	69.62
392.534	85.62
392.759	98.62
392.984	104.62
393.208	98.62
393.433	119.62
393.658	111.62
393.882	96.62
394.107	89.62
394.331	87.62
394.556	96.62
394.78	95.62
395.005	87.62
395.229	92.62
395.454	95.62
395.678	93.62
395.903	84.62
396.127	96.62
396.352	88.62
396.576	98.62
396.801	92.62
397.025	112.62
397.249	97.62
397.474	91.62
397.698	83.62
397.922	78.62
398.147	105.62
398.371	89.62
398.595	86.62
398.82	91.62
399.044	86.62
399.268	81.62
399.492	86.62
399.717	97.62
399.941	88.62
400.165	110.62
400.389	86.62
400.613	95.62
400.837	77.62
401.062	100.62
401.286	84.62
401.51	93.62
401.734	89.62
401.958	101.62
402.182	132.62
402.406	149.62
402.63	120.62
402.854	103.62
403.078	84.62
403.302	95.62
403.526	87.62
403.75	75.62
403.974	77.62
404.198	94.62
404.422	85.62
404.645	96.62
404.869	100.62
405.093	112.62
405.317	112.62
405.541	114.62
405.765	107.62
405.988	99.62
406.212	172.62
406.436	225.62
406.66	157.62
406.883	95.62
407.107	92.62
407.331	95.62
407.555	105.62
407.778	102.62
408.002	82.62
408.226	99.62
408.449	99.62
408.673	85.62
408.896	91.62
409.12	91.62
409.344	88.62
409.567	93.62
409.791	86.62
410.014	95.62
410.238	95.62
410.461	95.62
410.685	88.62
410.908	101.62
411.132	97.62
411.355	113.62
411.578	93.62
411.802	110.62
412.025	88.62
412.249	90.62
412.472	108.62
412.695	116.62
412.919	88.62
413.142	95.62
413.365	99.62
413.589	85.62
413.812	83.62
414.035	96.62
414.258	90.62
414.482	102.62
414.705	92.62
414.928	88.62
415.151	94.62
415.374	83.62
415.597	89.62
415.821	83.62
416.044	86.62
416.267	79.62
416.49	92.62
416.713	87.62
416.936	97.62
417.159	81.62
417.382	96.62
417.605	106.62
417.828	100.62
418.051	102.62
418.274	100.62
418.497	80.62
418.72	72.62
418.943	91.62
419.166	93.62
419.389	85.62
419.611	96.62
419.834	84.62
420.057	84.62
420.28	101.62
420.503	72.62
420.726	103.62
420.948	91.62
421.171	98.62
421.394	84.62
421.617	94.62
421.839	92.62
422.062	96.62
422.285	88.62
422.507	96.62
422.73	96.62
422.953	87.62
423.175	89.62
423.398	87.62
423.621	100.62
423.843	89.62
424.066	94.62
424.288	103.62
424.511	87.62
424.733	100.62
424.956	100.62
425.178	86.62
425.401	101.62
425.623	100.62
425.846	87.62
426.068	105.62
426.291	89.62
426.513	100.62
426.735	112.62
426.958	95.62
427.18	111.62
427.402	140.62
427.625	177.62
427.847	166.62
428.069	165.62
428.292	104.62
428.514	102.62
428.736	83.62
428.958	98.62
429.181	111.62
429.403	85.62
429.625	95.62
429.847	92.62
430.069	96.62
430.292	87.62
430.514	74.62
430.736	89.62
430.958	97.62
431.18	92.62
431.402	103.62
431.624	88.62
431.846	84.62
432.068	94.62
432.29	90.62
432.512	95.62
432.734	92.62
432.956	88.62
433.178	95.62
433.4	97.62
433.622	98.62
433.844	83.62
434.066	88.62
434.287	93.62
434.509	94.62
434.731	90.62
434.953	87.62
435.175	88.62
435.397	86.62
435.618	93.62
435.84	95.62
436.062	125.62
436.284	124.62
436.505	110.62
436.727	102.62
436.949	96.62
437.17	96.62
437.392	86.62
437.614	88.62
437.835	116.62
438.057	135.62
438.278	121.62
438.5	109.62
438.721	133.62
438.943	100.62
439.165	88.62
439.386	104.62
439.608	105.62
439.829	107.62
440.05	119.62
440.272	152.62
440.493	108.62
440.715	85.62
440.936	81.62
441.158	79.62
441.379	97.62
441.6	91.62
441.822	109.62
442.043	95.62
442.264	99.62
442.486	96.62
442.707	93.62
442.928	102.62
443.149	124.62
443.371	129.62
443.592	114.62
443.813	118.62
444.034	105.62
444.255	97.62
444.476	74.62
444.698	84.62
444.919	83.62
445.14	115.62
445.361	133.62
445.582	113.62
445.803	139.62
446.024	147.62
446.245	144.62
446.466	110.62
446.687	84.62
446.908	92.62
447.129	72.62
447.35	104.62
447.571	96.62
447.792	93.62
448.013	103.62
448.234	111.62
448.455	105.62
448.675	127.62
448.896	118.62
449.117	94.62
449.338	117.62
449.559	141.62
449.779	130.62
450	88.62
450.221	70.62
450.442	93.62
450.662	99.62
450.883	109.62
451.104	105.62
451.324	99.62
451.545	85.62
451.766	95.62
451.986	78.62
452.207	81.62
452.428	85.62
452.648	104.62
452.869	114.62
453.089	114.62
453.31	110.62
453.53	85.62
453.751	83.62
453.971	104.62
454.192	120.62
454.412	107.62
454.633	78.62
454.853	101.62
455.073	93.62
455.294	98.62
455.514	103.62
455.734	92.62
455.955	83.62
456.175	88.62
456.395	77.62
456.616	93.62
456.836	94.62
457.056	83.62
457.276	94.62
457.497	86.62
457.717	80.62
457.937	96.62
458.157	94.62
458.377	103.62
458.598	124.62
458.818	171.62
459.038	157.62
459.258	124.62
459.478	95.62
459.698	93.62
459.918	86.62
460.138	83.62
460.358	73.62
460.578	95.62
460.798	88.62
461.018	91.62
461.238	99.62
461.458	83.62
461.678	88.62
461.898	86.62
462.118	88.62
462.338	78.62
462.558	77.62
462.777	93.62
462.997	75.62
463.217	91.62
463.437	97.62
463.657	88.62
463.876	77.62
464.096	95.62
464.316	99.62
464.536	100.62
464.755	96.62
464.975	114.62
465.195	159.62
465.414	150.62
465.634	92.62
465.854	99.62
466.073	97.62
466.293	99.62
466.512	74.62
466.732	85.62
466.951	83.62
467.171	88.62
467.391	86.62
467.61	112.62
467.829	117.62
468.049	276.62
468.268	355.62
468.488	132.62
468.707	91.62
468.927	92.62
469.146	97.62
469.365	93.62
469.585	92.62
469.804	96.62
470.023	89.62
470.243	90.62
470.462	104.62
470.681	117.62
470.901	103.62
471.12	91.62
471.339	86.62
471.558	87.62
471.777	109.62
471.997	166.62
472.216	494.62
472.435	1011.62
472.654	278.62
472.873	108.62
473.092	98.62
473.311	89.62
473.53	79.62
473.749	91.62
473.968	91.62
474.187	104.62
474.406	95.62
474.625	80.62
474.844	94.62
475.063	98.62
475.282	99.62
475.501	88.62
475.72	80.62
475.939	83.62
476.158	94.62
476.377	84.62
476.596	91.62
476.814	94.62
477.033	90.62
477.252	84.62
477.471	88.62
477.69	80.62
477.908	93.62
478.127	83.62
478.346	88.62
478.564	94.62
478.783	113.62
479.002	109.62
479.22	108.62
479.439	101.62
479.658	105.62
479.876	98.62
480.095	100.62
480.313	105.62
480.532	131.62
480.751	173.62
480.969	477.62
481.188	1796.62
481.406	1026.62
481.624	193.62
481.843	109.62
482.061	104.62
482.28	95.62
482.498	93.62
482.717	82.62
482.935	101.62
483.153	84.62
483.372	87.62
483.59	86.62
483.808	86.62
484.027	85.62
484.245	99.62
484.463	88.62
484.681	103.62
484.9	95.62
485.118	98.62
485.336	88.62
485.554	101.62
485.772	116.62
485.99	102.62
486.209	101.62
486.427	104.62
486.645	109.62
486.863	103.62
487.081	93.62
487.299	79.62
487.517	99.62
487.735	95.62
487.953	97.62
488.171	89.62
488.389	94.62
488.607	89.62
488.825	90.62
489.043	75.62
489.261	88.62
489.479	95.62
489.696	94.62
489.914	83.62
490.132	93.62
490.35	98.62
490.568	87.62
490.786	99.62
491.003	83.62
491.221	88.62
491.439	93.62
491.657	88.62
491.874	91.62
492.092	99.62
492.31	93.62
492.527	93.62
492.745	96.62
492.963	90.62
493.18	80.62
493.398	87.62
493.615	94.62
493.833	99.62
494.05	93.62
494.268	90.62
494.485	101.62
494.703	81.62
494.92	89.62
495.138	92.62
495.355	95.62
495.573	93.62
495.79	81.62
496.008	104.62
496.225	100.62
496.442	96.62
496.66	88.62
496.877	102.62
497.094	80.62
497.312	79.62
497.529	97.62
497.746	92.62
497.963	85.62
498.181	79.62
498.398	108.62
498.615	111.62
498.832	99.62
499.049	81.62
499.267	92.62
499.484	105.62
499.701	83.62
499.918	97.62
500.135	104.62
500.352	92.62
500.569	95.62
500.786	87.62
501.003	87.62
501.22	97.62
501.437	75.62
501.654	95.62
501.871	108.62
502.088	118.62
502.305	98.62
502.522	91.62
502.739	98.62
502.956	91.62
503.172	101.62
503.389	105.62
503.606	98.62
503.823	105.62
504.04	96.62
504.256	98.62
504.473	88.62
504.69	84.62
504.907	77.62
505.123	77.62
505.34	77.62
505.557	77.62
505.773	97.62
505.99	99.62
506.207	69.62
506.423	90.62
506.64	83.62
506.856	84.62
507.073	100.62
507.289	109.62
507.506	109.62
507.722	116.62
507.939	109.62
508.155	95.62
508.372	81.62
508.588	82.62
508.805	88.62
509.021	99.62
509.238	119.62
509.454	100.62
509.67	94.62
509.887	109.62
510.103	136.62
510.319	213.62
510.536	800.62
510.752	2599.62
510.968	712.62
511.184	173.62
511.401	110.62
511.617	105.62
511.833	99.62
512.049	90.62
512.265	96.62
512.481	111.62
512.698	84.62
512.914	97.62
513.13	98.62
513.346	105.62
513.562	101.62
513.778	104.62
513.994	89.62
514.21	84.62
514.426	140.62
