Data from Circ_1991_H10_HRD10591_00092.txt Node
Date: Wed Jan 03 11:51:59 EST 2024
User: Yrep
Spectrometer: HR+D1059
Trigger mode: 1
Integration Time (sec): 1.000000E-1
Scans to average: 1
Electric dark correction enabled: true
Nonlinearity correction enabled: false
Boxcar width: 0
XAxis mode: Wavelengths
Number of Pixels in Spectrum: 2048
>>>>>Begin Spectral Data<<<<<
223.165	-21.81
223.4	-21.81
223.635	-21.81
223.869	-18.81
224.104	-19.81
224.338	-18.81
224.573	-8.81
224.808	-16.81
225.042	-2.81
225.277	-6.81
225.511	-10.81
225.746	-10.81
225.98	10.19
226.215	3.19
226.449	19.19
226.683	33.19
226.918	25.19
227.152	45.19
227.387	31.19
227.621	28.19
227.856	38.19
228.09	47.19
228.324	58.19
228.559	57.19
228.793	56.19
229.027	77.19
229.262	74.19
229.496	78.19
229.73	87.19
229.964	93.19
230.199	71.19
230.433	67.19
230.667	86.19
230.901	79.19
231.136	70.19
231.37	72.19
231.604	78.19
231.838	92.19
232.072	93.19
232.306	74.19
232.541	87.19
232.775	81.19
233.009	80.19
233.243	84.19
233.477	85.19
233.711	88.19
233.945	84.19
234.179	68.19
234.413	76.19
234.647	65.19
234.881	77.19
235.115	89.19
235.349	96.19
235.583	87.19
235.817	57.19
236.051	69.19
236.285	55.19
236.519	73.19
236.753	86.19
236.987	86.19
237.221	78.19
237.455	92.19
237.689	82.19
237.922	83.19
238.156	93.19
238.39	69.19
238.624	93.19
238.858	79.19
239.091	80.19
239.325	81.19
239.559	83.19
239.793	84.19
240.027	82.19
240.26	92.19
240.494	68.19
240.728	84.19
240.961	75.19
241.195	74.19
241.429	69.19
241.662	62.19
241.896	83.19
242.13	81.19
242.363	70.19
242.597	81.19
242.83	63.19
243.064	68.19
243.298	77.19
243.531	74.19
243.765	87.19
243.998	83.19
244.232	77.19
244.465	95.19
244.699	79.19
244.932	74.19
245.166	73.19
245.399	77.19
245.633	69.19
245.866	77.19
246.099	87.19
246.333	76.19
246.566	68.19
246.8	77.19
247.033	63.19
247.266	93.19
247.5	77.19
247.733	67.19
247.966	80.19
248.2	82.19
248.433	79.19
248.666	77.19
248.899	86.19
249.133	90.19
249.366	93.19
249.599	100.19
249.832	81.19
250.066	73.19
250.299	76.19
250.532	82.19
250.765	85.19
250.998	81.19
251.231	77.19
251.465	75.19
251.698	85.19
251.931	77.19
252.164	74.19
252.397	82.19
252.63	82.19
252.863	77.19
253.096	86.19
253.329	81.19
253.562	82.19
253.795	93.19
254.028	87.19
254.261	85.19
254.494	97.19
254.727	87.19
254.96	79.19
255.193	75.19
255.426	86.19
255.659	79.19
255.892	75.19
256.124	91.19
256.357	67.19
256.59	91.19
256.823	89.19
257.056	82.19
257.289	85.19
257.521	81.19
257.754	81.19
257.987	84.19
258.22	85.19
258.452	86.19
258.685	82.19
258.918	101.19
259.151	81.19
259.383	87.19
259.616	86.19
259.849	83.19
260.081	100.19
260.314	82.19
260.547	83.19
260.779	90.19
261.012	112.19
261.244	79.19
261.477	87.19
261.71	74.19
261.942	112.19
262.175	106.19
262.407	96.19
262.64	83.19
262.872	90.19
263.105	92.19
263.337	88.19
263.57	71.19
263.802	80.19
264.035	80.19
264.267	87.19
264.499	89.19
264.732	73.19
264.964	89.19
265.197	91.19
265.429	92.19
265.661	73.19
265.894	82.19
266.126	73.19
266.358	79.19
266.591	84.19
266.823	87.19
267.055	89.19
267.287	90.19
267.52	87.19
267.752	87.19
267.984	90.19
268.216	66.19
268.448	68.19
268.681	90.19
268.913	82.19
269.145	67.19
269.377	93.19
269.609	89.19
269.841	93.19
270.073	81.19
270.306	85.19
270.538	86.19
270.77	79.19
271.002	73.19
271.234	91.19
271.466	73.19
271.698	80.19
271.93	91.19
272.162	101.19
272.394	92.19
272.626	94.19
272.858	89.19
273.09	90.19
273.322	79.19
273.553	86.19
273.785	89.19
274.017	93.19
274.249	75.19
274.481	99.19
274.713	90.19
274.945	79.19
275.176	83.19
275.408	83.19
275.64	98.19
275.872	89.19
276.104	80.19
276.335	118.19
276.567	99.19
276.799	125.19
277.031	125.19
277.262	140.19
277.494	110.19
277.726	94.19
277.957	93.19
278.189	85.19
278.421	90.19
278.652	97.19
278.884	90.19
279.115	85.19
279.347	75.19
279.579	82.19
279.81	102.19
280.042	123.19
280.273	145.19
280.505	114.19
280.736	97.19
280.968	84.19
281.199	89.19
281.431	92.19
281.662	83.19
281.894	87.19
282.125	99.19
282.356	121.19
282.588	131.19
282.819	106.19
283.051	87.19
283.282	81.19
283.513	83.19
283.745	79.19
283.976	99.19
284.207	86.19
284.439	74.19
284.67	83.19
284.901	99.19
285.132	87.19
285.364	92.19
285.595	82.19
285.826	99.19
286.057	93.19
286.288	89.19
286.52	83.19
286.751	83.19
286.982	93.19
287.213	99.19
287.444	79.19
287.675	94.19
287.906	85.19
288.138	78.19
288.369	83.19
288.6	93.19
288.831	93.19
289.062	77.19
289.293	73.19
289.524	81.19
289.755	90.19
289.986	94.19
290.217	97.19
290.448	90.19
290.679	86.19
290.91	92.19
291.141	77.19
291.371	93.19
291.602	80.19
291.833	85.19
292.064	91.19
292.295	86.19
292.526	91.19
292.757	79.19
292.987	75.19
293.218	91.19
293.449	71.19
293.68	80.19
293.91	90.19
294.141	89.19
294.372	82.19
294.603	83.19
294.833	97.19
295.064	87.19
295.295	97.19
295.525	83.19
295.756	107.19
295.987	112.19
296.217	156.19
296.448	122.19
296.679	121.19
296.909	118.19
297.14	89.19
297.37	90.19
297.601	101.19
297.831	82.19
298.062	89.19
298.292	79.19
298.523	75.19
298.753	84.19
298.984	89.19
299.214	78.19
299.445	89.19
299.675	83.19
299.905	89.19
300.136	86.19
300.366	102.19
300.597	92.19
300.827	98.19
301.057	109.19
301.288	120.19
301.518	88.19
301.748	92.19
301.979	91.19
302.209	88.19
302.439	97.19
302.669	84.19
302.9	109.19
303.13	93.19
303.36	94.19
303.59	110.19
303.82	115.19
304.051	108.19
304.281	88.19
304.511	99.19
304.741	81.19
304.971	85.19
305.201	81.19
305.431	90.19
305.661	87.19
305.891	86.19
306.121	94.19
306.352	111.19
306.582	106.19
306.812	91.19
307.042	94.19
307.272	113.19
307.502	128.19
307.731	129.19
307.961	103.19
308.191	95.19
308.421	81.19
308.651	93.19
308.881	87.19
309.111	91.19
309.341	94.19
309.571	81.19
309.8	96.19
310.03	99.19
310.26	91.19
310.49	92.19
310.72	99.19
310.949	114.19
311.179	101.19
311.409	102.19
311.639	94.19
311.868	95.19
312.098	96.19
312.328	93.19
312.557	119.19
312.787	103.19
313.017	109.19
313.246	91.19
313.476	96.19
313.706	95.19
313.935	97.19
314.165	104.19
314.394	98.19
314.624	83.19
314.853	90.19
315.083	103.19
315.312	99.19
315.542	91.19
315.771	97.19
316.001	92.19
316.23	80.19
316.46	93.19
316.689	110.19
316.919	99.19
317.148	101.19
317.377	95.19
317.607	100.19
317.836	94.19
318.065	96.19
318.295	85.19
318.524	110.19
318.753	82.19
318.983	84.19
319.212	98.19
319.441	111.19
319.67	110.19
319.9	102.19
320.129	86.19
320.358	85.19
320.587	94.19
320.816	94.19
321.046	113.19
321.275	107.19
321.504	84.19
321.733	89.19
321.962	97.19
322.191	102.19
322.42	99.19
322.649	121.19
322.878	108.19
323.108	115.19
323.337	122.19
323.566	134.19
323.795	140.19
324.024	215.19
324.253	421.19
324.482	917.19
324.71	1926.19
324.939	2641.19
325.168	941.19
325.397	274.19
325.626	166.19
325.855	135.19
326.084	124.19
326.313	121.19
326.542	160.19
326.77	250.19
326.999	504.19
327.228	1071.19
327.457	1961.19
327.686	1583.19
327.914	451.19
328.143	310.19
328.372	353.19
328.6	205.19
328.829	147.19
329.058	134.19
329.287	145.19
329.515	115.19
329.744	162.19
329.972	276.19
330.201	479.19
330.43	643.19
330.658	329.19
330.887	195.19
331.115	142.19
331.344	102.19
331.572	117.19
331.801	113.19
332.03	113.19
332.258	108.19
332.486	103.19
332.715	87.19
332.943	105.19
333.172	122.19
333.4	113.19
333.629	121.19
333.857	159.19
334.085	232.19
334.314	438.19
334.542	810.19
334.771	793.19
334.999	241.19
335.227	126.19
335.455	101.19
335.684	101.19
335.912	99.19
336.14	102.19
336.369	111.19
336.597	85.19
336.825	99.19
337.053	75.19
337.281	97.19
337.51	91.19
337.738	96.19
337.966	92.19
338.194	83.19
338.422	113.19
338.65	91.19
338.878	102.19
339.106	87.19
339.334	99.19
339.562	92.19
339.79	86.19
340.018	105.19
340.246	95.19
340.474	94.19
340.702	92.19
340.93	91.19
341.158	90.19
341.386	92.19
341.614	95.19
341.842	79.19
342.07	104.19
342.298	75.19
342.526	89.19
342.754	94.19
342.981	69.19
343.209	90.19
343.437	109.19
343.665	70.19
343.893	73.19
344.12	85.19
344.348	82.19
344.576	92.19
344.804	100.19
345.031	97.19
345.259	93.19
345.487	93.19
345.714	89.19
345.942	96.19
346.17	92.19
346.397	98.19
346.625	97.19
346.853	94.19
347.08	89.19
347.308	95.19
347.535	101.19
347.763	104.19
347.99	98.19
348.218	105.19
348.445	110.19
348.673	110.19
348.9	99.19
349.128	115.19
349.355	96.19
349.583	93.19
349.81	96.19
350.037	83.19
350.265	96.19
350.492	93.19
350.72	85.19
350.947	83.19
351.174	103.19
351.402	106.19
351.629	107.19
351.856	98.19
352.083	103.19
352.311	111.19
352.538	109.19
352.765	106.19
352.992	116.19
353.22	111.19
353.447	95.19
353.674	96.19
353.901	93.19
354.128	79.19
354.355	75.19
354.583	105.19
354.81	105.19
355.037	91.19
355.264	98.19
355.491	104.19
355.718	87.19
355.945	96.19
356.172	84.19
356.399	95.19
356.626	105.19
356.853	98.19
357.08	113.19
357.307	81.19
357.534	95.19
357.761	106.19
357.988	99.19
358.215	79.19
358.441	84.19
358.668	89.19
358.895	90.19
359.122	98.19
359.349	95.19
359.576	103.19
359.802	99.19
360.029	118.19
360.256	95.19
360.483	103.19
360.709	90.19
360.936	107.19
361.163	91.19
361.39	98.19
361.616	86.19
361.843	95.19
362.07	94.19
362.296	93.19
362.523	88.19
362.749	82.19
362.976	86.19
363.203	77.19
363.429	96.19
363.656	97.19
363.882	91.19
364.109	78.19
364.335	91.19
364.562	89.19
364.788	83.19
365.015	93.19
365.241	108.19
365.468	96.19
365.694	113.19
365.92	98.19
366.147	84.19
366.373	73.19
366.599	98.19
366.826	96.19
367.052	93.19
367.278	96.19
367.505	93.19
367.731	106.19
367.957	85.19
368.184	93.19
368.41	104.19
368.636	101.19
368.862	124.19
369.089	107.19
369.315	102.19
369.541	86.19
369.767	85.19
369.993	73.19
370.219	88.19
370.445	102.19
370.672	96.19
370.898	82.19
371.124	83.19
371.35	97.19
371.576	83.19
371.802	75.19
372.028	85.19
372.254	80.19
372.48	81.19
372.706	92.19
372.932	96.19
373.158	82.19
373.384	87.19
373.61	83.19
373.835	98.19
374.061	83.19
374.287	85.19
374.513	87.19
374.739	90.19
374.965	81.19
375.191	94.19
375.416	80.19
375.642	87.19
375.868	95.19
376.094	86.19
376.319	88.19
376.545	87.19
376.771	89.19
376.997	94.19
377.222	91.19
377.448	90.19
377.674	90.19
377.899	96.19
378.125	90.19
378.35	81.19
378.576	94.19
378.802	100.19
379.027	90.19
379.253	94.19
379.478	97.19
379.704	82.19
379.929	99.19
380.155	96.19
380.38	102.19
380.606	84.19
380.831	86.19
381.057	99.19
381.282	109.19
381.507	103.19
381.733	95.19
381.958	80.19
382.184	85.19
382.409	88.19
382.634	96.19
382.86	93.19
383.085	88.19
383.31	99.19
383.535	95.19
383.761	86.19
383.986	89.19
384.211	86.19
384.436	96.19
384.662	100.19
384.887	94.19
385.112	92.19
385.337	97.19
385.562	108.19
385.787	105.19
386.013	102.19
386.238	106.19
386.463	102.19
386.688	107.19
386.913	108.19
387.138	108.19
387.363	102.19
387.588	98.19
387.813	86.19
388.038	94.19
388.263	111.19
388.488	100.19
388.713	96.19
388.938	99.19
389.163	93.19
389.387	89.19
389.612	88.19
389.837	96.19
390.062	87.19
390.287	86.19
390.512	90.19
390.736	83.19
390.961	77.19
391.186	97.19
391.411	90.19
391.636	91.19
391.86	71.19
392.085	90.19
392.31	107.19
392.534	90.19
392.759	95.19
392.984	81.19
393.208	83.19
393.433	106.19
393.658	97.19
393.882	70.19
394.107	84.19
394.331	94.19
394.556	86.19
394.78	89.19
395.005	92.19
395.229	77.19
395.454	92.19
395.678	92.19
395.903	91.19
396.127	88.19
396.352	89.19
396.576	80.19
396.801	89.19
397.025	100.19
397.249	81.19
397.474	83.19
397.698	89.19
397.922	80.19
398.147	90.19
398.371	101.19
398.595	74.19
398.82	75.19
399.044	96.19
399.268	88.19
399.492	91.19
399.717	86.19
399.941	79.19
400.165	106.19
400.389	84.19
400.613	83.19
400.837	89.19
401.062	104.19
401.286	82.19
401.51	85.19
401.734	92.19
401.958	101.19
402.182	129.19
402.406	165.19
402.63	130.19
402.854	90.19
403.078	86.19
403.302	82.19
403.526	81.19
403.75	86.19
403.974	84.19
404.198	89.19
404.422	80.19
404.645	78.19
404.869	88.19
405.093	111.19
405.317	108.19
405.541	108.19
405.765	103.19
405.988	118.19
406.212	163.19
406.436	249.19
406.66	161.19
406.883	106.19
407.107	94.19
407.331	112.19
407.555	110.19
407.778	93.19
408.002	84.19
408.226	85.19
408.449	90.19
408.673	99.19
408.896	90.19
409.12	87.19
409.344	85.19
409.567	87.19
409.791	94.19
410.014	92.19
410.238	97.19
410.461	87.19
410.685	98.19
410.908	85.19
411.132	96.19
411.355	94.19
411.578	92.19
411.802	86.19
412.025	83.19
412.249	96.19
412.472	95.19
412.695	123.19
412.919	86.19
413.142	86.19
413.365	85.19
413.589	73.19
413.812	90.19
414.035	106.19
414.258	76.19
414.482	87.19
414.705	90.19
414.928	87.19
415.151	80.19
415.374	110.19
415.597	94.19
415.821	92.19
416.044	82.19
416.267	91.19
416.49	83.19
416.713	100.19
416.936	86.19
417.159	88.19
417.382	92.19
417.605	96.19
417.828	94.19
418.051	98.19
418.274	98.19
418.497	86.19
418.72	83.19
418.943	85.19
419.166	83.19
419.389	92.19
419.611	79.19
419.834	95.19
420.057	79.19
420.28	87.19
420.503	81.19
420.726	91.19
420.948	96.19
421.171	90.19
421.394	83.19
421.617	82.19
421.839	80.19
422.062	90.19
422.285	91.19
422.507	98.19
422.73	113.19
422.953	97.19
423.175	79.19
423.398	90.19
423.621	86.19
423.843	80.19
424.066	86.19
424.288	89.19
424.511	96.19
424.733	91.19
424.956	87.19
425.178	93.19
425.401	78.19
425.623	114.19
425.846	103.19
426.068	102.19
426.291	97.19
426.513	95.19
426.735	80.19
426.958	90.19
427.18	108.19
427.402	144.19
427.625	197.19
427.847	179.19
428.069	173.19
428.292	108.19
428.514	85.19
428.736	94.19
428.958	79.19
429.181	89.19
429.403	90.19
429.625	79.19
429.847	96.19
430.069	101.19
430.292	94.19
430.514	89.19
430.736	82.19
430.958	83.19
431.18	96.19
431.402	82.19
431.624	70.19
431.846	82.19
432.068	99.19
432.29	93.19
432.512	82.19
432.734	71.19
432.956	70.19
433.178	100.19
433.4	94.19
433.622	76.19
433.844	86.19
434.066	82.19
434.287	80.19
434.509	79.19
434.731	89.19
434.953	87.19
435.175	80.19
435.397	98.19
435.618	99.19
435.84	122.19
436.062	127.19
436.284	117.19
436.505	113.19
436.727	105.19
436.949	118.19
437.17	83.19
437.392	95.19
437.614	93.19
437.835	95.19
438.057	129.19
438.278	114.19
438.5	108.19
438.721	130.19
438.943	104.19
439.165	71.19
439.386	83.19
439.608	100.19
439.829	96.19
440.05	140.19
440.272	158.19
440.493	103.19
440.715	94.19
440.936	86.19
441.158	80.19
441.379	97.19
441.6	92.19
441.822	85.19
442.043	85.19
442.264	117.19
442.486	109.19
442.707	101.19
442.928	96.19
443.149	125.19
443.371	142.19
443.592	106.19
443.813	114.19
444.034	113.19
444.255	98.19
444.476	82.19
444.698	86.19
444.919	85.19
445.14	125.19
445.361	125.19
445.582	128.19
445.803	135.19
446.024	147.19
446.245	156.19
446.466	121.19
446.687	99.19
446.908	101.19
447.129	93.19
447.35	88.19
447.571	97.19
447.792	90.19
448.013	102.19
448.234	120.19
448.455	109.19
448.675	117.19
448.896	117.19
449.117	112.19
449.338	100.19
449.559	130.19
449.779	130.19
450	90.19
450.221	89.19
450.442	80.19
450.662	100.19
450.883	95.19
451.104	114.19
451.324	94.19
451.545	83.19
451.766	88.19
451.986	87.19
452.207	76.19
452.428	98.19
452.648	109.19
452.869	109.19
453.089	102.19
453.31	114.19
453.53	84.19
453.751	93.19
453.971	101.19
454.192	125.19
454.412	97.19
454.633	89.19
454.853	85.19
455.073	86.19
455.294	100.19
455.514	103.19
455.734	71.19
455.955	85.19
456.175	97.19
456.395	87.19
456.616	83.19
456.836	91.19
457.056	90.19
457.276	85.19
457.497	84.19
457.717	85.19
457.937	87.19
458.157	92.19
458.377	95.19
458.598	111.19
458.818	159.19
459.038	170.19
459.258	112.19
459.478	91.19
459.698	75.19
459.918	77.19
460.138	101.19
460.358	84.19
460.578	84.19
460.798	95.19
461.018	97.19
461.238	88.19
461.458	65.19
461.678	86.19
461.898	91.19
462.118	64.19
462.338	81.19
462.558	94.19
462.777	91.19
462.997	70.19
463.217	104.19
463.437	105.19
463.657	75.19
463.876	113.19
464.096	100.19
464.316	68.19
464.536	102.19
464.755	100.19
464.975	93.19
465.195	167.19
465.414	176.19
465.634	99.19
465.854	99.19
466.073	90.19
466.293	70.19
466.512	88.19
466.732	75.19
466.951	100.19
467.171	95.19
467.391	89.19
467.61	118.19
467.829	151.19
468.049	306.19
468.268	399.19
468.488	138.19
468.707	101.19
468.927	83.19
469.146	99.19
469.365	84.19
469.585	85.19
469.804	93.19
470.023	97.19
470.243	94.19
470.462	102.19
470.681	109.19
470.901	91.19
471.12	102.19
471.339	97.19
471.558	116.19
471.777	116.19
471.997	179.19
472.216	566.19
472.435	1229.19
472.654	314.19
472.873	137.19
473.092	88.19
473.311	81.19
473.53	84.19
473.749	87.19
473.968	95.19
474.187	100.19
474.406	99.19
474.625	97.19
474.844	94.19
475.063	81.19
475.282	97.19
475.501	91.19
475.72	89.19
475.939	70.19
476.158	94.19
476.377	86.19
476.596	108.19
476.814	95.19
477.033	95.19
477.252	99.19
477.471	94.19
477.69	93.19
477.908	92.19
478.127	93.19
478.346	85.19
478.564	81.19
478.783	98.19
479.002	114.19
479.22	106.19
479.439	86.19
479.658	105.19
479.876	113.19
480.095	107.19
480.313	121.19
480.532	132.19
480.751	203.19
480.969	549.19
481.188	2144.19
481.406	1183.19
481.624	226.19
481.843	115.19
482.061	89.19
482.28	87.19
482.498	84.19
482.717	95.19
482.935	78.19
483.153	94.19
483.372	88.19
483.59	89.19
483.808	83.19
484.027	92.19
484.245	85.19
484.463	97.19
484.681	92.19
484.9	92.19
485.118	91.19
485.336	97.19
485.554	83.19
485.772	101.19
485.99	103.19
486.209	99.19
486.427	107.19
486.645	114.19
486.863	113.19
487.081	101.19
487.299	102.19
487.517	103.19
487.735	105.19
487.953	84.19
488.171	99.19
488.389	109.19
488.607	95.19
488.825	90.19
489.043	93.19
489.261	96.19
489.479	85.19
489.696	81.19
489.914	88.19
490.132	87.19
490.35	90.19
490.568	98.19
490.786	77.19
491.003	72.19
491.221	93.19
491.439	79.19
491.657	86.19
491.874	86.19
492.092	78.19
492.31	82.19
492.527	84.19
492.745	102.19
492.963	87.19
493.18	86.19
493.398	83.19
493.615	103.19
493.833	97.19
494.05	92.19
494.268	101.19
494.485	99.19
494.703	87.19
494.92	93.19
495.138	92.19
495.355	100.19
495.573	85.19
495.79	99.19
496.008	90.19
496.225	81.19
496.442	83.19
496.66	84.19
496.877	93.19
497.094	93.19
497.312	99.19
497.529	86.19
497.746	95.19
497.963	94.19
498.181	90.19
498.398	104.19
498.615	95.19
498.832	122.19
499.049	109.19
499.267	98.19
499.484	91.19
499.701	103.19
499.918	102.19
500.135	86.19
500.352	106.19
500.569	79.19
500.786	100.19
501.003	86.19
501.22	86.19
501.437	85.19
501.654	107.19
501.871	112.19
502.088	76.19
502.305	89.19
502.522	76.19
502.739	94.19
502.956	101.19
503.172	95.19
503.389	117.19
503.606	92.19
503.823	107.19
504.04	83.19
504.256	104.19
504.473	95.19
504.69	101.19
504.907	90.19
505.123	92.19
505.34	98.19
505.557	83.19
505.773	70.19
505.99	89.19
506.207	89.19
506.423	85.19
506.64	91.19
506.856	97.19
507.073	89.19
507.289	99.19
507.506	79.19
507.722	122.19
507.939	117.19
508.155	94.19
508.372	80.19
508.588	84.19
508.805	94.19
509.021	94.19
509.238	97.19
509.454	103.19
509.67	99.19
509.887	117.19
510.103	115.19
510.319	205.19
510.536	790.19
510.752	2582.19
510.968	695.19
511.184	166.19
511.401	114.19
511.617	108.19
511.833	99.19
512.049	90.19
512.265	88.19
512.481	84.19
512.698	97.19
512.914	85.19
513.13	98.19
513.346	77.19
513.562	103.19
513.778	111.19
513.994	116.19
514.21	107.19
514.426	137.19
514.642	153.19
514.858	123.19
515.074	172.19
