Data from Circ_1991_H10_HRD10591_00049.txt Node
Date: Wed Jan 03 11:51:51 EST 2024
User: Yrep
Spectrometer: HR+D1059
Trigger mode: 1
Integration Time (sec): 1.000000E-1
Scans to average: 1
Electric dark correction enabled: true
Nonlinearity correction enabled: false
Boxcar width: 0
XAxis mode: Wavelengths
Number of Pixels in Spectrum: 2048
>>>>>Begin Spectral Data<<<<<
223.165	-10.44
223.4	-10.44
223.635	-10.44
223.869	-7.44
224.104	-27.44
224.338	-28.44
224.573	-3.44
224.808	-8.44
225.042	-1.44
225.277	-7.44
225.511	-11.44
225.746	-2.44
225.98	18.56
226.215	6.56
226.449	5.56
226.683	28.56
226.918	24.56
227.152	24.56
227.387	50.56
227.621	31.56
227.856	53.56
228.09	50.56
228.324	65.56
228.559	53.56
228.793	64.56
229.027	74.56
229.262	63.56
229.496	65.56
229.73	71.56
229.964	77.56
230.199	64.56
230.433	82.56
230.667	86.56
230.901	85.56
231.136	90.56
231.37	76.56
231.604	81.56
231.838	79.56
232.072	95.56
232.306	85.56
232.541	86.56
232.775	84.56
233.009	82.56
233.243	76.56
233.477	83.56
233.711	70.56
233.945	81.56
234.179	95.56
234.413	101.56
234.647	85.56
234.881	80.56
235.115	84.56
235.349	90.56
235.583	79.56
235.817	66.56
236.051	88.56
236.285	69.56
236.519	80.56
236.753	78.56
236.987	88.56
237.221	83.56
237.455	100.56
237.689	73.56
237.922	62.56
238.156	67.56
238.39	84.56
238.624	82.56
238.858	79.56
239.091	84.56
239.325	70.56
239.559	94.56
239.793	83.56
240.027	79.56
240.26	81.56
240.494	84.56
240.728	76.56
240.961	72.56
241.195	89.56
241.429	81.56
241.662	71.56
241.896	78.56
242.13	66.56
242.363	87.56
242.597	84.56
242.83	70.56
243.064	80.56
243.298	76.56
243.531	87.56
243.765	81.56
243.998	63.56
244.232	79.56
244.465	81.56
244.699	69.56
244.932	84.56
245.166	94.56
245.399	84.56
245.633	72.56
245.866	78.56
246.099	76.56
246.333	83.56
246.566	83.56
246.8	68.56
247.033	78.56
247.266	65.56
247.5	78.56
247.733	85.56
247.966	92.56
248.2	76.56
248.433	82.56
248.666	87.56
248.899	84.56
249.133	84.56
249.366	85.56
249.599	84.56
249.832	90.56
250.066	80.56
250.299	99.56
250.532	80.56
250.765	87.56
250.998	60.56
251.231	88.56
251.465	73.56
251.698	93.56
251.931	77.56
252.164	63.56
252.397	82.56
252.63	80.56
252.863	74.56
253.096	92.56
253.329	87.56
253.562	78.56
253.795	84.56
254.028	73.56
254.261	86.56
254.494	87.56
254.727	81.56
254.96	86.56
255.193	80.56
255.426	82.56
255.659	81.56
255.892	97.56
256.124	89.56
256.357	72.56
256.59	72.56
256.823	81.56
257.056	81.56
257.289	101.56
257.521	95.56
257.754	77.56
257.987	82.56
258.22	85.56
258.452	96.56
258.685	76.56
258.918	93.56
259.151	78.56
259.383	81.56
259.616	85.56
259.849	78.56
260.081	82.56
260.314	98.56
260.547	81.56
260.779	85.56
261.012	89.56
261.244	88.56
261.477	91.56
261.71	78.56
261.942	101.56
262.175	129.56
262.407	99.56
262.64	86.56
262.872	88.56
263.105	90.56
263.337	88.56
263.57	72.56
263.802	88.56
264.035	76.56
264.267	88.56
264.499	89.56
264.732	95.56
264.964	89.56
265.197	82.56
265.429	86.56
265.661	74.56
265.894	89.56
266.126	92.56
266.358	80.56
266.591	73.56
266.823	86.56
267.055	71.56
267.287	89.56
267.52	89.56
267.752	84.56
267.984	92.56
268.216	86.56
268.448	93.56
268.681	80.56
268.913	92.56
269.145	87.56
269.377	97.56
269.609	97.56
269.841	88.56
270.073	73.56
270.306	85.56
270.538	88.56
270.77	102.56
271.002	89.56
271.234	87.56
271.466	92.56
271.698	89.56
271.93	87.56
272.162	88.56
272.394	85.56
272.626	73.56
272.858	83.56
273.09	90.56
273.322	98.56
273.553	79.56
273.785	87.56
274.017	97.56
274.249	88.56
274.481	79.56
274.713	87.56
274.945	87.56
275.176	80.56
275.408	65.56
275.64	105.56
275.872	96.56
276.104	89.56
276.335	101.56
276.567	111.56
276.799	109.56
277.031	115.56
277.262	103.56
277.494	112.56
277.726	81.56
277.957	92.56
278.189	76.56
278.421	89.56
278.652	90.56
278.884	86.56
279.115	88.56
279.347	88.56
279.579	90.56
279.81	110.56
280.042	110.56
280.273	127.56
280.505	111.56
280.736	93.56
280.968	89.56
281.199	97.56
281.431	86.56
281.662	89.56
281.894	89.56
282.125	95.56
282.356	118.56
282.588	128.56
282.819	108.56
283.051	97.56
283.282	103.56
283.513	90.56
283.745	79.56
283.976	89.56
284.207	90.56
284.439	74.56
284.67	106.56
284.901	85.56
285.132	86.56
285.364	92.56
285.595	103.56
285.826	103.56
286.057	97.56
286.288	101.56
286.52	72.56
286.751	82.56
286.982	84.56
287.213	83.56
287.444	86.56
287.675	94.56
287.906	93.56
288.138	86.56
288.369	94.56
288.6	82.56
288.831	90.56
289.062	103.56
289.293	82.56
289.524	94.56
289.755	93.56
289.986	97.56
290.217	96.56
290.448	99.56
290.679	98.56
290.91	85.56
291.141	92.56
291.371	92.56
291.602	88.56
291.833	96.56
292.064	99.56
292.295	71.56
292.526	89.56
292.757	91.56
292.987	93.56
293.218	97.56
293.449	89.56
293.68	89.56
293.91	87.56
294.141	90.56
294.372	85.56
294.603	106.56
294.833	95.56
295.064	88.56
295.295	90.56
295.525	88.56
295.756	109.56
295.987	116.56
296.217	129.56
296.448	115.56
296.679	84.56
296.909	90.56
297.14	85.56
297.37	89.56
297.601	88.56
297.831	95.56
298.062	91.56
298.292	94.56
298.523	95.56
298.753	88.56
298.984	96.56
299.214	94.56
299.445	97.56
299.675	103.56
299.905	105.56
300.136	96.56
300.366	89.56
300.597	98.56
300.827	83.56
301.057	108.56
301.288	111.56
301.518	99.56
301.748	94.56
301.979	107.56
302.209	96.56
302.439	89.56
302.669	82.56
302.9	86.56
303.13	88.56
303.36	98.56
303.59	109.56
303.82	121.56
304.051	95.56
304.281	98.56
304.511	100.56
304.741	77.56
304.971	94.56
305.201	108.56
305.431	110.56
305.661	112.56
305.891	95.56
306.121	92.56
306.352	99.56
306.582	112.56
306.812	95.56
307.042	101.56
307.272	124.56
307.502	138.56
307.731	136.56
307.961	105.56
308.191	94.56
308.421	98.56
308.651	83.56
308.881	78.56
309.111	98.56
309.341	100.56
309.571	96.56
309.8	101.56
310.03	97.56
310.26	94.56
310.49	93.56
310.72	110.56
310.949	106.56
311.179	95.56
311.409	112.56
311.639	101.56
311.868	95.56
312.098	104.56
312.328	96.56
312.557	104.56
312.787	93.56
313.017	106.56
313.246	99.56
313.476	93.56
313.706	103.56
313.935	115.56
314.165	101.56
314.394	106.56
314.624	92.56
314.853	97.56
315.083	105.56
315.312	97.56
315.542	83.56
315.771	98.56
316.001	105.56
316.23	89.56
316.46	94.56
316.689	98.56
316.919	99.56
317.148	96.56
317.377	101.56
317.607	92.56
317.836	94.56
318.065	98.56
318.295	96.56
318.524	98.56
318.753	97.56
318.983	95.56
319.212	108.56
319.441	102.56
319.67	105.56
319.9	99.56
320.129	85.56
320.358	93.56
320.587	106.56
320.816	111.56
321.046	108.56
321.275	100.56
321.504	93.56
321.733	97.56
321.962	113.56
322.191	105.56
322.42	118.56
322.649	113.56
322.878	116.56
323.108	116.56
323.337	125.56
323.566	130.56
323.795	142.56
324.024	219.56
324.253	389.56
324.482	837.56
324.71	1773.56
324.939	2407.56
325.168	878.56
325.397	266.56
325.626	151.56
325.855	133.56
326.084	134.56
326.313	127.56
326.542	144.56
326.77	234.56
326.999	461.56
327.228	968.56
327.457	1846.56
327.686	1486.56
327.914	426.56
328.143	273.56
328.372	280.56
328.6	174.56
328.829	121.56
329.058	129.56
329.287	140.56
329.515	131.56
329.744	150.56
329.972	225.56
330.201	364.56
330.43	494.56
330.658	250.56
330.887	159.56
331.115	134.56
331.344	105.56
331.572	110.56
331.801	110.56
332.03	106.56
332.258	111.56
332.486	112.56
332.715	94.56
332.943	105.56
333.172	113.56
333.4	115.56
333.629	110.56
333.857	120.56
334.085	199.56
334.314	361.56
334.542	596.56
334.771	561.56
334.999	195.56
335.227	125.56
335.455	111.56
335.684	102.56
335.912	117.56
336.14	104.56
336.369	93.56
336.597	102.56
336.825	90.56
337.053	98.56
337.281	103.56
337.51	96.56
337.738	101.56
337.966	95.56
338.194	101.56
338.422	104.56
338.65	103.56
338.878	113.56
339.106	97.56
339.334	91.56
339.562	87.56
339.79	95.56
340.018	101.56
340.246	102.56
340.474	94.56
340.702	97.56
340.93	103.56
341.158	97.56
341.386	117.56
341.614	107.56
341.842	103.56
342.07	101.56
342.298	98.56
342.526	92.56
342.754	89.56
342.981	82.56
343.209	98.56
343.437	96.56
343.665	81.56
343.893	94.56
344.12	96.56
344.348	100.56
344.576	77.56
344.804	101.56
345.031	99.56
345.259	99.56
345.487	90.56
345.714	110.56
345.942	102.56
346.17	91.56
346.397	92.56
346.625	83.56
346.853	85.56
347.08	90.56
347.308	97.56
347.535	103.56
347.763	105.56
347.99	104.56
348.218	109.56
348.445	101.56
348.673	95.56
348.9	88.56
349.128	97.56
349.355	108.56
349.583	97.56
349.81	106.56
350.037	94.56
350.265	103.56
350.492	102.56
350.72	98.56
350.947	101.56
351.174	114.56
351.402	95.56
351.629	104.56
351.856	106.56
352.083	100.56
352.311	102.56
352.538	112.56
352.765	111.56
352.992	115.56
353.22	105.56
353.447	88.56
353.674	109.56
353.901	104.56
354.128	104.56
354.355	92.56
354.583	91.56
354.81	103.56
355.037	88.56
355.264	94.56
355.491	101.56
355.718	104.56
355.945	98.56
356.172	101.56
356.399	98.56
356.626	83.56
356.853	98.56
357.08	95.56
357.307	97.56
357.534	104.56
357.761	98.56
357.988	90.56
358.215	90.56
358.441	94.56
358.668	91.56
358.895	89.56
359.122	84.56
359.349	93.56
359.576	88.56
359.802	97.56
360.029	110.56
360.256	119.56
360.483	94.56
360.709	90.56
360.936	97.56
361.163	105.56
361.39	101.56
361.616	103.56
361.843	103.56
362.07	96.56
362.296	106.56
362.523	93.56
362.749	87.56
362.976	101.56
363.203	82.56
363.429	110.56
363.656	99.56
363.882	94.56
364.109	110.56
364.335	111.56
364.562	82.56
364.788	108.56
365.015	86.56
365.241	98.56
365.468	107.56
365.694	103.56
365.92	98.56
366.147	106.56
366.373	93.56
366.599	90.56
366.826	98.56
367.052	88.56
367.278	96.56
367.505	88.56
367.731	89.56
367.957	86.56
368.184	80.56
368.41	104.56
368.636	112.56
368.862	120.56
369.089	104.56
369.315	94.56
369.541	109.56
369.767	92.56
369.993	98.56
370.219	82.56
370.445	101.56
370.672	87.56
370.898	91.56
371.124	96.56
371.35	95.56
371.576	95.56
371.802	97.56
372.028	87.56
372.254	89.56
372.48	106.56
372.706	89.56
372.932	86.56
373.158	99.56
373.384	103.56
373.61	105.56
373.835	88.56
374.061	91.56
374.287	95.56
374.513	101.56
374.739	98.56
374.965	97.56
375.191	87.56
375.416	83.56
375.642	91.56
375.868	98.56
376.094	91.56
376.319	97.56
376.545	83.56
376.771	82.56
376.997	88.56
377.222	90.56
377.448	96.56
377.674	93.56
377.899	96.56
378.125	97.56
378.35	94.56
378.576	83.56
378.802	93.56
379.027	104.56
379.253	87.56
379.478	85.56
379.704	89.56
379.929	91.56
380.155	88.56
380.38	92.56
380.606	100.56
380.831	104.56
381.057	108.56
381.282	109.56
381.507	89.56
381.733	103.56
381.958	93.56
382.184	102.56
382.409	105.56
382.634	100.56
382.86	105.56
383.085	91.56
383.31	117.56
383.535	105.56
383.761	88.56
383.986	98.56
384.211	108.56
384.436	86.56
384.662	109.56
384.887	104.56
385.112	105.56
385.337	97.56
385.562	96.56
385.787	103.56
386.013	115.56
386.238	105.56
386.463	100.56
386.688	103.56
386.913	92.56
387.138	116.56
387.363	104.56
387.588	100.56
387.813	98.56
388.038	124.56
388.263	110.56
388.488	113.56
388.713	100.56
388.938	83.56
389.163	96.56
389.387	94.56
389.612	101.56
389.837	90.56
390.062	100.56
390.287	101.56
390.512	93.56
390.736	79.56
390.961	68.56
391.186	90.56
391.411	89.56
391.636	91.56
391.86	89.56
392.085	98.56
392.31	88.56
392.534	82.56
392.759	89.56
392.984	96.56
393.208	104.56
393.433	125.56
393.658	103.56
393.882	93.56
394.107	79.56
394.331	97.56
394.556	92.56
394.78	89.56
395.005	87.56
395.229	95.56
395.454	91.56
395.678	88.56
395.903	82.56
396.127	108.56
396.352	80.56
396.576	106.56
396.801	109.56
397.025	99.56
397.249	108.56
397.474	101.56
397.698	84.56
397.922	81.56
398.147	84.56
398.371	111.56
398.595	84.56
398.82	94.56
399.044	89.56
399.268	112.56
399.492	90.56
399.717	78.56
399.941	69.56
400.165	93.56
400.389	103.56
400.613	88.56
400.837	89.56
401.062	85.56
401.286	87.56
401.51	89.56
401.734	81.56
401.958	96.56
402.182	115.56
402.406	150.56
402.63	109.56
402.854	88.56
403.078	85.56
403.302	100.56
403.526	95.56
403.75	100.56
403.974	76.56
404.198	84.56
404.422	98.56
404.645	96.56
404.869	81.56
405.093	98.56
405.317	114.56
405.541	97.56
405.765	117.56
405.988	111.56
406.212	165.56
406.436	220.56
406.66	131.56
406.883	114.56
407.107	92.56
407.331	100.56
407.555	106.56
407.778	93.56
408.002	98.56
408.226	93.56
408.449	79.56
408.673	92.56
408.896	93.56
409.12	101.56
409.344	91.56
409.567	90.56
409.791	97.56
410.014	91.56
410.238	87.56
410.461	89.56
410.685	89.56
410.908	90.56
411.132	107.56
411.355	97.56
411.578	98.56
411.802	91.56
412.025	95.56
412.249	81.56
412.472	104.56
412.695	112.56
412.919	96.56
413.142	82.56
413.365	101.56
413.589	87.56
413.812	81.56
414.035	90.56
414.258	98.56
414.482	87.56
414.705	86.56
414.928	84.56
415.151	106.56
415.374	90.56
415.597	85.56
415.821	102.56
416.044	102.56
416.267	98.56
416.49	97.56
416.713	95.56
416.936	87.56
417.159	88.56
417.382	100.56
417.605	100.56
417.828	96.56
418.051	99.56
418.274	88.56
418.497	91.56
418.72	85.56
418.943	97.56
419.166	89.56
419.389	100.56
419.611	102.56
419.834	89.56
420.057	97.56
420.28	90.56
420.503	102.56
420.726	86.56
420.948	78.56
421.171	101.56
421.394	112.56
421.617	87.56
421.839	77.56
422.062	84.56
422.285	100.56
422.507	85.56
422.73	121.56
422.953	94.56
423.175	103.56
423.398	92.56
423.621	98.56
423.843	88.56
424.066	74.56
424.288	100.56
424.511	94.56
424.733	87.56
424.956	101.56
425.178	99.56
425.401	99.56
425.623	113.56
425.846	95.56
426.068	88.56
426.291	88.56
426.513	98.56
426.735	82.56
426.958	117.56
427.18	106.56
427.402	137.56
427.625	170.56
427.847	170.56
428.069	162.56
428.292	110.56
428.514	96.56
428.736	77.56
428.958	101.56
429.181	92.56
429.403	94.56
429.625	99.56
429.847	100.56
430.069	110.56
430.292	100.56
430.514	82.56
430.736	93.56
430.958	94.56
431.18	84.56
431.402	62.56
431.624	79.56
431.846	89.56
432.068	87.56
432.29	81.56
432.512	88.56
432.734	83.56
432.956	108.56
433.178	93.56
433.4	100.56
433.622	114.56
433.844	89.56
434.066	94.56
434.287	107.56
434.509	84.56
434.731	94.56
434.953	82.56
435.175	93.56
435.397	90.56
435.618	97.56
435.84	96.56
436.062	125.56
436.284	106.56
436.505	105.56
436.727	86.56
436.949	104.56
437.17	90.56
437.392	93.56
437.614	88.56
437.835	107.56
438.057	108.56
438.278	119.56
438.5	88.56
438.721	111.56
438.943	104.56
439.165	86.56
439.386	69.56
439.608	103.56
439.829	105.56
440.05	132.56
440.272	134.56
440.493	104.56
440.715	89.56
440.936	90.56
441.158	92.56
441.379	96.56
441.6	94.56
441.822	95.56
442.043	98.56
442.264	112.56
442.486	107.56
442.707	96.56
442.928	100.56
443.149	141.56
443.371	112.56
443.592	113.56
443.813	111.56
444.034	126.56
444.255	92.56
444.476	82.56
444.698	90.56
444.919	99.56
445.14	120.56
445.361	126.56
445.582	120.56
445.803	149.56
446.024	140.56
446.245	136.56
446.466	109.56
446.687	79.56
446.908	93.56
447.129	93.56
447.35	97.56
447.571	104.56
447.792	98.56
448.013	100.56
448.234	103.56
448.455	94.56
448.675	109.56
448.896	108.56
449.117	107.56
449.338	98.56
449.559	125.56
449.779	137.56
450	102.56
450.221	86.56
450.442	90.56
450.662	94.56
450.883	101.56
451.104	122.56
451.324	105.56
451.545	100.56
451.766	102.56
451.986	98.56
452.207	72.56
452.428	97.56
452.648	107.56
452.869	107.56
453.089	106.56
453.31	106.56
453.53	104.56
453.751	96.56
453.971	109.56
454.192	100.56
454.412	92.56
454.633	92.56
454.853	77.56
455.073	80.56
455.294	81.56
455.514	110.56
455.734	94.56
455.955	93.56
456.175	88.56
456.395	99.56
456.616	90.56
456.836	71.56
457.056	73.56
457.276	82.56
457.497	90.56
457.717	87.56
457.937	87.56
458.157	90.56
458.377	102.56
458.598	110.56
458.818	151.56
459.038	144.56
459.258	124.56
459.478	95.56
459.698	104.56
459.918	88.56
460.138	83.56
460.358	98.56
460.578	87.56
460.798	92.56
461.018	82.56
461.238	84.56
461.458	79.56
461.678	86.56
461.898	80.56
462.118	87.56
462.338	95.56
462.558	98.56
462.777	81.56
462.997	90.56
463.217	84.56
463.437	80.56
463.657	103.56
463.876	87.56
464.096	76.56
464.316	91.56
464.536	93.56
464.755	100.56
464.975	106.56
465.195	177.56
465.414	169.56
465.634	93.56
465.854	100.56
466.073	93.56
466.293	78.56
466.512	94.56
466.732	85.56
466.951	80.56
467.171	95.56
467.391	95.56
467.61	102.56
467.829	128.56
468.049	230.56
468.268	298.56
468.488	118.56
468.707	84.56
468.927	76.56
469.146	82.56
469.365	87.56
469.585	97.56
469.804	97.56
470.023	103.56
470.243	98.56
470.462	126.56
470.681	113.56
470.901	93.56
471.12	101.56
471.339	89.56
471.558	90.56
471.777	99.56
471.997	156.56
472.216	431.56
472.435	892.56
472.654	239.56
472.873	109.56
473.092	95.56
473.311	89.56
473.53	92.56
473.749	102.56
473.968	92.56
474.187	102.56
474.406	104.56
474.625	92.56
474.844	82.56
475.063	105.56
475.282	93.56
475.501	88.56
475.72	94.56
475.939	80.56
476.158	81.56
476.377	95.56
476.596	76.56
476.814	76.56
477.033	90.56
477.252	91.56
477.471	82.56
477.69	77.56
477.908	98.56
478.127	90.56
478.346	82.56
478.564	90.56
478.783	91.56
479.002	94.56
479.22	100.56
479.439	92.56
479.658	102.56
479.876	100.56
480.095	101.56
480.313	104.56
480.532	107.56
480.751	148.56
480.969	398.56
481.188	1496.56
481.406	888.56
481.624	180.56
481.843	100.56
482.061	97.56
482.28	94.56
482.498	88.56
482.717	95.56
482.935	92.56
483.153	111.56
483.372	88.56
483.59	94.56
483.808	80.56
484.027	89.56
484.245	86.56
484.463	85.56
484.681	93.56
484.9	91.56
485.118	90.56
485.336	94.56
485.554	94.56
485.772	94.56
485.99	109.56
486.209	102.56
486.427	113.56
486.645	111.56
486.863	110.56
487.081	107.56
487.299	97.56
487.517	76.56
487.735	88.56
487.953	87.56
488.171	100.56
488.389	89.56
488.607	103.56
488.825	97.56
489.043	97.56
489.261	87.56
489.479	91.56
489.696	93.56
489.914	86.56
490.132	84.56
490.35	94.56
490.568	83.56
490.786	96.56
491.003	87.56
491.221	97.56
491.439	80.56
491.657	86.56
491.874	106.56
492.092	78.56
492.31	89.56
492.527	106.56
492.745	93.56
492.963	94.56
493.18	94.56
493.398	98.56
493.615	101.56
493.833	83.56
494.05	85.56
494.268	102.56
494.485	90.56
494.703	92.56
494.92	92.56
495.138	79.56
495.355	87.56
495.573	94.56
495.79	89.56
496.008	94.56
496.225	84.56
496.442	96.56
496.66	90.56
496.877	112.56
497.094	113.56
497.312	81.56
497.529	83.56
497.746	87.56
497.963	92.56
498.181	89.56
498.398	108.56
498.615	97.56
498.832	100.56
499.049	107.56
499.267	91.56
499.484	93.56
499.701	84.56
499.918	84.56
500.135	97.56
500.352	92.56
500.569	85.56
500.786	83.56
501.003	82.56
501.22	103.56
501.437	93.56
501.654	102.56
501.871	104.56
502.088	96.56
502.305	102.56
502.522	87.56
502.739	80.56
502.956	80.56
503.172	100.56
503.389	84.56
503.606	114.56
503.823	94.56
504.04	88.56
504.256	86.56
504.473	93.56
504.69	92.56
504.907	94.56
505.123	92.56
505.34	99.56
505.557	94.56
505.773	91.56
505.99	93.56
506.207	106.56
506.423	89.56
506.64	89.56
506.856	102.56
507.073	103.56
507.289	96.56
507.506	115.56
507.722	112.56
507.939	102.56
508.155	106.56
508.372	93.56
508.588	89.56
508.805	83.56
509.021	99.56
509.238	95.56
509.454	102.56
509.67	107.56
509.887	105.56
510.103	125.56
510.319	201.56
510.536	699.56
510.752	2276.56
510.968	630.56
511.184	160.56
511.401	108.56
511.617	88.56
511.833	89.56
512.049	85.56
512.265	76.56
512.481	86.56
512.698	81.56
512.914	84.56
513.13	87.56
513.346	81.56
513.562	103.56
513.778	90.56
513.994	86.56
