Data from Circ_1991_H10_HRD10591_00015.txt Node
Date: Wed Jan 03 11:51:44 EST 2024
User: Yrep
Spectrometer: HR+D1059
Trigger mode: 1
Integration Time (sec): 1.000000E-1
Scans to average: 1
Electric dark correction enabled: true
Nonlinearity correction enabled: false
Boxcar width: 0
XAxis mode: Wavelengths
Number of Pixels in Spectrum: 2048
>>>>>Begin Spectral Data<<<<<
223.165	-17.62
223.4	-17.62
223.635	-17.62
223.869	-14.62
224.104	-25.62
224.338	-10.62
224.573	-31.62
224.808	-11.62
225.042	-1.62
225.277	-9.62
225.511	11.38
225.746	8.38
225.98	6.38
226.215	8.38
226.449	17.38
226.683	18.38
226.918	26.38
227.152	26.38
227.387	33.38
227.621	45.38
227.856	40.38
228.09	36.38
228.324	50.38
228.559	49.38
228.793	58.38
229.027	57.38
229.262	69.38
229.496	68.38
229.73	80.38
229.964	82.38
230.199	64.38
230.433	67.38
230.667	74.38
230.901	78.38
231.136	82.38
231.37	64.38
231.604	69.38
231.838	82.38
232.072	92.38
232.306	100.38
232.541	83.38
232.775	66.38
233.009	79.38
233.243	82.38
233.477	67.38
233.711	99.38
233.945	94.38
234.179	79.38
234.413	74.38
234.647	66.38
234.881	68.38
235.115	76.38
235.349	82.38
235.583	85.38
235.817	72.38
236.051	81.38
236.285	89.38
236.519	78.38
236.753	78.38
236.987	77.38
237.221	76.38
237.455	96.38
237.689	81.38
237.922	76.38
238.156	69.38
238.39	75.38
238.624	83.38
238.858	72.38
239.091	76.38
239.325	68.38
239.559	70.38
239.793	76.38
240.027	67.38
240.26	68.38
240.494	76.38
240.728	62.38
240.961	66.38
241.195	56.38
241.429	71.38
241.662	74.38
241.896	79.38
242.13	74.38
242.363	85.38
242.597	72.38
242.83	70.38
243.064	55.38
243.298	85.38
243.531	81.38
243.765	69.38
243.998	74.38
244.232	73.38
244.465	93.38
244.699	83.38
244.932	70.38
245.166	80.38
245.399	86.38
245.633	75.38
245.866	72.38
246.099	65.38
246.333	82.38
246.566	83.38
246.8	76.38
247.033	88.38
247.266	85.38
247.5	69.38
247.733	81.38
247.966	74.38
248.2	81.38
248.433	85.38
248.666	83.38
248.899	84.38
249.133	92.38
249.366	80.38
249.599	97.38
249.832	92.38
250.066	90.38
250.299	79.38
250.532	84.38
250.765	89.38
250.998	80.38
251.231	74.38
251.465	73.38
251.698	68.38
251.931	81.38
252.164	76.38
252.397	84.38
252.63	86.38
252.863	74.38
253.096	83.38
253.329	90.38
253.562	61.38
253.795	83.38
254.028	94.38
254.261	76.38
254.494	83.38
254.727	78.38
254.96	76.38
255.193	87.38
255.426	67.38
255.659	76.38
255.892	74.38
256.124	76.38
256.357	85.38
256.59	62.38
256.823	83.38
257.056	83.38
257.289	75.38
257.521	83.38
257.754	84.38
257.987	86.38
258.22	81.38
258.452	91.38
258.685	84.38
258.918	91.38
259.151	72.38
259.383	78.38
259.616	73.38
259.849	90.38
260.081	90.38
260.314	81.38
260.547	77.38
260.779	74.38
261.012	81.38
261.244	85.38
261.477	94.38
261.71	95.38
261.942	105.38
262.175	103.38
262.407	87.38
262.64	81.38
262.872	76.38
263.105	77.38
263.337	80.38
263.57	81.38
263.802	89.38
264.035	80.38
264.267	80.38
264.499	86.38
264.732	88.38
264.964	103.38
265.197	76.38
265.429	81.38
265.661	85.38
265.894	84.38
266.126	77.38
266.358	71.38
266.591	97.38
266.823	82.38
267.055	81.38
267.287	79.38
267.52	77.38
267.752	75.38
267.984	83.38
268.216	86.38
268.448	87.38
268.681	78.38
268.913	90.38
269.145	90.38
269.377	89.38
269.609	79.38
269.841	79.38
270.073	80.38
270.306	81.38
270.538	88.38
270.77	89.38
271.002	73.38
271.234	80.38
271.466	91.38
271.698	80.38
271.93	77.38
272.162	86.38
272.394	83.38
272.626	80.38
272.858	84.38
273.09	84.38
273.322	64.38
273.553	78.38
273.785	76.38
274.017	83.38
274.249	83.38
274.481	78.38
274.713	81.38
274.945	75.38
275.176	91.38
275.408	83.38
275.64	89.38
275.872	70.38
276.104	83.38
276.335	92.38
276.567	114.38
276.799	125.38
277.031	113.38
277.262	106.38
277.494	97.38
277.726	88.38
277.957	82.38
278.189	87.38
278.421	82.38
278.652	83.38
278.884	96.38
279.115	77.38
279.347	74.38
279.579	89.38
279.81	104.38
280.042	100.38
280.273	109.38
280.505	105.38
280.736	94.38
280.968	77.38
281.199	80.38
281.431	85.38
281.662	70.38
281.894	80.38
282.125	100.38
282.356	117.38
282.588	148.38
282.819	117.38
283.051	98.38
283.282	100.38
283.513	81.38
283.745	76.38
283.976	81.38
284.207	94.38
284.439	77.38
284.67	90.38
284.901	85.38
285.132	89.38
285.364	98.38
285.595	98.38
285.826	108.38
286.057	94.38
286.288	88.38
286.52	97.38
286.751	100.38
286.982	82.38
287.213	77.38
287.444	79.38
287.675	95.38
287.906	95.38
288.138	76.38
288.369	85.38
288.6	93.38
288.831	91.38
289.062	94.38
289.293	90.38
289.524	80.38
289.755	80.38
289.986	86.38
290.217	84.38
290.448	77.38
290.679	88.38
290.91	97.38
291.141	82.38
291.371	92.38
291.602	88.38
291.833	83.38
292.064	96.38
292.295	95.38
292.526	102.38
292.757	84.38
292.987	85.38
293.218	92.38
293.449	96.38
293.68	77.38
293.91	100.38
294.141	80.38
294.372	95.38
294.603	89.38
294.833	78.38
295.064	85.38
295.295	88.38
295.525	88.38
295.756	97.38
295.987	115.38
296.217	124.38
296.448	116.38
296.679	96.38
296.909	98.38
297.14	90.38
297.37	74.38
297.601	93.38
297.831	78.38
298.062	89.38
298.292	89.38
298.523	89.38
298.753	88.38
298.984	101.38
299.214	89.38
299.445	93.38
299.675	91.38
299.905	98.38
300.136	101.38
300.366	105.38
300.597	88.38
300.827	92.38
301.057	100.38
301.288	109.38
301.518	106.38
301.748	83.38
301.979	89.38
302.209	84.38
302.439	82.38
302.669	106.38
302.9	84.38
303.13	91.38
303.36	99.38
303.59	92.38
303.82	102.38
304.051	92.38
304.281	100.38
304.511	89.38
304.741	94.38
304.971	76.38
305.201	96.38
305.431	93.38
305.661	88.38
305.891	92.38
306.121	85.38
306.352	92.38
306.582	100.38
306.812	87.38
307.042	102.38
307.272	92.38
307.502	113.38
307.731	104.38
307.961	90.38
308.191	98.38
308.421	89.38
308.651	103.38
308.881	88.38
309.111	99.38
309.341	101.38
309.571	97.38
309.8	96.38
310.03	100.38
310.26	90.38
310.49	91.38
310.72	98.38
310.949	113.38
311.179	112.38
311.409	90.38
311.639	97.38
311.868	95.38
312.098	96.38
312.328	85.38
312.557	113.38
312.787	110.38
313.017	105.38
313.246	82.38
313.476	95.38
313.706	101.38
313.935	98.38
314.165	97.38
314.394	102.38
314.624	100.38
314.853	88.38
315.083	89.38
315.312	88.38
315.542	93.38
315.771	95.38
316.001	92.38
316.23	83.38
316.46	81.38
316.689	88.38
316.919	97.38
317.148	100.38
317.377	98.38
317.607	88.38
317.836	89.38
318.065	92.38
318.295	92.38
318.524	95.38
318.753	92.38
318.983	90.38
319.212	99.38
319.441	104.38
319.67	108.38
319.9	98.38
320.129	100.38
320.358	96.38
320.587	83.38
320.816	102.38
321.046	95.38
321.275	110.38
321.504	90.38
321.733	95.38
321.962	99.38
322.191	92.38
322.42	106.38
322.649	112.38
322.878	116.38
323.108	106.38
323.337	116.38
323.566	146.38
323.795	161.38
324.024	216.38
324.253	384.38
324.482	916.38
324.71	1870.38
324.939	2531.38
325.168	937.38
325.397	272.38
325.626	169.38
325.855	137.38
326.084	133.38
326.313	148.38
326.542	156.38
326.77	236.38
326.999	468.38
327.228	1004.38
327.457	1907.38
327.686	1510.38
327.914	415.38
328.143	262.38
328.372	236.38
328.6	176.38
328.829	121.38
329.058	157.38
329.287	161.38
329.515	125.38
329.744	136.38
329.972	160.38
330.201	268.38
330.43	367.38
330.658	214.38
330.887	167.38
331.115	128.38
331.344	106.38
331.572	89.38
331.801	114.38
332.03	102.38
332.258	96.38
332.486	99.38
332.715	94.38
332.943	97.38
333.172	97.38
333.4	98.38
333.629	106.38
333.857	119.38
334.085	175.38
334.314	273.38
334.542	449.38
334.771	414.38
334.999	162.38
335.227	106.38
335.455	112.38
335.684	102.38
335.912	115.38
336.14	112.38
336.369	98.38
336.597	103.38
336.825	94.38
337.053	100.38
337.281	94.38
337.51	73.38
337.738	102.38
337.966	99.38
338.194	91.38
338.422	97.38
338.65	100.38
338.878	90.38
339.106	88.38
339.334	85.38
339.562	90.38
339.79	88.38
340.018	87.38
340.246	100.38
340.474	98.38
340.702	99.38
340.93	82.38
341.158	98.38
341.386	97.38
341.614	114.38
341.842	83.38
342.07	91.38
342.298	90.38
342.526	81.38
342.754	77.38
342.981	75.38
343.209	101.38
343.437	89.38
343.665	80.38
343.893	94.38
344.12	105.38
344.348	107.38
344.576	85.38
344.804	76.38
345.031	94.38
345.259	95.38
345.487	92.38
345.714	92.38
345.942	95.38
346.17	100.38
346.397	87.38
346.625	97.38
346.853	86.38
347.08	87.38
347.308	79.38
347.535	101.38
347.763	96.38
347.99	91.38
348.218	110.38
348.445	79.38
348.673	109.38
348.9	109.38
349.128	87.38
349.355	78.38
349.583	96.38
349.81	88.38
350.037	84.38
350.265	82.38
350.492	86.38
350.72	105.38
350.947	99.38
351.174	111.38
351.402	109.38
351.629	105.38
351.856	109.38
352.083	97.38
352.311	101.38
352.538	113.38
352.765	115.38
352.992	101.38
353.22	112.38
353.447	102.38
353.674	106.38
353.901	91.38
354.128	99.38
354.355	100.38
354.583	104.38
354.81	100.38
355.037	103.38
355.264	111.38
355.491	89.38
355.718	97.38
355.945	85.38
356.172	104.38
356.399	85.38
356.626	80.38
356.853	88.38
357.08	86.38
357.307	93.38
357.534	91.38
357.761	91.38
357.988	112.38
358.215	94.38
358.441	90.38
358.668	101.38
358.895	92.38
359.122	90.38
359.349	85.38
359.576	88.38
359.802	90.38
360.029	118.38
360.256	125.38
360.483	106.38
360.709	85.38
360.936	85.38
361.163	91.38
361.39	99.38
361.616	89.38
361.843	80.38
362.07	105.38
362.296	82.38
362.523	100.38
362.749	98.38
362.976	84.38
363.203	90.38
363.429	89.38
363.656	93.38
363.882	96.38
364.109	83.38
364.335	98.38
364.562	82.38
364.788	85.38
365.015	95.38
365.241	89.38
365.468	122.38
365.694	101.38
365.92	97.38
366.147	82.38
366.373	97.38
366.599	78.38
366.826	83.38
367.052	80.38
367.278	85.38
367.505	92.38
367.731	96.38
367.957	68.38
368.184	84.38
368.41	85.38
368.636	101.38
368.862	115.38
369.089	113.38
369.315	93.38
369.541	101.38
369.767	88.38
369.993	86.38
370.219	80.38
370.445	86.38
370.672	86.38
370.898	92.38
371.124	92.38
371.35	83.38
371.576	92.38
371.802	72.38
372.028	72.38
372.254	84.38
372.48	92.38
372.706	86.38
372.932	83.38
373.158	88.38
373.384	97.38
373.61	89.38
373.835	97.38
374.061	82.38
374.287	91.38
374.513	85.38
374.739	91.38
374.965	76.38
375.191	93.38
375.416	85.38
375.642	86.38
375.868	98.38
376.094	93.38
376.319	95.38
376.545	91.38
376.771	102.38
376.997	90.38
377.222	87.38
377.448	98.38
377.674	81.38
377.899	84.38
378.125	88.38
378.35	92.38
378.576	84.38
378.802	112.38
379.027	99.38
379.253	90.38
379.478	98.38
379.704	99.38
379.929	93.38
380.155	101.38
380.38	104.38
380.606	107.38
380.831	108.38
381.057	109.38
381.282	100.38
381.507	100.38
381.733	90.38
381.958	101.38
382.184	96.38
382.409	108.38
382.634	97.38
382.86	107.38
383.085	100.38
383.31	109.38
383.535	102.38
383.761	102.38
383.986	105.38
384.211	101.38
384.436	112.38
384.662	115.38
384.887	115.38
385.112	98.38
385.337	112.38
385.562	116.38
385.787	101.38
386.013	131.38
386.238	117.38
386.463	107.38
386.688	134.38
386.913	123.38
387.138	131.38
387.363	106.38
387.588	112.38
387.813	116.38
388.038	121.38
388.263	133.38
388.488	133.38
388.713	84.38
388.938	95.38
389.163	96.38
389.387	93.38
389.612	81.38
389.837	77.38
390.062	99.38
390.287	91.38
390.512	88.38
390.736	90.38
390.961	95.38
391.186	105.38
391.411	95.38
391.636	92.38
391.86	81.38
392.085	79.38
392.31	80.38
392.534	87.38
392.759	95.38
392.984	108.38
393.208	133.38
393.433	206.38
393.658	161.38
393.882	89.38
394.107	91.38
394.331	90.38
394.556	97.38
394.78	85.38
395.005	95.38
395.229	78.38
395.454	74.38
395.678	90.38
395.903	89.38
396.127	96.38
396.352	87.38
396.576	91.38
396.801	116.38
397.025	142.38
397.249	93.38
397.474	90.38
397.698	94.38
397.922	79.38
398.147	84.38
398.371	93.38
398.595	96.38
398.82	87.38
399.044	87.38
399.268	73.38
399.492	99.38
399.717	93.38
399.941	92.38
400.165	100.38
400.389	96.38
400.613	81.38
400.837	96.38
401.062	88.38
401.286	86.38
401.51	89.38
401.734	84.38
401.958	81.38
402.182	133.38
402.406	160.38
402.63	133.38
402.854	85.38
403.078	92.38
403.302	70.38
403.526	90.38
403.75	87.38
403.974	85.38
404.198	73.38
404.422	81.38
404.645	84.38
404.869	105.38
405.093	101.38
405.317	104.38
405.541	90.38
405.765	99.38
405.988	118.38
406.212	171.38
406.436	242.38
406.66	152.38
406.883	102.38
407.107	84.38
407.331	97.38
407.555	98.38
407.778	101.38
408.002	90.38
408.226	94.38
408.449	79.38
408.673	79.38
408.896	86.38
409.12	92.38
409.344	91.38
409.567	86.38
409.791	91.38
410.014	104.38
410.238	85.38
410.461	91.38
410.685	95.38
410.908	98.38
411.132	105.38
411.355	102.38
411.578	88.38
411.802	91.38
412.025	100.38
412.249	90.38
412.472	112.38
412.695	106.38
412.919	95.38
413.142	86.38
413.365	83.38
413.589	77.38
413.812	85.38
414.035	95.38
414.258	80.38
414.482	87.38
414.705	90.38
414.928	78.38
415.151	83.38
415.374	100.38
415.597	89.38
415.821	90.38
416.044	85.38
416.267	88.38
416.49	76.38
416.713	87.38
416.936	76.38
417.159	63.38
417.382	95.38
417.605	104.38
417.828	91.38
418.051	91.38
418.274	101.38
418.497	88.38
418.72	80.38
418.943	80.38
419.166	80.38
419.389	76.38
419.611	86.38
419.834	98.38
420.057	79.38
420.28	70.38
420.503	92.38
420.726	102.38
420.948	85.38
421.171	96.38
421.394	88.38
421.617	98.38
421.839	93.38
422.062	99.38
422.285	94.38
422.507	114.38
422.73	118.38
422.953	112.38
423.175	96.38
423.398	96.38
423.621	80.38
423.843	69.38
424.066	79.38
424.288	83.38
424.511	85.38
424.733	85.38
424.956	103.38
425.178	95.38
425.401	97.38
425.623	100.38
425.846	88.38
426.068	91.38
426.291	83.38
426.513	86.38
426.735	82.38
426.958	98.38
427.18	81.38
427.402	134.38
427.625	184.38
427.847	165.38
428.069	150.38
428.292	102.38
428.514	85.38
428.736	84.38
428.958	92.38
429.181	95.38
429.403	78.38
429.625	94.38
429.847	90.38
430.069	88.38
430.292	91.38
430.514	82.38
430.736	92.38
430.958	72.38
431.18	72.38
431.402	87.38
431.624	80.38
431.846	92.38
432.068	89.38
432.29	94.38
432.512	93.38
432.734	81.38
432.956	88.38
433.178	97.38
433.4	102.38
433.622	107.38
433.844	94.38
434.066	90.38
434.287	84.38
434.509	86.38
434.731	95.38
434.953	88.38
435.175	78.38
435.397	87.38
435.618	96.38
435.84	91.38
436.062	125.38
436.284	125.38
436.505	91.38
436.727	106.38
436.949	82.38
437.17	91.38
437.392	93.38
437.614	96.38
437.835	106.38
438.057	126.38
438.278	112.38
438.5	95.38
438.721	125.38
438.943	94.38
439.165	77.38
439.386	81.38
439.608	98.38
439.829	101.38
440.05	120.38
440.272	167.38
440.493	108.38
440.715	96.38
440.936	80.38
441.158	76.38
441.379	99.38
441.6	78.38
441.822	79.38
442.043	94.38
442.264	101.38
442.486	88.38
442.707	86.38
442.928	114.38
443.149	131.38
443.371	133.38
443.592	96.38
443.813	120.38
444.034	122.38
444.255	101.38
444.476	76.38
444.698	80.38
444.919	67.38
445.14	152.38
445.361	127.38
445.582	123.38
445.803	163.38
446.024	136.38
446.245	145.38
446.466	112.38
446.687	78.38
446.908	81.38
447.129	95.38
447.35	85.38
447.571	88.38
447.792	110.38
448.013	100.38
448.234	109.38
448.455	101.38
448.675	106.38
448.896	125.38
449.117	100.38
449.338	96.38
449.559	120.38
449.779	135.38
450	100.38
450.221	77.38
450.442	86.38
450.662	100.38
450.883	94.38
451.104	105.38
451.324	96.38
451.545	84.38
451.766	99.38
451.986	87.38
452.207	78.38
452.428	91.38
452.648	92.38
452.869	119.38
453.089	122.38
453.31	121.38
453.53	100.38
453.751	95.38
453.971	98.38
454.192	101.38
454.412	99.38
454.633	81.38
454.853	86.38
455.073	87.38
455.294	100.38
455.514	94.38
455.734	106.38
455.955	83.38
456.175	90.38
456.395	80.38
456.616	88.38
456.836	86.38
457.056	90.38
457.276	90.38
457.497	92.38
457.717	85.38
457.937	92.38
458.157	86.38
458.377	88.38
458.598	101.38
458.818	164.38
459.038	169.38
459.258	118.38
459.478	93.38
459.698	87.38
459.918	93.38
460.138	82.38
460.358	88.38
460.578	86.38
460.798	81.38
461.018	95.38
461.238	88.38
461.458	82.38
461.678	72.38
461.898	78.38
462.118	89.38
462.338	76.38
462.558	66.38
462.777	82.38
462.997	98.38
463.217	90.38
463.437	79.38
463.657	89.38
463.876	98.38
464.096	74.38
464.316	86.38
464.536	91.38
464.755	91.38
464.975	101.38
465.195	175.38
465.414	183.38
465.634	80.38
465.854	72.38
466.073	81.38
466.293	70.38
466.512	85.38
466.732	82.38
466.951	93.38
467.171	80.38
467.391	83.38
467.61	105.38
467.829	109.38
468.049	184.38
468.268	255.38
468.488	96.38
468.707	97.38
468.927	90.38
469.146	91.38
469.365	100.38
469.585	85.38
469.804	102.38
470.023	104.38
470.243	88.38
470.462	111.38
470.681	114.38
470.901	91.38
471.12	102.38
471.339	81.38
471.558	102.38
471.777	94.38
471.997	132.38
472.216	327.38
472.435	633.38
472.654	201.38
472.873	108.38
473.092	74.38
473.311	86.38
473.53	74.38
473.749	74.38
473.968	91.38
474.187	96.38
474.406	108.38
474.625	76.38
474.844	84.38
475.063	77.38
475.282	92.38
475.501	69.38
475.72	86.38
475.939	77.38
476.158	84.38
476.377	89.38
476.596	98.38
476.814	89.38
477.033	84.38
477.252	84.38
477.471	77.38
477.69	93.38
477.908	96.38
478.127	93.38
478.346	94.38
478.564	88.38
478.783	99.38
479.002	98.38
479.22	88.38
479.439	91.38
479.658	95.38
479.876	88.38
480.095	91.38
480.313	121.38
480.532	104.38
480.751	126.38
480.969	312.38
481.188	1100.38
481.406	670.38
481.624	174.38
481.843	96.38
482.061	80.38
482.28	81.38
482.498	93.38
482.717	83.38
482.935	93.38
483.153	80.38
483.372	88.38
483.59	84.38
483.808	98.38
484.027	98.38
484.245	101.38
484.463	85.38
484.681	88.38
484.9	93.38
485.118	97.38
485.336	94.38
485.554	95.38
485.772	85.38
485.99	96.38
486.209	105.38
486.427	105.38
486.645	116.38
486.863	120.38
487.081	90.38
487.299	88.38
487.517	107.38
487.735	93.38
487.953	90.38
488.171	98.38
488.389	90.38
488.607	111.38
488.825	90.38
489.043	92.38
489.261	98.38
489.479	77.38
489.696	85.38
489.914	80.38
490.132	98.38
490.35	93.38
490.568	99.38
490.786	90.38
491.003	94.38
491.221	89.38
491.439	81.38
491.657	93.38
491.874	85.38
492.092	100.38
492.31	95.38
492.527	100.38
492.745	96.38
492.963	90.38
493.18	88.38
493.398	86.38
493.615	84.38
493.833	96.38
494.05	95.38
494.268	86.38
494.485	94.38
494.703	90.38
494.92	93.38
495.138	82.38
495.355	86.38
495.573	90.38
495.79	77.38
496.008	80.38
496.225	85.38
496.442	82.38
496.66	79.38
496.877	73.38
497.094	91.38
497.312	80.38
497.529	107.38
497.746	78.38
497.963	96.38
498.181	91.38
498.398	84.38
498.615	97.38
498.832	100.38
499.049	93.38
499.267	85.38
499.484	84.38
499.701	100.38
499.918	92.38
500.135	100.38
500.352	86.38
500.569	97.38
500.786	80.38
501.003	94.38
501.22	92.38
501.437	89.38
501.654	104.38
501.871	102.38
502.088	84.38
502.305	97.38
502.522	85.38
502.739	93.38
502.956	89.38
503.172	86.38
503.389	83.38
503.606	112.38
503.823	97.38
504.04	97.38
504.256	112.38
504.473	89.38
504.69	99.38
504.907	87.38
505.123	86.38
505.34	86.38
505.557	81.38
505.773	97.38
505.99	85.38
506.207	97.38
506.423	91.38
506.64	92.38
506.856	84.38
507.073	92.38
507.289	91.38
507.506	102.38
507.722	116.38
507.939	110.38
508.155	106.38
508.372	99.38
508.588	89.38
508.805	93.38
509.021	107.38
509.238	104.38
509.454	98.38
509.67	102.38
509.887	86.38
510.103	132.38
510.319	213.38
510.536	792.38
510.752	2606.38
510.968	692.38
511.184	156.38
511.401	108.38
511.617	89.38
511.833	91.38
512.049	81.38
512.265	100.38
512.481	85.38
512.698	86.38
512.914	92.38
513.13	83.38
513.346	89.38
513.562	96.38
513.778	80.38
513.994	96.38
514.21	98.38
514.426	119.38
514.642	139.38
514.858	124.38
515.074	170.38
515.29	504.38
