Data from Circ_1991_H10_HRD10591_00019.txt Node
Date: Wed Jan 03 11:51:45 EST 2024
User: Yrep
Spectrometer: HR+D1059
Trigger mode: 1
Integration Time (sec): 1.000000E-1
Scans to average: 1
Electric dark correction enabled: true
Nonlinearity correction enabled: false
Boxcar width: 0
XAxis mode: Wavelengths
Number of Pixels in Spectrum: 2048
>>>>>Begin Spectral Data<<<<<
223.165	-20.88
223.4	-20.88
223.635	-20.88
223.869	-17.88
224.104	-20.88
224.338	-13.88
224.573	-6.88
224.808	-12.88
225.042	-5.88
225.277	-16.88
225.511	-1.88
225.746	6.12
225.98	4.12
226.215	26.12
226.449	5.12
226.683	25.12
226.918	14.12
227.152	37.12
227.387	37.12
227.621	38.12
227.856	41.12
228.09	45.12
228.324	53.12
228.559	49.12
228.793	63.12
229.027	67.12
229.262	63.12
229.496	79.12
229.73	76.12
229.964	82.12
230.199	70.12
230.433	88.12
230.667	62.12
230.901	79.12
231.136	75.12
231.37	84.12
231.604	83.12
231.838	71.12
232.072	80.12
232.306	93.12
232.541	75.12
232.775	70.12
233.009	90.12
233.243	78.12
233.477	77.12
233.711	54.12
233.945	79.12
234.179	81.12
234.413	76.12
234.647	73.12
234.881	76.12
235.115	77.12
235.349	84.12
235.583	80.12
235.817	79.12
236.051	82.12
236.285	88.12
236.519	93.12
236.753	63.12
236.987	75.12
237.221	82.12
237.455	90.12
237.689	70.12
237.922	76.12
238.156	81.12
238.39	92.12
238.624	67.12
238.858	84.12
239.091	80.12
239.325	82.12
239.559	73.12
239.793	75.12
240.027	89.12
240.26	66.12
240.494	87.12
240.728	77.12
240.961	80.12
241.195	75.12
241.429	79.12
241.662	73.12
241.896	74.12
242.13	74.12
242.363	70.12
242.597	91.12
242.83	75.12
243.064	78.12
243.298	74.12
243.531	74.12
243.765	73.12
243.998	68.12
244.232	88.12
244.465	97.12
244.699	85.12
244.932	83.12
245.166	68.12
245.399	67.12
245.633	76.12
245.866	88.12
246.099	66.12
246.333	78.12
246.566	84.12
246.8	66.12
247.033	67.12
247.266	94.12
247.5	89.12
247.733	75.12
247.966	91.12
248.2	71.12
248.433	69.12
248.666	78.12
248.899	81.12
249.133	93.12
249.366	107.12
249.599	88.12
249.832	73.12
250.066	86.12
250.299	89.12
250.532	70.12
250.765	91.12
250.998	77.12
251.231	84.12
251.465	74.12
251.698	86.12
251.931	80.12
252.164	81.12
252.397	79.12
252.63	83.12
252.863	66.12
253.096	91.12
253.329	90.12
253.562	89.12
253.795	79.12
254.028	75.12
254.261	76.12
254.494	87.12
254.727	77.12
254.96	85.12
255.193	89.12
255.426	96.12
255.659	84.12
255.892	78.12
256.124	96.12
256.357	75.12
256.59	77.12
256.823	71.12
257.056	93.12
257.289	95.12
257.521	84.12
257.754	97.12
257.987	90.12
258.22	95.12
258.452	78.12
258.685	79.12
258.918	69.12
259.151	86.12
259.383	78.12
259.616	78.12
259.849	87.12
260.081	87.12
260.314	89.12
260.547	87.12
260.779	79.12
261.012	89.12
261.244	99.12
261.477	88.12
261.71	98.12
261.942	111.12
262.175	113.12
262.407	89.12
262.64	84.12
262.872	85.12
263.105	82.12
263.337	93.12
263.57	89.12
263.802	78.12
264.035	83.12
264.267	83.12
264.499	70.12
264.732	81.12
264.964	89.12
265.197	69.12
265.429	73.12
265.661	86.12
265.894	66.12
266.126	93.12
266.358	83.12
266.591	72.12
266.823	88.12
267.055	99.12
267.287	76.12
267.52	91.12
267.752	83.12
267.984	76.12
268.216	97.12
268.448	91.12
268.681	79.12
268.913	91.12
269.145	78.12
269.377	86.12
269.609	74.12
269.841	96.12
270.073	85.12
270.306	86.12
270.538	87.12
270.77	74.12
271.002	82.12
271.234	85.12
271.466	97.12
271.698	85.12
271.93	92.12
272.162	82.12
272.394	81.12
272.626	88.12
272.858	97.12
273.09	85.12
273.322	92.12
273.553	84.12
273.785	87.12
274.017	78.12
274.249	67.12
274.481	78.12
274.713	87.12
274.945	79.12
275.176	90.12
275.408	87.12
275.64	95.12
275.872	97.12
276.104	81.12
276.335	90.12
276.567	94.12
276.799	110.12
277.031	96.12
277.262	113.12
277.494	92.12
277.726	94.12
277.957	79.12
278.189	95.12
278.421	70.12
278.652	88.12
278.884	80.12
279.115	97.12
279.347	97.12
279.579	91.12
279.81	90.12
280.042	110.12
280.273	114.12
280.505	93.12
280.736	88.12
280.968	90.12
281.199	84.12
281.431	85.12
281.662	76.12
281.894	89.12
282.125	99.12
282.356	114.12
282.588	137.12
282.819	107.12
283.051	91.12
283.282	96.12
283.513	105.12
283.745	87.12
283.976	93.12
284.207	102.12
284.439	98.12
284.67	95.12
284.901	85.12
285.132	81.12
285.364	90.12
285.595	105.12
285.826	81.12
286.057	89.12
286.288	76.12
286.52	106.12
286.751	68.12
286.982	81.12
287.213	81.12
287.444	90.12
287.675	69.12
287.906	92.12
288.138	91.12
288.369	98.12
288.6	85.12
288.831	91.12
289.062	77.12
289.293	84.12
289.524	88.12
289.755	76.12
289.986	89.12
290.217	86.12
290.448	97.12
290.679	87.12
290.91	86.12
291.141	84.12
291.371	77.12
291.602	81.12
291.833	83.12
292.064	85.12
292.295	98.12
292.526	87.12
292.757	90.12
292.987	85.12
293.218	88.12
293.449	86.12
293.68	95.12
293.91	90.12
294.141	99.12
294.372	97.12
294.603	93.12
294.833	89.12
295.064	100.12
295.295	90.12
295.525	86.12
295.756	96.12
295.987	109.12
296.217	136.12
296.448	119.12
296.679	105.12
296.909	98.12
297.14	92.12
297.37	89.12
297.601	89.12
297.831	92.12
298.062	106.12
298.292	99.12
298.523	92.12
298.753	85.12
298.984	80.12
299.214	75.12
299.445	85.12
299.675	98.12
299.905	95.12
300.136	74.12
300.366	85.12
300.597	98.12
300.827	96.12
301.057	97.12
301.288	105.12
301.518	91.12
301.748	89.12
301.979	112.12
302.209	104.12
302.439	93.12
302.669	82.12
302.9	89.12
303.13	90.12
303.36	87.12
303.59	100.12
303.82	102.12
304.051	98.12
304.281	86.12
304.511	97.12
304.741	80.12
304.971	89.12
305.201	89.12
305.431	85.12
305.661	88.12
305.891	85.12
306.121	101.12
306.352	102.12
306.582	99.12
306.812	100.12
307.042	95.12
307.272	98.12
307.502	119.12
307.731	113.12
307.961	86.12
308.191	91.12
308.421	92.12
308.651	72.12
308.881	78.12
309.111	91.12
309.341	95.12
309.571	96.12
309.8	84.12
310.03	100.12
310.26	98.12
310.49	99.12
310.72	90.12
310.949	106.12
311.179	106.12
311.409	107.12
311.639	99.12
311.868	85.12
312.098	95.12
312.328	99.12
312.557	102.12
312.787	95.12
313.017	91.12
313.246	97.12
313.476	94.12
313.706	92.12
313.935	103.12
314.165	103.12
314.394	99.12
314.624	114.12
314.853	101.12
315.083	101.12
315.312	86.12
315.542	87.12
315.771	91.12
316.001	90.12
316.23	78.12
316.46	100.12
316.689	89.12
316.919	101.12
317.148	101.12
317.377	89.12
317.607	97.12
317.836	79.12
318.065	83.12
318.295	98.12
318.524	90.12
318.753	98.12
318.983	98.12
319.212	87.12
319.441	106.12
319.67	109.12
319.9	85.12
320.129	98.12
320.358	104.12
320.587	93.12
320.816	95.12
321.046	94.12
321.275	100.12
321.504	103.12
321.733	107.12
321.962	101.12
322.191	102.12
322.42	115.12
322.649	105.12
322.878	110.12
323.108	103.12
323.337	115.12
323.566	126.12
323.795	151.12
324.024	201.12
324.253	394.12
324.482	848.12
324.71	1769.12
324.939	2312.12
325.168	836.12
325.397	262.12
325.626	157.12
325.855	128.12
326.084	143.12
326.313	136.12
326.542	155.12
326.77	227.12
326.999	450.12
327.228	945.12
327.457	1773.12
327.686	1384.12
327.914	401.12
328.143	249.12
328.372	212.12
328.6	155.12
328.829	130.12
329.058	129.12
329.287	131.12
329.515	112.12
329.744	125.12
329.972	166.12
330.201	246.12
330.43	332.12
330.658	202.12
330.887	149.12
331.115	118.12
331.344	96.12
331.572	102.12
331.801	110.12
332.03	109.12
332.258	91.12
332.486	93.12
332.715	88.12
332.943	110.12
333.172	95.12
333.4	97.12
333.629	113.12
333.857	126.12
334.085	163.12
334.314	267.12
334.542	411.12
334.771	369.12
334.999	147.12
335.227	100.12
335.455	79.12
335.684	102.12
335.912	100.12
336.14	102.12
336.369	105.12
336.597	106.12
336.825	103.12
337.053	94.12
337.281	93.12
337.51	82.12
337.738	103.12
337.966	76.12
338.194	103.12
338.422	104.12
338.65	97.12
338.878	93.12
339.106	94.12
339.334	79.12
339.562	74.12
339.79	93.12
340.018	82.12
340.246	93.12
340.474	82.12
340.702	75.12
340.93	104.12
341.158	98.12
341.386	109.12
341.614	93.12
341.842	91.12
342.07	101.12
342.298	100.12
342.526	94.12
342.754	83.12
342.981	89.12
343.209	71.12
343.437	81.12
343.665	84.12
343.893	97.12
344.12	93.12
344.348	89.12
344.576	113.12
344.804	81.12
345.031	88.12
345.259	93.12
345.487	84.12
345.714	86.12
345.942	90.12
346.17	101.12
346.397	86.12
346.625	74.12
346.853	83.12
347.08	89.12
347.308	105.12
347.535	100.12
347.763	98.12
347.99	98.12
348.218	98.12
348.445	102.12
348.673	100.12
348.9	88.12
349.128	102.12
349.355	113.12
349.583	91.12
349.81	89.12
350.037	89.12
350.265	106.12
350.492	99.12
350.72	90.12
350.947	94.12
351.174	102.12
351.402	123.12
351.629	114.12
351.856	102.12
352.083	92.12
352.311	104.12
352.538	121.12
352.765	109.12
352.992	125.12
353.22	109.12
353.447	91.12
353.674	115.12
353.901	87.12
354.128	94.12
354.355	97.12
354.583	103.12
354.81	87.12
355.037	86.12
355.264	103.12
355.491	87.12
355.718	91.12
355.945	85.12
356.172	99.12
356.399	89.12
356.626	105.12
356.853	94.12
357.08	94.12
357.307	86.12
357.534	87.12
357.761	99.12
357.988	95.12
358.215	104.12
358.441	113.12
358.668	83.12
358.895	78.12
359.122	90.12
359.349	82.12
359.576	94.12
359.802	110.12
360.029	118.12
360.256	101.12
360.483	92.12
360.709	78.12
360.936	77.12
361.163	94.12
361.39	84.12
361.616	96.12
361.843	84.12
362.07	92.12
362.296	107.12
362.523	104.12
362.749	90.12
362.976	99.12
363.203	94.12
363.429	98.12
363.656	95.12
363.882	91.12
364.109	89.12
364.335	95.12
364.562	88.12
364.788	93.12
365.015	97.12
365.241	107.12
365.468	98.12
365.694	104.12
365.92	97.12
366.147	99.12
366.373	94.12
366.599	87.12
366.826	79.12
367.052	85.12
367.278	90.12
367.505	79.12
367.731	81.12
367.957	77.12
368.184	91.12
368.41	97.12
368.636	119.12
368.862	125.12
369.089	104.12
369.315	93.12
369.541	85.12
369.767	85.12
369.993	86.12
370.219	89.12
370.445	96.12
370.672	102.12
370.898	80.12
371.124	96.12
371.35	93.12
371.576	82.12
371.802	75.12
372.028	91.12
372.254	85.12
372.48	97.12
372.706	82.12
372.932	81.12
373.158	93.12
373.384	109.12
373.61	95.12
373.835	97.12
374.061	94.12
374.287	90.12
374.513	85.12
374.739	79.12
374.965	80.12
375.191	73.12
375.416	99.12
375.642	90.12
375.868	85.12
376.094	94.12
376.319	97.12
376.545	93.12
376.771	93.12
376.997	104.12
377.222	85.12
377.448	97.12
377.674	100.12
377.899	94.12
378.125	96.12
378.35	104.12
378.576	99.12
378.802	91.12
379.027	104.12
379.253	92.12
379.478	86.12
379.704	83.12
379.929	102.12
380.155	102.12
380.38	97.12
380.606	105.12
380.831	96.12
381.057	94.12
381.282	97.12
381.507	102.12
381.733	96.12
381.958	108.12
382.184	90.12
382.409	102.12
382.634	118.12
382.86	102.12
383.085	109.12
383.31	105.12
383.535	92.12
383.761	109.12
383.986	104.12
384.211	104.12
384.436	94.12
384.662	108.12
384.887	110.12
385.112	107.12
385.337	128.12
385.562	104.12
385.787	107.12
386.013	122.12
386.238	110.12
386.463	111.12
386.688	118.12
386.913	108.12
387.138	126.12
387.363	121.12
387.588	97.12
387.813	115.12
388.038	117.12
388.263	132.12
388.488	120.12
388.713	107.12
388.938	91.12
389.163	89.12
389.387	89.12
389.612	85.12
389.837	87.12
390.062	89.12
390.287	75.12
390.512	94.12
390.736	97.12
390.961	91.12
391.186	86.12
391.411	102.12
391.636	101.12
391.86	87.12
392.085	78.12
392.31	84.12
392.534	82.12
392.759	90.12
392.984	96.12
393.208	131.12
393.433	196.12
393.658	155.12
393.882	92.12
394.107	81.12
394.331	76.12
394.556	85.12
394.78	86.12
395.005	94.12
395.229	94.12
395.454	90.12
395.678	74.12
395.903	83.12
396.127	89.12
396.352	101.12
396.576	103.12
396.801	122.12
397.025	124.12
397.249	111.12
397.474	89.12
397.698	81.12
397.922	97.12
398.147	78.12
398.371	89.12
398.595	97.12
398.82	68.12
399.044	85.12
399.268	98.12
399.492	82.12
399.717	101.12
399.941	96.12
400.165	98.12
400.389	85.12
400.613	88.12
400.837	92.12
401.062	90.12
401.286	101.12
401.51	92.12
401.734	86.12
401.958	104.12
402.182	125.12
402.406	148.12
402.63	118.12
402.854	92.12
403.078	79.12
403.302	92.12
403.526	93.12
403.75	97.12
403.974	92.12
404.198	85.12
404.422	84.12
404.645	68.12
404.869	81.12
405.093	98.12
405.317	105.12
405.541	107.12
405.765	101.12
405.988	118.12
406.212	176.12
406.436	229.12
406.66	125.12
406.883	93.12
407.107	98.12
407.331	87.12
407.555	98.12
407.778	97.12
408.002	95.12
408.226	100.12
408.449	99.12
408.673	83.12
408.896	98.12
409.12	98.12
409.344	87.12
409.567	85.12
409.791	74.12
410.014	81.12
410.238	101.12
410.461	96.12
410.685	75.12
410.908	99.12
411.132	94.12
411.355	120.12
411.578	91.12
411.802	82.12
412.025	84.12
412.249	89.12
412.472	79.12
412.695	103.12
412.919	89.12
413.142	98.12
413.365	83.12
413.589	94.12
413.812	96.12
414.035	97.12
414.258	90.12
414.482	86.12
414.705	82.12
414.928	97.12
415.151	83.12
415.374	95.12
415.597	86.12
415.821	96.12
416.044	93.12
416.267	96.12
416.49	92.12
416.713	75.12
416.936	101.12
417.159	93.12
417.382	92.12
417.605	98.12
417.828	107.12
418.051	107.12
418.274	91.12
418.497	95.12
418.72	84.12
418.943	102.12
419.166	93.12
419.389	81.12
419.611	92.12
419.834	92.12
420.057	76.12
420.28	84.12
420.503	78.12
420.726	99.12
420.948	82.12
421.171	90.12
421.394	87.12
421.617	96.12
421.839	97.12
422.062	91.12
422.285	92.12
422.507	100.12
422.73	108.12
422.953	111.12
423.175	90.12
423.398	100.12
423.621	92.12
423.843	87.12
424.066	80.12
424.288	87.12
424.511	90.12
424.733	99.12
424.956	102.12
425.178	87.12
425.401	99.12
425.623	89.12
425.846	77.12
426.068	107.12
426.291	91.12
426.513	86.12
426.735	98.12
426.958	83.12
427.18	103.12
427.402	146.12
427.625	170.12
427.847	133.12
428.069	133.12
428.292	111.12
428.514	92.12
428.736	82.12
428.958	97.12
429.181	96.12
429.403	81.12
429.625	89.12
429.847	100.12
430.069	93.12
430.292	89.12
430.514	85.12
430.736	98.12
430.958	79.12
431.18	75.12
431.402	90.12
431.624	84.12
431.846	87.12
432.068	95.12
432.29	71.12
432.512	77.12
432.734	101.12
432.956	98.12
433.178	84.12
433.4	93.12
433.622	93.12
433.844	89.12
434.066	94.12
434.287	89.12
434.509	71.12
434.731	102.12
434.953	79.12
435.175	76.12
435.397	93.12
435.618	90.12
435.84	101.12
436.062	118.12
436.284	117.12
436.505	97.12
436.727	98.12
436.949	83.12
437.17	102.12
437.392	91.12
437.614	94.12
437.835	99.12
438.057	126.12
438.278	118.12
438.5	109.12
438.721	119.12
438.943	102.12
439.165	95.12
439.386	83.12
439.608	85.12
439.829	92.12
440.05	110.12
440.272	131.12
440.493	93.12
440.715	73.12
440.936	97.12
441.158	83.12
441.379	103.12
441.6	94.12
441.822	93.12
442.043	90.12
442.264	104.12
442.486	104.12
442.707	86.12
442.928	99.12
443.149	126.12
443.371	131.12
443.592	111.12
443.813	112.12
444.034	108.12
444.255	83.12
444.476	85.12
444.698	101.12
444.919	96.12
445.14	144.12
445.361	129.12
445.582	117.12
445.803	129.12
446.024	124.12
446.245	138.12
446.466	115.12
446.687	89.12
446.908	94.12
447.129	83.12
447.35	103.12
447.571	77.12
447.792	84.12
448.013	93.12
448.234	95.12
448.455	99.12
448.675	111.12
448.896	120.12
449.117	110.12
449.338	111.12
449.559	129.12
449.779	108.12
450	103.12
450.221	80.12
450.442	93.12
450.662	83.12
450.883	92.12
451.104	109.12
451.324	91.12
451.545	94.12
451.766	80.12
451.986	91.12
452.207	90.12
452.428	89.12
452.648	89.12
452.869	110.12
453.089	104.12
453.31	118.12
453.53	89.12
453.751	88.12
453.971	98.12
454.192	97.12
454.412	94.12
454.633	78.12
454.853	89.12
455.073	85.12
455.294	81.12
455.514	91.12
455.734	102.12
455.955	85.12
456.175	69.12
456.395	87.12
456.616	81.12
456.836	93.12
457.056	85.12
457.276	89.12
457.497	79.12
457.717	73.12
457.937	83.12
458.157	96.12
458.377	101.12
458.598	91.12
458.818	153.12
459.038	153.12
459.258	122.12
459.478	89.12
459.698	85.12
459.918	85.12
460.138	93.12
460.358	89.12
460.578	88.12
460.798	93.12
461.018	98.12
461.238	89.12
461.458	81.12
461.678	81.12
461.898	89.12
462.118	91.12
462.338	97.12
462.558	90.12
462.777	97.12
462.997	73.12
463.217	89.12
463.437	90.12
463.657	81.12
463.876	100.12
464.096	96.12
464.316	90.12
464.536	68.12
464.755	96.12
464.975	100.12
465.195	167.12
465.414	153.12
465.634	106.12
465.854	78.12
466.073	93.12
466.293	82.12
466.512	87.12
466.732	92.12
466.951	90.12
467.171	82.12
467.391	96.12
467.61	113.12
467.829	121.12
468.049	201.12
468.268	228.12
468.488	111.12
468.707	95.12
468.927	91.12
469.146	83.12
469.365	81.12
469.585	92.12
469.804	99.12
470.023	100.12
470.243	87.12
470.462	98.12
470.681	92.12
470.901	92.12
471.12	79.12
471.339	90.12
471.558	97.12
471.777	90.12
471.997	135.12
472.216	315.12
472.435	550.12
472.654	178.12
472.873	96.12
473.092	86.12
473.311	80.12
473.53	79.12
473.749	90.12
473.968	94.12
474.187	106.12
474.406	100.12
474.625	103.12
474.844	103.12
475.063	91.12
475.282	103.12
475.501	80.12
475.72	97.12
475.939	91.12
476.158	92.12
476.377	100.12
476.596	94.12
476.814	96.12
477.033	99.12
477.252	97.12
477.471	87.12
477.69	98.12
477.908	93.12
478.127	70.12
478.346	95.12
478.564	98.12
478.783	92.12
479.002	95.12
479.22	101.12
479.439	113.12
479.658	90.12
479.876	86.12
480.095	101.12
480.313	92.12
480.532	97.12
480.751	141.12
480.969	309.12
481.188	981.12
481.406	569.12
481.624	141.12
481.843	106.12
482.061	85.12
482.28	82.12
482.498	85.12
482.717	87.12
482.935	92.12
483.153	70.12
483.372	100.12
483.59	107.12
483.808	79.12
484.027	111.12
484.245	94.12
484.463	82.12
484.681	85.12
484.9	98.12
485.118	87.12
485.336	88.12
485.554	100.12
485.772	106.12
485.99	111.12
486.209	106.12
486.427	95.12
486.645	111.12
486.863	114.12
487.081	101.12
487.299	88.12
487.517	91.12
487.735	100.12
487.953	101.12
488.171	77.12
488.389	75.12
488.607	106.12
488.825	78.12
489.043	97.12
489.261	90.12
489.479	86.12
489.696	89.12
489.914	79.12
490.132	93.12
490.35	101.12
490.568	100.12
490.786	101.12
491.003	81.12
491.221	87.12
491.439	89.12
491.657	86.12
491.874	90.12
492.092	93.12
492.31	94.12
492.527	91.12
492.745	86.12
492.963	92.12
493.18	107.12
493.398	103.12
493.615	92.12
493.833	87.12
494.05	81.12
494.268	92.12
494.485	103.12
494.703	96.12
494.92	99.12
495.138	84.12
495.355	85.12
495.573	89.12
495.79	82.12
496.008	95.12
496.225	88.12
496.442	95.12
496.66	89.12
496.877	103.12
497.094	76.12
497.312	82.12
497.529	91.12
497.746	86.12
497.963	92.12
498.181	86.12
498.398	98.12
498.615	109.12
498.832	107.12
499.049	86.12
499.267	97.12
499.484	102.12
499.701	81.12
499.918	83.12
500.135	83.12
500.352	85.12
500.569	91.12
500.786	96.12
501.003	85.12
501.22	88.12
501.437	76.12
501.654	95.12
501.871	103.12
502.088	84.12
502.305	94.12
502.522	86.12
502.739	85.12
502.956	84.12
503.172	95.12
503.389	97.12
503.606	112.12
503.823	117.12
504.04	91.12
504.256	92.12
504.473	76.12
504.69	101.12
504.907	100.12
505.123	92.12
505.34	82.12
505.557	93.12
505.773	92.12
505.99	81.12
506.207	93.12
506.423	94.12
506.64	89.12
506.856	85.12
507.073	78.12
507.289	89.12
507.506	86.12
507.722	113.12
507.939	110.12
508.155	96.12
508.372	75.12
508.588	92.12
508.805	90.12
509.021	91.12
509.238	116.12
509.454	89.12
509.67	93.12
509.887	124.12
510.103	141.12
510.319	201.12
510.536	745.12
510.752	2417.12
510.968	645.12
511.184	167.12
511.401	122.12
511.617	92.12
511.833	84.12
512.049	101.12
512.265	88.12
512.481	106.12
512.698	98.12
512.914	87.12
513.13	97.12
513.346	91.12
513.562	91.12
513.778	103.12
513.994	89.12
514.21	108.12
514.426	123.12
514.642	134.12
514.858	109.12
515.074	174.12
