Data from Circ_1991_H10_HRD10591_00063.txt Node
Date: Wed Jan 03 11:51:53 EST 2024
User: Yrep
Spectrometer: HR+D1059
Trigger mode: 1
Integration Time (sec): 1.000000E-1
Scans to average: 1
Electric dark correction enabled: true
Nonlinearity correction enabled: false
Boxcar width: 0
XAxis mode: Wavelengths
Number of Pixels in Spectrum: 2048
>>>>>Begin Spectral Data<<<<<
223.165	-18.06
223.4	-18.06
223.635	-18.06
223.869	-14.06
224.104	-35.06
224.338	-16.06
224.573	-12.06
224.808	-11.06
225.042	4.94
225.277	-9.06
225.511	2.94
225.746	3.94
225.98	15.94
226.215	5.94
226.449	4.94
226.683	22.94
226.918	21.94
227.152	31.94
227.387	14.94
227.621	29.94
227.856	48.94
228.09	49.94
228.324	54.94
228.559	52.94
228.793	62.94
229.027	53.94
229.262	75.94
229.496	60.94
229.73	80.94
229.964	85.94
230.199	90.94
230.433	71.94
230.667	64.94
230.901	88.94
231.136	83.94
231.37	84.94
231.604	85.94
231.838	85.94
232.072	71.94
232.306	88.94
232.541	83.94
232.775	78.94
233.009	81.94
233.243	79.94
233.477	89.94
233.711	98.94
233.945	83.94
234.179	82.94
234.413	78.94
234.647	92.94
234.881	88.94
235.115	84.94
235.349	76.94
235.583	79.94
235.817	74.94
236.051	74.94
236.285	84.94
236.519	90.94
236.753	92.94
236.987	72.94
237.221	78.94
237.455	89.94
237.689	73.94
237.922	79.94
238.156	55.94
238.39	83.94
238.624	66.94
238.858	70.94
239.091	91.94
239.325	74.94
239.559	87.94
239.793	74.94
240.027	81.94
240.26	64.94
240.494	83.94
240.728	82.94
240.961	70.94
241.195	68.94
241.429	90.94
241.662	66.94
241.896	89.94
242.13	94.94
242.363	87.94
242.597	80.94
242.83	84.94
243.064	79.94
243.298	93.94
243.531	82.94
243.765	76.94
243.998	74.94
244.232	73.94
244.465	83.94
244.699	85.94
244.932	78.94
245.166	79.94
245.399	87.94
245.633	77.94
245.866	78.94
246.099	57.94
246.333	68.94
246.566	85.94
246.8	83.94
247.033	94.94
247.266	82.94
247.5	86.94
247.733	79.94
247.966	78.94
248.2	68.94
248.433	75.94
248.666	87.94
248.899	87.94
249.133	99.94
249.366	100.94
249.599	96.94
249.832	101.94
250.066	91.94
250.299	77.94
250.532	81.94
250.765	82.94
250.998	77.94
251.231	91.94
251.465	81.94
251.698	88.94
251.931	78.94
252.164	96.94
252.397	82.94
252.63	75.94
252.863	76.94
253.096	90.94
253.329	87.94
253.562	94.94
253.795	87.94
254.028	68.94
254.261	91.94
254.494	83.94
254.727	88.94
254.96	85.94
255.193	81.94
255.426	85.94
255.659	83.94
255.892	84.94
256.124	80.94
256.357	72.94
256.59	66.94
256.823	84.94
257.056	81.94
257.289	76.94
257.521	86.94
257.754	85.94
257.987	101.94
258.22	93.94
258.452	89.94
258.685	88.94
258.918	68.94
259.151	88.94
259.383	86.94
259.616	63.94
259.849	62.94
260.081	86.94
260.314	83.94
260.547	93.94
260.779	85.94
261.012	83.94
261.244	83.94
261.477	97.94
261.71	101.94
261.942	116.94
262.175	108.94
262.407	71.94
262.64	85.94
262.872	96.94
263.105	80.94
263.337	78.94
263.57	75.94
263.802	90.94
264.035	91.94
264.267	73.94
264.499	77.94
264.732	91.94
264.964	89.94
265.197	88.94
265.429	92.94
265.661	82.94
265.894	79.94
266.126	108.94
266.358	95.94
266.591	81.94
266.823	86.94
267.055	76.94
267.287	82.94
267.52	87.94
267.752	77.94
267.984	73.94
268.216	102.94
268.448	95.94
268.681	79.94
268.913	98.94
269.145	85.94
269.377	97.94
269.609	99.94
269.841	87.94
270.073	86.94
270.306	87.94
270.538	87.94
270.77	83.94
271.002	87.94
271.234	84.94
271.466	67.94
271.698	85.94
271.93	80.94
272.162	92.94
272.394	99.94
272.626	83.94
272.858	76.94
273.09	85.94
273.322	84.94
273.553	89.94
273.785	88.94
274.017	86.94
274.249	83.94
274.481	78.94
274.713	73.94
274.945	79.94
275.176	86.94
275.408	87.94
275.64	108.94
275.872	98.94
276.104	100.94
276.335	95.94
276.567	104.94
276.799	102.94
277.031	100.94
277.262	115.94
277.494	105.94
277.726	78.94
277.957	91.94
278.189	89.94
278.421	101.94
278.652	95.94
278.884	85.94
279.115	89.94
279.347	87.94
279.579	88.94
279.81	103.94
280.042	118.94
280.273	129.94
280.505	119.94
280.736	95.94
280.968	85.94
281.199	89.94
281.431	91.94
281.662	112.94
281.894	103.94
282.125	96.94
282.356	127.94
282.588	136.94
282.819	121.94
283.051	102.94
283.282	93.94
283.513	92.94
283.745	98.94
283.976	89.94
284.207	87.94
284.439	89.94
284.67	89.94
284.901	102.94
285.132	80.94
285.364	83.94
285.595	85.94
285.826	80.94
286.057	96.94
286.288	75.94
286.52	89.94
286.751	105.94
286.982	96.94
287.213	87.94
287.444	93.94
287.675	91.94
287.906	91.94
288.138	95.94
288.369	86.94
288.6	101.94
288.831	90.94
289.062	93.94
289.293	97.94
289.524	88.94
289.755	82.94
289.986	93.94
290.217	82.94
290.448	86.94
290.679	84.94
290.91	90.94
291.141	81.94
291.371	84.94
291.602	84.94
291.833	83.94
292.064	95.94
292.295	77.94
292.526	101.94
292.757	82.94
292.987	87.94
293.218	89.94
293.449	85.94
293.68	91.94
293.91	98.94
294.141	92.94
294.372	93.94
294.603	94.94
294.833	88.94
295.064	95.94
295.295	88.94
295.525	89.94
295.756	115.94
295.987	111.94
296.217	131.94
296.448	115.94
296.679	95.94
296.909	79.94
297.14	92.94
297.37	99.94
297.601	85.94
297.831	91.94
298.062	86.94
298.292	84.94
298.523	82.94
298.753	83.94
298.984	102.94
299.214	88.94
299.445	91.94
299.675	96.94
299.905	108.94
300.136	110.94
300.366	102.94
300.597	98.94
300.827	111.94
301.057	88.94
301.288	99.94
301.518	95.94
301.748	97.94
301.979	93.94
302.209	85.94
302.439	86.94
302.669	97.94
302.9	92.94
303.13	75.94
303.36	85.94
303.59	97.94
303.82	111.94
304.051	105.94
304.281	93.94
304.511	78.94
304.741	88.94
304.971	84.94
305.201	89.94
305.431	100.94
305.661	100.94
305.891	92.94
306.121	96.94
306.352	112.94
306.582	100.94
306.812	116.94
307.042	106.94
307.272	107.94
307.502	128.94
307.731	116.94
307.961	117.94
308.191	85.94
308.421	89.94
308.651	88.94
308.881	77.94
309.111	95.94
309.341	93.94
309.571	92.94
309.8	91.94
310.03	97.94
310.26	101.94
310.49	97.94
310.72	98.94
310.949	105.94
311.179	108.94
311.409	80.94
311.639	86.94
311.868	109.94
312.098	95.94
312.328	100.94
312.557	103.94
312.787	103.94
313.017	107.94
313.246	103.94
313.476	90.94
313.706	97.94
313.935	97.94
314.165	99.94
314.394	93.94
314.624	108.94
314.853	87.94
315.083	93.94
315.312	79.94
315.542	76.94
315.771	99.94
316.001	83.94
316.23	99.94
316.46	93.94
316.689	85.94
316.919	88.94
317.148	111.94
317.377	93.94
317.607	70.94
317.836	89.94
318.065	95.94
318.295	97.94
318.524	91.94
318.753	87.94
318.983	103.94
319.212	91.94
319.441	103.94
319.67	104.94
319.9	88.94
320.129	78.94
320.358	89.94
320.587	96.94
320.816	108.94
321.046	98.94
321.275	111.94
321.504	87.94
321.733	86.94
321.962	108.94
322.191	94.94
322.42	101.94
322.649	113.94
322.878	104.94
323.108	116.94
323.337	140.94
323.566	145.94
323.795	156.94
324.024	201.94
324.253	417.94
324.482	907.94
324.71	1845.94
324.939	2460.94
325.168	883.94
325.397	240.94
325.626	154.94
325.855	132.94
326.084	126.94
326.313	145.94
326.542	159.94
326.77	240.94
326.999	485.94
327.228	1018.94
327.457	1918.94
327.686	1554.94
327.914	453.94
328.143	297.94
328.372	294.94
328.6	200.94
328.829	137.94
329.058	129.94
329.287	144.94
329.515	93.94
329.744	155.94
329.972	225.94
330.201	401.94
330.43	550.94
330.658	291.94
330.887	174.94
331.115	143.94
331.344	109.94
331.572	118.94
331.801	115.94
332.03	110.94
332.258	99.94
332.486	100.94
332.715	102.94
332.943	105.94
333.172	98.94
333.4	93.94
333.629	116.94
333.857	159.94
334.085	221.94
334.314	393.94
334.542	696.94
334.771	639.94
334.999	228.94
335.227	130.94
335.455	112.94
335.684	99.94
335.912	101.94
336.14	112.94
336.369	101.94
336.597	103.94
336.825	105.94
337.053	99.94
337.281	92.94
337.51	110.94
337.738	105.94
337.966	109.94
338.194	107.94
338.422	103.94
338.65	104.94
338.878	98.94
339.106	96.94
339.334	93.94
339.562	86.94
339.79	91.94
340.018	88.94
340.246	87.94
340.474	95.94
340.702	84.94
340.93	85.94
341.158	94.94
341.386	98.94
341.614	98.94
341.842	92.94
342.07	86.94
342.298	107.94
342.526	93.94
342.754	104.94
342.981	91.94
343.209	93.94
343.437	106.94
343.665	88.94
343.893	103.94
344.12	105.94
344.348	90.94
344.576	93.94
344.804	82.94
345.031	101.94
345.259	115.94
345.487	96.94
345.714	86.94
345.942	96.94
346.17	93.94
346.397	97.94
346.625	85.94
346.853	92.94
347.08	81.94
347.308	93.94
347.535	100.94
347.763	105.94
347.99	100.94
348.218	108.94
348.445	102.94
348.673	100.94
348.9	80.94
349.128	93.94
349.355	93.94
349.583	88.94
349.81	110.94
350.037	104.94
350.265	89.94
350.492	83.94
350.72	92.94
350.947	102.94
351.174	103.94
351.402	109.94
351.629	119.94
351.856	95.94
352.083	93.94
352.311	96.94
352.538	101.94
352.765	114.94
352.992	129.94
353.22	109.94
353.447	85.94
353.674	108.94
353.901	92.94
354.128	97.94
354.355	85.94
354.583	104.94
354.81	99.94
355.037	97.94
355.264	83.94
355.491	95.94
355.718	104.94
355.945	96.94
356.172	88.94
356.399	80.94
356.626	97.94
356.853	96.94
357.08	81.94
357.307	103.94
357.534	101.94
357.761	88.94
357.988	93.94
358.215	107.94
358.441	107.94
358.668	94.94
358.895	98.94
359.122	99.94
359.349	105.94
359.576	90.94
359.802	106.94
360.029	106.94
360.256	114.94
360.483	99.94
360.709	90.94
360.936	97.94
361.163	103.94
361.39	85.94
361.616	110.94
361.843	89.94
362.07	92.94
362.296	91.94
362.523	86.94
362.749	86.94
362.976	109.94
363.203	85.94
363.429	101.94
363.656	90.94
363.882	83.94
364.109	96.94
364.335	96.94
364.562	92.94
364.788	105.94
365.015	92.94
365.241	94.94
365.468	87.94
365.694	105.94
365.92	87.94
366.147	99.94
366.373	77.94
366.599	98.94
366.826	91.94
367.052	83.94
367.278	90.94
367.505	93.94
367.731	92.94
367.957	100.94
368.184	87.94
368.41	105.94
368.636	129.94
368.862	108.94
369.089	103.94
369.315	100.94
369.541	95.94
369.767	103.94
369.993	91.94
370.219	99.94
370.445	92.94
370.672	105.94
370.898	94.94
371.124	92.94
371.35	92.94
371.576	87.94
371.802	83.94
372.028	93.94
372.254	84.94
372.48	83.94
372.706	93.94
372.932	88.94
373.158	88.94
373.384	72.94
373.61	96.94
373.835	90.94
374.061	93.94
374.287	93.94
374.513	97.94
374.739	101.94
374.965	97.94
375.191	76.94
375.416	81.94
375.642	101.94
375.868	102.94
376.094	85.94
376.319	90.94
376.545	91.94
376.771	88.94
376.997	92.94
377.222	82.94
377.448	82.94
377.674	98.94
377.899	87.94
378.125	110.94
378.35	106.94
378.576	89.94
378.802	89.94
379.027	83.94
379.253	81.94
379.478	104.94
379.704	86.94
379.929	91.94
380.155	106.94
380.38	98.94
380.606	82.94
380.831	104.94
381.057	93.94
381.282	100.94
381.507	97.94
381.733	92.94
381.958	104.94
382.184	105.94
382.409	111.94
382.634	107.94
382.86	105.94
383.085	101.94
383.31	81.94
383.535	103.94
383.761	92.94
383.986	100.94
384.211	99.94
384.436	102.94
384.662	95.94
384.887	102.94
385.112	114.94
385.337	103.94
385.562	100.94
385.787	103.94
386.013	107.94
386.238	117.94
386.463	99.94
386.688	94.94
386.913	111.94
387.138	118.94
387.363	96.94
387.588	95.94
387.813	98.94
388.038	109.94
388.263	114.94
388.488	112.94
388.713	99.94
388.938	102.94
389.163	87.94
389.387	85.94
389.612	91.94
389.837	99.94
390.062	103.94
390.287	100.94
390.512	93.94
390.736	94.94
390.961	84.94
391.186	94.94
391.411	79.94
391.636	91.94
391.86	81.94
392.085	90.94
392.31	82.94
392.534	83.94
392.759	99.94
392.984	94.94
393.208	85.94
393.433	103.94
393.658	106.94
393.882	91.94
394.107	96.94
394.331	82.94
394.556	87.94
394.78	96.94
395.005	88.94
395.229	87.94
395.454	95.94
395.678	77.94
395.903	91.94
396.127	96.94
396.352	95.94
396.576	98.94
396.801	91.94
397.025	108.94
397.249	100.94
397.474	72.94
397.698	90.94
397.922	84.94
398.147	86.94
398.371	69.94
398.595	95.94
398.82	94.94
399.044	95.94
399.268	87.94
399.492	83.94
399.717	93.94
399.941	102.94
400.165	94.94
400.389	92.94
400.613	86.94
400.837	83.94
401.062	85.94
401.286	92.94
401.51	99.94
401.734	91.94
401.958	106.94
402.182	115.94
402.406	144.94
402.63	109.94
402.854	83.94
403.078	81.94
403.302	87.94
403.526	87.94
403.75	93.94
403.974	94.94
404.198	72.94
404.422	83.94
404.645	80.94
404.869	83.94
405.093	96.94
405.317	113.94
405.541	121.94
405.765	96.94
405.988	121.94
406.212	165.94
406.436	208.94
406.66	141.94
406.883	105.94
407.107	97.94
407.331	94.94
407.555	105.94
407.778	107.94
408.002	105.94
408.226	80.94
408.449	86.94
408.673	98.94
408.896	101.94
409.12	90.94
409.344	95.94
409.567	102.94
409.791	94.94
410.014	104.94
410.238	76.94
410.461	90.94
410.685	91.94
410.908	88.94
411.132	102.94
411.355	96.94
411.578	95.94
411.802	88.94
412.025	85.94
412.249	78.94
412.472	108.94
412.695	101.94
412.919	84.94
413.142	99.94
413.365	80.94
413.589	104.94
413.812	88.94
414.035	87.94
414.258	93.94
414.482	91.94
414.705	79.94
414.928	95.94
415.151	71.94
415.374	83.94
415.597	83.94
415.821	100.94
416.044	84.94
416.267	78.94
416.49	89.94
416.713	85.94
416.936	98.94
417.159	90.94
417.382	75.94
417.605	87.94
417.828	97.94
418.051	99.94
418.274	91.94
418.497	102.94
418.72	82.94
418.943	82.94
419.166	86.94
419.389	105.94
419.611	84.94
419.834	82.94
420.057	98.94
420.28	92.94
420.503	86.94
420.726	93.94
420.948	105.94
421.171	100.94
421.394	96.94
421.617	85.94
421.839	77.94
422.062	81.94
422.285	103.94
422.507	104.94
422.73	101.94
422.953	94.94
423.175	83.94
423.398	98.94
423.621	82.94
423.843	93.94
424.066	91.94
424.288	85.94
424.511	72.94
424.733	88.94
424.956	104.94
425.178	104.94
425.401	99.94
425.623	101.94
425.846	97.94
426.068	92.94
426.291	76.94
426.513	79.94
426.735	94.94
426.958	99.94
427.18	105.94
427.402	149.94
427.625	171.94
427.847	166.94
428.069	157.94
428.292	103.94
428.514	84.94
428.736	75.94
428.958	80.94
429.181	89.94
429.403	92.94
429.625	88.94
429.847	99.94
430.069	98.94
430.292	91.94
430.514	86.94
430.736	81.94
430.958	80.94
431.18	81.94
431.402	91.94
431.624	93.94
431.846	87.94
432.068	87.94
432.29	85.94
432.512	97.94
432.734	90.94
432.956	81.94
433.178	85.94
433.4	104.94
433.622	91.94
433.844	100.94
434.066	87.94
434.287	93.94
434.509	85.94
434.731	87.94
434.953	85.94
435.175	79.94
435.397	95.94
435.618	88.94
435.84	102.94
436.062	122.94
436.284	109.94
436.505	103.94
436.727	98.94
436.949	105.94
437.17	93.94
437.392	80.94
437.614	85.94
437.835	105.94
438.057	126.94
438.278	103.94
438.5	91.94
438.721	124.94
438.943	113.94
439.165	94.94
439.386	102.94
439.608	85.94
439.829	99.94
440.05	115.94
440.272	148.94
440.493	102.94
440.715	88.94
440.936	86.94
441.158	84.94
441.379	88.94
441.6	89.94
441.822	102.94
442.043	93.94
442.264	88.94
442.486	88.94
442.707	96.94
442.928	100.94
443.149	130.94
443.371	125.94
443.592	120.94
443.813	104.94
444.034	107.94
444.255	86.94
444.476	83.94
444.698	92.94
444.919	95.94
445.14	129.94
445.361	104.94
445.582	110.94
445.803	134.94
446.024	139.94
446.245	139.94
446.466	111.94
446.687	105.94
446.908	89.94
447.129	78.94
447.35	83.94
447.571	104.94
447.792	96.94
448.013	99.94
448.234	108.94
448.455	87.94
448.675	112.94
448.896	121.94
449.117	97.94
449.338	97.94
449.559	124.94
449.779	145.94
450	91.94
450.221	91.94
450.442	98.94
450.662	108.94
450.883	97.94
451.104	103.94
451.324	102.94
451.545	95.94
451.766	83.94
451.986	84.94
452.207	89.94
452.428	79.94
452.648	92.94
452.869	121.94
453.089	115.94
453.31	112.94
453.53	85.94
453.751	96.94
453.971	105.94
454.192	110.94
454.412	87.94
454.633	94.94
454.853	91.94
455.073	90.94
455.294	83.94
455.514	104.94
455.734	93.94
455.955	94.94
456.175	85.94
456.395	93.94
456.616	73.94
456.836	86.94
457.056	78.94
457.276	89.94
457.497	101.94
457.717	86.94
457.937	77.94
458.157	91.94
458.377	101.94
458.598	110.94
458.818	139.94
459.038	165.94
459.258	117.94
459.478	87.94
459.698	86.94
459.918	72.94
460.138	79.94
460.358	83.94
460.578	70.94
460.798	86.94
461.018	93.94
461.238	78.94
461.458	69.94
461.678	73.94
461.898	103.94
462.118	78.94
462.338	87.94
462.558	83.94
462.777	75.94
462.997	100.94
463.217	82.94
463.437	80.94
463.657	72.94
463.876	97.94
464.096	100.94
464.316	98.94
464.536	101.94
464.755	100.94
464.975	101.94
465.195	152.94
465.414	163.94
465.634	96.94
465.854	96.94
466.073	95.94
466.293	89.94
466.512	83.94
466.732	95.94
466.951	99.94
467.171	87.94
467.391	93.94
467.61	96.94
467.829	135.94
468.049	271.94
468.268	351.94
468.488	129.94
468.707	91.94
468.927	91.94
469.146	93.94
469.365	92.94
469.585	78.94
469.804	104.94
470.023	109.94
470.243	96.94
470.462	98.94
470.681	118.94
470.901	95.94
471.12	85.94
471.339	83.94
471.558	89.94
471.777	107.94
471.997	181.94
472.216	489.94
472.435	997.94
472.654	270.94
472.873	109.94
473.092	83.94
473.311	94.94
473.53	99.94
473.749	90.94
473.968	87.94
474.187	117.94
474.406	88.94
474.625	89.94
474.844	91.94
475.063	85.94
475.282	86.94
475.501	86.94
475.72	96.94
475.939	97.94
476.158	93.94
476.377	80.94
476.596	86.94
476.814	89.94
477.033	103.94
477.252	91.94
477.471	96.94
477.69	91.94
477.908	83.94
478.127	94.94
478.346	81.94
478.564	88.94
478.783	98.94
479.002	85.94
479.22	98.94
479.439	110.94
479.658	115.94
479.876	107.94
480.095	95.94
480.313	100.94
480.532	101.94
480.751	169.94
480.969	495.94
481.188	1743.94
481.406	973.94
481.624	193.94
481.843	111.94
482.061	104.94
482.28	83.94
482.498	87.94
482.717	92.94
482.935	89.94
483.153	103.94
483.372	101.94
483.59	86.94
483.808	95.94
484.027	101.94
484.245	101.94
484.463	80.94
484.681	91.94
484.9	93.94
485.118	78.94
485.336	80.94
485.554	102.94
485.772	99.94
485.99	99.94
486.209	115.94
486.427	107.94
486.645	110.94
486.863	115.94
487.081	101.94
487.299	97.94
487.517	91.94
487.735	93.94
487.953	90.94
488.171	113.94
488.389	95.94
488.607	83.94
488.825	83.94
489.043	82.94
489.261	85.94
489.479	82.94
489.696	89.94
489.914	84.94
490.132	92.94
490.35	86.94
490.568	96.94
490.786	91.94
491.003	95.94
491.221	82.94
491.439	100.94
491.657	95.94
491.874	91.94
492.092	94.94
492.31	92.94
492.527	100.94
492.745	104.94
492.963	93.94
493.18	98.94
493.398	97.94
493.615	106.94
493.833	89.94
494.05	86.94
494.268	94.94
494.485	84.94
494.703	89.94
494.92	94.94
495.138	91.94
495.355	94.94
495.573	102.94
495.79	99.94
496.008	81.94
496.225	103.94
496.442	81.94
496.66	91.94
496.877	85.94
497.094	83.94
497.312	99.94
497.529	75.94
497.746	85.94
497.963	88.94
498.181	82.94
498.398	94.94
498.615	115.94
498.832	109.94
499.049	104.94
499.267	105.94
499.484	92.94
499.701	97.94
499.918	90.94
500.135	95.94
500.352	81.94
500.569	105.94
500.786	100.94
501.003	99.94
501.22	101.94
501.437	92.94
501.654	100.94
501.871	107.94
502.088	100.94
502.305	88.94
502.522	87.94
502.739	93.94
502.956	95.94
503.172	87.94
503.389	98.94
503.606	100.94
503.823	99.94
504.04	83.94
504.256	80.94
504.473	95.94
504.69	103.94
504.907	97.94
505.123	93.94
505.34	97.94
505.557	77.94
505.773	78.94
505.99	81.94
506.207	83.94
506.423	95.94
506.64	84.94
506.856	83.94
507.073	86.94
507.289	80.94
507.506	88.94
507.722	105.94
507.939	101.94
508.155	109.94
508.372	95.94
508.588	96.94
508.805	89.94
509.021	93.94
509.238	103.94
509.454	107.94
509.67	103.94
509.887	88.94
510.103	126.94
510.319	199.94
510.536	711.94
510.752	2271.94
510.968	624.94
511.184	143.94
511.401	112.94
511.617	101.94
511.833	97.94
512.049	95.94
512.265	94.94
512.481	98.94
512.698	89.94
512.914	82.94
513.13	93.94
513.346	100.94
513.562	87.94
513.778	89.94
513.994	92.94
514.21	104.94
514.426	110.94
