Data from Circ_1991_H10_HRD10591_00025.txt Node
Date: Wed Jan 03 11:51:46 EST 2024
User: Yrep
Spectrometer: HR+D1059
Trigger mode: 1
Integration Time (sec): 1.000000E-1
Scans to average: 1
Electric dark correction enabled: true
Nonlinearity correction enabled: false
Boxcar width: 0
XAxis mode: Wavelengths
Number of Pixels in Spectrum: 2048
>>>>>Begin Spectral Data<<<<<
223.165	-15.69
223.4	-15.69
223.635	-15.69
223.869	-15.69
224.104	-15.69
224.338	-17.69
224.573	-12.69
224.808	-8.69
225.042	-16.69
225.277	-11.69
225.511	-11.69
225.746	5.31
225.98	6.31
226.215	14.31
226.449	14.31
226.683	18.31
226.918	37.31
227.152	30.31
227.387	35.31
227.621	66.31
227.856	46.31
228.09	45.31
228.324	52.31
228.559	65.31
228.793	62.31
229.027	82.31
229.262	66.31
229.496	67.31
229.73	91.31
229.964	80.31
230.199	74.31
230.433	67.31
230.667	75.31
230.901	82.31
231.136	72.31
231.37	68.31
231.604	75.31
231.838	82.31
232.072	70.31
232.306	71.31
232.541	87.31
232.775	72.31
233.009	70.31
233.243	80.31
233.477	83.31
233.711	86.31
233.945	87.31
234.179	81.31
234.413	90.31
234.647	89.31
234.881	78.31
235.115	80.31
235.349	87.31
235.583	79.31
235.817	76.31
236.051	82.31
236.285	82.31
236.519	78.31
236.753	63.31
236.987	82.31
237.221	90.31
237.455	89.31
237.689	76.31
237.922	64.31
238.156	72.31
238.39	77.31
238.624	66.31
238.858	86.31
239.091	85.31
239.325	78.31
239.559	79.31
239.793	79.31
240.027	86.31
240.26	72.31
240.494	74.31
240.728	78.31
240.961	64.31
241.195	85.31
241.429	81.31
241.662	70.31
241.896	81.31
242.13	79.31
242.363	77.31
242.597	78.31
242.83	78.31
243.064	82.31
243.298	74.31
243.531	76.31
243.765	91.31
243.998	80.31
244.232	80.31
244.465	82.31
244.699	72.31
244.932	80.31
245.166	79.31
245.399	79.31
245.633	82.31
245.866	76.31
246.099	85.31
246.333	87.31
246.566	76.31
246.8	92.31
247.033	85.31
247.266	81.31
247.5	81.31
247.733	72.31
247.966	78.31
248.2	75.31
248.433	79.31
248.666	75.31
248.899	82.31
249.133	92.31
249.366	80.31
249.599	95.31
249.832	98.31
250.066	88.31
250.299	65.31
250.532	86.31
250.765	88.31
250.998	78.31
251.231	75.31
251.465	85.31
251.698	83.31
251.931	82.31
252.164	74.31
252.397	79.31
252.63	66.31
252.863	80.31
253.096	88.31
253.329	87.31
253.562	82.31
253.795	78.31
254.028	75.31
254.261	80.31
254.494	72.31
254.727	72.31
254.96	75.31
255.193	98.31
255.426	72.31
255.659	85.31
255.892	85.31
256.124	89.31
256.357	72.31
256.59	90.31
256.823	81.31
257.056	86.31
257.289	86.31
257.521	88.31
257.754	95.31
257.987	84.31
258.22	79.31
258.452	77.31
258.685	78.31
258.918	79.31
259.151	91.31
259.383	74.31
259.616	77.31
259.849	85.31
260.081	76.31
260.314	77.31
260.547	84.31
260.779	78.31
261.012	85.31
261.244	87.31
261.477	92.31
261.71	100.31
261.942	95.31
262.175	108.31
262.407	76.31
262.64	79.31
262.872	89.31
263.105	81.31
263.337	75.31
263.57	83.31
263.802	94.31
264.035	70.31
264.267	70.31
264.499	86.31
264.732	87.31
264.964	87.31
265.197	76.31
265.429	97.31
265.661	88.31
265.894	82.31
266.126	79.31
266.358	90.31
266.591	78.31
266.823	86.31
267.055	63.31
267.287	86.31
267.52	81.31
267.752	100.31
267.984	94.31
268.216	81.31
268.448	92.31
268.681	99.31
268.913	94.31
269.145	82.31
269.377	94.31
269.609	67.31
269.841	95.31
270.073	86.31
270.306	67.31
270.538	89.31
270.77	84.31
271.002	70.31
271.234	85.31
271.466	87.31
271.698	95.31
271.93	72.31
272.162	85.31
272.394	77.31
272.626	93.31
272.858	89.31
273.09	91.31
273.322	83.31
273.553	80.31
273.785	91.31
274.017	84.31
274.249	90.31
274.481	87.31
274.713	74.31
274.945	113.31
275.176	97.31
275.408	108.31
275.64	85.31
275.872	94.31
276.104	101.31
276.335	92.31
276.567	100.31
276.799	94.31
277.031	98.31
277.262	87.31
277.494	81.31
277.726	83.31
277.957	80.31
278.189	87.31
278.421	98.31
278.652	79.31
278.884	71.31
279.115	94.31
279.347	85.31
279.579	79.31
279.81	102.31
280.042	101.31
280.273	95.31
280.505	76.31
280.736	103.31
280.968	65.31
281.199	95.31
281.431	90.31
281.662	99.31
281.894	94.31
282.125	109.31
282.356	112.31
282.588	136.31
282.819	101.31
283.051	96.31
283.282	89.31
283.513	92.31
283.745	106.31
283.976	76.31
284.207	94.31
284.439	74.31
284.67	86.31
284.901	84.31
285.132	91.31
285.364	86.31
285.595	82.31
285.826	88.31
286.057	93.31
286.288	89.31
286.52	95.31
286.751	81.31
286.982	79.31
287.213	92.31
287.444	98.31
287.675	86.31
287.906	105.31
288.138	77.31
288.369	101.31
288.6	77.31
288.831	94.31
289.062	97.31
289.293	108.31
289.524	88.31
289.755	94.31
289.986	87.31
290.217	85.31
290.448	95.31
290.679	86.31
290.91	85.31
291.141	88.31
291.371	97.31
291.602	93.31
291.833	87.31
292.064	84.31
292.295	97.31
292.526	97.31
292.757	102.31
292.987	98.31
293.218	104.31
293.449	84.31
293.68	98.31
293.91	88.31
294.141	95.31
294.372	84.31
294.603	89.31
294.833	90.31
295.064	94.31
295.295	84.31
295.525	92.31
295.756	91.31
295.987	107.31
296.217	120.31
296.448	120.31
296.679	93.31
296.909	95.31
297.14	88.31
297.37	87.31
297.601	83.31
297.831	83.31
298.062	95.31
298.292	88.31
298.523	81.31
298.753	108.31
298.984	83.31
299.214	92.31
299.445	83.31
299.675	87.31
299.905	105.31
300.136	88.31
300.366	96.31
300.597	89.31
300.827	92.31
301.057	102.31
301.288	93.31
301.518	102.31
301.748	98.31
301.979	85.31
302.209	80.31
302.439	94.31
302.669	96.31
302.9	86.31
303.13	90.31
303.36	79.31
303.59	102.31
303.82	103.31
304.051	100.31
304.281	86.31
304.511	92.31
304.741	96.31
304.971	96.31
305.201	100.31
305.431	98.31
305.661	100.31
305.891	104.31
306.121	94.31
306.352	114.31
306.582	100.31
306.812	88.31
307.042	92.31
307.272	91.31
307.502	101.31
307.731	96.31
307.961	103.31
308.191	106.31
308.421	78.31
308.651	84.31
308.881	96.31
309.111	85.31
309.341	85.31
309.571	90.31
309.8	88.31
310.03	98.31
310.26	103.31
310.49	109.31
310.72	101.31
310.949	96.31
311.179	105.31
311.409	108.31
311.639	105.31
311.868	94.31
312.098	91.31
312.328	102.31
312.557	100.31
312.787	106.31
313.017	99.31
313.246	87.31
313.476	96.31
313.706	93.31
313.935	94.31
314.165	93.31
314.394	110.31
314.624	103.31
314.853	95.31
315.083	89.31
315.312	85.31
315.542	97.31
315.771	97.31
316.001	104.31
316.23	97.31
316.46	107.31
316.689	90.31
316.919	103.31
317.148	90.31
317.377	99.31
317.607	100.31
317.836	92.31
318.065	85.31
318.295	95.31
318.524	95.31
318.753	91.31
318.983	109.31
319.212	92.31
319.441	96.31
319.67	103.31
319.9	94.31
320.129	87.31
320.358	83.31
320.587	94.31
320.816	94.31
321.046	80.31
321.275	100.31
321.504	86.31
321.733	99.31
321.962	92.31
322.191	100.31
322.42	108.31
322.649	103.31
322.878	111.31
323.108	108.31
323.337	131.31
323.566	129.31
323.795	144.31
324.024	198.31
324.253	355.31
324.482	765.31
324.71	1626.31
324.939	2151.31
325.168	777.31
325.397	228.31
325.626	130.31
325.855	123.31
326.084	119.31
326.313	129.31
326.542	156.31
326.77	230.31
326.999	428.31
327.228	915.31
327.457	1652.31
327.686	1367.31
327.914	363.31
328.143	229.31
328.372	212.31
328.6	148.31
328.829	120.31
329.058	112.31
329.287	120.31
329.515	107.31
329.744	114.31
329.972	171.31
330.201	223.31
330.43	311.31
330.658	184.31
330.887	154.31
331.115	123.31
331.344	110.31
331.572	115.31
331.801	112.31
332.03	102.31
332.258	79.31
332.486	95.31
332.715	108.31
332.943	92.31
333.172	107.31
333.4	97.31
333.629	107.31
333.857	125.31
334.085	158.31
334.314	241.31
334.542	378.31
334.771	343.31
334.999	154.31
335.227	116.31
335.455	93.31
335.684	100.31
335.912	109.31
336.14	92.31
336.369	93.31
336.597	102.31
336.825	102.31
337.053	101.31
337.281	88.31
337.51	93.31
337.738	86.31
337.966	92.31
338.194	91.31
338.422	98.31
338.65	98.31
338.878	88.31
339.106	85.31
339.334	77.31
339.562	88.31
339.79	90.31
340.018	96.31
340.246	94.31
340.474	80.31
340.702	97.31
340.93	83.31
341.158	83.31
341.386	92.31
341.614	89.31
341.842	90.31
342.07	98.31
342.298	90.31
342.526	78.31
342.754	87.31
342.981	93.31
343.209	78.31
343.437	90.31
343.665	84.31
343.893	98.31
344.12	93.31
344.348	88.31
344.576	74.31
344.804	94.31
345.031	95.31
345.259	97.31
345.487	100.31
345.714	79.31
345.942	80.31
346.17	80.31
346.397	91.31
346.625	95.31
346.853	95.31
347.08	90.31
347.308	98.31
347.535	91.31
347.763	97.31
347.99	96.31
348.218	98.31
348.445	85.31
348.673	96.31
348.9	78.31
349.128	87.31
349.355	76.31
349.583	95.31
349.81	83.31
350.037	81.31
350.265	100.31
350.492	84.31
350.72	99.31
350.947	106.31
351.174	111.31
351.402	104.31
351.629	91.31
351.856	98.31
352.083	96.31
352.311	91.31
352.538	108.31
352.765	93.31
352.992	103.31
353.22	131.31
353.447	106.31
353.674	104.31
353.901	99.31
354.128	92.31
354.355	96.31
354.583	99.31
354.81	94.31
355.037	92.31
355.264	108.31
355.491	90.31
355.718	107.31
355.945	81.31
356.172	99.31
356.399	94.31
356.626	86.31
356.853	96.31
357.08	89.31
357.307	96.31
357.534	86.31
357.761	95.31
357.988	87.31
358.215	101.31
358.441	99.31
358.668	96.31
358.895	91.31
359.122	76.31
359.349	86.31
359.576	95.31
359.802	102.31
360.029	96.31
360.256	97.31
360.483	93.31
360.709	86.31
360.936	92.31
361.163	82.31
361.39	96.31
361.616	82.31
361.843	80.31
362.07	95.31
362.296	104.31
362.523	90.31
362.749	92.31
362.976	99.31
363.203	87.31
363.429	96.31
363.656	92.31
363.882	78.31
364.109	97.31
364.335	99.31
364.562	102.31
364.788	86.31
365.015	84.31
365.241	89.31
365.468	108.31
365.694	98.31
365.92	102.31
366.147	93.31
366.373	85.31
366.599	85.31
366.826	109.31
367.052	78.31
367.278	90.31
367.505	98.31
367.731	98.31
367.957	78.31
368.184	94.31
368.41	106.31
368.636	102.31
368.862	116.31
369.089	101.31
369.315	79.31
369.541	88.31
369.767	96.31
369.993	92.31
370.219	83.31
370.445	92.31
370.672	88.31
370.898	102.31
371.124	90.31
371.35	94.31
371.576	88.31
371.802	94.31
372.028	92.31
372.254	97.31
372.48	90.31
372.706	98.31
372.932	87.31
373.158	84.31
373.384	91.31
373.61	74.31
373.835	100.31
374.061	84.31
374.287	88.31
374.513	91.31
374.739	82.31
374.965	88.31
375.191	92.31
375.416	105.31
375.642	82.31
375.868	93.31
376.094	94.31
376.319	87.31
376.545	93.31
376.771	81.31
376.997	98.31
377.222	92.31
377.448	92.31
377.674	83.31
377.899	99.31
378.125	82.31
378.35	98.31
378.576	86.31
378.802	95.31
379.027	93.31
379.253	80.31
379.478	89.31
379.704	97.31
379.929	89.31
380.155	91.31
380.38	92.31
380.606	100.31
380.831	87.31
381.057	95.31
381.282	108.31
381.507	95.31
381.733	95.31
381.958	109.31
382.184	95.31
382.409	100.31
382.634	108.31
382.86	103.31
383.085	91.31
383.31	94.31
383.535	103.31
383.761	94.31
383.986	96.31
384.211	116.31
384.436	101.31
384.662	95.31
384.887	120.31
385.112	117.31
385.337	95.31
385.562	104.31
385.787	123.31
386.013	114.31
386.238	110.31
386.463	116.31
386.688	102.31
386.913	98.31
387.138	103.31
387.363	119.31
387.588	115.31
387.813	97.31
388.038	104.31
388.263	121.31
388.488	107.31
388.713	95.31
388.938	92.31
389.163	100.31
389.387	105.31
389.612	95.31
389.837	91.31
390.062	91.31
390.287	95.31
390.512	97.31
390.736	106.31
390.961	91.31
391.186	85.31
391.411	94.31
391.636	96.31
391.86	93.31
392.085	85.31
392.31	86.31
392.534	102.31
392.759	91.31
392.984	107.31
393.208	133.31
393.433	191.31
393.658	146.31
393.882	90.31
394.107	76.31
394.331	95.31
394.556	99.31
394.78	88.31
395.005	82.31
395.229	81.31
395.454	76.31
395.678	87.31
395.903	92.31
396.127	91.31
396.352	78.31
396.576	101.31
396.801	119.31
397.025	142.31
397.249	88.31
397.474	87.31
397.698	89.31
397.922	91.31
398.147	95.31
398.371	80.31
398.595	86.31
398.82	89.31
399.044	90.31
399.268	84.31
399.492	100.31
399.717	98.31
399.941	91.31
400.165	94.31
400.389	99.31
400.613	79.31
400.837	75.31
401.062	89.31
401.286	92.31
401.51	92.31
401.734	96.31
401.958	96.31
402.182	122.31
402.406	147.31
402.63	114.31
402.854	103.31
403.078	85.31
403.302	83.31
403.526	82.31
403.75	87.31
403.974	85.31
404.198	100.31
404.422	91.31
404.645	94.31
404.869	91.31
405.093	91.31
405.317	108.31
405.541	114.31
405.765	94.31
405.988	111.31
406.212	161.31
406.436	209.31
406.66	135.31
406.883	96.31
407.107	79.31
407.331	96.31
407.555	98.31
407.778	85.31
408.002	112.31
408.226	98.31
408.449	92.31
408.673	89.31
408.896	86.31
409.12	83.31
409.344	94.31
409.567	87.31
409.791	89.31
410.014	95.31
410.238	89.31
410.461	83.31
410.685	100.31
410.908	93.31
411.132	96.31
411.355	102.31
411.578	94.31
411.802	88.31
412.025	93.31
412.249	102.31
412.472	101.31
412.695	103.31
412.919	85.31
413.142	91.31
413.365	92.31
413.589	95.31
413.812	82.31
414.035	82.31
414.258	92.31
414.482	96.31
414.705	85.31
414.928	99.31
415.151	87.31
415.374	81.31
415.597	95.31
415.821	95.31
416.044	80.31
416.267	102.31
416.49	91.31
416.713	106.31
416.936	103.31
417.159	85.31
417.382	93.31
417.605	97.31
417.828	86.31
418.051	97.31
418.274	100.31
418.497	81.31
418.72	77.31
418.943	77.31
419.166	81.31
419.389	98.31
419.611	71.31
419.834	82.31
420.057	82.31
420.28	91.31
420.503	102.31
420.726	89.31
420.948	86.31
421.171	86.31
421.394	98.31
421.617	102.31
421.839	84.31
422.062	95.31
422.285	86.31
422.507	97.31
422.73	110.31
422.953	104.31
423.175	91.31
423.398	100.31
423.621	85.31
423.843	84.31
424.066	90.31
424.288	100.31
424.511	87.31
424.733	87.31
424.956	103.31
425.178	96.31
425.401	93.31
425.623	102.31
425.846	82.31
426.068	72.31
426.291	90.31
426.513	88.31
426.735	83.31
426.958	95.31
427.18	115.31
427.402	139.31
427.625	162.31
427.847	143.31
428.069	148.31
428.292	119.31
428.514	84.31
428.736	102.31
428.958	84.31
429.181	82.31
429.403	94.31
429.625	97.31
429.847	76.31
430.069	92.31
430.292	85.31
430.514	84.31
430.736	91.31
430.958	91.31
431.18	88.31
431.402	78.31
431.624	96.31
431.846	86.31
432.068	81.31
432.29	82.31
432.512	102.31
432.734	92.31
432.956	106.31
433.178	102.31
433.4	93.31
433.622	84.31
433.844	95.31
434.066	86.31
434.287	100.31
434.509	107.31
434.731	90.31
434.953	87.31
435.175	79.31
435.397	80.31
435.618	100.31
435.84	99.31
436.062	124.31
436.284	113.31
436.505	99.31
436.727	100.31
436.949	83.31
437.17	94.31
437.392	99.31
437.614	94.31
437.835	109.31
438.057	112.31
438.278	96.31
438.5	92.31
438.721	124.31
438.943	106.31
439.165	83.31
439.386	88.31
439.608	92.31
439.829	110.31
440.05	103.31
440.272	144.31
440.493	94.31
440.715	82.31
440.936	96.31
441.158	84.31
441.379	77.31
441.6	92.31
441.822	96.31
442.043	94.31
442.264	88.31
442.486	96.31
442.707	67.31
442.928	91.31
443.149	127.31
443.371	122.31
443.592	104.31
443.813	118.31
444.034	120.31
444.255	95.31
444.476	90.31
444.698	84.31
444.919	94.31
445.14	149.31
445.361	126.31
445.582	108.31
445.803	130.31
446.024	139.31
446.245	126.31
446.466	115.31
446.687	101.31
446.908	100.31
447.129	88.31
447.35	99.31
447.571	89.31
447.792	100.31
448.013	91.31
448.234	99.31
448.455	91.31
448.675	111.31
448.896	114.31
449.117	104.31
449.338	91.31
449.559	123.31
449.779	116.31
450	103.31
450.221	96.31
450.442	81.31
450.662	99.31
450.883	93.31
451.104	107.31
451.324	98.31
451.545	87.31
451.766	94.31
451.986	87.31
452.207	74.31
452.428	96.31
452.648	106.31
452.869	132.31
453.089	107.31
453.31	117.31
453.53	81.31
453.751	90.31
453.971	108.31
454.192	107.31
454.412	91.31
454.633	79.31
454.853	80.31
455.073	80.31
455.294	83.31
455.514	104.31
455.734	95.31
455.955	84.31
456.175	100.31
456.395	100.31
456.616	85.31
456.836	92.31
457.056	87.31
457.276	74.31
457.497	68.31
457.717	86.31
457.937	83.31
458.157	75.31
458.377	81.31
458.598	107.31
458.818	122.31
459.038	155.31
459.258	114.31
459.478	76.31
459.698	85.31
459.918	88.31
460.138	79.31
460.358	91.31
460.578	81.31
460.798	90.31
461.018	86.31
461.238	82.31
461.458	71.31
461.678	90.31
461.898	105.31
462.118	81.31
462.338	99.31
462.558	96.31
462.777	80.31
462.997	85.31
463.217	90.31
463.437	72.31
463.657	89.31
463.876	81.31
464.096	78.31
464.316	84.31
464.536	88.31
464.755	92.31
464.975	112.31
465.195	155.31
465.414	142.31
465.634	98.31
465.854	90.31
466.073	85.31
466.293	86.31
466.512	94.31
466.732	78.31
466.951	95.31
467.171	75.31
467.391	101.31
467.61	114.31
467.829	108.31
468.049	173.31
468.268	195.31
468.488	108.31
468.707	80.31
468.927	89.31
469.146	99.31
469.365	77.31
469.585	83.31
469.804	87.31
470.023	96.31
470.243	103.31
470.462	105.31
470.681	96.31
470.901	96.31
471.12	92.31
471.339	98.31
471.558	90.31
471.777	95.31
471.997	103.31
472.216	274.31
472.435	518.31
472.654	169.31
472.873	98.31
473.092	95.31
473.311	94.31
473.53	88.31
473.749	72.31
473.968	94.31
474.187	103.31
474.406	105.31
474.625	86.31
474.844	82.31
475.063	87.31
475.282	100.31
475.501	98.31
475.72	88.31
475.939	81.31
476.158	87.31
476.377	91.31
476.596	90.31
476.814	92.31
477.033	95.31
477.252	93.31
477.471	83.31
477.69	78.31
477.908	90.31
478.127	77.31
478.346	80.31
478.564	88.31
478.783	99.31
479.002	89.31
479.22	94.31
479.439	87.31
479.658	106.31
479.876	90.31
480.095	98.31
480.313	98.31
480.532	85.31
480.751	120.31
480.969	294.31
481.188	867.31
481.406	530.31
481.624	150.31
481.843	110.31
482.061	88.31
482.28	82.31
482.498	76.31
482.717	84.31
482.935	93.31
483.153	77.31
483.372	70.31
483.59	100.31
483.808	96.31
484.027	84.31
484.245	98.31
484.463	85.31
484.681	95.31
484.9	99.31
485.118	94.31
485.336	100.31
485.554	101.31
485.772	97.31
485.99	96.31
486.209	95.31
486.427	107.31
486.645	111.31
486.863	102.31
487.081	115.31
487.299	97.31
487.517	95.31
487.735	93.31
487.953	91.31
488.171	97.31
488.389	85.31
488.607	103.31
488.825	105.31
489.043	91.31
489.261	94.31
489.479	80.31
489.696	88.31
489.914	75.31
490.132	87.31
490.35	96.31
490.568	94.31
490.786	87.31
491.003	86.31
491.221	91.31
491.439	90.31
491.657	88.31
491.874	91.31
492.092	84.31
492.31	88.31
492.527	87.31
492.745	76.31
492.963	98.31
493.18	98.31
493.398	81.31
493.615	97.31
493.833	90.31
494.05	92.31
494.268	90.31
494.485	95.31
494.703	100.31
494.92	90.31
495.138	102.31
495.355	92.31
495.573	86.31
495.79	87.31
496.008	80.31
496.225	80.31
496.442	89.31
496.66	92.31
496.877	98.31
497.094	93.31
497.312	84.31
497.529	84.31
497.746	87.31
497.963	76.31
498.181	91.31
498.398	104.31
498.615	97.31
498.832	106.31
499.049	87.31
499.267	92.31
499.484	99.31
499.701	86.31
499.918	91.31
500.135	95.31
500.352	91.31
500.569	90.31
500.786	95.31
501.003	94.31
501.22	89.31
501.437	98.31
501.654	96.31
501.871	114.31
502.088	98.31
502.305	96.31
502.522	88.31
502.739	90.31
502.956	85.31
503.172	89.31
503.389	106.31
503.606	95.31
503.823	91.31
504.04	85.31
504.256	88.31
504.473	91.31
504.69	96.31
504.907	85.31
505.123	84.31
505.34	85.31
505.557	79.31
505.773	91.31
505.99	100.31
506.207	97.31
506.423	95.31
506.64	81.31
506.856	98.31
507.073	98.31
507.289	97.31
507.506	100.31
507.722	101.31
507.939	92.31
508.155	99.31
508.372	99.31
508.588	92.31
508.805	89.31
509.021	105.31
509.238	90.31
509.454	91.31
509.67	107.31
509.887	111.31
510.103	110.31
510.319	190.31
510.536	668.31
510.752	2134.31
510.968	596.31
511.184	146.31
511.401	117.31
511.617	90.31
511.833	94.31
512.049	97.31
512.265	82.31
512.481	92.31
512.698	83.31
512.914	96.31
513.13	79.31
513.346	98.31
513.562	91.31
513.778	96.31
513.994	100.31
514.21	90.31
514.426	127.31
514.642	134.31
514.858	132.31
515.074	161.31
515.29	389.31
515.506	1310.31
