Data from Circ_1991_H10_HRD10591_00005.txt Node
Date: Wed Jan 03 11:51:42 EST 2024
User: Yrep
Spectrometer: HR+D1059
Trigger mode: 1
Integration Time (sec): 1.000000E-1
Scans to average: 1
Electric dark correction enabled: true
Nonlinearity correction enabled: false
Boxcar width: 0
XAxis mode: Wavelengths
Number of Pixels in Spectrum: 2048
>>>>>Begin Spectral Data<<<<<
223.165	-19.12
223.4	-19.12
223.635	-19.12
223.869	-13.12
224.104	-12.12
224.338	-31.12
224.573	-19.12
224.808	-10.12
225.042	-7.12
225.277	5.88
225.511	12.88
225.746	2.88
225.98	-6.12
226.215	5.88
226.449	15.88
226.683	21.88
226.918	29.88
227.152	22.88
227.387	27.88
227.621	48.88
227.856	51.88
228.09	57.88
228.324	62.88
228.559	51.88
228.793	67.88
229.027	77.88
229.262	57.88
229.496	78.88
229.73	94.88
229.964	81.88
230.199	68.88
230.433	76.88
230.667	87.88
230.901	81.88
231.136	76.88
231.37	81.88
231.604	93.88
231.838	91.88
232.072	86.88
232.306	79.88
232.541	89.88
232.775	87.88
233.009	86.88
233.243	84.88
233.477	94.88
233.711	78.88
233.945	96.88
234.179	82.88
234.413	75.88
234.647	74.88
234.881	74.88
235.115	95.88
235.349	89.88
235.583	86.88
235.817	82.88
236.051	74.88
236.285	85.88
236.519	71.88
236.753	78.88
236.987	86.88
237.221	93.88
237.455	97.88
237.689	97.88
237.922	84.88
238.156	72.88
238.39	84.88
238.624	66.88
238.858	70.88
239.091	89.88
239.325	71.88
239.559	83.88
239.793	85.88
240.027	97.88
240.26	87.88
240.494	78.88
240.728	71.88
240.961	88.88
241.195	82.88
241.429	85.88
241.662	87.88
241.896	84.88
242.13	77.88
242.363	100.88
242.597	74.88
242.83	63.88
243.064	87.88
243.298	81.88
243.531	82.88
243.765	82.88
243.998	73.88
244.232	91.88
244.465	86.88
244.699	89.88
244.932	87.88
245.166	88.88
245.399	66.88
245.633	65.88
245.866	80.88
246.099	95.88
246.333	87.88
246.566	63.88
246.8	80.88
247.033	83.88
247.266	87.88
247.5	80.88
247.733	82.88
247.966	72.88
248.2	88.88
248.433	70.88
248.666	87.88
248.899	95.88
249.133	78.88
249.366	93.88
249.599	89.88
249.832	82.88
250.066	85.88
250.299	83.88
250.532	86.88
250.765	75.88
250.998	81.88
251.231	90.88
251.465	87.88
251.698	86.88
251.931	105.88
252.164	100.88
252.397	69.88
252.63	75.88
252.863	85.88
253.096	86.88
253.329	88.88
253.562	93.88
253.795	87.88
254.028	82.88
254.261	78.88
254.494	87.88
254.727	80.88
254.96	73.88
255.193	81.88
255.426	90.88
255.659	93.88
255.892	73.88
256.124	84.88
256.357	81.88
256.59	94.88
256.823	88.88
257.056	85.88
257.289	93.88
257.521	78.88
257.754	86.88
257.987	89.88
258.22	96.88
258.452	86.88
258.685	98.88
258.918	96.88
259.151	81.88
259.383	89.88
259.616	80.88
259.849	82.88
260.081	91.88
260.314	80.88
260.547	94.88
260.779	79.88
261.012	82.88
261.244	86.88
261.477	104.88
261.71	101.88
261.942	99.88
262.175	115.88
262.407	91.88
262.64	105.88
262.872	83.88
263.105	81.88
263.337	79.88
263.57	86.88
263.802	77.88
264.035	87.88
264.267	85.88
264.499	79.88
264.732	88.88
264.964	81.88
265.197	77.88
265.429	98.88
265.661	96.88
265.894	81.88
266.126	91.88
266.358	99.88
266.591	90.88
266.823	90.88
267.055	86.88
267.287	82.88
267.52	95.88
267.752	80.88
267.984	81.88
268.216	86.88
268.448	90.88
268.681	94.88
268.913	79.88
269.145	94.88
269.377	95.88
269.609	78.88
269.841	81.88
270.073	81.88
270.306	84.88
270.538	92.88
270.77	84.88
271.002	93.88
271.234	83.88
271.466	86.88
271.698	95.88
271.93	90.88
272.162	94.88
272.394	90.88
272.626	90.88
272.858	101.88
273.09	81.88
273.322	70.88
273.553	88.88
273.785	85.88
274.017	85.88
274.249	97.88
274.481	87.88
274.713	93.88
274.945	91.88
275.176	72.88
275.408	78.88
275.64	85.88
275.872	89.88
276.104	95.88
276.335	96.88
276.567	100.88
276.799	97.88
277.031	95.88
277.262	103.88
277.494	101.88
277.726	91.88
277.957	83.88
278.189	89.88
278.421	85.88
278.652	91.88
278.884	80.88
279.115	86.88
279.347	85.88
279.579	94.88
279.81	103.88
280.042	107.88
280.273	96.88
280.505	88.88
280.736	101.88
280.968	99.88
281.199	89.88
281.431	67.88
281.662	81.88
281.894	97.88
282.125	85.88
282.356	105.88
282.588	124.88
282.819	94.88
283.051	88.88
283.282	97.88
283.513	85.88
283.745	97.88
283.976	89.88
284.207	85.88
284.439	84.88
284.67	106.88
284.901	94.88
285.132	82.88
285.364	91.88
285.595	99.88
285.826	96.88
286.057	95.88
286.288	107.88
286.52	101.88
286.751	87.88
286.982	90.88
287.213	86.88
287.444	94.88
287.675	93.88
287.906	89.88
288.138	82.88
288.369	90.88
288.6	98.88
288.831	79.88
289.062	95.88
289.293	105.88
289.524	81.88
289.755	103.88
289.986	94.88
290.217	85.88
290.448	95.88
290.679	84.88
290.91	87.88
291.141	87.88
291.371	87.88
291.602	85.88
291.833	94.88
292.064	85.88
292.295	85.88
292.526	98.88
292.757	90.88
292.987	93.88
293.218	94.88
293.449	94.88
293.68	75.88
293.91	94.88
294.141	88.88
294.372	71.88
294.603	96.88
294.833	93.88
295.064	85.88
295.295	91.88
295.525	91.88
295.756	97.88
295.987	117.88
296.217	113.88
296.448	97.88
296.679	94.88
296.909	87.88
297.14	97.88
297.37	87.88
297.601	95.88
297.831	102.88
298.062	99.88
298.292	92.88
298.523	86.88
298.753	84.88
298.984	97.88
299.214	97.88
299.445	94.88
299.675	97.88
299.905	80.88
300.136	105.88
300.366	105.88
300.597	99.88
300.827	100.88
301.057	104.88
301.288	86.88
301.518	86.88
301.748	86.88
301.979	98.88
302.209	89.88
302.439	89.88
302.669	103.88
302.9	87.88
303.13	90.88
303.36	103.88
303.59	102.88
303.82	90.88
304.051	96.88
304.281	90.88
304.511	100.88
304.741	79.88
304.971	88.88
305.201	93.88
305.431	97.88
305.661	97.88
305.891	94.88
306.121	105.88
306.352	98.88
306.582	90.88
306.812	98.88
307.042	113.88
307.272	111.88
307.502	106.88
307.731	107.88
307.961	104.88
308.191	88.88
308.421	95.88
308.651	105.88
308.881	111.88
309.111	90.88
309.341	82.88
309.571	103.88
309.8	93.88
310.03	94.88
310.26	97.88
310.49	103.88
310.72	116.88
310.949	107.88
311.179	105.88
311.409	91.88
311.639	96.88
311.868	99.88
312.098	99.88
312.328	94.88
312.557	114.88
312.787	99.88
313.017	102.88
313.246	87.88
313.476	94.88
313.706	91.88
313.935	83.88
314.165	103.88
314.394	118.88
314.624	98.88
314.853	96.88
315.083	90.88
315.312	98.88
315.542	91.88
315.771	105.88
316.001	111.88
316.23	83.88
316.46	106.88
316.689	95.88
316.919	88.88
317.148	114.88
317.377	92.88
317.607	95.88
317.836	111.88
318.065	96.88
318.295	93.88
318.524	94.88
318.753	97.88
318.983	95.88
319.212	103.88
319.441	111.88
319.67	86.88
319.9	98.88
320.129	89.88
320.358	87.88
320.587	87.88
320.816	94.88
321.046	96.88
321.275	95.88
321.504	106.88
321.733	94.88
321.962	100.88
322.191	93.88
322.42	95.88
322.649	98.88
322.878	121.88
323.108	101.88
323.337	120.88
323.566	125.88
323.795	130.88
324.024	207.88
324.253	346.88
324.482	708.88
324.71	1447.88
324.939	1917.88
325.168	705.88
325.397	221.88
325.626	147.88
325.855	124.88
326.084	139.88
326.313	118.88
326.542	136.88
326.77	232.88
326.999	394.88
327.228	829.88
327.457	1506.88
327.686	1183.88
327.914	317.88
328.143	199.88
328.372	171.88
328.6	122.88
328.829	127.88
329.058	118.88
329.287	133.88
329.515	120.88
329.744	112.88
329.972	130.88
330.201	185.88
330.43	217.88
330.658	154.88
330.887	132.88
331.115	116.88
331.344	94.88
331.572	105.88
331.801	85.88
332.03	98.88
332.258	100.88
332.486	95.88
332.715	99.88
332.943	100.88
333.172	97.88
333.4	120.88
333.629	98.88
333.857	111.88
334.085	131.88
334.314	181.88
334.542	275.88
334.771	273.88
334.999	132.88
335.227	106.88
335.455	103.88
335.684	101.88
335.912	88.88
336.14	90.88
336.369	93.88
336.597	99.88
336.825	103.88
337.053	94.88
337.281	88.88
337.51	87.88
337.738	100.88
337.966	101.88
338.194	90.88
338.422	104.88
338.65	101.88
338.878	103.88
339.106	110.88
339.334	100.88
339.562	94.88
339.79	95.88
340.018	83.88
340.246	102.88
340.474	92.88
340.702	90.88
340.93	89.88
341.158	86.88
341.386	102.88
341.614	102.88
341.842	98.88
342.07	78.88
342.298	96.88
342.526	101.88
342.754	89.88
342.981	96.88
343.209	81.88
343.437	94.88
343.665	95.88
343.893	89.88
344.12	83.88
344.348	102.88
344.576	89.88
344.804	94.88
345.031	95.88
345.259	93.88
345.487	99.88
345.714	92.88
345.942	101.88
346.17	97.88
346.397	105.88
346.625	101.88
346.853	101.88
347.08	99.88
347.308	95.88
347.535	87.88
347.763	102.88
347.99	92.88
348.218	99.88
348.445	90.88
348.673	90.88
348.9	101.88
349.128	100.88
349.355	97.88
349.583	106.88
349.81	96.88
350.037	109.88
350.265	98.88
350.492	91.88
350.72	87.88
350.947	95.88
351.174	98.88
351.402	99.88
351.629	95.88
351.856	109.88
352.083	89.88
352.311	109.88
352.538	103.88
352.765	106.88
352.992	118.88
353.22	104.88
353.447	98.88
353.674	107.88
353.901	99.88
354.128	106.88
354.355	88.88
354.583	104.88
354.81	107.88
355.037	105.88
355.264	96.88
355.491	97.88
355.718	108.88
355.945	108.88
356.172	106.88
356.399	100.88
356.626	86.88
356.853	83.88
357.08	90.88
357.307	106.88
357.534	92.88
357.761	97.88
357.988	103.88
358.215	93.88
358.441	99.88
358.668	114.88
358.895	85.88
359.122	86.88
359.349	83.88
359.576	84.88
359.802	97.88
360.029	108.88
360.256	105.88
360.483	91.88
360.709	115.88
360.936	92.88
361.163	87.88
361.39	93.88
361.616	99.88
361.843	87.88
362.07	102.88
362.296	96.88
362.523	92.88
362.749	101.88
362.976	93.88
363.203	94.88
363.429	89.88
363.656	111.88
363.882	93.88
364.109	91.88
364.335	87.88
364.562	98.88
364.788	93.88
365.015	86.88
365.241	102.88
365.468	111.88
365.694	97.88
365.92	74.88
366.147	89.88
366.373	89.88
366.599	102.88
366.826	98.88
367.052	84.88
367.278	85.88
367.505	93.88
367.731	99.88
367.957	93.88
368.184	87.88
368.41	106.88
368.636	98.88
368.862	101.88
369.089	93.88
369.315	97.88
369.541	94.88
369.767	89.88
369.993	105.88
370.219	91.88
370.445	77.88
370.672	93.88
370.898	82.88
371.124	89.88
371.35	97.88
371.576	83.88
371.802	79.88
372.028	104.88
372.254	94.88
372.48	98.88
372.706	86.88
372.932	81.88
373.158	82.88
373.384	89.88
373.61	95.88
373.835	104.88
374.061	105.88
374.287	101.88
374.513	78.88
374.739	86.88
374.965	98.88
375.191	104.88
375.416	93.88
375.642	88.88
375.868	95.88
376.094	90.88
376.319	84.88
376.545	96.88
376.771	94.88
376.997	81.88
377.222	86.88
377.448	92.88
377.674	97.88
377.899	101.88
378.125	103.88
378.35	107.88
378.576	97.88
378.802	89.88
379.027	111.88
379.253	105.88
379.478	95.88
379.704	94.88
379.929	105.88
380.155	106.88
380.38	104.88
380.606	100.88
380.831	109.88
381.057	116.88
381.282	99.88
381.507	104.88
381.733	101.88
381.958	106.88
382.184	112.88
382.409	115.88
382.634	117.88
382.86	95.88
383.085	118.88
383.31	106.88
383.535	104.88
383.761	107.88
383.986	117.88
384.211	115.88
384.436	119.88
384.662	119.88
384.887	129.88
385.112	133.88
385.337	129.88
385.562	125.88
385.787	125.88
386.013	130.88
386.238	131.88
386.463	114.88
386.688	147.88
386.913	136.88
387.138	125.88
387.363	125.88
387.588	122.88
387.813	119.88
388.038	126.88
388.263	150.88
388.488	135.88
388.713	93.88
388.938	98.88
389.163	85.88
389.387	98.88
389.612	89.88
389.837	90.88
390.062	90.88
390.287	97.88
390.512	102.88
390.736	94.88
390.961	100.88
391.186	112.88
391.411	100.88
391.636	101.88
391.86	94.88
392.085	95.88
392.31	100.88
392.534	87.88
392.759	85.88
392.984	99.88
393.208	141.88
393.433	185.88
393.658	141.88
393.882	98.88
394.107	88.88
394.331	80.88
394.556	83.88
394.78	83.88
395.005	86.88
395.229	94.88
395.454	98.88
395.678	97.88
395.903	92.88
396.127	94.88
396.352	86.88
396.576	87.88
396.801	122.88
397.025	150.88
397.249	111.88
397.474	97.88
397.698	92.88
397.922	90.88
398.147	105.88
398.371	82.88
398.595	93.88
398.82	85.88
399.044	88.88
399.268	91.88
399.492	93.88
399.717	94.88
399.941	92.88
400.165	91.88
400.389	93.88
400.613	83.88
400.837	96.88
401.062	82.88
401.286	89.88
401.51	85.88
401.734	94.88
401.958	91.88
402.182	99.88
402.406	137.88
402.63	104.88
402.854	98.88
403.078	94.88
403.302	105.88
403.526	87.88
403.75	94.88
403.974	94.88
404.198	102.88
404.422	90.88
404.645	87.88
404.869	88.88
405.093	93.88
405.317	94.88
405.541	110.88
405.765	104.88
405.988	121.88
406.212	157.88
406.436	171.88
406.66	122.88
406.883	88.88
407.107	98.88
407.331	87.88
407.555	100.88
407.778	91.88
408.002	95.88
408.226	93.88
408.449	83.88
408.673	93.88
408.896	101.88
409.12	87.88
409.344	87.88
409.567	94.88
409.791	108.88
410.014	96.88
410.238	96.88
410.461	77.88
410.685	95.88
410.908	88.88
411.132	91.88
411.355	87.88
411.578	79.88
411.802	93.88
412.025	89.88
412.249	93.88
412.472	104.88
412.695	95.88
412.919	87.88
413.142	87.88
413.365	99.88
413.589	85.88
413.812	92.88
414.035	103.88
414.258	102.88
414.482	96.88
414.705	107.88
414.928	92.88
415.151	72.88
415.374	95.88
415.597	114.88
415.821	100.88
416.044	104.88
416.267	105.88
416.49	99.88
416.713	88.88
416.936	91.88
417.159	89.88
417.382	93.88
417.605	100.88
417.828	89.88
418.051	81.88
418.274	94.88
418.497	77.88
418.72	94.88
418.943	86.88
419.166	70.88
419.389	94.88
419.611	93.88
419.834	103.88
420.057	91.88
420.28	92.88
420.503	87.88
420.726	114.88
420.948	90.88
421.171	86.88
421.394	88.88
421.617	93.88
421.839	97.88
422.062	84.88
422.285	105.88
422.507	111.88
422.73	112.88
422.953	122.88
423.175	100.88
423.398	91.88
423.621	93.88
423.843	102.88
424.066	97.88
424.288	89.88
424.511	96.88
424.733	96.88
424.956	107.88
425.178	79.88
425.401	106.88
425.623	121.88
425.846	92.88
426.068	83.88
426.291	91.88
426.513	98.88
426.735	83.88
426.958	90.88
427.18	107.88
427.402	118.88
427.625	157.88
427.847	136.88
428.069	128.88
428.292	103.88
428.514	102.88
428.736	79.88
428.958	99.88
429.181	75.88
429.403	89.88
429.625	88.88
429.847	95.88
430.069	103.88
430.292	101.88
430.514	73.88
430.736	93.88
430.958	93.88
431.18	89.88
431.402	94.88
431.624	87.88
431.846	85.88
432.068	82.88
432.29	92.88
432.512	93.88
432.734	82.88
432.956	94.88
433.178	94.88
433.4	101.88
433.622	95.88
433.844	95.88
434.066	89.88
434.287	85.88
434.509	86.88
434.731	85.88
434.953	91.88
435.175	92.88
435.397	89.88
435.618	81.88
435.84	104.88
436.062	110.88
436.284	108.88
436.505	100.88
436.727	87.88
436.949	105.88
437.17	90.88
437.392	90.88
437.614	98.88
437.835	113.88
438.057	97.88
438.278	119.88
438.5	95.88
438.721	121.88
438.943	97.88
439.165	93.88
439.386	94.88
439.608	97.88
439.829	85.88
440.05	111.88
440.272	128.88
440.493	102.88
440.715	94.88
440.936	106.88
441.158	98.88
441.379	86.88
441.6	98.88
441.822	107.88
442.043	96.88
442.264	98.88
442.486	102.88
442.707	89.88
442.928	88.88
443.149	117.88
443.371	122.88
443.592	104.88
443.813	114.88
444.034	102.88
444.255	106.88
444.476	88.88
444.698	87.88
444.919	80.88
445.14	133.88
445.361	123.88
445.582	119.88
445.803	121.88
446.024	119.88
446.245	128.88
446.466	103.88
446.687	95.88
446.908	102.88
447.129	90.88
447.35	95.88
447.571	98.88
447.792	99.88
448.013	103.88
448.234	106.88
448.455	98.88
448.675	107.88
448.896	126.88
449.117	101.88
449.338	104.88
449.559	128.88
449.779	122.88
450	100.88
450.221	98.88
450.442	92.88
450.662	88.88
450.883	100.88
451.104	113.88
451.324	112.88
451.545	73.88
451.766	108.88
451.986	87.88
452.207	83.88
452.428	80.88
452.648	102.88
452.869	85.88
453.089	94.88
453.31	104.88
453.53	84.88
453.751	90.88
453.971	106.88
454.192	101.88
454.412	87.88
454.633	94.88
454.853	94.88
455.073	85.88
455.294	86.88
455.514	98.88
455.734	90.88
455.955	75.88
456.175	98.88
456.395	73.88
456.616	76.88
456.836	74.88
457.056	79.88
457.276	89.88
457.497	80.88
457.717	89.88
457.937	83.88
458.157	99.88
458.377	95.88
458.598	96.88
458.818	138.88
459.038	121.88
459.258	95.88
459.478	92.88
459.698	85.88
459.918	81.88
460.138	73.88
460.358	87.88
460.578	93.88
460.798	101.88
461.018	83.88
461.238	82.88
461.458	81.88
461.678	84.88
461.898	91.88
462.118	96.88
462.338	82.88
462.558	89.88
462.777	91.88
462.997	98.88
463.217	87.88
463.437	81.88
463.657	88.88
463.876	106.88
464.096	90.88
464.316	91.88
464.536	91.88
464.755	93.88
464.975	103.88
465.195	144.88
465.414	121.88
465.634	95.88
465.854	96.88
466.073	93.88
466.293	88.88
466.512	90.88
466.732	93.88
466.951	91.88
467.171	80.88
467.391	90.88
467.61	92.88
467.829	98.88
468.049	147.88
468.268	178.88
468.488	102.88
468.707	98.88
468.927	94.88
469.146	88.88
469.365	96.88
469.585	99.88
469.804	100.88
470.023	97.88
470.243	86.88
470.462	103.88
470.681	103.88
470.901	100.88
471.12	87.88
471.339	103.88
471.558	93.88
471.777	100.88
471.997	135.88
472.216	225.88
472.435	389.88
472.654	165.88
472.873	101.88
473.092	99.88
473.311	90.88
473.53	84.88
473.749	74.88
473.968	93.88
474.187	98.88
474.406	87.88
474.625	91.88
474.844	84.88
475.063	77.88
475.282	90.88
475.501	77.88
475.72	88.88
475.939	97.88
476.158	93.88
476.377	88.88
476.596	114.88
476.814	85.88
477.033	93.88
477.252	101.88
477.471	97.88
477.69	84.88
477.908	101.88
478.127	90.88
478.346	99.88
478.564	93.88
478.783	110.88
479.002	88.88
479.22	93.88
479.439	108.88
479.658	102.88
479.876	93.88
480.095	100.88
480.313	81.88
480.532	95.88
480.751	97.88
480.969	231.88
481.188	647.88
481.406	386.88
481.624	124.88
481.843	87.88
482.061	95.88
482.28	76.88
482.498	96.88
482.717	98.88
482.935	86.88
483.153	94.88
483.372	87.88
483.59	89.88
483.808	95.88
484.027	107.88
484.245	87.88
484.463	109.88
484.681	103.88
484.9	96.88
485.118	85.88
485.336	101.88
485.554	99.88
485.772	93.88
485.99	101.88
486.209	98.88
486.427	88.88
486.645	120.88
486.863	107.88
487.081	96.88
487.299	85.88
487.517	98.88
487.735	84.88
487.953	87.88
488.171	95.88
488.389	84.88
488.607	89.88
488.825	85.88
489.043	103.88
489.261	97.88
489.479	83.88
489.696	87.88
489.914	101.88
490.132	95.88
490.35	87.88
490.568	96.88
490.786	95.88
491.003	99.88
491.221	91.88
491.439	92.88
491.657	90.88
491.874	107.88
492.092	92.88
492.31	100.88
492.527	104.88
492.745	95.88
492.963	91.88
493.18	83.88
493.398	97.88
493.615	89.88
493.833	97.88
494.05	83.88
494.268	97.88
494.485	78.88
494.703	91.88
494.92	96.88
495.138	85.88
495.355	74.88
495.573	106.88
495.79	92.88
496.008	86.88
496.225	88.88
496.442	95.88
496.66	95.88
496.877	88.88
497.094	98.88
497.312	107.88
497.529	89.88
497.746	96.88
497.963	83.88
498.181	96.88
498.398	93.88
498.615	116.88
498.832	101.88
499.049	83.88
499.267	98.88
499.484	93.88
499.701	99.88
499.918	84.88
500.135	78.88
500.352	91.88
500.569	80.88
500.786	86.88
501.003	87.88
501.22	91.88
501.437	90.88
501.654	97.88
501.871	96.88
502.088	83.88
502.305	90.88
502.522	70.88
502.739	103.88
502.956	91.88
503.172	100.88
503.389	84.88
503.606	103.88
503.823	95.88
504.04	111.88
504.256	99.88
504.473	96.88
504.69	76.88
504.907	93.88
505.123	89.88
505.34	103.88
505.557	90.88
505.773	104.88
505.99	96.88
506.207	82.88
506.423	96.88
506.64	77.88
506.856	85.88
507.073	94.88
507.289	82.88
507.506	88.88
507.722	108.88
507.939	106.88
508.155	108.88
508.372	85.88
508.588	95.88
508.805	82.88
509.021	104.88
509.238	97.88
509.454	101.88
509.67	92.88
509.887	99.88
510.103	128.88
510.319	166.88
510.536	554.88
510.752	1655.88
510.968	487.88
511.184	129.88
511.401	90.88
511.617	93.88
511.833	88.88
512.049	90.88
512.265	90.88
512.481	89.88
512.698	85.88
512.914	97.88
513.13	103.88
513.346	93.88
513.562	96.88
513.778	95.88
513.994	101.88
514.21	101.88
514.426	103.88
514.642	122.88
