Data from Circ_1991_H10_HRD10591_00094.txt Node
Date: Wed Jan 03 11:52:00 EST 2024
User: Yrep
Spectrometer: HR+D1059
Trigger mode: 1
Integration Time (sec): 1.000000E-1
Scans to average: 1
Electric dark correction enabled: true
Nonlinearity correction enabled: false
Boxcar width: 0
XAxis mode: Wavelengths
Number of Pixels in Spectrum: 2048
>>>>>Begin Spectral Data<<<<<
223.165	-19.25
223.4	-19.25
223.635	-19.25
223.869	-27.25
224.104	-13.25
224.338	-17.25
224.573	-21.25
224.808	-15.25
225.042	-11.25
225.277	-3.25
225.511	-0.25
225.746	0.75
225.98	6.75
226.215	6.75
226.449	33.75
226.683	22.75
226.918	25.75
227.152	31.75
227.387	33.75
227.621	29.75
227.856	46.75
228.09	49.75
228.324	46.75
228.559	63.75
228.793	73.75
229.027	60.75
229.262	60.75
229.496	72.75
229.73	86.75
229.964	71.75
230.199	74.75
230.433	76.75
230.667	65.75
230.901	90.75
231.136	72.75
231.37	73.75
231.604	83.75
231.838	74.75
232.072	87.75
232.306	86.75
232.541	76.75
232.775	82.75
233.009	74.75
233.243	65.75
233.477	85.75
233.711	79.75
233.945	91.75
234.179	93.75
234.413	63.75
234.647	77.75
234.881	72.75
235.115	78.75
235.349	79.75
235.583	87.75
235.817	75.75
236.051	67.75
236.285	85.75
236.519	85.75
236.753	79.75
236.987	86.75
237.221	91.75
237.455	85.75
237.689	72.75
237.922	89.75
238.156	76.75
238.39	74.75
238.624	79.75
238.858	75.75
239.091	74.75
239.325	84.75
239.559	80.75
239.793	75.75
240.027	90.75
240.26	75.75
240.494	84.75
240.728	69.75
240.961	70.75
241.195	86.75
241.429	78.75
241.662	78.75
241.896	65.75
242.13	87.75
242.363	75.75
242.597	70.75
242.83	67.75
243.064	83.75
243.298	71.75
243.531	79.75
243.765	85.75
243.998	66.75
244.232	78.75
244.465	76.75
244.699	87.75
244.932	79.75
245.166	94.75
245.399	82.75
245.633	70.75
245.866	93.75
246.099	80.75
246.333	76.75
246.566	84.75
246.8	83.75
247.033	78.75
247.266	75.75
247.5	68.75
247.733	76.75
247.966	88.75
248.2	94.75
248.433	83.75
248.666	85.75
248.899	77.75
249.133	84.75
249.366	96.75
249.599	97.75
249.832	93.75
250.066	93.75
250.299	91.75
250.532	78.75
250.765	71.75
250.998	99.75
251.231	59.75
251.465	70.75
251.698	84.75
251.931	84.75
252.164	68.75
252.397	87.75
252.63	67.75
252.863	74.75
253.096	80.75
253.329	79.75
253.562	93.75
253.795	80.75
254.028	80.75
254.261	79.75
254.494	64.75
254.727	80.75
254.96	71.75
255.193	71.75
255.426	77.75
255.659	74.75
255.892	99.75
256.124	74.75
256.357	78.75
256.59	78.75
256.823	78.75
257.056	83.75
257.289	86.75
257.521	80.75
257.754	66.75
257.987	85.75
258.22	91.75
258.452	83.75
258.685	80.75
258.918	80.75
259.151	92.75
259.383	95.75
259.616	87.75
259.849	82.75
260.081	94.75
260.314	74.75
260.547	77.75
260.779	90.75
261.012	76.75
261.244	79.75
261.477	94.75
261.71	85.75
261.942	124.75
262.175	108.75
262.407	90.75
262.64	79.75
262.872	82.75
263.105	87.75
263.337	80.75
263.57	73.75
263.802	96.75
264.035	79.75
264.267	73.75
264.499	70.75
264.732	84.75
264.964	73.75
265.197	74.75
265.429	85.75
265.661	80.75
265.894	84.75
266.126	81.75
266.358	70.75
266.591	87.75
266.823	79.75
267.055	86.75
267.287	81.75
267.52	82.75
267.752	94.75
267.984	75.75
268.216	88.75
268.448	99.75
268.681	74.75
268.913	74.75
269.145	86.75
269.377	80.75
269.609	82.75
269.841	69.75
270.073	78.75
270.306	82.75
270.538	81.75
270.77	78.75
271.002	84.75
271.234	84.75
271.466	86.75
271.698	83.75
271.93	90.75
272.162	82.75
272.394	78.75
272.626	91.75
272.858	84.75
273.09	75.75
273.322	75.75
273.553	71.75
273.785	91.75
274.017	90.75
274.249	83.75
274.481	97.75
274.713	84.75
274.945	97.75
275.176	85.75
275.408	90.75
275.64	96.75
275.872	86.75
276.104	98.75
276.335	99.75
276.567	91.75
276.799	108.75
277.031	122.75
277.262	135.75
277.494	100.75
277.726	100.75
277.957	73.75
278.189	82.75
278.421	85.75
278.652	88.75
278.884	84.75
279.115	73.75
279.347	94.75
279.579	93.75
279.81	111.75
280.042	136.75
280.273	141.75
280.505	128.75
280.736	98.75
280.968	84.75
281.199	80.75
281.431	88.75
281.662	93.75
281.894	99.75
282.125	102.75
282.356	110.75
282.588	135.75
282.819	132.75
283.051	94.75
283.282	80.75
283.513	91.75
283.745	85.75
283.976	83.75
284.207	73.75
284.439	84.75
284.67	85.75
284.901	87.75
285.132	86.75
285.364	90.75
285.595	84.75
285.826	84.75
286.057	84.75
286.288	68.75
286.52	84.75
286.751	96.75
286.982	91.75
287.213	94.75
287.444	85.75
287.675	74.75
287.906	101.75
288.138	87.75
288.369	84.75
288.6	79.75
288.831	82.75
289.062	93.75
289.293	100.75
289.524	78.75
289.755	79.75
289.986	91.75
290.217	92.75
290.448	85.75
290.679	81.75
290.91	87.75
291.141	86.75
291.371	84.75
291.602	81.75
291.833	98.75
292.064	94.75
292.295	88.75
292.526	87.75
292.757	82.75
292.987	72.75
293.218	81.75
293.449	90.75
293.68	80.75
293.91	85.75
294.141	87.75
294.372	90.75
294.603	93.75
294.833	82.75
295.064	86.75
295.295	78.75
295.525	90.75
295.756	86.75
295.987	96.75
296.217	125.75
296.448	133.75
296.679	107.75
296.909	108.75
297.14	94.75
297.37	86.75
297.601	92.75
297.831	80.75
298.062	81.75
298.292	91.75
298.523	76.75
298.753	96.75
298.984	91.75
299.214	94.75
299.445	97.75
299.675	83.75
299.905	82.75
300.136	86.75
300.366	92.75
300.597	92.75
300.827	74.75
301.057	111.75
301.288	92.75
301.518	86.75
301.748	83.75
301.979	97.75
302.209	77.75
302.439	88.75
302.669	97.75
302.9	93.75
303.13	91.75
303.36	103.75
303.59	110.75
303.82	119.75
304.051	104.75
304.281	96.75
304.511	79.75
304.741	86.75
304.971	80.75
305.201	90.75
305.431	80.75
305.661	93.75
305.891	81.75
306.121	100.75
306.352	93.75
306.582	83.75
306.812	94.75
307.042	86.75
307.272	119.75
307.502	124.75
307.731	135.75
307.961	92.75
308.191	93.75
308.421	76.75
308.651	96.75
308.881	99.75
309.111	85.75
309.341	89.75
309.571	98.75
309.8	86.75
310.03	90.75
310.26	104.75
310.49	86.75
310.72	105.75
310.949	108.75
311.179	87.75
311.409	114.75
311.639	103.75
311.868	95.75
312.098	103.75
312.328	88.75
312.557	95.75
312.787	107.75
313.017	94.75
313.246	94.75
313.476	90.75
313.706	95.75
313.935	88.75
314.165	100.75
314.394	97.75
314.624	101.75
314.853	102.75
315.083	104.75
315.312	96.75
315.542	89.75
315.771	90.75
316.001	99.75
316.23	104.75
316.46	96.75
316.689	93.75
316.919	84.75
317.148	95.75
317.377	93.75
317.607	95.75
317.836	90.75
318.065	90.75
318.295	107.75
318.524	99.75
318.753	79.75
318.983	91.75
319.212	97.75
319.441	117.75
319.67	100.75
319.9	87.75
320.129	92.75
320.358	82.75
320.587	104.75
320.816	108.75
321.046	108.75
321.275	95.75
321.504	94.75
321.733	93.75
321.962	100.75
322.191	107.75
322.42	110.75
322.649	104.75
322.878	118.75
323.108	123.75
323.337	142.75
323.566	150.75
323.795	163.75
324.024	223.75
324.253	414.75
324.482	892.75
324.71	1936.75
324.939	2679.75
325.168	931.75
325.397	270.75
325.626	158.75
325.855	140.75
326.084	129.75
326.313	127.75
326.542	172.75
326.77	249.75
326.999	498.75
327.228	1053.75
327.457	2014.75
327.686	1605.75
327.914	485.75
328.143	318.75
328.372	358.75
328.6	215.75
328.829	134.75
329.058	131.75
329.287	146.75
329.515	126.75
329.744	162.75
329.972	247.75
330.201	464.75
330.43	604.75
330.658	332.75
330.887	160.75
331.115	136.75
331.344	103.75
331.572	112.75
331.801	113.75
332.03	106.75
332.258	92.75
332.486	96.75
332.715	111.75
332.943	88.75
333.172	108.75
333.4	111.75
333.629	119.75
333.857	145.75
334.085	240.75
334.314	437.75
334.542	800.75
334.771	759.75
334.999	231.75
335.227	119.75
335.455	115.75
335.684	101.75
335.912	90.75
336.14	110.75
336.369	110.75
336.597	100.75
336.825	101.75
337.053	93.75
337.281	80.75
337.51	91.75
337.738	103.75
337.966	97.75
338.194	90.75
338.422	96.75
338.65	92.75
338.878	85.75
339.106	101.75
339.334	98.75
339.562	98.75
339.79	100.75
340.018	89.75
340.246	82.75
340.474	99.75
340.702	90.75
340.93	103.75
341.158	92.75
341.386	87.75
341.614	86.75
341.842	86.75
342.07	87.75
342.298	84.75
342.526	87.75
342.754	97.75
342.981	78.75
343.209	92.75
343.437	103.75
343.665	81.75
343.893	81.75
344.12	102.75
344.348	108.75
344.576	82.75
344.804	80.75
345.031	100.75
345.259	98.75
345.487	88.75
345.714	85.75
345.942	87.75
346.17	89.75
346.397	90.75
346.625	87.75
346.853	100.75
347.08	103.75
347.308	105.75
347.535	102.75
347.763	104.75
347.99	88.75
348.218	110.75
348.445	120.75
348.673	86.75
348.9	106.75
349.128	91.75
349.355	84.75
349.583	91.75
349.81	100.75
350.037	83.75
350.265	96.75
350.492	102.75
350.72	95.75
350.947	96.75
351.174	109.75
351.402	125.75
351.629	99.75
351.856	110.75
352.083	87.75
352.311	98.75
352.538	103.75
352.765	110.75
352.992	108.75
353.22	117.75
353.447	114.75
353.674	98.75
353.901	94.75
354.128	76.75
354.355	96.75
354.583	93.75
354.81	102.75
355.037	101.75
355.264	95.75
355.491	98.75
355.718	104.75
355.945	105.75
356.172	82.75
356.399	95.75
356.626	82.75
356.853	88.75
357.08	102.75
357.307	105.75
357.534	90.75
357.761	93.75
357.988	79.75
358.215	97.75
358.441	85.75
358.668	99.75
358.895	89.75
359.122	95.75
359.349	99.75
359.576	92.75
359.802	101.75
360.029	110.75
360.256	107.75
360.483	89.75
360.709	85.75
360.936	101.75
361.163	86.75
361.39	88.75
361.616	89.75
361.843	87.75
362.07	101.75
362.296	100.75
362.523	95.75
362.749	94.75
362.976	100.75
363.203	95.75
363.429	96.75
363.656	94.75
363.882	89.75
364.109	83.75
364.335	96.75
364.562	106.75
364.788	97.75
365.015	85.75
365.241	100.75
365.468	111.75
365.694	102.75
365.92	94.75
366.147	94.75
366.373	85.75
366.599	86.75
366.826	86.75
367.052	104.75
367.278	93.75
367.505	80.75
367.731	97.75
367.957	80.75
368.184	86.75
368.41	92.75
368.636	113.75
368.862	108.75
369.089	110.75
369.315	107.75
369.541	95.75
369.767	91.75
369.993	98.75
370.219	94.75
370.445	97.75
370.672	94.75
370.898	87.75
371.124	99.75
371.35	78.75
371.576	76.75
371.802	84.75
372.028	93.75
372.254	87.75
372.48	100.75
372.706	76.75
372.932	83.75
373.158	91.75
373.384	109.75
373.61	88.75
373.835	94.75
374.061	88.75
374.287	100.75
374.513	94.75
374.739	97.75
374.965	86.75
375.191	96.75
375.416	103.75
375.642	100.75
375.868	93.75
376.094	82.75
376.319	85.75
376.545	90.75
376.771	98.75
376.997	80.75
377.222	93.75
377.448	97.75
377.674	90.75
377.899	89.75
378.125	97.75
378.35	94.75
378.576	91.75
378.802	92.75
379.027	87.75
379.253	97.75
379.478	91.75
379.704	91.75
379.929	88.75
380.155	83.75
380.38	103.75
380.606	90.75
380.831	97.75
381.057	94.75
381.282	96.75
381.507	96.75
381.733	95.75
381.958	92.75
382.184	103.75
382.409	90.75
382.634	89.75
382.86	98.75
383.085	88.75
383.31	110.75
383.535	100.75
383.761	85.75
383.986	90.75
384.211	101.75
384.436	97.75
384.662	80.75
384.887	97.75
385.112	96.75
385.337	101.75
385.562	113.75
385.787	95.75
386.013	123.75
386.238	123.75
386.463	99.75
386.688	106.75
386.913	92.75
387.138	108.75
387.363	100.75
387.588	103.75
387.813	78.75
388.038	111.75
388.263	98.75
388.488	101.75
388.713	89.75
388.938	99.75
389.163	100.75
389.387	76.75
389.612	83.75
389.837	93.75
390.062	85.75
390.287	83.75
390.512	98.75
390.736	97.75
390.961	92.75
391.186	97.75
391.411	82.75
391.636	99.75
391.86	87.75
392.085	82.75
392.31	84.75
392.534	82.75
392.759	86.75
392.984	86.75
393.208	87.75
393.433	92.75
393.658	84.75
393.882	85.75
394.107	86.75
394.331	80.75
394.556	86.75
394.78	86.75
395.005	88.75
395.229	80.75
395.454	95.75
395.678	102.75
395.903	91.75
396.127	90.75
396.352	103.75
396.576	91.75
396.801	87.75
397.025	82.75
397.249	95.75
397.474	81.75
397.698	83.75
397.922	86.75
398.147	84.75
398.371	90.75
398.595	73.75
398.82	90.75
399.044	98.75
399.268	74.75
399.492	90.75
399.717	103.75
399.941	84.75
400.165	98.75
400.389	76.75
400.613	85.75
400.837	98.75
401.062	83.75
401.286	85.75
401.51	89.75
401.734	85.75
401.958	103.75
402.182	125.75
402.406	156.75
402.63	134.75
402.854	98.75
403.078	85.75
403.302	78.75
403.526	85.75
403.75	100.75
403.974	93.75
404.198	82.75
404.422	94.75
404.645	96.75
404.869	94.75
405.093	105.75
405.317	115.75
405.541	124.75
405.765	99.75
405.988	114.75
406.212	166.75
406.436	224.75
406.66	154.75
406.883	100.75
407.107	94.75
407.331	86.75
407.555	91.75
407.778	90.75
408.002	92.75
408.226	91.75
408.449	97.75
408.673	91.75
408.896	98.75
409.12	95.75
409.344	88.75
409.567	87.75
409.791	98.75
410.014	98.75
410.238	109.75
410.461	106.75
410.685	93.75
410.908	88.75
411.132	110.75
411.355	95.75
411.578	101.75
411.802	90.75
412.025	86.75
412.249	82.75
412.472	105.75
412.695	121.75
412.919	91.75
413.142	98.75
413.365	90.75
413.589	105.75
413.812	84.75
414.035	96.75
414.258	91.75
414.482	94.75
414.705	98.75
414.928	90.75
415.151	101.75
415.374	91.75
415.597	78.75
415.821	80.75
416.044	85.75
416.267	85.75
416.49	91.75
416.713	94.75
416.936	101.75
417.159	94.75
417.382	87.75
417.605	87.75
417.828	88.75
418.051	100.75
418.274	91.75
418.497	90.75
418.72	78.75
418.943	93.75
419.166	80.75
419.389	83.75
419.611	96.75
419.834	82.75
420.057	94.75
420.28	83.75
420.503	86.75
420.726	90.75
420.948	103.75
421.171	107.75
421.394	97.75
421.617	89.75
421.839	80.75
422.062	83.75
422.285	87.75
422.507	96.75
422.73	113.75
422.953	106.75
423.175	83.75
423.398	90.75
423.621	95.75
423.843	94.75
424.066	95.75
424.288	86.75
424.511	91.75
424.733	93.75
424.956	107.75
425.178	93.75
425.401	101.75
425.623	92.75
425.846	90.75
426.068	101.75
426.291	91.75
426.513	101.75
426.735	97.75
426.958	111.75
427.18	109.75
427.402	159.75
427.625	204.75
427.847	187.75
428.069	168.75
428.292	133.75
428.514	90.75
428.736	73.75
428.958	84.75
429.181	72.75
429.403	89.75
429.625	81.75
429.847	95.75
430.069	103.75
430.292	92.75
430.514	97.75
430.736	86.75
430.958	95.75
431.18	86.75
431.402	87.75
431.624	87.75
431.846	76.75
432.068	86.75
432.29	84.75
432.512	91.75
432.734	89.75
432.956	95.75
433.178	100.75
433.4	108.75
433.622	99.75
433.844	90.75
434.066	91.75
434.287	91.75
434.509	95.75
434.731	92.75
434.953	85.75
435.175	101.75
435.397	91.75
435.618	98.75
435.84	115.75
436.062	152.75
436.284	119.75
436.505	116.75
436.727	100.75
436.949	96.75
437.17	104.75
437.392	82.75
437.614	86.75
437.835	115.75
438.057	105.75
438.278	112.75
438.5	92.75
438.721	113.75
438.943	94.75
439.165	97.75
439.386	91.75
439.608	92.75
439.829	102.75
440.05	132.75
440.272	166.75
440.493	100.75
440.715	92.75
440.936	95.75
441.158	92.75
441.379	81.75
441.6	99.75
441.822	105.75
442.043	101.75
442.264	105.75
442.486	112.75
442.707	95.75
442.928	94.75
443.149	140.75
443.371	128.75
443.592	120.75
443.813	112.75
444.034	122.75
444.255	97.75
444.476	89.75
444.698	86.75
444.919	98.75
445.14	131.75
445.361	130.75
445.582	126.75
445.803	148.75
446.024	151.75
446.245	152.75
446.466	129.75
446.687	69.75
446.908	102.75
447.129	88.75
447.35	95.75
447.571	91.75
447.792	106.75
448.013	99.75
448.234	112.75
448.455	90.75
448.675	110.75
448.896	119.75
449.117	94.75
449.338	108.75
449.559	163.75
449.779	154.75
450	94.75
450.221	82.75
450.442	97.75
450.662	96.75
450.883	91.75
451.104	130.75
451.324	93.75
451.545	102.75
451.766	92.75
451.986	90.75
452.207	78.75
452.428	93.75
452.648	88.75
452.869	112.75
453.089	117.75
453.31	119.75
453.53	93.75
453.751	85.75
453.971	109.75
454.192	107.75
454.412	93.75
454.633	92.75
454.853	89.75
455.073	83.75
455.294	87.75
455.514	115.75
455.734	89.75
455.955	86.75
456.175	79.75
456.395	91.75
456.616	104.75
456.836	94.75
457.056	82.75
457.276	79.75
457.497	71.75
457.717	87.75
457.937	90.75
458.157	76.75
458.377	94.75
458.598	110.75
458.818	158.75
459.038	168.75
459.258	131.75
459.478	95.75
459.698	88.75
459.918	84.75
460.138	86.75
460.358	84.75
460.578	92.75
460.798	96.75
461.018	93.75
461.238	94.75
461.458	82.75
461.678	104.75
461.898	81.75
462.118	97.75
462.338	83.75
462.558	98.75
462.777	83.75
462.997	96.75
463.217	92.75
463.437	88.75
463.657	86.75
463.876	82.75
464.096	74.75
464.316	94.75
464.536	83.75
464.755	98.75
464.975	108.75
465.195	172.75
465.414	166.75
465.634	97.75
465.854	96.75
466.073	93.75
466.293	93.75
466.512	86.75
466.732	91.75
466.951	86.75
467.171	90.75
467.391	90.75
467.61	117.75
467.829	128.75
468.049	300.75
468.268	405.75
468.488	143.75
468.707	80.75
468.927	74.75
469.146	87.75
469.365	85.75
469.585	80.75
469.804	97.75
470.023	98.75
470.243	92.75
470.462	98.75
470.681	122.75
470.901	103.75
471.12	94.75
471.339	90.75
471.558	97.75
471.777	135.75
471.997	171.75
472.216	526.75
472.435	1137.75
472.654	321.75
472.873	135.75
473.092	105.75
473.311	76.75
473.53	87.75
473.749	97.75
473.968	103.75
474.187	104.75
474.406	104.75
474.625	84.75
474.844	105.75
475.063	86.75
475.282	91.75
475.501	79.75
475.72	91.75
475.939	88.75
476.158	96.75
476.377	90.75
476.596	90.75
476.814	99.75
477.033	85.75
477.252	86.75
477.471	88.75
477.69	99.75
477.908	103.75
478.127	92.75
478.346	88.75
478.564	72.75
478.783	101.75
479.002	106.75
479.22	94.75
479.439	111.75
479.658	116.75
479.876	104.75
480.095	104.75
480.313	98.75
480.532	110.75
480.751	177.75
480.969	516.75
481.188	1979.75
481.406	1134.75
481.624	207.75
481.843	115.75
482.061	110.75
482.28	85.75
482.498	90.75
482.717	102.75
482.935	76.75
483.153	86.75
483.372	78.75
483.59	114.75
483.808	84.75
484.027	91.75
484.245	109.75
484.463	85.75
484.681	102.75
484.9	86.75
485.118	103.75
485.336	85.75
485.554	96.75
485.772	106.75
485.99	97.75
486.209	96.75
486.427	96.75
486.645	94.75
486.863	113.75
487.081	108.75
487.299	92.75
487.517	82.75
487.735	102.75
487.953	85.75
488.171	81.75
488.389	103.75
488.607	104.75
488.825	100.75
489.043	97.75
489.261	94.75
489.479	94.75
489.696	88.75
489.914	87.75
490.132	97.75
490.35	103.75
490.568	82.75
490.786	102.75
491.003	86.75
491.221	98.75
491.439	98.75
491.657	94.75
491.874	92.75
492.092	89.75
492.31	99.75
492.527	99.75
492.745	65.75
492.963	74.75
493.18	87.75
493.398	87.75
493.615	111.75
493.833	93.75
494.05	88.75
494.268	84.75
494.485	103.75
494.703	90.75
494.92	91.75
495.138	86.75
495.355	85.75
495.573	75.75
495.79	95.75
496.008	97.75
496.225	82.75
496.442	100.75
496.66	95.75
496.877	89.75
497.094	106.75
497.312	86.75
497.529	90.75
497.746	94.75
497.963	96.75
498.181	85.75
498.398	96.75
498.615	93.75
498.832	85.75
499.049	79.75
499.267	104.75
499.484	88.75
499.701	93.75
499.918	81.75
500.135	90.75
500.352	78.75
500.569	81.75
500.786	99.75
501.003	91.75
501.22	92.75
501.437	95.75
501.654	93.75
501.871	106.75
502.088	93.75
502.305	86.75
502.522	91.75
502.739	99.75
502.956	76.75
503.172	90.75
503.389	91.75
503.606	100.75
503.823	88.75
504.04	100.75
504.256	93.75
504.473	102.75
504.69	84.75
504.907	106.75
505.123	93.75
505.34	85.75
505.557	99.75
505.773	87.75
505.99	93.75
506.207	89.75
506.423	79.75
506.64	102.75
506.856	90.75
507.073	87.75
507.289	90.75
507.506	103.75
507.722	112.75
507.939	119.75
508.155	111.75
508.372	88.75
508.588	98.75
508.805	110.75
509.021	103.75
509.238	93.75
509.454	100.75
509.67	102.75
509.887	116.75
510.103	140.75
510.319	196.75
510.536	692.75
510.752	2230.75
510.968	623.75
511.184	142.75
511.401	115.75
511.617	104.75
511.833	83.75
512.049	98.75
512.265	109.75
512.481	101.75
512.698	87.75
512.914	103.75
513.13	90.75
513.346	95.75
513.562	77.75
513.778	78.75
513.994	90.75
514.21	112.75
514.426	118.75
514.642	138.75
514.858	135.75
