Data from Circ_1991_H10_HRD10591_00034.txt Node
Date: Wed Jan 03 11:51:48 EST 2024
User: Yrep
Spectrometer: HR+D1059
Trigger mode: 1
Integration Time (sec): 1.000000E-1
Scans to average: 1
Electric dark correction enabled: true
Nonlinearity correction enabled: false
Boxcar width: 0
XAxis mode: Wavelengths
Number of Pixels in Spectrum: 2048
>>>>>Begin Spectral Data<<<<<
223.165	-16
223.4	-16
223.635	-16
223.869	-4
224.104	-29
224.338	-24
224.573	-18
224.808	-16
225.042	1
225.277	4
225.511	-15
225.746	18
225.98	4
226.215	-3
226.449	28
226.683	19
226.918	20
227.152	31
227.387	32
227.621	33
227.856	24
228.09	47
228.324	36
228.559	60
228.793	44
229.027	66
229.262	64
229.496	66
229.73	79
229.964	85
230.199	83
230.433	80
230.667	84
230.901	75
231.136	63
231.37	75
231.604	93
231.838	81
232.072	78
232.306	82
232.541	80
232.775	77
233.009	72
233.243	68
233.477	81
233.711	83
233.945	65
234.179	79
234.413	79
234.647	84
234.881	79
235.115	77
235.349	76
235.583	81
235.817	77
236.051	83
236.285	78
236.519	63
236.753	79
236.987	79
237.221	85
237.455	79
237.689	71
237.922	90
238.156	81
238.39	73
238.624	64
238.858	75
239.091	77
239.325	81
239.559	86
239.793	98
240.027	69
240.26	61
240.494	71
240.728	79
240.961	64
241.195	81
241.429	89
241.662	82
241.896	70
242.13	84
242.363	76
242.597	76
242.83	90
243.064	80
243.298	74
243.531	88
243.765	70
243.998	90
244.232	79
244.465	78
244.699	72
244.932	73
245.166	94
245.399	87
245.633	69
245.866	100
246.099	79
246.333	78
246.566	76
246.8	77
247.033	84
247.266	83
247.5	85
247.733	93
247.966	75
248.2	72
248.433	79
248.666	79
248.899	73
249.133	80
249.366	102
249.599	96
249.832	81
250.066	84
250.299	82
250.532	96
250.765	89
250.998	77
251.231	71
251.465	71
251.698	79
251.931	85
252.164	87
252.397	85
252.63	73
252.863	70
253.096	69
253.329	83
253.562	78
253.795	76
254.028	82
254.261	71
254.494	92
254.727	84
254.96	75
255.193	75
255.426	77
255.659	82
255.892	79
256.124	75
256.357	72
256.59	91
256.823	79
257.056	81
257.289	84
257.521	82
257.754	89
257.987	95
258.22	81
258.452	82
258.685	98
258.918	85
259.151	72
259.383	87
259.616	69
259.849	84
260.081	85
260.314	67
260.547	84
260.779	80
261.012	84
261.244	88
261.477	92
261.71	91
261.942	93
262.175	128
262.407	87
262.64	83
262.872	88
263.105	81
263.337	75
263.57	78
263.802	91
264.035	94
264.267	82
264.499	87
264.732	86
264.964	86
265.197	75
265.429	69
265.661	80
265.894	95
266.126	80
266.358	77
266.591	71
266.823	87
267.055	74
267.287	81
267.52	97
267.752	84
267.984	91
268.216	87
268.448	88
268.681	89
268.913	88
269.145	100
269.377	81
269.609	62
269.841	79
270.073	77
270.306	101
270.538	84
270.77	86
271.002	96
271.234	80
271.466	92
271.698	89
271.93	86
272.162	102
272.394	96
272.626	97
272.858	87
273.09	73
273.322	61
273.553	79
273.785	81
274.017	96
274.249	85
274.481	86
274.713	76
274.945	98
275.176	98
275.408	89
275.64	86
275.872	78
276.104	99
276.335	98
276.567	93
276.799	114
277.031	100
277.262	115
277.494	96
277.726	77
277.957	91
278.189	81
278.421	84
278.652	81
278.884	87
279.115	85
279.347	86
279.579	86
279.81	83
280.042	94
280.273	109
280.505	102
280.736	78
280.968	76
281.199	76
281.431	71
281.662	83
281.894	89
282.125	96
282.356	97
282.588	129
282.819	101
283.051	86
283.282	81
283.513	79
283.745	96
283.976	92
284.207	91
284.439	99
284.67	92
284.901	82
285.132	82
285.364	82
285.595	92
285.826	80
286.057	84
286.288	77
286.52	91
286.751	88
286.982	80
287.213	83
287.444	86
287.675	87
287.906	105
288.138	90
288.369	98
288.6	92
288.831	90
289.062	90
289.293	79
289.524	86
289.755	81
289.986	80
290.217	84
290.448	91
290.679	93
290.91	95
291.141	89
291.371	100
291.602	96
291.833	84
292.064	95
292.295	99
292.526	94
292.757	77
292.987	97
293.218	80
293.449	90
293.68	91
293.91	91
294.141	78
294.372	94
294.603	95
294.833	103
295.064	96
295.295	93
295.525	79
295.756	102
295.987	100
296.217	139
296.448	116
296.679	91
296.909	103
297.14	92
297.37	86
297.601	97
297.831	89
298.062	100
298.292	93
298.523	73
298.753	105
298.984	93
299.214	90
299.445	86
299.675	92
299.905	106
300.136	95
300.366	81
300.597	91
300.827	89
301.057	101
301.288	107
301.518	84
301.748	92
301.979	96
302.209	107
302.439	91
302.669	84
302.9	78
303.13	89
303.36	94
303.59	89
303.82	110
304.051	94
304.281	94
304.511	92
304.741	93
304.971	96
305.201	99
305.431	88
305.661	87
305.891	101
306.121	101
306.352	94
306.582	105
306.812	91
307.042	96
307.272	98
307.502	102
307.731	119
307.961	108
308.191	93
308.421	116
308.651	92
308.881	89
309.111	87
309.341	111
309.571	103
309.8	94
310.03	93
310.26	95
310.49	86
310.72	94
310.949	109
311.179	96
311.409	78
311.639	100
311.868	103
312.098	101
312.328	97
312.557	94
312.787	112
313.017	99
313.246	95
313.476	85
313.706	92
313.935	92
314.165	101
314.394	87
314.624	89
314.853	96
315.083	88
315.312	101
315.542	90
315.771	83
316.001	97
316.23	95
316.46	96
316.689	81
316.919	97
317.148	91
317.377	92
317.607	103
317.836	83
318.065	94
318.295	94
318.524	97
318.753	92
318.983	101
319.212	96
319.441	101
319.67	96
319.9	75
320.129	89
320.358	100
320.587	105
320.816	92
321.046	86
321.275	95
321.504	102
321.733	103
321.962	95
322.191	87
322.42	105
322.649	102
322.878	91
323.108	112
323.337	118
323.566	131
323.795	129
324.024	184
324.253	344
324.482	739
324.71	1538
324.939	2023
325.168	736
325.397	228
325.626	136
325.855	120
326.084	125
326.313	116
326.542	139
326.77	212
326.999	431
327.228	866
327.457	1609
327.686	1266
327.914	378
328.143	215
328.372	216
328.6	162
328.829	113
329.058	128
329.287	122
329.515	114
329.744	130
329.972	177
330.201	241
330.43	332
330.658	203
330.887	150
331.115	110
331.344	107
331.572	95
331.801	88
332.03	92
332.258	93
332.486	99
332.715	105
332.943	94
333.172	93
333.4	113
333.629	111
333.857	116
334.085	156
334.314	257
334.542	407
334.771	379
334.999	155
335.227	114
335.455	96
335.684	94
335.912	107
336.14	104
336.369	92
336.597	103
336.825	88
337.053	104
337.281	115
337.51	84
337.738	100
337.966	88
338.194	100
338.422	95
338.65	91
338.878	96
339.106	88
339.334	100
339.562	85
339.79	89
340.018	92
340.246	89
340.474	99
340.702	95
340.93	87
341.158	110
341.386	104
341.614	105
341.842	93
342.07	94
342.298	86
342.526	91
342.754	87
342.981	77
343.209	97
343.437	97
343.665	90
343.893	87
344.12	94
344.348	85
344.576	99
344.804	86
345.031	100
345.259	95
345.487	76
345.714	83
345.942	100
346.17	94
346.397	85
346.625	89
346.853	91
347.08	87
347.308	102
347.535	102
347.763	96
347.99	101
348.218	96
348.445	95
348.673	109
348.9	99
349.128	106
349.355	96
349.583	102
349.81	73
350.037	87
350.265	102
350.492	92
350.72	95
350.947	112
351.174	85
351.402	95
351.629	97
351.856	102
352.083	101
352.311	103
352.538	111
352.765	109
352.992	100
353.22	118
353.447	112
353.674	92
353.901	93
354.128	96
354.355	104
354.583	92
354.81	104
355.037	92
355.264	101
355.491	87
355.718	106
355.945	99
356.172	89
356.399	113
356.626	91
356.853	91
357.08	108
357.307	81
357.534	95
357.761	97
357.988	109
358.215	96
358.441	112
358.668	93
358.895	86
359.122	104
359.349	89
359.576	81
359.802	83
360.029	96
360.256	96
360.483	89
360.709	97
360.936	96
361.163	91
361.39	93
361.616	100
361.843	86
362.07	104
362.296	102
362.523	100
362.749	95
362.976	88
363.203	88
363.429	80
363.656	97
363.882	101
364.109	84
364.335	88
364.562	111
364.788	101
365.015	94
365.241	109
365.468	98
365.694	112
365.92	93
366.147	106
366.373	72
366.599	93
366.826	79
367.052	97
367.278	94
367.505	95
367.731	77
367.957	96
368.184	104
368.41	86
368.636	109
368.862	120
369.089	94
369.315	80
369.541	92
369.767	108
369.993	100
370.219	80
370.445	88
370.672	88
370.898	99
371.124	94
371.35	108
371.576	107
371.802	85
372.028	86
372.254	96
372.48	85
372.706	86
372.932	102
373.158	79
373.384	83
373.61	85
373.835	80
374.061	95
374.287	87
374.513	86
374.739	85
374.965	81
375.191	86
375.416	80
375.642	83
375.868	89
376.094	85
376.319	89
376.545	87
376.771	88
376.997	85
377.222	95
377.448	92
377.674	93
377.899	109
378.125	85
378.35	97
378.576	100
378.802	95
379.027	100
379.253	91
379.478	83
379.704	92
379.929	97
380.155	96
380.38	101
380.606	96
380.831	96
381.057	103
381.282	109
381.507	91
381.733	96
381.958	83
382.184	100
382.409	96
382.634	105
382.86	103
383.085	108
383.31	99
383.535	96
383.761	88
383.986	108
384.211	101
384.436	94
384.662	102
384.887	98
385.112	119
385.337	107
385.562	106
385.787	110
386.013	116
386.238	102
386.463	112
386.688	110
386.913	115
387.138	115
387.363	97
387.588	94
387.813	100
388.038	118
388.263	116
388.488	104
388.713	95
388.938	94
389.163	95
389.387	101
389.612	82
389.837	98
390.062	82
390.287	88
390.512	101
390.736	118
390.961	91
391.186	85
391.411	86
391.636	92
391.86	92
392.085	84
392.31	73
392.534	87
392.759	86
392.984	111
393.208	114
393.433	130
393.658	110
393.882	83
394.107	81
394.331	83
394.556	76
394.78	102
395.005	86
395.229	80
395.454	78
395.678	88
395.903	78
396.127	85
396.352	80
396.576	88
396.801	104
397.025	107
397.249	92
397.474	94
397.698	83
397.922	93
398.147	87
398.371	87
398.595	72
398.82	99
399.044	79
399.268	65
399.492	94
399.717	93
399.941	81
400.165	95
400.389	73
400.613	82
400.837	79
401.062	80
401.286	82
401.51	87
401.734	100
401.958	93
402.182	104
402.406	141
402.63	117
402.854	93
403.078	88
403.302	80
403.526	96
403.75	81
403.974	96
404.198	78
404.422	82
404.645	80
404.869	83
405.093	87
405.317	111
405.541	100
405.765	96
405.988	105
406.212	149
406.436	190
406.66	118
406.883	84
407.107	85
407.331	102
407.555	94
407.778	80
408.002	91
408.226	84
408.449	93
408.673	79
408.896	93
409.12	98
409.344	101
409.567	86
409.791	99
410.014	101
410.238	92
410.461	89
410.685	105
410.908	101
411.132	101
411.355	97
411.578	103
411.802	92
412.025	85
412.249	92
412.472	95
412.695	98
412.919	82
413.142	87
413.365	91
413.589	75
413.812	95
414.035	104
414.258	96
414.482	101
414.705	90
414.928	81
415.151	87
415.374	87
415.597	84
415.821	88
416.044	99
416.267	89
416.49	104
416.713	99
416.936	82
417.159	95
417.382	95
417.605	98
417.828	101
418.051	89
418.274	71
418.497	82
418.72	83
418.943	79
419.166	88
419.389	72
419.611	77
419.834	104
420.057	77
420.28	87
420.503	77
420.726	87
420.948	79
421.171	99
421.394	89
421.617	81
421.839	92
422.062	87
422.285	88
422.507	107
422.73	117
422.953	104
423.175	84
423.398	94
423.621	91
423.843	95
424.066	89
424.288	100
424.511	89
424.733	115
424.956	89
425.178	99
425.401	101
425.623	98
425.846	92
426.068	89
426.291	95
426.513	97
426.735	104
426.958	77
427.18	105
427.402	129
427.625	150
427.847	149
428.069	143
428.292	94
428.514	86
428.736	93
428.958	75
429.181	76
429.403	80
429.625	90
429.847	98
430.069	99
430.292	88
430.514	79
430.736	89
430.958	96
431.18	91
431.402	84
431.624	91
431.846	70
432.068	94
432.29	98
432.512	92
432.734	84
432.956	88
433.178	91
433.4	109
433.622	95
433.844	87
434.066	95
434.287	78
434.509	88
434.731	92
434.953	87
435.175	89
435.397	87
435.618	88
435.84	91
436.062	112
436.284	111
436.505	98
436.727	98
436.949	97
437.17	84
437.392	93
437.614	84
437.835	106
438.057	116
438.278	109
438.5	80
438.721	113
438.943	97
439.165	84
439.386	85
439.608	85
439.829	94
440.05	113
440.272	145
440.493	85
440.715	92
440.936	83
441.158	87
441.379	76
441.6	85
441.822	94
442.043	67
442.264	83
442.486	92
442.707	99
442.928	97
443.149	110
443.371	117
443.592	116
443.813	111
444.034	90
444.255	103
444.476	80
444.698	86
444.919	97
445.14	139
445.361	127
445.582	117
445.803	113
446.024	104
446.245	125
446.466	104
446.687	94
446.908	91
447.129	94
447.35	83
447.571	98
447.792	99
448.013	106
448.234	82
448.455	85
448.675	101
448.896	103
449.117	98
449.338	96
449.559	113
449.779	126
450	107
450.221	94
450.442	93
450.662	105
450.883	99
451.104	112
451.324	97
451.545	94
451.766	88
451.986	82
452.207	111
452.428	88
452.648	96
452.869	101
453.089	111
453.31	113
453.53	92
453.751	81
453.971	86
454.192	108
454.412	81
454.633	78
454.853	86
455.073	92
455.294	93
455.514	96
455.734	73
455.955	69
456.175	89
456.395	84
456.616	86
456.836	86
457.056	91
457.276	91
457.497	84
457.717	79
457.937	97
458.157	81
458.377	93
458.598	100
458.818	145
459.038	152
459.258	101
459.478	75
459.698	93
459.918	84
460.138	85
460.358	93
460.578	96
460.798	111
461.018	96
461.238	79
461.458	79
461.678	87
461.898	56
462.118	91
462.338	89
462.558	106
462.777	80
462.997	97
463.217	86
463.437	83
463.657	77
463.876	76
464.096	97
464.316	90
464.536	114
464.755	103
464.975	84
465.195	127
465.414	128
465.634	84
465.854	99
466.073	93
466.293	93
466.512	69
466.732	79
466.951	91
467.171	97
467.391	92
467.61	100
467.829	114
468.049	179
468.268	234
468.488	107
468.707	87
468.927	80
469.146	92
469.365	80
469.585	67
469.804	103
470.023	109
470.243	93
470.462	109
470.681	117
470.901	78
471.12	78
471.339	95
471.558	97
471.777	110
471.997	136
472.216	292
472.435	588
472.654	184
472.873	89
473.092	89
473.311	79
473.53	95
473.749	78
473.968	115
474.187	91
474.406	100
474.625	90
474.844	97
475.063	81
475.282	89
475.501	102
475.72	100
475.939	93
476.158	76
476.377	86
476.596	82
476.814	87
477.033	96
477.252	97
477.471	89
477.69	92
477.908	93
478.127	85
478.346	91
478.564	98
478.783	88
479.002	97
479.22	94
479.439	93
479.658	102
479.876	97
480.095	85
480.313	101
480.532	110
480.751	151
480.969	303
481.188	1017
481.406	588
481.624	158
481.843	107
482.061	87
482.28	88
482.498	79
482.717	83
482.935	82
483.153	87
483.372	82
483.59	91
483.808	91
484.027	89
484.245	98
484.463	82
484.681	83
484.9	92
485.118	91
485.336	102
485.554	104
485.772	96
485.99	94
486.209	95
486.427	97
486.645	92
486.863	105
487.081	108
487.299	91
487.517	89
487.735	92
487.953	94
488.171	82
488.389	105
488.607	107
488.825	100
489.043	100
489.261	89
489.479	90
489.696	91
489.914	89
490.132	79
490.35	100
490.568	79
490.786	99
491.003	95
491.221	84
491.439	105
491.657	104
491.874	93
492.092	91
492.31	77
492.527	88
492.745	77
492.963	108
493.18	85
493.398	97
493.615	116
493.833	96
494.05	111
494.268	73
494.485	79
494.703	103
494.92	100
495.138	91
495.355	90
495.573	86
495.79	84
496.008	92
496.225	91
496.442	86
496.66	91
496.877	87
497.094	97
497.312	84
497.529	101
497.746	81
497.963	86
498.181	90
498.398	108
498.615	106
498.832	102
499.049	95
499.267	108
499.484	77
499.701	79
499.918	93
500.135	86
500.352	87
500.569	96
500.786	94
501.003	104
501.22	100
501.437	92
501.654	86
501.871	100
502.088	81
502.305	88
502.522	92
502.739	102
502.956	80
503.172	86
503.389	87
503.606	104
503.823	98
504.04	94
504.256	82
504.473	93
504.69	77
504.907	102
505.123	91
505.34	85
505.557	96
505.773	94
505.99	81
506.207	97
506.423	87
506.64	77
506.856	90
507.073	83
507.289	96
507.506	80
507.722	107
507.939	96
508.155	91
508.372	85
508.588	85
508.805	97
509.021	100
509.238	96
509.454	93
509.67	92
509.887	101
510.103	117
510.319	185
510.536	624
510.752	1961
510.968	554
511.184	135
511.401	105
511.617	100
511.833	89
512.049	91
512.265	83
512.481	88
512.698	98
512.914	84
513.13	106
513.346	99
513.562	84
513.778	88
513.994	97
514.21	116
514.426	92
514.642	126
514.858	124
515.074	142
515.29	374
515.506	1140
515.721	416
515.937	134
516.153	92
516.369	85
516.585	91
516.801	91
517.016	95
517.232	97
517.448	99
517.664	93
517.879	92
518.095	96
518.311	103
518.527	102
518.742	83
518.958	76
519.173	89
519.389	85
519.605	95
519.82	96
520.036	113
520.251	109
520.467	117
520.682	110
520.898	85
521.113	109
521.329	108
521.544	163
521.76	452
521.975	1921
522.19	1107
522.406	264
522.621	125
522.836	113
523.052	99
523.267	92
523.482	104
523.698	83
523.913	111
524.128	99
524.343	87
524.559	79
524.774	81
524.989	88
525.204	78
525.419	89
525.634	88
525.849	84
526.064	84
526.28	96
526.495	88
526.71	77
526.925	91
527.14	93
527.355	88
527.57	96
527.785	92
527.999	93
528.214	91
528.429	105
528.644	80
528.859	83
529.074	96
529.289	109
529.503	155
529.718	93
529.933	77
530.148	81
530.363	96
530.577	84
530.792	91
531.007	101
531.221	101
531.436	115
531.651	95
531.865	87
532.08	102
532.295	111
532.509	90
532.724	85
532.938	83
533.153	93
533.367	90
533.582	110
533.796	107
534.011	76
534.225	99
534.44	90
534.654	88
534.868	98
535.083	84
535.297	80
535.511	82
535.726	102
535.94	83
536.154	96
536.369	82
536.583	95
536.797	93
537.011	94
537.225	88
537.44	92
537.654	85
537.868	80
538.082	82
538.296	76
538.51	90
538.724	75
538.938	88
539.153	91
539.367	99
539.581	88
539.795	84
540.009	96
540.222	96
540.436	91
540.65	94
540.864	84
541.078	103
541.292	87
541.506	81
541.72	66
541.934	84
542.147	90
542.361	84
542.575	103
542.789	102
543.002	80
543.216	95
543.43	93
543.644	93
543.857	95
544.071	97
544.285	92
544.498	86
544.712	99
544.925	86
545.139	98
545.352	87
545.566	92
545.779	78
545.993	89
546.206	87
546.42	93
546.633	90
546.847	88
547.06	84
547.274	75
547.487	93
547.7	88
547.914	88
548.127	96
548.34	88
548.554	92
548.767	107
548.98	81
549.193	90
549.407	99
549.62	78
549.833	87
550.046	94
550.259	91
550.473	89
550.686	83
550.899	86
551.112	83
551.325	98
551.538	90
551.751	104
551.964	85
552.177	103
552.39	78
552.603	83
552.816	85
553.029	88
553.242	82
553.455	93
553.667	111
553.88	89
554.093	88
554.306	94
554.519	97
554.732	90
554.944	80
555.157	88
555.37	92
555.583	89
555.795	88
556.008	105
556.221	88
556.433	99
556.646	95
556.859	85
557.071	85
557.284	92
557.496	83
557.709	70
557.921	92
558.134	100
558.346	92
558.559	81
558.771	86
558.984	88
559.196	88
559.409	86
559.621	87
559.833	87
560.046	97
560.258	100
560.47	99
560.683	101
560.895	93
561.107	75
561.32	83
561.532	82
561.744	92
561.956	86
562.168	84
562.381	89
562.593	85
562.805	93
563.017	95
563.229	96
563.441	84
563.653	96
563.865	77
564.077	81
564.289	94
564.501	87
564.713	92
564.925	92
565.137	107
565.349	102
565.561	89
565.773	91
565.985	83
566.197	91
566.408	87
566.62	84
566.832	94
567.044	98
567.255	84
567.467	83
567.679	91
567.891	95
568.102	87
568.314	89
568.526	95
568.737	101
568.949	88
569.161	88
569.372	85
569.584	91
569.795	95
570.007	101
570.218	211
570.43	143
570.641	80
570.853	100
571.064	87
571.276	87
571.487	85
571.698	94
571.91	80
572.121	88
572.333	90
572.544	92
572.755	86
572.966	84
573.178	91
573.389	84
573.6	100
573.811	97
574.023	103
574.234	87
574.445	88
574.656	101
574.867	89
575.078	82
575.289	75
575.501	88
575.712	96
575.923	90
576.134	91
576.345	87
576.556	85
576.767	97
576.978	87
577.188	83
577.399	83
577.61	113
577.821	86
578.032	89
578.243	234
578.454	613
578.665	175
578.875	110
579.086	83
579.297	83
579.508	95
579.718	93
579.929	100
580.14	84
580.35	87
580.561	96
580.772	85
580.982	83
581.193	93
581.403	79
581.614	82
581.825	79
582.035	87
582.246	83
582.456	89
582.667	94
582.877	101
583.087	69
583.298	71
583.508	90
583.719	83
