Data from Circ_1991_H10_HRD10591_00013.txt Node
Date: Wed Jan 03 11:51:43 EST 2024
User: Yrep
Spectrometer: HR+D1059
Trigger mode: 1
Integration Time (sec): 1.000000E-1
Scans to average: 1
Electric dark correction enabled: true
Nonlinearity correction enabled: false
Boxcar width: 0
XAxis mode: Wavelengths
Number of Pixels in Spectrum: 2048
>>>>>Begin Spectral Data<<<<<
223.165	-26.75
223.4	-26.75
223.635	-26.75
223.869	-20.75
224.104	-14.75
224.338	-20.75
224.573	-14.75
224.808	-12.75
225.042	-7.75
225.277	-3.75
225.511	6.25
225.746	11.25
225.98	-6.75
226.215	22.25
226.449	15.25
226.683	21.25
226.918	21.25
227.152	31.25
227.387	35.25
227.621	39.25
227.856	59.25
228.09	68.25
228.324	53.25
228.559	62.25
228.793	61.25
229.027	60.25
229.262	60.25
229.496	80.25
229.73	84.25
229.964	79.25
230.199	76.25
230.433	75.25
230.667	93.25
230.901	85.25
231.136	83.25
231.37	85.25
231.604	68.25
231.838	92.25
232.072	87.25
232.306	77.25
232.541	95.25
232.775	70.25
233.009	77.25
233.243	77.25
233.477	87.25
233.711	86.25
233.945	85.25
234.179	78.25
234.413	98.25
234.647	79.25
234.881	83.25
235.115	85.25
235.349	88.25
235.583	79.25
235.817	79.25
236.051	72.25
236.285	87.25
236.519	81.25
236.753	74.25
236.987	69.25
237.221	83.25
237.455	88.25
237.689	78.25
237.922	71.25
238.156	82.25
238.39	85.25
238.624	76.25
238.858	72.25
239.091	54.25
239.325	92.25
239.559	78.25
239.793	86.25
240.027	84.25
240.26	67.25
240.494	81.25
240.728	81.25
240.961	76.25
241.195	72.25
241.429	71.25
241.662	67.25
241.896	71.25
242.13	76.25
242.363	87.25
242.597	79.25
242.83	87.25
243.064	74.25
243.298	91.25
243.531	79.25
243.765	63.25
243.998	77.25
244.232	79.25
244.465	84.25
244.699	81.25
244.932	91.25
245.166	77.25
245.399	65.25
245.633	87.25
245.866	78.25
246.099	74.25
246.333	78.25
246.566	86.25
246.8	81.25
247.033	78.25
247.266	75.25
247.5	76.25
247.733	72.25
247.966	90.25
248.2	81.25
248.433	89.25
248.666	80.25
248.899	68.25
249.133	78.25
249.366	103.25
249.599	97.25
249.832	82.25
250.066	67.25
250.299	90.25
250.532	77.25
250.765	75.25
250.998	76.25
251.231	85.25
251.465	63.25
251.698	68.25
251.931	84.25
252.164	80.25
252.397	72.25
252.63	92.25
252.863	80.25
253.096	83.25
253.329	87.25
253.562	79.25
253.795	75.25
254.028	76.25
254.261	84.25
254.494	86.25
254.727	86.25
254.96	89.25
255.193	80.25
255.426	82.25
255.659	87.25
255.892	79.25
256.124	83.25
256.357	78.25
256.59	67.25
256.823	91.25
257.056	77.25
257.289	86.25
257.521	80.25
257.754	80.25
257.987	72.25
258.22	100.25
258.452	78.25
258.685	82.25
258.918	78.25
259.151	68.25
259.383	96.25
259.616	96.25
259.849	71.25
260.081	72.25
260.314	79.25
260.547	84.25
260.779	84.25
261.012	87.25
261.244	80.25
261.477	87.25
261.71	91.25
261.942	105.25
262.175	118.25
262.407	84.25
262.64	87.25
262.872	84.25
263.105	85.25
263.337	77.25
263.57	95.25
263.802	87.25
264.035	82.25
264.267	86.25
264.499	104.25
264.732	82.25
264.964	75.25
265.197	97.25
265.429	92.25
265.661	88.25
265.894	80.25
266.126	95.25
266.358	86.25
266.591	96.25
266.823	80.25
267.055	71.25
267.287	81.25
267.52	80.25
267.752	103.25
267.984	96.25
268.216	93.25
268.448	89.25
268.681	88.25
268.913	94.25
269.145	85.25
269.377	92.25
269.609	86.25
269.841	71.25
270.073	78.25
270.306	85.25
270.538	93.25
270.77	92.25
271.002	85.25
271.234	96.25
271.466	84.25
271.698	84.25
271.93	93.25
272.162	87.25
272.394	86.25
272.626	94.25
272.858	83.25
273.09	92.25
273.322	89.25
273.553	94.25
273.785	91.25
274.017	71.25
274.249	82.25
274.481	86.25
274.713	83.25
274.945	83.25
275.176	91.25
275.408	82.25
275.64	78.25
275.872	97.25
276.104	90.25
276.335	93.25
276.567	102.25
276.799	98.25
277.031	103.25
277.262	103.25
277.494	84.25
277.726	91.25
277.957	91.25
278.189	85.25
278.421	89.25
278.652	90.25
278.884	80.25
279.115	111.25
279.347	82.25
279.579	84.25
279.81	90.25
280.042	96.25
280.273	99.25
280.505	81.25
280.736	96.25
280.968	93.25
281.199	91.25
281.431	92.25
281.662	96.25
281.894	100.25
282.125	94.25
282.356	103.25
282.588	133.25
282.819	113.25
283.051	93.25
283.282	88.25
283.513	90.25
283.745	88.25
283.976	88.25
284.207	79.25
284.439	89.25
284.67	95.25
284.901	87.25
285.132	90.25
285.364	85.25
285.595	96.25
285.826	90.25
286.057	77.25
286.288	86.25
286.52	75.25
286.751	89.25
286.982	91.25
287.213	99.25
287.444	107.25
287.675	97.25
287.906	89.25
288.138	86.25
288.369	98.25
288.6	87.25
288.831	91.25
289.062	93.25
289.293	80.25
289.524	90.25
289.755	96.25
289.986	87.25
290.217	79.25
290.448	92.25
290.679	99.25
290.91	79.25
291.141	87.25
291.371	103.25
291.602	91.25
291.833	81.25
292.064	96.25
292.295	75.25
292.526	97.25
292.757	91.25
292.987	100.25
293.218	93.25
293.449	82.25
293.68	87.25
293.91	88.25
294.141	91.25
294.372	84.25
294.603	87.25
294.833	80.25
295.064	78.25
295.295	75.25
295.525	79.25
295.756	99.25
295.987	102.25
296.217	126.25
296.448	118.25
296.679	90.25
296.909	83.25
297.14	113.25
297.37	105.25
297.601	91.25
297.831	86.25
298.062	93.25
298.292	105.25
298.523	76.25
298.753	99.25
298.984	89.25
299.214	91.25
299.445	85.25
299.675	85.25
299.905	95.25
300.136	89.25
300.366	94.25
300.597	89.25
300.827	92.25
301.057	87.25
301.288	99.25
301.518	114.25
301.748	92.25
301.979	113.25
302.209	86.25
302.439	87.25
302.669	92.25
302.9	77.25
303.13	103.25
303.36	99.25
303.59	95.25
303.82	110.25
304.051	88.25
304.281	93.25
304.511	84.25
304.741	97.25
304.971	89.25
305.201	81.25
305.431	80.25
305.661	76.25
305.891	92.25
306.121	85.25
306.352	77.25
306.582	81.25
306.812	104.25
307.042	92.25
307.272	100.25
307.502	106.25
307.731	109.25
307.961	68.25
308.191	86.25
308.421	85.25
308.651	88.25
308.881	98.25
309.111	84.25
309.341	98.25
309.571	96.25
309.8	96.25
310.03	98.25
310.26	103.25
310.49	86.25
310.72	93.25
310.949	104.25
311.179	97.25
311.409	100.25
311.639	112.25
311.868	90.25
312.098	102.25
312.328	91.25
312.557	103.25
312.787	104.25
313.017	106.25
313.246	97.25
313.476	91.25
313.706	102.25
313.935	94.25
314.165	99.25
314.394	98.25
314.624	92.25
314.853	88.25
315.083	96.25
315.312	96.25
315.542	96.25
315.771	93.25
316.001	92.25
316.23	103.25
316.46	85.25
316.689	99.25
316.919	83.25
317.148	87.25
317.377	90.25
317.607	85.25
317.836	93.25
318.065	98.25
318.295	87.25
318.524	100.25
318.753	93.25
318.983	95.25
319.212	97.25
319.441	86.25
319.67	96.25
319.9	92.25
320.129	85.25
320.358	81.25
320.587	93.25
320.816	92.25
321.046	89.25
321.275	97.25
321.504	96.25
321.733	98.25
321.962	89.25
322.191	100.25
322.42	98.25
322.649	108.25
322.878	123.25
323.108	119.25
323.337	123.25
323.566	134.25
323.795	143.25
324.024	194.25
324.253	372.25
324.482	724.25
324.71	1555.25
324.939	2063.25
325.168	744.25
325.397	231.25
325.626	142.25
325.855	124.25
326.084	117.25
326.313	134.25
326.542	127.25
326.77	200.25
326.999	422.25
327.228	852.25
327.457	1567.25
327.686	1299.25
327.914	355.25
328.143	211.25
328.372	185.25
328.6	139.25
328.829	114.25
329.058	140.25
329.287	122.25
329.515	120.25
329.744	118.25
329.972	146.25
330.201	244.25
330.43	273.25
330.658	169.25
330.887	143.25
331.115	120.25
331.344	104.25
331.572	101.25
331.801	101.25
332.03	90.25
332.258	103.25
332.486	100.25
332.715	91.25
332.943	96.25
333.172	92.25
333.4	98.25
333.629	111.25
333.857	125.25
334.085	164.25
334.314	212.25
334.542	368.25
334.771	327.25
334.999	141.25
335.227	105.25
335.455	83.25
335.684	95.25
335.912	88.25
336.14	95.25
336.369	90.25
336.597	92.25
336.825	97.25
337.053	95.25
337.281	98.25
337.51	86.25
337.738	84.25
337.966	80.25
338.194	112.25
338.422	85.25
338.65	93.25
338.878	101.25
339.106	94.25
339.334	89.25
339.562	87.25
339.79	95.25
340.018	91.25
340.246	102.25
340.474	88.25
340.702	88.25
340.93	92.25
341.158	87.25
341.386	100.25
341.614	98.25
341.842	100.25
342.07	97.25
342.298	101.25
342.526	80.25
342.754	95.25
342.981	84.25
343.209	84.25
343.437	84.25
343.665	95.25
343.893	95.25
344.12	98.25
344.348	91.25
344.576	109.25
344.804	105.25
345.031	95.25
345.259	98.25
345.487	97.25
345.714	90.25
345.942	109.25
346.17	92.25
346.397	94.25
346.625	85.25
346.853	95.25
347.08	88.25
347.308	107.25
347.535	112.25
347.763	97.25
347.99	114.25
348.218	94.25
348.445	95.25
348.673	95.25
348.9	98.25
349.128	84.25
349.355	80.25
349.583	81.25
349.81	99.25
350.037	91.25
350.265	91.25
350.492	101.25
350.72	98.25
350.947	104.25
351.174	92.25
351.402	100.25
351.629	102.25
351.856	100.25
352.083	92.25
352.311	111.25
352.538	107.25
352.765	103.25
352.992	109.25
353.22	127.25
353.447	109.25
353.674	90.25
353.901	98.25
354.128	104.25
354.355	88.25
354.583	106.25
354.81	94.25
355.037	94.25
355.264	81.25
355.491	91.25
355.718	95.25
355.945	85.25
356.172	95.25
356.399	95.25
356.626	92.25
356.853	99.25
357.08	94.25
357.307	98.25
357.534	90.25
357.761	92.25
357.988	103.25
358.215	116.25
358.441	104.25
358.668	89.25
358.895	103.25
359.122	89.25
359.349	89.25
359.576	84.25
359.802	93.25
360.029	99.25
360.256	94.25
360.483	93.25
360.709	93.25
360.936	86.25
361.163	88.25
361.39	89.25
361.616	99.25
361.843	97.25
362.07	80.25
362.296	95.25
362.523	104.25
362.749	91.25
362.976	100.25
363.203	92.25
363.429	87.25
363.656	103.25
363.882	96.25
364.109	101.25
364.335	82.25
364.562	83.25
364.788	90.25
365.015	95.25
365.241	98.25
365.468	110.25
365.694	100.25
365.92	111.25
366.147	94.25
366.373	79.25
366.599	90.25
366.826	70.25
367.052	87.25
367.278	92.25
367.505	78.25
367.731	89.25
367.957	96.25
368.184	93.25
368.41	87.25
368.636	102.25
368.862	132.25
369.089	99.25
369.315	91.25
369.541	110.25
369.767	102.25
369.993	92.25
370.219	111.25
370.445	96.25
370.672	76.25
370.898	87.25
371.124	83.25
371.35	95.25
371.576	91.25
371.802	80.25
372.028	88.25
372.254	99.25
372.48	83.25
372.706	76.25
372.932	79.25
373.158	104.25
373.384	90.25
373.61	102.25
373.835	94.25
374.061	87.25
374.287	94.25
374.513	91.25
374.739	94.25
374.965	99.25
375.191	74.25
375.416	86.25
375.642	107.25
375.868	103.25
376.094	108.25
376.319	94.25
376.545	99.25
376.771	105.25
376.997	91.25
377.222	110.25
377.448	104.25
377.674	91.25
377.899	81.25
378.125	85.25
378.35	78.25
378.576	94.25
378.802	81.25
379.027	98.25
379.253	100.25
379.478	93.25
379.704	95.25
379.929	98.25
380.155	109.25
380.38	107.25
380.606	100.25
380.831	108.25
381.057	92.25
381.282	108.25
381.507	98.25
381.733	94.25
381.958	104.25
382.184	109.25
382.409	99.25
382.634	113.25
382.86	114.25
383.085	120.25
383.31	106.25
383.535	111.25
383.761	107.25
383.986	101.25
384.211	111.25
384.436	107.25
384.662	122.25
384.887	122.25
385.112	127.25
385.337	121.25
385.562	125.25
385.787	126.25
386.013	123.25
386.238	127.25
386.463	124.25
386.688	119.25
386.913	127.25
387.138	127.25
387.363	122.25
387.588	117.25
387.813	118.25
388.038	118.25
388.263	134.25
388.488	143.25
388.713	104.25
388.938	94.25
389.163	100.25
389.387	91.25
389.612	89.25
389.837	96.25
390.062	106.25
390.287	85.25
390.512	74.25
390.736	96.25
390.961	85.25
391.186	87.25
391.411	85.25
391.636	103.25
391.86	79.25
392.085	84.25
392.31	83.25
392.534	89.25
392.759	99.25
392.984	108.25
393.208	133.25
393.433	189.25
393.658	155.25
393.882	100.25
394.107	99.25
394.331	99.25
394.556	97.25
394.78	93.25
395.005	97.25
395.229	95.25
395.454	84.25
395.678	86.25
395.903	86.25
396.127	96.25
396.352	75.25
396.576	82.25
396.801	114.25
397.025	130.25
397.249	108.25
397.474	103.25
397.698	104.25
397.922	90.25
398.147	70.25
398.371	94.25
398.595	91.25
398.82	88.25
399.044	92.25
399.268	75.25
399.492	80.25
399.717	88.25
399.941	85.25
400.165	86.25
400.389	100.25
400.613	88.25
400.837	86.25
401.062	85.25
401.286	93.25
401.51	104.25
401.734	101.25
401.958	102.25
402.182	120.25
402.406	144.25
402.63	115.25
402.854	87.25
403.078	92.25
403.302	83.25
403.526	85.25
403.75	92.25
403.974	93.25
404.198	83.25
404.422	87.25
404.645	89.25
404.869	76.25
405.093	87.25
405.317	115.25
405.541	95.25
405.765	87.25
405.988	113.25
406.212	152.25
406.436	204.25
406.66	137.25
406.883	92.25
407.107	96.25
407.331	107.25
407.555	105.25
407.778	101.25
408.002	110.25
408.226	102.25
408.449	80.25
408.673	86.25
408.896	91.25
409.12	105.25
409.344	96.25
409.567	103.25
409.791	73.25
410.014	100.25
410.238	96.25
410.461	75.25
410.685	93.25
410.908	95.25
411.132	103.25
411.355	104.25
411.578	83.25
411.802	96.25
412.025	95.25
412.249	87.25
412.472	101.25
412.695	107.25
412.919	95.25
413.142	93.25
413.365	84.25
413.589	85.25
413.812	99.25
414.035	111.25
414.258	91.25
414.482	100.25
414.705	90.25
414.928	96.25
415.151	89.25
415.374	97.25
415.597	104.25
415.821	93.25
416.044	86.25
416.267	94.25
416.49	85.25
416.713	95.25
416.936	100.25
417.159	103.25
417.382	91.25
417.605	89.25
417.828	85.25
418.051	92.25
418.274	91.25
418.497	81.25
418.72	93.25
418.943	90.25
419.166	79.25
419.389	91.25
419.611	89.25
419.834	91.25
420.057	98.25
420.28	82.25
420.503	92.25
420.726	87.25
420.948	108.25
421.171	97.25
421.394	103.25
421.617	112.25
421.839	94.25
422.062	90.25
422.285	83.25
422.507	103.25
422.73	138.25
422.953	101.25
423.175	88.25
423.398	81.25
423.621	80.25
423.843	89.25
424.066	89.25
424.288	94.25
424.511	91.25
424.733	98.25
424.956	108.25
425.178	99.25
425.401	83.25
425.623	96.25
425.846	88.25
426.068	104.25
426.291	91.25
426.513	100.25
426.735	93.25
426.958	98.25
427.18	109.25
427.402	123.25
427.625	163.25
427.847	153.25
428.069	133.25
428.292	99.25
428.514	79.25
428.736	88.25
428.958	79.25
429.181	87.25
429.403	88.25
429.625	86.25
429.847	82.25
430.069	84.25
430.292	93.25
430.514	85.25
430.736	85.25
430.958	94.25
431.18	93.25
431.402	75.25
431.624	86.25
431.846	91.25
432.068	84.25
432.29	86.25
432.512	96.25
432.734	75.25
432.956	85.25
433.178	94.25
433.4	94.25
433.622	105.25
433.844	85.25
434.066	93.25
434.287	87.25
434.509	83.25
434.731	111.25
434.953	84.25
435.175	81.25
435.397	88.25
435.618	101.25
435.84	112.25
436.062	105.25
436.284	111.25
436.505	105.25
436.727	96.25
436.949	84.25
437.17	91.25
437.392	97.25
437.614	86.25
437.835	112.25
438.057	108.25
438.278	104.25
438.5	99.25
438.721	110.25
438.943	105.25
439.165	88.25
439.386	103.25
439.608	97.25
439.829	96.25
440.05	112.25
440.272	158.25
440.493	114.25
440.715	88.25
440.936	85.25
441.158	87.25
441.379	95.25
441.6	92.25
441.822	95.25
442.043	84.25
442.264	93.25
442.486	105.25
442.707	86.25
442.928	102.25
443.149	125.25
443.371	128.25
443.592	110.25
443.813	109.25
444.034	101.25
444.255	88.25
444.476	97.25
444.698	95.25
444.919	95.25
445.14	137.25
445.361	114.25
445.582	123.25
445.803	127.25
446.024	116.25
446.245	114.25
446.466	118.25
446.687	92.25
446.908	93.25
447.129	104.25
447.35	91.25
447.571	100.25
447.792	101.25
448.013	94.25
448.234	95.25
448.455	104.25
448.675	104.25
448.896	112.25
449.117	109.25
449.338	92.25
449.559	128.25
449.779	114.25
450	104.25
450.221	75.25
450.442	93.25
450.662	87.25
450.883	101.25
451.104	106.25
451.324	93.25
451.545	80.25
451.766	77.25
451.986	95.25
452.207	96.25
452.428	89.25
452.648	103.25
452.869	111.25
453.089	95.25
453.31	117.25
453.53	92.25
453.751	87.25
453.971	94.25
454.192	98.25
454.412	81.25
454.633	95.25
454.853	89.25
455.073	82.25
455.294	91.25
455.514	99.25
455.734	86.25
455.955	96.25
456.175	96.25
456.395	88.25
456.616	98.25
456.836	89.25
457.056	96.25
457.276	89.25
457.497	76.25
457.717	89.25
457.937	75.25
458.157	91.25
458.377	86.25
458.598	108.25
458.818	134.25
459.038	136.25
459.258	111.25
459.478	97.25
459.698	95.25
459.918	86.25
460.138	77.25
460.358	80.25
460.578	82.25
460.798	68.25
461.018	77.25
461.238	102.25
461.458	93.25
461.678	83.25
461.898	96.25
462.118	81.25
462.338	83.25
462.558	104.25
462.777	104.25
462.997	96.25
463.217	101.25
463.437	87.25
463.657	78.25
463.876	80.25
464.096	86.25
464.316	100.25
464.536	79.25
464.755	93.25
464.975	104.25
465.195	151.25
465.414	139.25
465.634	87.25
465.854	103.25
466.073	88.25
466.293	80.25
466.512	93.25
466.732	88.25
466.951	77.25
467.171	84.25
467.391	103.25
467.61	97.25
467.829	128.25
468.049	170.25
468.268	197.25
468.488	116.25
468.707	98.25
468.927	102.25
469.146	98.25
469.365	93.25
469.585	86.25
469.804	100.25
470.023	87.25
470.243	92.25
470.462	103.25
470.681	93.25
470.901	86.25
471.12	90.25
471.339	92.25
471.558	93.25
471.777	93.25
471.997	136.25
472.216	260.25
472.435	467.25
472.654	159.25
472.873	102.25
473.092	88.25
473.311	106.25
473.53	97.25
473.749	79.25
473.968	105.25
474.187	96.25
474.406	86.25
474.625	93.25
474.844	80.25
475.063	97.25
475.282	92.25
475.501	96.25
475.72	95.25
475.939	92.25
476.158	85.25
476.377	93.25
476.596	101.25
476.814	88.25
477.033	95.25
477.252	85.25
477.471	89.25
477.69	106.25
477.908	73.25
478.127	75.25
478.346	85.25
478.564	91.25
478.783	95.25
479.002	100.25
479.22	109.25
479.439	105.25
479.658	109.25
479.876	101.25
480.095	91.25
480.313	97.25
480.532	113.25
480.751	125.25
480.969	255.25
481.188	831.25
481.406	493.25
481.624	132.25
481.843	100.25
482.061	107.25
482.28	92.25
482.498	104.25
482.717	95.25
482.935	92.25
483.153	88.25
483.372	93.25
483.59	97.25
483.808	104.25
484.027	114.25
484.245	103.25
484.463	92.25
484.681	96.25
484.9	79.25
485.118	99.25
485.336	100.25
485.554	97.25
485.772	114.25
485.99	102.25
486.209	104.25
486.427	94.25
486.645	104.25
486.863	96.25
487.081	102.25
487.299	95.25
487.517	108.25
487.735	99.25
487.953	109.25
488.171	101.25
488.389	87.25
488.607	102.25
488.825	81.25
489.043	88.25
489.261	101.25
489.479	86.25
489.696	87.25
489.914	84.25
490.132	95.25
490.35	96.25
490.568	92.25
490.786	95.25
491.003	75.25
491.221	99.25
491.439	74.25
491.657	104.25
491.874	90.25
492.092	91.25
492.31	96.25
492.527	101.25
492.745	91.25
492.963	112.25
493.18	96.25
493.398	97.25
493.615	90.25
493.833	96.25
494.05	92.25
494.268	86.25
494.485	92.25
494.703	76.25
494.92	90.25
495.138	94.25
495.355	96.25
495.573	87.25
495.79	104.25
496.008	76.25
496.225	98.25
496.442	83.25
496.66	87.25
496.877	84.25
497.094	101.25
497.312	77.25
497.529	88.25
497.746	94.25
497.963	91.25
498.181	94.25
498.398	92.25
498.615	108.25
498.832	109.25
499.049	104.25
499.267	97.25
499.484	95.25
499.701	90.25
499.918	93.25
500.135	104.25
500.352	88.25
500.569	85.25
500.786	96.25
501.003	73.25
501.22	84.25
501.437	100.25
501.654	78.25
501.871	105.25
502.088	89.25
502.305	82.25
502.522	96.25
502.739	99.25
502.956	83.25
503.172	99.25
503.389	88.25
503.606	103.25
503.823	97.25
504.04	107.25
504.256	99.25
504.473	94.25
504.69	110.25
504.907	95.25
505.123	85.25
505.34	92.25
505.557	95.25
505.773	95.25
505.99	90.25
506.207	96.25
506.423	93.25
506.64	98.25
506.856	110.25
507.073	93.25
507.289	95.25
507.506	102.25
507.722	108.25
507.939	120.25
508.155	93.25
508.372	90.25
508.588	81.25
508.805	95.25
509.021	79.25
509.238	86.25
509.454	102.25
509.67	108.25
509.887	107.25
510.103	128.25
510.319	197.25
510.536	632.25
510.752	2062.25
510.968	589.25
511.184	147.25
511.401	105.25
511.617	93.25
511.833	91.25
512.049	85.25
512.265	86.25
512.481	77.25
512.698	91.25
512.914	77.25
513.13	88.25
513.346	108.25
513.562	89.25
513.778	85.25
513.994	99.25
514.21	96.25
514.426	107.25
514.642	117.25
514.858	106.25
