Data from Circ_1991_H10_HRD10591_00083.txt Node
Date: Wed Jan 03 11:51:57 EST 2024
User: Yrep
Spectrometer: HR+D1059
Trigger mode: 1
Integration Time (sec): 1.000000E-1
Scans to average: 1
Electric dark correction enabled: true
Nonlinearity correction enabled: false
Boxcar width: 0
XAxis mode: Wavelengths
Number of Pixels in Spectrum: 2048
>>>>>Begin Spectral Data<<<<<
223.165	-14.75
223.4	-14.75
223.635	-14.75
223.869	-23.75
224.104	-15.75
224.338	-3.75
224.573	-5.75
224.808	-10.75
225.042	-14.75
225.277	-15.75
225.511	-0.75
225.746	-2.75
225.98	17.25
226.215	12.25
226.449	22.25
226.683	13.25
226.918	17.25
227.152	26.25
227.387	44.25
227.621	30.25
227.856	39.25
228.09	48.25
228.324	55.25
228.559	53.25
228.793	63.25
229.027	66.25
229.262	63.25
229.496	81.25
229.73	80.25
229.964	92.25
230.199	70.25
230.433	71.25
230.667	71.25
230.901	58.25
231.136	77.25
231.37	78.25
231.604	81.25
231.838	78.25
232.072	93.25
232.306	100.25
232.541	73.25
232.775	95.25
233.009	82.25
233.243	76.25
233.477	84.25
233.711	78.25
233.945	77.25
234.179	73.25
234.413	89.25
234.647	82.25
234.881	80.25
235.115	71.25
235.349	78.25
235.583	100.25
235.817	81.25
236.051	80.25
236.285	91.25
236.519	91.25
236.753	78.25
236.987	73.25
237.221	100.25
237.455	84.25
237.689	82.25
237.922	76.25
238.156	73.25
238.39	80.25
238.624	82.25
238.858	89.25
239.091	70.25
239.325	86.25
239.559	74.25
239.793	83.25
240.027	68.25
240.26	76.25
240.494	75.25
240.728	92.25
240.961	92.25
241.195	71.25
241.429	83.25
241.662	87.25
241.896	79.25
242.13	86.25
242.363	73.25
242.597	73.25
242.83	91.25
243.064	82.25
243.298	92.25
243.531	88.25
243.765	79.25
243.998	80.25
244.232	86.25
244.465	83.25
244.699	85.25
244.932	85.25
245.166	83.25
245.399	62.25
245.633	87.25
245.866	92.25
246.099	80.25
246.333	94.25
246.566	78.25
246.8	84.25
247.033	70.25
247.266	76.25
247.5	86.25
247.733	86.25
247.966	73.25
248.2	81.25
248.433	82.25
248.666	73.25
248.899	83.25
249.133	91.25
249.366	98.25
249.599	88.25
249.832	87.25
250.066	84.25
250.299	79.25
250.532	82.25
250.765	88.25
250.998	93.25
251.231	83.25
251.465	69.25
251.698	73.25
251.931	67.25
252.164	86.25
252.397	84.25
252.63	77.25
252.863	81.25
253.096	75.25
253.329	80.25
253.562	80.25
253.795	75.25
254.028	95.25
254.261	80.25
254.494	86.25
254.727	93.25
254.96	89.25
255.193	81.25
255.426	66.25
255.659	81.25
255.892	89.25
256.124	82.25
256.357	83.25
256.59	74.25
256.823	80.25
257.056	84.25
257.289	89.25
257.521	83.25
257.754	86.25
257.987	68.25
258.22	80.25
258.452	76.25
258.685	86.25
258.918	94.25
259.151	88.25
259.383	86.25
259.616	100.25
259.849	84.25
260.081	89.25
260.314	87.25
260.547	90.25
260.779	98.25
261.012	85.25
261.244	93.25
261.477	103.25
261.71	103.25
261.942	127.25
262.175	117.25
262.407	88.25
262.64	90.25
262.872	96.25
263.105	87.25
263.337	80.25
263.57	87.25
263.802	67.25
264.035	98.25
264.267	76.25
264.499	90.25
264.732	102.25
264.964	95.25
265.197	84.25
265.429	72.25
265.661	87.25
265.894	86.25
266.126	80.25
266.358	88.25
266.591	88.25
266.823	100.25
267.055	85.25
267.287	89.25
267.52	85.25
267.752	84.25
267.984	70.25
268.216	76.25
268.448	86.25
268.681	76.25
268.913	84.25
269.145	93.25
269.377	81.25
269.609	87.25
269.841	96.25
270.073	73.25
270.306	92.25
270.538	76.25
270.77	76.25
271.002	90.25
271.234	88.25
271.466	90.25
271.698	97.25
271.93	87.25
272.162	95.25
272.394	84.25
272.626	81.25
272.858	88.25
273.09	81.25
273.322	98.25
273.553	89.25
273.785	76.25
274.017	87.25
274.249	104.25
274.481	83.25
274.713	104.25
274.945	94.25
275.176	117.25
275.408	93.25
275.64	108.25
275.872	89.25
276.104	106.25
276.335	100.25
276.567	96.25
276.799	118.25
277.031	118.25
277.262	123.25
277.494	97.25
277.726	101.25
277.957	82.25
278.189	82.25
278.421	87.25
278.652	97.25
278.884	100.25
279.115	89.25
279.347	86.25
279.579	87.25
279.81	105.25
280.042	128.25
280.273	133.25
280.505	142.25
280.736	92.25
280.968	97.25
281.199	89.25
281.431	78.25
281.662	106.25
281.894	92.25
282.125	107.25
282.356	124.25
282.588	133.25
282.819	124.25
283.051	100.25
283.282	98.25
283.513	82.25
283.745	82.25
283.976	93.25
284.207	97.25
284.439	73.25
284.67	94.25
284.901	93.25
285.132	96.25
285.364	89.25
285.595	102.25
285.826	94.25
286.057	101.25
286.288	78.25
286.52	107.25
286.751	85.25
286.982	94.25
287.213	82.25
287.444	102.25
287.675	103.25
287.906	104.25
288.138	83.25
288.369	102.25
288.6	91.25
288.831	101.25
289.062	90.25
289.293	79.25
289.524	85.25
289.755	90.25
289.986	89.25
290.217	95.25
290.448	89.25
290.679	92.25
290.91	92.25
291.141	98.25
291.371	90.25
291.602	98.25
291.833	99.25
292.064	81.25
292.295	96.25
292.526	96.25
292.757	102.25
292.987	93.25
293.218	90.25
293.449	79.25
293.68	97.25
293.91	91.25
294.141	92.25
294.372	84.25
294.603	90.25
294.833	98.25
295.064	92.25
295.295	92.25
295.525	84.25
295.756	106.25
295.987	111.25
296.217	138.25
296.448	141.25
296.679	105.25
296.909	84.25
297.14	103.25
297.37	98.25
297.601	100.25
297.831	98.25
298.062	96.25
298.292	84.25
298.523	80.25
298.753	100.25
298.984	96.25
299.214	96.25
299.445	103.25
299.675	98.25
299.905	100.25
300.136	88.25
300.366	92.25
300.597	97.25
300.827	104.25
301.057	94.25
301.288	114.25
301.518	98.25
301.748	97.25
301.979	98.25
302.209	89.25
302.439	94.25
302.669	95.25
302.9	94.25
303.13	99.25
303.36	107.25
303.59	107.25
303.82	124.25
304.051	111.25
304.281	103.25
304.511	79.25
304.741	99.25
304.971	82.25
305.201	92.25
305.431	98.25
305.661	100.25
305.891	77.25
306.121	116.25
306.352	101.25
306.582	104.25
306.812	99.25
307.042	108.25
307.272	117.25
307.502	127.25
307.731	151.25
307.961	120.25
308.191	92.25
308.421	90.25
308.651	64.25
308.881	84.25
309.111	92.25
309.341	88.25
309.571	109.25
309.8	94.25
310.03	89.25
310.26	105.25
310.49	95.25
310.72	98.25
310.949	103.25
311.179	102.25
311.409	92.25
311.639	94.25
311.868	108.25
312.098	91.25
312.328	97.25
312.557	112.25
312.787	113.25
313.017	109.25
313.246	94.25
313.476	84.25
313.706	92.25
313.935	91.25
314.165	102.25
314.394	102.25
314.624	88.25
314.853	110.25
315.083	106.25
315.312	100.25
315.542	98.25
315.771	97.25
316.001	101.25
316.23	80.25
316.46	87.25
316.689	112.25
316.919	107.25
317.148	98.25
317.377	101.25
317.607	98.25
317.836	92.25
318.065	91.25
318.295	110.25
318.524	96.25
318.753	93.25
318.983	100.25
319.212	106.25
319.441	104.25
319.67	111.25
319.9	94.25
320.129	97.25
320.358	93.25
320.587	98.25
320.816	84.25
321.046	125.25
321.275	101.25
321.504	107.25
321.733	103.25
321.962	117.25
322.191	106.25
322.42	102.25
322.649	114.25
322.878	134.25
323.108	122.25
323.337	124.25
323.566	144.25
323.795	157.25
324.024	224.25
324.253	430.25
324.482	963.25
324.71	2071.25
324.939	2759.25
325.168	987.25
325.397	288.25
325.626	167.25
325.855	141.25
326.084	122.25
326.313	144.25
326.542	150.25
326.77	247.25
326.999	505.25
327.228	1107.25
327.457	2080.25
327.686	1669.25
327.914	484.25
328.143	336.25
328.372	365.25
328.6	208.25
328.829	146.25
329.058	153.25
329.287	142.25
329.515	127.25
329.744	180.25
329.972	266.25
330.201	485.25
330.43	660.25
330.658	321.25
330.887	187.25
331.115	140.25
331.344	113.25
331.572	112.25
331.801	100.25
332.03	106.25
332.258	108.25
332.486	98.25
332.715	95.25
332.943	97.25
333.172	113.25
333.4	121.25
333.629	115.25
333.857	165.25
334.085	239.25
334.314	460.25
334.542	833.25
334.771	767.25
334.999	239.25
335.227	136.25
335.455	106.25
335.684	109.25
335.912	105.25
336.14	114.25
336.369	104.25
336.597	90.25
336.825	93.25
337.053	76.25
337.281	105.25
337.51	118.25
337.738	110.25
337.966	96.25
338.194	106.25
338.422	98.25
338.65	104.25
338.878	94.25
339.106	101.25
339.334	106.25
339.562	94.25
339.79	79.25
340.018	102.25
340.246	111.25
340.474	104.25
340.702	100.25
340.93	81.25
341.158	92.25
341.386	113.25
341.614	103.25
341.842	113.25
342.07	98.25
342.298	98.25
342.526	88.25
342.754	100.25
342.981	85.25
343.209	90.25
343.437	86.25
343.665	100.25
343.893	100.25
344.12	93.25
344.348	106.25
344.576	86.25
344.804	84.25
345.031	89.25
345.259	112.25
345.487	98.25
345.714	109.25
345.942	102.25
346.17	86.25
346.397	77.25
346.625	88.25
346.853	105.25
347.08	103.25
347.308	111.25
347.535	95.25
347.763	105.25
347.99	106.25
348.218	105.25
348.445	99.25
348.673	89.25
348.9	103.25
349.128	96.25
349.355	107.25
349.583	106.25
349.81	89.25
350.037	103.25
350.265	98.25
350.492	110.25
350.72	98.25
350.947	97.25
351.174	116.25
351.402	120.25
351.629	111.25
351.856	102.25
352.083	106.25
352.311	111.25
352.538	117.25
352.765	111.25
352.992	120.25
353.22	112.25
353.447	108.25
353.674	104.25
353.901	94.25
354.128	103.25
354.355	102.25
354.583	101.25
354.81	101.25
355.037	85.25
355.264	99.25
355.491	81.25
355.718	88.25
355.945	95.25
356.172	97.25
356.399	89.25
356.626	92.25
356.853	115.25
357.08	92.25
357.307	93.25
357.534	87.25
357.761	104.25
357.988	110.25
358.215	86.25
358.441	96.25
358.668	106.25
358.895	90.25
359.122	105.25
359.349	98.25
359.576	93.25
359.802	116.25
360.029	109.25
360.256	115.25
360.483	109.25
360.709	88.25
360.936	102.25
361.163	106.25
361.39	93.25
361.616	97.25
361.843	96.25
362.07	100.25
362.296	105.25
362.523	90.25
362.749	84.25
362.976	94.25
363.203	90.25
363.429	86.25
363.656	105.25
363.882	89.25
364.109	80.25
364.335	93.25
364.562	105.25
364.788	94.25
365.015	94.25
365.241	103.25
365.468	107.25
365.694	89.25
365.92	114.25
366.147	86.25
366.373	91.25
366.599	87.25
366.826	91.25
367.052	94.25
367.278	93.25
367.505	94.25
367.731	106.25
367.957	93.25
368.184	95.25
368.41	99.25
368.636	114.25
368.862	122.25
369.089	108.25
369.315	98.25
369.541	101.25
369.767	91.25
369.993	93.25
370.219	92.25
370.445	90.25
370.672	95.25
370.898	90.25
371.124	84.25
371.35	80.25
371.576	90.25
371.802	80.25
372.028	84.25
372.254	81.25
372.48	94.25
372.706	84.25
372.932	100.25
373.158	103.25
373.384	92.25
373.61	112.25
373.835	97.25
374.061	94.25
374.287	94.25
374.513	93.25
374.739	82.25
374.965	95.25
375.191	95.25
375.416	104.25
375.642	98.25
375.868	90.25
376.094	103.25
376.319	88.25
376.545	89.25
376.771	102.25
376.997	89.25
377.222	90.25
377.448	102.25
377.674	87.25
377.899	96.25
378.125	85.25
378.35	88.25
378.576	90.25
378.802	87.25
379.027	102.25
379.253	85.25
379.478	96.25
379.704	89.25
379.929	93.25
380.155	105.25
380.38	89.25
380.606	90.25
380.831	97.25
381.057	106.25
381.282	103.25
381.507	107.25
381.733	101.25
381.958	99.25
382.184	105.25
382.409	103.25
382.634	104.25
382.86	102.25
383.085	101.25
383.31	97.25
383.535	95.25
383.761	85.25
383.986	112.25
384.211	102.25
384.436	98.25
384.662	83.25
384.887	105.25
385.112	101.25
385.337	112.25
385.562	105.25
385.787	115.25
386.013	120.25
386.238	121.25
386.463	101.25
386.688	112.25
386.913	107.25
387.138	98.25
387.363	88.25
387.588	92.25
387.813	104.25
388.038	107.25
388.263	112.25
388.488	125.25
388.713	102.25
388.938	94.25
389.163	94.25
389.387	100.25
389.612	80.25
389.837	103.25
390.062	106.25
390.287	86.25
390.512	89.25
390.736	90.25
390.961	87.25
391.186	96.25
391.411	96.25
391.636	96.25
391.86	95.25
392.085	88.25
392.31	69.25
392.534	73.25
392.759	80.25
392.984	108.25
393.208	110.25
393.433	112.25
393.658	92.25
393.882	92.25
394.107	92.25
394.331	71.25
394.556	94.25
394.78	95.25
395.005	83.25
395.229	86.25
395.454	82.25
395.678	81.25
395.903	85.25
396.127	94.25
396.352	95.25
396.576	90.25
396.801	88.25
397.025	89.25
397.249	93.25
397.474	91.25
397.698	98.25
397.922	98.25
398.147	84.25
398.371	112.25
398.595	101.25
398.82	71.25
399.044	82.25
399.268	89.25
399.492	92.25
399.717	82.25
399.941	104.25
400.165	95.25
400.389	85.25
400.613	77.25
400.837	92.25
401.062	92.25
401.286	89.25
401.51	102.25
401.734	98.25
401.958	100.25
402.182	124.25
402.406	164.25
402.63	116.25
402.854	100.25
403.078	95.25
403.302	93.25
403.526	88.25
403.75	90.25
403.974	91.25
404.198	88.25
404.422	85.25
404.645	93.25
404.869	106.25
405.093	100.25
405.317	113.25
405.541	125.25
405.765	112.25
405.988	120.25
406.212	196.25
406.436	240.25
406.66	164.25
406.883	105.25
407.107	98.25
407.331	103.25
407.555	108.25
407.778	96.25
408.002	94.25
408.226	96.25
408.449	90.25
408.673	88.25
408.896	98.25
409.12	98.25
409.344	97.25
409.567	89.25
409.791	96.25
410.014	89.25
410.238	86.25
410.461	85.25
410.685	93.25
410.908	102.25
411.132	109.25
411.355	96.25
411.578	87.25
411.802	78.25
412.025	97.25
412.249	94.25
412.472	89.25
412.695	103.25
412.919	113.25
413.142	89.25
413.365	85.25
413.589	95.25
413.812	87.25
414.035	104.25
414.258	94.25
414.482	90.25
414.705	78.25
414.928	97.25
415.151	84.25
415.374	96.25
415.597	90.25
415.821	110.25
416.044	92.25
416.267	93.25
416.49	88.25
416.713	92.25
416.936	101.25
417.159	101.25
417.382	95.25
417.605	96.25
417.828	87.25
418.051	92.25
418.274	98.25
418.497	83.25
418.72	96.25
418.943	95.25
419.166	98.25
419.389	94.25
419.611	99.25
419.834	89.25
420.057	73.25
420.28	93.25
420.503	96.25
420.726	79.25
420.948	97.25
421.171	101.25
421.394	84.25
421.617	86.25
421.839	95.25
422.062	100.25
422.285	90.25
422.507	94.25
422.73	102.25
422.953	100.25
423.175	91.25
423.398	88.25
423.621	96.25
423.843	71.25
424.066	93.25
424.288	93.25
424.511	110.25
424.733	92.25
424.956	106.25
425.178	110.25
425.401	101.25
425.623	99.25
425.846	97.25
426.068	96.25
426.291	98.25
426.513	92.25
426.735	90.25
426.958	89.25
427.18	97.25
427.402	152.25
427.625	196.25
427.847	188.25
428.069	187.25
428.292	102.25
428.514	88.25
428.736	96.25
428.958	79.25
429.181	96.25
429.403	81.25
429.625	77.25
429.847	90.25
430.069	107.25
430.292	86.25
430.514	95.25
430.736	91.25
430.958	92.25
431.18	87.25
431.402	87.25
431.624	88.25
431.846	95.25
432.068	86.25
432.29	92.25
432.512	90.25
432.734	88.25
432.956	87.25
433.178	100.25
433.4	109.25
433.622	85.25
433.844	73.25
434.066	78.25
434.287	88.25
434.509	85.25
434.731	101.25
434.953	89.25
435.175	88.25
435.397	91.25
435.618	97.25
435.84	106.25
436.062	117.25
436.284	123.25
436.505	101.25
436.727	108.25
436.949	105.25
437.17	105.25
437.392	77.25
437.614	79.25
437.835	113.25
438.057	125.25
438.278	123.25
438.5	113.25
438.721	128.25
438.943	89.25
439.165	81.25
439.386	96.25
439.608	80.25
439.829	98.25
440.05	105.25
440.272	143.25
440.493	108.25
440.715	76.25
440.936	80.25
441.158	90.25
441.379	87.25
441.6	97.25
441.822	98.25
442.043	95.25
442.264	101.25
442.486	96.25
442.707	102.25
442.928	109.25
443.149	140.25
443.371	131.25
443.592	114.25
443.813	112.25
444.034	119.25
444.255	102.25
444.476	94.25
444.698	82.25
444.919	93.25
445.14	141.25
445.361	133.25
445.582	117.25
445.803	154.25
446.024	147.25
446.245	141.25
446.466	110.25
446.687	101.25
446.908	81.25
447.129	81.25
447.35	94.25
447.571	98.25
447.792	89.25
448.013	81.25
448.234	104.25
448.455	109.25
448.675	110.25
448.896	112.25
449.117	97.25
449.338	111.25
449.559	122.25
449.779	136.25
450	111.25
450.221	91.25
450.442	86.25
450.662	93.25
450.883	110.25
451.104	121.25
451.324	100.25
451.545	78.25
451.766	97.25
451.986	93.25
452.207	91.25
452.428	101.25
452.648	96.25
452.869	113.25
453.089	124.25
453.31	106.25
453.53	98.25
453.751	109.25
453.971	102.25
454.192	120.25
454.412	112.25
454.633	98.25
454.853	97.25
455.073	92.25
455.294	89.25
455.514	91.25
455.734	103.25
455.955	88.25
456.175	90.25
456.395	77.25
456.616	84.25
456.836	79.25
457.056	90.25
457.276	92.25
457.497	95.25
457.717	91.25
457.937	102.25
458.157	96.25
458.377	99.25
458.598	112.25
458.818	148.25
459.038	178.25
459.258	126.25
459.478	97.25
459.698	106.25
459.918	104.25
460.138	86.25
460.358	90.25
460.578	84.25
460.798	89.25
461.018	81.25
461.238	94.25
461.458	87.25
461.678	78.25
461.898	89.25
462.118	92.25
462.338	93.25
462.558	84.25
462.777	87.25
462.997	93.25
463.217	85.25
463.437	98.25
463.657	96.25
463.876	84.25
464.096	84.25
464.316	85.25
464.536	92.25
464.755	94.25
464.975	99.25
465.195	184.25
465.414	169.25
465.634	104.25
465.854	96.25
466.073	97.25
466.293	101.25
466.512	98.25
466.732	102.25
466.951	106.25
467.171	102.25
467.391	117.25
467.61	114.25
467.829	136.25
468.049	312.25
468.268	416.25
468.488	119.25
468.707	102.25
468.927	90.25
469.146	103.25
469.365	93.25
469.585	88.25
469.804	90.25
470.023	101.25
470.243	96.25
470.462	97.25
470.681	109.25
470.901	109.25
471.12	89.25
471.339	101.25
471.558	111.25
471.777	118.25
471.997	188.25
472.216	600.25
472.435	1200.25
472.654	317.25
472.873	123.25
473.092	102.25
473.311	96.25
473.53	96.25
473.749	92.25
473.968	99.25
474.187	106.25
474.406	106.25
474.625	89.25
474.844	102.25
475.063	86.25
475.282	79.25
475.501	89.25
475.72	99.25
475.939	104.25
476.158	95.25
476.377	73.25
476.596	74.25
476.814	90.25
477.033	92.25
477.252	91.25
477.471	85.25
477.69	71.25
477.908	105.25
478.127	82.25
478.346	101.25
478.564	98.25
478.783	83.25
479.002	93.25
479.22	103.25
479.439	117.25
479.658	109.25
479.876	102.25
480.095	104.25
480.313	101.25
480.532	113.25
480.751	197.25
480.969	559.25
481.188	2172.25
481.406	1187.25
481.624	216.25
481.843	120.25
482.061	96.25
482.28	96.25
482.498	94.25
482.717	95.25
482.935	98.25
483.153	89.25
483.372	104.25
483.59	89.25
483.808	90.25
484.027	98.25
484.245	95.25
484.463	93.25
484.681	99.25
484.9	100.25
485.118	87.25
485.336	110.25
485.554	107.25
485.772	111.25
485.99	106.25
486.209	109.25
486.427	112.25
486.645	128.25
486.863	109.25
487.081	88.25
487.299	105.25
487.517	88.25
487.735	92.25
487.953	91.25
488.171	96.25
488.389	101.25
488.607	106.25
488.825	112.25
489.043	96.25
489.261	91.25
489.479	88.25
489.696	82.25
489.914	73.25
490.132	93.25
490.35	92.25
490.568	93.25
490.786	92.25
491.003	83.25
491.221	94.25
491.439	98.25
491.657	100.25
491.874	117.25
492.092	102.25
492.31	88.25
492.527	107.25
492.745	94.25
492.963	85.25
493.18	85.25
493.398	92.25
493.615	90.25
493.833	100.25
494.05	81.25
494.268	80.25
494.485	83.25
494.703	90.25
494.92	82.25
495.138	94.25
495.355	90.25
495.573	88.25
495.79	92.25
496.008	78.25
496.225	88.25
496.442	98.25
496.66	106.25
496.877	95.25
497.094	99.25
497.312	96.25
497.529	86.25
497.746	88.25
497.963	96.25
498.181	96.25
498.398	99.25
498.615	111.25
498.832	99.25
499.049	101.25
499.267	97.25
499.484	85.25
499.701	88.25
499.918	104.25
500.135	102.25
500.352	101.25
500.569	95.25
500.786	103.25
501.003	100.25
501.22	96.25
501.437	77.25
501.654	96.25
501.871	110.25
502.088	113.25
502.305	89.25
502.522	103.25
502.739	93.25
502.956	79.25
503.172	87.25
503.389	99.25
503.606	116.25
503.823	93.25
504.04	94.25
504.256	105.25
504.473	95.25
504.69	92.25
504.907	98.25
505.123	86.25
505.34	96.25
505.557	97.25
505.773	94.25
505.99	101.25
506.207	92.25
506.423	93.25
506.64	100.25
506.856	81.25
507.073	112.25
507.289	88.25
507.506	90.25
507.722	102.25
507.939	126.25
508.155	109.25
508.372	102.25
508.588	81.25
508.805	104.25
509.021	111.25
509.238	102.25
509.454	97.25
509.67	106.25
509.887	117.25
510.103	147.25
510.319	229.25
510.536	821.25
510.752	2769.25
510.968	754.25
511.184	160.25
511.401	116.25
511.617	106.25
511.833	102.25
512.049	103.25
512.265	83.25
512.481	92.25
512.698	92.25
512.914	94.25
513.13	98.25
513.346	101.25
