Data from Circ_1991_H10_HRD10591_00024.txt Node
Date: Wed Jan 03 11:51:46 EST 2024
User: Yrep
Spectrometer: HR+D1059
Trigger mode: 1
Integration Time (sec): 1.000000E-1
Scans to average: 1
Electric dark correction enabled: true
Nonlinearity correction enabled: false
Boxcar width: 0
XAxis mode: Wavelengths
Number of Pixels in Spectrum: 2048
>>>>>Begin Spectral Data<<<<<
223.165	-19.31
223.4	-19.31
223.635	-19.31
223.869	-35.31
224.104	-13.31
224.338	-13.31
224.573	-22.31
224.808	-16.31
225.042	-13.31
225.277	-0.31
225.511	7.69
225.746	10.69
225.98	12.69
226.215	12.69
226.449	29.69
226.683	5.69
226.918	32.69
227.152	21.69
227.387	36.69
227.621	38.69
227.856	47.69
228.09	42.69
228.324	61.69
228.559	64.69
228.793	50.69
229.027	60.69
229.262	54.69
229.496	74.69
229.73	83.69
229.964	76.69
230.199	90.69
230.433	83.69
230.667	74.69
230.901	88.69
231.136	75.69
231.37	78.69
231.604	70.69
231.838	72.69
232.072	76.69
232.306	70.69
232.541	64.69
232.775	75.69
233.009	82.69
233.243	88.69
233.477	78.69
233.711	73.69
233.945	69.69
234.179	84.69
234.413	75.69
234.647	80.69
234.881	75.69
235.115	94.69
235.349	77.69
235.583	70.69
235.817	78.69
236.051	79.69
236.285	82.69
236.519	80.69
236.753	74.69
236.987	76.69
237.221	85.69
237.455	82.69
237.689	76.69
237.922	64.69
238.156	79.69
238.39	75.69
238.624	80.69
238.858	82.69
239.091	75.69
239.325	80.69
239.559	83.69
239.793	79.69
240.027	82.69
240.26	68.69
240.494	85.69
240.728	74.69
240.961	74.69
241.195	67.69
241.429	78.69
241.662	76.69
241.896	73.69
242.13	83.69
242.363	70.69
242.597	83.69
242.83	83.69
243.064	82.69
243.298	78.69
243.531	80.69
243.765	64.69
243.998	79.69
244.232	68.69
244.465	84.69
244.699	78.69
244.932	79.69
245.166	64.69
245.399	81.69
245.633	69.69
245.866	82.69
246.099	85.69
246.333	74.69
246.566	75.69
246.8	69.69
247.033	78.69
247.266	76.69
247.5	85.69
247.733	68.69
247.966	79.69
248.2	78.69
248.433	76.69
248.666	69.69
248.899	83.69
249.133	73.69
249.366	98.69
249.599	96.69
249.832	101.69
250.066	88.69
250.299	71.69
250.532	77.69
250.765	78.69
250.998	72.69
251.231	72.69
251.465	74.69
251.698	75.69
251.931	90.69
252.164	77.69
252.397	77.69
252.63	82.69
252.863	88.69
253.096	82.69
253.329	76.69
253.562	76.69
253.795	79.69
254.028	65.69
254.261	79.69
254.494	86.69
254.727	82.69
254.96	75.69
255.193	81.69
255.426	64.69
255.659	73.69
255.892	79.69
256.124	79.69
256.357	76.69
256.59	74.69
256.823	79.69
257.056	84.69
257.289	80.69
257.521	73.69
257.754	60.69
257.987	81.69
258.22	74.69
258.452	90.69
258.685	77.69
258.918	82.69
259.151	80.69
259.383	76.69
259.616	91.69
259.849	77.69
260.081	80.69
260.314	90.69
260.547	82.69
260.779	81.69
261.012	80.69
261.244	79.69
261.477	85.69
261.71	80.69
261.942	118.69
262.175	99.69
262.407	79.69
262.64	83.69
262.872	83.69
263.105	67.69
263.337	85.69
263.57	74.69
263.802	96.69
264.035	80.69
264.267	81.69
264.499	80.69
264.732	83.69
264.964	73.69
265.197	78.69
265.429	85.69
265.661	84.69
265.894	81.69
266.126	91.69
266.358	75.69
266.591	83.69
266.823	73.69
267.055	68.69
267.287	90.69
267.52	85.69
267.752	94.69
267.984	89.69
268.216	89.69
268.448	93.69
268.681	94.69
268.913	99.69
269.145	88.69
269.377	90.69
269.609	91.69
269.841	83.69
270.073	100.69
270.306	88.69
270.538	64.69
270.77	80.69
271.002	75.69
271.234	76.69
271.466	74.69
271.698	93.69
271.93	84.69
272.162	83.69
272.394	80.69
272.626	82.69
272.858	75.69
273.09	94.69
273.322	76.69
273.553	83.69
273.785	91.69
274.017	90.69
274.249	80.69
274.481	89.69
274.713	95.69
274.945	81.69
275.176	90.69
275.408	86.69
275.64	93.69
275.872	94.69
276.104	84.69
276.335	81.69
276.567	104.69
276.799	103.69
277.031	103.69
277.262	84.69
277.494	92.69
277.726	81.69
277.957	94.69
278.189	84.69
278.421	75.69
278.652	94.69
278.884	66.69
279.115	78.69
279.347	88.69
279.579	90.69
279.81	92.69
280.042	109.69
280.273	113.69
280.505	91.69
280.736	85.69
280.968	84.69
281.199	80.69
281.431	81.69
281.662	82.69
281.894	82.69
282.125	86.69
282.356	100.69
282.588	120.69
282.819	117.69
283.051	84.69
283.282	88.69
283.513	91.69
283.745	80.69
283.976	89.69
284.207	99.69
284.439	86.69
284.67	94.69
284.901	95.69
285.132	97.69
285.364	73.69
285.595	77.69
285.826	77.69
286.057	84.69
286.288	94.69
286.52	78.69
286.751	92.69
286.982	92.69
287.213	74.69
287.444	92.69
287.675	101.69
287.906	90.69
288.138	96.69
288.369	88.69
288.6	86.69
288.831	89.69
289.062	79.69
289.293	94.69
289.524	85.69
289.755	81.69
289.986	82.69
290.217	89.69
290.448	82.69
290.679	97.69
290.91	89.69
291.141	89.69
291.371	89.69
291.602	92.69
291.833	80.69
292.064	101.69
292.295	94.69
292.526	97.69
292.757	95.69
292.987	79.69
293.218	83.69
293.449	90.69
293.68	86.69
293.91	82.69
294.141	79.69
294.372	65.69
294.603	83.69
294.833	93.69
295.064	84.69
295.295	84.69
295.525	80.69
295.756	92.69
295.987	96.69
296.217	112.69
296.448	112.69
296.679	95.69
296.909	87.69
297.14	74.69
297.37	82.69
297.601	84.69
297.831	75.69
298.062	80.69
298.292	73.69
298.523	84.69
298.753	80.69
298.984	88.69
299.214	73.69
299.445	92.69
299.675	90.69
299.905	95.69
300.136	89.69
300.366	81.69
300.597	76.69
300.827	93.69
301.057	90.69
301.288	101.69
301.518	89.69
301.748	95.69
301.979	89.69
302.209	86.69
302.439	90.69
302.669	93.69
302.9	87.69
303.13	98.69
303.36	97.69
303.59	112.69
303.82	109.69
304.051	80.69
304.281	76.69
304.511	96.69
304.741	88.69
304.971	82.69
305.201	90.69
305.431	94.69
305.661	103.69
305.891	100.69
306.121	86.69
306.352	94.69
306.582	97.69
306.812	84.69
307.042	100.69
307.272	89.69
307.502	109.69
307.731	106.69
307.961	110.69
308.191	95.69
308.421	89.69
308.651	89.69
308.881	91.69
309.111	93.69
309.341	92.69
309.571	97.69
309.8	98.69
310.03	100.69
310.26	95.69
310.49	90.69
310.72	96.69
310.949	88.69
311.179	94.69
311.409	92.69
311.639	84.69
311.868	106.69
312.098	88.69
312.328	98.69
312.557	91.69
312.787	95.69
313.017	87.69
313.246	93.69
313.476	88.69
313.706	99.69
313.935	102.69
314.165	99.69
314.394	103.69
314.624	93.69
314.853	95.69
315.083	96.69
315.312	88.69
315.542	84.69
315.771	95.69
316.001	99.69
316.23	89.69
316.46	81.69
316.689	85.69
316.919	108.69
317.148	95.69
317.377	98.69
317.607	80.69
317.836	83.69
318.065	89.69
318.295	87.69
318.524	100.69
318.753	86.69
318.983	102.69
319.212	93.69
319.441	97.69
319.67	94.69
319.9	100.69
320.129	92.69
320.358	92.69
320.587	79.69
320.816	84.69
321.046	92.69
321.275	87.69
321.504	79.69
321.733	91.69
321.962	106.69
322.191	112.69
322.42	82.69
322.649	106.69
322.878	112.69
323.108	116.69
323.337	124.69
323.566	110.69
323.795	145.69
324.024	200.69
324.253	355.69
324.482	735.69
324.71	1552.69
324.939	2066.69
325.168	763.69
325.397	236.69
325.626	148.69
325.855	122.69
326.084	132.69
326.313	135.69
326.542	156.69
326.77	212.69
326.999	420.69
327.228	864.69
327.457	1600.69
327.686	1293.69
327.914	363.69
328.143	204.69
328.372	207.69
328.6	158.69
328.829	124.69
329.058	121.69
329.287	115.69
329.515	112.69
329.744	108.69
329.972	155.69
330.201	234.69
330.43	308.69
330.658	187.69
330.887	166.69
331.115	113.69
331.344	101.69
331.572	94.69
331.801	110.69
332.03	88.69
332.258	91.69
332.486	97.69
332.715	88.69
332.943	98.69
333.172	76.69
333.4	90.69
333.629	99.69
333.857	141.69
334.085	155.69
334.314	222.69
334.542	364.69
334.771	344.69
334.999	164.69
335.227	106.69
335.455	78.69
335.684	96.69
335.912	97.69
336.14	100.69
336.369	85.69
336.597	105.69
336.825	100.69
337.053	95.69
337.281	104.69
337.51	77.69
337.738	90.69
337.966	92.69
338.194	91.69
338.422	91.69
338.65	94.69
338.878	89.69
339.106	92.69
339.334	95.69
339.562	102.69
339.79	88.69
340.018	105.69
340.246	94.69
340.474	93.69
340.702	97.69
340.93	85.69
341.158	87.69
341.386	101.69
341.614	92.69
341.842	97.69
342.07	100.69
342.298	88.69
342.526	97.69
342.754	94.69
342.981	84.69
343.209	84.69
343.437	93.69
343.665	98.69
343.893	90.69
344.12	104.69
344.348	99.69
344.576	98.69
344.804	103.69
345.031	98.69
345.259	100.69
345.487	91.69
345.714	96.69
345.942	94.69
346.17	90.69
346.397	99.69
346.625	99.69
346.853	97.69
347.08	93.69
347.308	98.69
347.535	96.69
347.763	92.69
347.99	95.69
348.218	93.69
348.445	94.69
348.673	110.69
348.9	95.69
349.128	96.69
349.355	84.69
349.583	95.69
349.81	92.69
350.037	88.69
350.265	85.69
350.492	91.69
350.72	104.69
350.947	101.69
351.174	113.69
351.402	101.69
351.629	92.69
351.856	101.69
352.083	99.69
352.311	107.69
352.538	112.69
352.765	108.69
352.992	110.69
353.22	105.69
353.447	106.69
353.674	102.69
353.901	109.69
354.128	89.69
354.355	83.69
354.583	91.69
354.81	100.69
355.037	81.69
355.264	100.69
355.491	80.69
355.718	89.69
355.945	99.69
356.172	91.69
356.399	99.69
356.626	98.69
356.853	83.69
357.08	87.69
357.307	85.69
357.534	81.69
357.761	88.69
357.988	102.69
358.215	85.69
358.441	78.69
358.668	110.69
358.895	80.69
359.122	82.69
359.349	87.69
359.576	92.69
359.802	88.69
360.029	102.69
360.256	113.69
360.483	92.69
360.709	80.69
360.936	85.69
361.163	85.69
361.39	81.69
361.616	77.69
361.843	68.69
362.07	79.69
362.296	81.69
362.523	82.69
362.749	92.69
362.976	97.69
363.203	84.69
363.429	89.69
363.656	88.69
363.882	90.69
364.109	105.69
364.335	86.69
364.562	81.69
364.788	91.69
365.015	92.69
365.241	72.69
365.468	112.69
365.694	96.69
365.92	90.69
366.147	91.69
366.373	97.69
366.599	96.69
366.826	81.69
367.052	83.69
367.278	83.69
367.505	91.69
367.731	84.69
367.957	95.69
368.184	88.69
368.41	99.69
368.636	108.69
368.862	112.69
369.089	102.69
369.315	85.69
369.541	83.69
369.767	94.69
369.993	96.69
370.219	78.69
370.445	83.69
370.672	78.69
370.898	77.69
371.124	72.69
371.35	93.69
371.576	84.69
371.802	86.69
372.028	77.69
372.254	89.69
372.48	94.69
372.706	86.69
372.932	96.69
373.158	90.69
373.384	80.69
373.61	90.69
373.835	94.69
374.061	84.69
374.287	96.69
374.513	100.69
374.739	83.69
374.965	81.69
375.191	85.69
375.416	79.69
375.642	97.69
375.868	100.69
376.094	90.69
376.319	104.69
376.545	94.69
376.771	89.69
376.997	81.69
377.222	81.69
377.448	91.69
377.674	90.69
377.899	90.69
378.125	83.69
378.35	102.69
378.576	92.69
378.802	101.69
379.027	89.69
379.253	90.69
379.478	83.69
379.704	87.69
379.929	101.69
380.155	85.69
380.38	102.69
380.606	99.69
380.831	99.69
381.057	99.69
381.282	84.69
381.507	95.69
381.733	82.69
381.958	98.69
382.184	105.69
382.409	89.69
382.634	100.69
382.86	104.69
383.085	115.69
383.31	89.69
383.535	101.69
383.761	89.69
383.986	99.69
384.211	104.69
384.436	108.69
384.662	115.69
384.887	114.69
385.112	110.69
385.337	111.69
385.562	118.69
385.787	95.69
386.013	110.69
386.238	121.69
386.463	123.69
386.688	117.69
386.913	95.69
387.138	117.69
387.363	96.69
387.588	107.69
387.813	93.69
388.038	116.69
388.263	110.69
388.488	101.69
388.713	98.69
388.938	89.69
389.163	95.69
389.387	92.69
389.612	84.69
389.837	89.69
390.062	104.69
390.287	90.69
390.512	98.69
390.736	81.69
390.961	89.69
391.186	95.69
391.411	89.69
391.636	85.69
391.86	91.69
392.085	101.69
392.31	102.69
392.534	96.69
392.759	76.69
392.984	90.69
393.208	117.69
393.433	159.69
393.658	142.69
393.882	82.69
394.107	105.69
394.331	103.69
394.556	84.69
394.78	80.69
395.005	83.69
395.229	80.69
395.454	75.69
395.678	89.69
395.903	89.69
396.127	92.69
396.352	94.69
396.576	91.69
396.801	128.69
397.025	136.69
397.249	98.69
397.474	83.69
397.698	96.69
397.922	84.69
398.147	83.69
398.371	86.69
398.595	82.69
398.82	84.69
399.044	83.69
399.268	88.69
399.492	100.69
399.717	97.69
399.941	102.69
400.165	88.69
400.389	82.69
400.613	89.69
400.837	93.69
401.062	90.69
401.286	93.69
401.51	96.69
401.734	84.69
401.958	102.69
402.182	99.69
402.406	150.69
402.63	98.69
402.854	104.69
403.078	76.69
403.302	87.69
403.526	72.69
403.75	83.69
403.974	91.69
404.198	84.69
404.422	77.69
404.645	81.69
404.869	76.69
405.093	94.69
405.317	96.69
405.541	108.69
405.765	97.69
405.988	124.69
406.212	163.69
406.436	182.69
406.66	130.69
406.883	94.69
407.107	95.69
407.331	101.69
407.555	100.69
407.778	88.69
408.002	91.69
408.226	84.69
408.449	100.69
408.673	82.69
408.896	89.69
409.12	89.69
409.344	91.69
409.567	101.69
409.791	103.69
410.014	90.69
410.238	91.69
410.461	83.69
410.685	87.69
410.908	105.69
411.132	85.69
411.355	93.69
411.578	86.69
411.802	86.69
412.025	90.69
412.249	99.69
412.472	94.69
412.695	113.69
412.919	90.69
413.142	86.69
413.365	90.69
413.589	98.69
413.812	85.69
414.035	85.69
414.258	83.69
414.482	81.69
414.705	85.69
414.928	84.69
415.151	94.69
415.374	97.69
415.597	91.69
415.821	92.69
416.044	95.69
416.267	95.69
416.49	98.69
416.713	84.69
416.936	80.69
417.159	84.69
417.382	107.69
417.605	99.69
417.828	75.69
418.051	88.69
418.274	109.69
418.497	68.69
418.72	82.69
418.943	93.69
419.166	90.69
419.389	78.69
419.611	98.69
419.834	72.69
420.057	77.69
420.28	81.69
420.503	85.69
420.726	70.69
420.948	89.69
421.171	84.69
421.394	88.69
421.617	99.69
421.839	88.69
422.062	89.69
422.285	90.69
422.507	87.69
422.73	105.69
422.953	99.69
423.175	91.69
423.398	84.69
423.621	90.69
423.843	82.69
424.066	92.69
424.288	74.69
424.511	73.69
424.733	89.69
424.956	99.69
425.178	117.69
425.401	106.69
425.623	105.69
425.846	96.69
426.068	84.69
426.291	94.69
426.513	82.69
426.735	82.69
426.958	80.69
427.18	99.69
427.402	126.69
427.625	152.69
427.847	149.69
428.069	132.69
428.292	104.69
428.514	92.69
428.736	80.69
428.958	94.69
429.181	93.69
429.403	84.69
429.625	89.69
429.847	79.69
430.069	103.69
430.292	93.69
430.514	78.69
430.736	81.69
430.958	97.69
431.18	81.69
431.402	74.69
431.624	87.69
431.846	64.69
432.068	92.69
432.29	76.69
432.512	100.69
432.734	80.69
432.956	90.69
433.178	104.69
433.4	94.69
433.622	93.69
433.844	76.69
434.066	81.69
434.287	80.69
434.509	92.69
434.731	74.69
434.953	82.69
435.175	84.69
435.397	80.69
435.618	107.69
435.84	99.69
436.062	116.69
436.284	109.69
436.505	96.69
436.727	90.69
436.949	85.69
437.17	76.69
437.392	89.69
437.614	93.69
437.835	100.69
438.057	109.69
438.278	108.69
438.5	100.69
438.721	96.69
438.943	96.69
439.165	87.69
439.386	86.69
439.608	97.69
439.829	106.69
440.05	102.69
440.272	123.69
440.493	88.69
440.715	90.69
440.936	91.69
441.158	89.69
441.379	83.69
441.6	76.69
441.822	96.69
442.043	96.69
442.264	105.69
442.486	105.69
442.707	92.69
442.928	101.69
443.149	129.69
443.371	128.69
443.592	99.69
443.813	106.69
444.034	105.69
444.255	78.69
444.476	96.69
444.698	86.69
444.919	79.69
445.14	131.69
445.361	110.69
445.582	100.69
445.803	109.69
446.024	117.69
446.245	132.69
446.466	110.69
446.687	82.69
446.908	86.69
447.129	90.69
447.35	84.69
447.571	80.69
447.792	91.69
448.013	105.69
448.234	100.69
448.455	86.69
448.675	102.69
448.896	100.69
449.117	93.69
449.338	92.69
449.559	117.69
449.779	122.69
450	86.69
450.221	93.69
450.442	94.69
450.662	90.69
450.883	114.69
451.104	106.69
451.324	81.69
451.545	79.69
451.766	82.69
451.986	72.69
452.207	89.69
452.428	98.69
452.648	86.69
452.869	99.69
453.089	106.69
453.31	120.69
453.53	75.69
453.751	91.69
453.971	90.69
454.192	88.69
454.412	71.69
454.633	94.69
454.853	84.69
455.073	91.69
455.294	77.69
455.514	93.69
455.734	93.69
455.955	93.69
456.175	93.69
456.395	79.69
456.616	88.69
456.836	86.69
457.056	92.69
457.276	93.69
457.497	83.69
457.717	84.69
457.937	72.69
458.157	89.69
458.377	81.69
458.598	93.69
458.818	127.69
459.038	137.69
459.258	95.69
459.478	79.69
459.698	86.69
459.918	92.69
460.138	86.69
460.358	90.69
460.578	93.69
460.798	93.69
461.018	82.69
461.238	82.69
461.458	74.69
461.678	77.69
461.898	78.69
462.118	79.69
462.338	88.69
462.558	92.69
462.777	90.69
462.997	88.69
463.217	90.69
463.437	77.69
463.657	93.69
463.876	89.69
464.096	77.69
464.316	78.69
464.536	101.69
464.755	88.69
464.975	97.69
465.195	140.69
465.414	126.69
465.634	86.69
465.854	85.69
466.073	95.69
466.293	75.69
466.512	83.69
466.732	83.69
466.951	89.69
467.171	83.69
467.391	93.69
467.61	92.69
467.829	106.69
468.049	175.69
468.268	192.69
468.488	94.69
468.707	94.69
468.927	69.69
469.146	89.69
469.365	89.69
469.585	79.69
469.804	97.69
470.023	97.69
470.243	92.69
470.462	98.69
470.681	93.69
470.901	75.69
471.12	89.69
471.339	95.69
471.558	92.69
471.777	90.69
471.997	139.69
472.216	274.69
472.435	533.69
472.654	178.69
472.873	108.69
473.092	74.69
473.311	82.69
473.53	94.69
473.749	97.69
473.968	89.69
474.187	90.69
474.406	83.69
474.625	92.69
474.844	86.69
475.063	68.69
475.282	86.69
475.501	86.69
475.72	79.69
475.939	85.69
476.158	84.69
476.377	74.69
476.596	91.69
476.814	89.69
477.033	98.69
477.252	78.69
477.471	86.69
477.69	89.69
477.908	79.69
478.127	85.69
478.346	82.69
478.564	78.69
478.783	87.69
479.002	77.69
479.22	92.69
479.439	108.69
479.658	102.69
479.876	106.69
480.095	86.69
480.313	96.69
480.532	101.69
480.751	138.69
480.969	285.69
481.188	898.69
481.406	549.69
481.624	147.69
481.843	102.69
482.061	80.69
482.28	76.69
482.498	69.69
482.717	80.69
482.935	101.69
483.153	101.69
483.372	96.69
483.59	90.69
483.808	81.69
484.027	90.69
484.245	88.69
484.463	93.69
484.681	92.69
484.9	81.69
485.118	75.69
485.336	83.69
485.554	87.69
485.772	85.69
485.99	101.69
486.209	92.69
486.427	93.69
486.645	106.69
486.863	107.69
487.081	93.69
487.299	110.69
487.517	83.69
487.735	88.69
487.953	85.69
488.171	68.69
488.389	90.69
488.607	91.69
488.825	91.69
489.043	87.69
489.261	90.69
489.479	88.69
489.696	85.69
489.914	94.69
490.132	90.69
490.35	84.69
490.568	90.69
490.786	78.69
491.003	90.69
491.221	91.69
491.439	89.69
491.657	80.69
491.874	93.69
492.092	78.69
492.31	89.69
492.527	90.69
492.745	81.69
492.963	83.69
493.18	86.69
493.398	81.69
493.615	100.69
493.833	81.69
494.05	84.69
494.268	60.69
494.485	74.69
494.703	76.69
494.92	93.69
495.138	86.69
495.355	85.69
495.573	89.69
495.79	91.69
496.008	90.69
496.225	81.69
496.442	85.69
496.66	99.69
496.877	80.69
497.094	93.69
497.312	84.69
497.529	83.69
497.746	91.69
497.963	83.69
498.181	80.69
498.398	78.69
498.615	106.69
498.832	104.69
499.049	80.69
499.267	92.69
499.484	82.69
499.701	75.69
499.918	94.69
500.135	82.69
500.352	73.69
500.569	85.69
500.786	97.69
501.003	99.69
501.22	67.69
501.437	94.69
501.654	93.69
501.871	109.69
502.088	85.69
502.305	97.69
502.522	81.69
502.739	82.69
502.956	72.69
503.172	88.69
503.389	91.69
503.606	116.69
503.823	93.69
504.04	87.69
504.256	83.69
504.473	88.69
504.69	77.69
504.907	90.69
505.123	96.69
505.34	78.69
505.557	70.69
505.773	83.69
505.99	88.69
506.207	81.69
506.423	84.69
506.64	79.69
506.856	99.69
507.073	90.69
507.289	99.69
507.506	92.69
507.722	110.69
507.939	97.69
508.155	80.69
508.372	88.69
508.588	90.69
508.805	96.69
509.021	93.69
509.238	90.69
509.454	93.69
509.67	95.69
509.887	98.69
510.103	129.69
510.319	180.69
510.536	626.69
510.752	1967.69
510.968	537.69
511.184	132.69
511.401	90.69
511.617	93.69
511.833	93.69
512.049	88.69
512.265	85.69
512.481	94.69
512.698	80.69
512.914	101.69
513.13	78.69
513.346	91.69
513.562	82.69
513.778	86.69
513.994	94.69
514.21	110.69
514.426	106.69
514.642	121.69
514.858	105.69
515.074	138.69
515.29	381.69
515.506	1206.69
515.721	450.69
515.937	152.69
516.153	107.69
