Data from Circ_1991_H10_HRD10591_00078.txt Node
Date: Wed Jan 03 11:51:56 EST 2024
User: Yrep
Spectrometer: HR+D1059
Trigger mode: 1
Integration Time (sec): 1.000000E-1
Scans to average: 1
Electric dark correction enabled: true
Nonlinearity correction enabled: false
Boxcar width: 0
XAxis mode: Wavelengths
Number of Pixels in Spectrum: 2048
>>>>>Begin Spectral Data<<<<<
223.165	-31.44
223.4	-31.44
223.635	-31.44
223.869	-17.44
224.104	-27.44
224.338	-15.44
224.573	-13.44
224.808	-8.44
225.042	-8.44
225.277	0.56
225.511	8.56
225.746	-1.44
225.98	3.56
226.215	14.56
226.449	16.56
226.683	20.56
226.918	25.56
227.152	33.56
227.387	37.56
227.621	36.56
227.856	35.56
228.09	43.56
228.324	42.56
228.559	41.56
228.793	59.56
229.027	61.56
229.262	71.56
229.496	81.56
229.73	93.56
229.964	91.56
230.199	86.56
230.433	78.56
230.667	78.56
230.901	81.56
231.136	73.56
231.37	93.56
231.604	92.56
231.838	70.56
232.072	69.56
232.306	81.56
232.541	79.56
232.775	81.56
233.009	85.56
233.243	86.56
233.477	94.56
233.711	86.56
233.945	86.56
234.179	84.56
234.413	81.56
234.647	84.56
234.881	71.56
235.115	80.56
235.349	88.56
235.583	76.56
235.817	83.56
236.051	81.56
236.285	73.56
236.519	71.56
236.753	70.56
236.987	83.56
237.221	91.56
237.455	81.56
237.689	81.56
237.922	74.56
238.156	91.56
238.39	64.56
238.624	78.56
238.858	87.56
239.091	84.56
239.325	71.56
239.559	84.56
239.793	91.56
240.027	63.56
240.26	77.56
240.494	76.56
240.728	62.56
240.961	85.56
241.195	77.56
241.429	87.56
241.662	71.56
241.896	96.56
242.13	64.56
242.363	82.56
242.597	81.56
242.83	78.56
243.064	70.56
243.298	81.56
243.531	71.56
243.765	70.56
243.998	78.56
244.232	91.56
244.465	97.56
244.699	77.56
244.932	88.56
245.166	64.56
245.399	81.56
245.633	82.56
245.866	78.56
246.099	77.56
246.333	86.56
246.566	72.56
246.8	81.56
247.033	73.56
247.266	81.56
247.5	86.56
247.733	83.56
247.966	87.56
248.2	82.56
248.433	72.56
248.666	84.56
248.899	93.56
249.133	97.56
249.366	95.56
249.599	92.56
249.832	82.56
250.066	86.56
250.299	82.56
250.532	89.56
250.765	80.56
250.998	76.56
251.231	78.56
251.465	72.56
251.698	89.56
251.931	79.56
252.164	72.56
252.397	69.56
252.63	61.56
252.863	89.56
253.096	70.56
253.329	95.56
253.562	80.56
253.795	67.56
254.028	83.56
254.261	85.56
254.494	83.56
254.727	81.56
254.96	79.56
255.193	78.56
255.426	91.56
255.659	74.56
255.892	89.56
256.124	88.56
256.357	90.56
256.59	87.56
256.823	76.56
257.056	85.56
257.289	96.56
257.521	79.56
257.754	83.56
257.987	92.56
258.22	78.56
258.452	84.56
258.685	69.56
258.918	82.56
259.151	83.56
259.383	81.56
259.616	73.56
259.849	87.56
260.081	71.56
260.314	88.56
260.547	88.56
260.779	72.56
261.012	90.56
261.244	96.56
261.477	105.56
261.71	96.56
261.942	102.56
262.175	125.56
262.407	86.56
262.64	79.56
262.872	94.56
263.105	82.56
263.337	91.56
263.57	83.56
263.802	80.56
264.035	96.56
264.267	95.56
264.499	94.56
264.732	75.56
264.964	58.56
265.197	75.56
265.429	83.56
265.661	81.56
265.894	81.56
266.126	75.56
266.358	81.56
266.591	91.56
266.823	82.56
267.055	89.56
267.287	100.56
267.52	81.56
267.752	95.56
267.984	80.56
268.216	75.56
268.448	73.56
268.681	101.56
268.913	83.56
269.145	92.56
269.377	79.56
269.609	77.56
269.841	83.56
270.073	88.56
270.306	86.56
270.538	91.56
270.77	87.56
271.002	86.56
271.234	91.56
271.466	83.56
271.698	89.56
271.93	91.56
272.162	83.56
272.394	96.56
272.626	87.56
272.858	88.56
273.09	78.56
273.322	82.56
273.553	92.56
273.785	95.56
274.017	94.56
274.249	87.56
274.481	88.56
274.713	88.56
274.945	86.56
275.176	73.56
275.408	86.56
275.64	91.56
275.872	112.56
276.104	96.56
276.335	92.56
276.567	96.56
276.799	133.56
277.031	134.56
277.262	124.56
277.494	116.56
277.726	85.56
277.957	96.56
278.189	86.56
278.421	91.56
278.652	90.56
278.884	86.56
279.115	91.56
279.347	86.56
279.579	101.56
279.81	98.56
280.042	123.56
280.273	155.56
280.505	119.56
280.736	89.56
280.968	89.56
281.199	81.56
281.431	81.56
281.662	83.56
281.894	91.56
282.125	93.56
282.356	126.56
282.588	148.56
282.819	111.56
283.051	75.56
283.282	90.56
283.513	97.56
283.745	85.56
283.976	93.56
284.207	104.56
284.439	88.56
284.67	100.56
284.901	85.56
285.132	91.56
285.364	93.56
285.595	95.56
285.826	91.56
286.057	85.56
286.288	91.56
286.52	82.56
286.751	87.56
286.982	100.56
287.213	86.56
287.444	86.56
287.675	91.56
287.906	92.56
288.138	96.56
288.369	92.56
288.6	105.56
288.831	88.56
289.062	89.56
289.293	91.56
289.524	92.56
289.755	86.56
289.986	95.56
290.217	87.56
290.448	91.56
290.679	85.56
290.91	86.56
291.141	95.56
291.371	92.56
291.602	85.56
291.833	92.56
292.064	85.56
292.295	97.56
292.526	83.56
292.757	99.56
292.987	95.56
293.218	66.56
293.449	76.56
293.68	91.56
293.91	95.56
294.141	93.56
294.372	79.56
294.603	88.56
294.833	84.56
295.064	89.56
295.295	95.56
295.525	94.56
295.756	105.56
295.987	119.56
296.217	153.56
296.448	120.56
296.679	89.56
296.909	82.56
297.14	88.56
297.37	89.56
297.601	94.56
297.831	83.56
298.062	81.56
298.292	92.56
298.523	96.56
298.753	96.56
298.984	84.56
299.214	84.56
299.445	98.56
299.675	94.56
299.905	89.56
300.136	100.56
300.366	83.56
300.597	96.56
300.827	107.56
301.057	110.56
301.288	130.56
301.518	108.56
301.748	86.56
301.979	116.56
302.209	96.56
302.439	87.56
302.669	109.56
302.9	85.56
303.13	99.56
303.36	94.56
303.59	99.56
303.82	113.56
304.051	111.56
304.281	91.56
304.511	93.56
304.741	89.56
304.971	89.56
305.201	87.56
305.431	87.56
305.661	99.56
305.891	88.56
306.121	97.56
306.352	115.56
306.582	120.56
306.812	103.56
307.042	113.56
307.272	113.56
307.502	112.56
307.731	134.56
307.961	111.56
308.191	82.56
308.421	84.56
308.651	92.56
308.881	94.56
309.111	93.56
309.341	86.56
309.571	106.56
309.8	96.56
310.03	85.56
310.26	84.56
310.49	96.56
310.72	63.56
310.949	105.56
311.179	98.56
311.409	95.56
311.639	97.56
311.868	88.56
312.098	92.56
312.328	86.56
312.557	111.56
312.787	108.56
313.017	105.56
313.246	100.56
313.476	82.56
313.706	90.56
313.935	100.56
314.165	106.56
314.394	111.56
314.624	103.56
314.853	103.56
315.083	103.56
315.312	97.56
315.542	89.56
315.771	93.56
316.001	89.56
316.23	99.56
316.46	103.56
316.689	87.56
316.919	104.56
317.148	95.56
317.377	97.56
317.607	91.56
317.836	88.56
318.065	100.56
318.295	105.56
318.524	105.56
318.753	105.56
318.983	98.56
319.212	95.56
319.441	102.56
319.67	108.56
319.9	98.56
320.129	77.56
320.358	91.56
320.587	88.56
320.816	97.56
321.046	105.56
321.275	91.56
321.504	102.56
321.733	100.56
321.962	106.56
322.191	101.56
322.42	104.56
322.649	111.56
322.878	115.56
323.108	131.56
323.337	117.56
323.566	134.56
323.795	161.56
324.024	222.56
324.253	437.56
324.482	968.56
324.71	2017.56
324.939	2844.56
325.168	994.56
325.397	292.56
325.626	173.56
325.855	143.56
326.084	130.56
326.313	148.56
326.542	163.56
326.77	260.56
326.999	500.56
327.228	1109.56
327.457	2108.56
327.686	1709.56
327.914	481.56
328.143	328.56
328.372	367.56
328.6	246.56
328.829	142.56
329.058	151.56
329.287	141.56
329.515	153.56
329.744	168.56
329.972	271.56
330.201	451.56
330.43	677.56
330.658	344.56
330.887	197.56
331.115	146.56
331.344	116.56
331.572	121.56
331.801	110.56
332.03	116.56
332.258	95.56
332.486	95.56
332.715	97.56
332.943	118.56
333.172	111.56
333.4	119.56
333.629	129.56
333.857	174.56
334.085	256.56
334.314	451.56
334.542	856.56
334.771	819.56
334.999	249.56
335.227	130.56
335.455	101.56
335.684	102.56
335.912	98.56
336.14	105.56
336.369	109.56
336.597	105.56
336.825	102.56
337.053	99.56
337.281	106.56
337.51	93.56
337.738	97.56
337.966	102.56
338.194	104.56
338.422	97.56
338.65	96.56
338.878	96.56
339.106	82.56
339.334	106.56
339.562	99.56
339.79	95.56
340.018	91.56
340.246	95.56
340.474	101.56
340.702	104.56
340.93	100.56
341.158	90.56
341.386	98.56
341.614	99.56
341.842	95.56
342.07	90.56
342.298	94.56
342.526	99.56
342.754	95.56
342.981	84.56
343.209	87.56
343.437	93.56
343.665	84.56
343.893	85.56
344.12	100.56
344.348	115.56
344.576	88.56
344.804	102.56
345.031	109.56
345.259	122.56
345.487	93.56
345.714	95.56
345.942	94.56
346.17	92.56
346.397	84.56
346.625	92.56
346.853	95.56
347.08	81.56
347.308	100.56
347.535	98.56
347.763	97.56
347.99	94.56
348.218	101.56
348.445	96.56
348.673	109.56
348.9	87.56
349.128	83.56
349.355	98.56
349.583	89.56
349.81	88.56
350.037	98.56
350.265	97.56
350.492	95.56
350.72	98.56
350.947	91.56
351.174	111.56
351.402	129.56
351.629	117.56
351.856	98.56
352.083	104.56
352.311	110.56
352.538	110.56
352.765	111.56
352.992	116.56
353.22	114.56
353.447	100.56
353.674	111.56
353.901	92.56
354.128	97.56
354.355	101.56
354.583	99.56
354.81	107.56
355.037	113.56
355.264	94.56
355.491	109.56
355.718	101.56
355.945	79.56
356.172	99.56
356.399	100.56
356.626	102.56
356.853	91.56
357.08	91.56
357.307	91.56
357.534	84.56
357.761	99.56
357.988	83.56
358.215	105.56
358.441	101.56
358.668	107.56
358.895	91.56
359.122	84.56
359.349	97.56
359.576	97.56
359.802	108.56
360.029	121.56
360.256	102.56
360.483	101.56
360.709	85.56
360.936	99.56
361.163	96.56
361.39	105.56
361.616	105.56
361.843	84.56
362.07	99.56
362.296	99.56
362.523	114.56
362.749	104.56
362.976	98.56
363.203	101.56
363.429	97.56
363.656	83.56
363.882	93.56
364.109	89.56
364.335	89.56
364.562	102.56
364.788	105.56
365.015	79.56
365.241	97.56
365.468	110.56
365.694	114.56
365.92	97.56
366.147	88.56
366.373	110.56
366.599	98.56
366.826	93.56
367.052	96.56
367.278	86.56
367.505	89.56
367.731	103.56
367.957	97.56
368.184	88.56
368.41	105.56
368.636	108.56
368.862	125.56
369.089	108.56
369.315	102.56
369.541	83.56
369.767	94.56
369.993	91.56
370.219	89.56
370.445	99.56
370.672	88.56
370.898	72.56
371.124	89.56
371.35	96.56
371.576	71.56
371.802	79.56
372.028	92.56
372.254	86.56
372.48	87.56
372.706	92.56
372.932	85.56
373.158	88.56
373.384	93.56
373.61	102.56
373.835	82.56
374.061	99.56
374.287	95.56
374.513	101.56
374.739	103.56
374.965	85.56
375.191	98.56
375.416	96.56
375.642	78.56
375.868	92.56
376.094	98.56
376.319	84.56
376.545	96.56
376.771	91.56
376.997	91.56
377.222	98.56
377.448	83.56
377.674	92.56
377.899	86.56
378.125	86.56
378.35	104.56
378.576	91.56
378.802	86.56
379.027	101.56
379.253	94.56
379.478	92.56
379.704	104.56
379.929	104.56
380.155	99.56
380.38	102.56
380.606	79.56
380.831	81.56
381.057	99.56
381.282	91.56
381.507	93.56
381.733	88.56
381.958	89.56
382.184	111.56
382.409	95.56
382.634	101.56
382.86	86.56
383.085	107.56
383.31	91.56
383.535	88.56
383.761	93.56
383.986	92.56
384.211	87.56
384.436	98.56
384.662	102.56
384.887	112.56
385.112	106.56
385.337	92.56
385.562	86.56
385.787	103.56
386.013	103.56
386.238	124.56
386.463	111.56
386.688	111.56
386.913	87.56
387.138	105.56
387.363	81.56
387.588	72.56
387.813	84.56
388.038	111.56
388.263	99.56
388.488	92.56
388.713	94.56
388.938	102.56
389.163	89.56
389.387	89.56
389.612	79.56
389.837	92.56
390.062	96.56
390.287	94.56
390.512	81.56
390.736	100.56
390.961	86.56
391.186	97.56
391.411	101.56
391.636	90.56
391.86	84.56
392.085	87.56
392.31	99.56
392.534	83.56
392.759	105.56
392.984	88.56
393.208	103.56
393.433	99.56
393.658	88.56
393.882	94.56
394.107	83.56
394.331	79.56
394.556	85.56
394.78	94.56
395.005	77.56
395.229	76.56
395.454	90.56
395.678	79.56
395.903	87.56
396.127	88.56
396.352	95.56
396.576	94.56
396.801	97.56
397.025	95.56
397.249	86.56
397.474	80.56
397.698	75.56
397.922	88.56
398.147	93.56
398.371	83.56
398.595	93.56
398.82	93.56
399.044	76.56
399.268	81.56
399.492	98.56
399.717	95.56
399.941	82.56
400.165	93.56
400.389	90.56
400.613	75.56
400.837	84.56
401.062	89.56
401.286	90.56
401.51	88.56
401.734	98.56
401.958	99.56
402.182	127.56
402.406	165.56
402.63	119.56
402.854	101.56
403.078	93.56
403.302	90.56
403.526	87.56
403.75	96.56
403.974	87.56
404.198	91.56
404.422	99.56
404.645	99.56
404.869	102.56
405.093	105.56
405.317	103.56
405.541	118.56
405.765	117.56
405.988	128.56
406.212	175.56
406.436	252.56
406.66	172.56
406.883	103.56
407.107	97.56
407.331	92.56
407.555	114.56
407.778	108.56
408.002	94.56
408.226	83.56
408.449	104.56
408.673	79.56
408.896	102.56
409.12	105.56
409.344	77.56
409.567	91.56
409.791	88.56
410.014	85.56
410.238	88.56
410.461	95.56
410.685	91.56
410.908	103.56
411.132	109.56
411.355	114.56
411.578	88.56
411.802	81.56
412.025	81.56
412.249	92.56
412.472	98.56
412.695	132.56
412.919	103.56
413.142	105.56
413.365	94.56
413.589	79.56
413.812	90.56
414.035	96.56
414.258	82.56
414.482	85.56
414.705	99.56
414.928	91.56
415.151	98.56
415.374	91.56
415.597	96.56
415.821	91.56
416.044	74.56
416.267	86.56
416.49	83.56
416.713	107.56
416.936	93.56
417.159	89.56
417.382	87.56
417.605	108.56
417.828	94.56
418.051	85.56
418.274	100.56
418.497	93.56
418.72	77.56
418.943	85.56
419.166	81.56
419.389	86.56
419.611	105.56
419.834	100.56
420.057	86.56
420.28	93.56
420.503	77.56
420.726	100.56
420.948	89.56
421.171	93.56
421.394	97.56
421.617	81.56
421.839	100.56
422.062	95.56
422.285	99.56
422.507	97.56
422.73	109.56
422.953	98.56
423.175	79.56
423.398	84.56
423.621	89.56
423.843	93.56
424.066	94.56
424.288	83.56
424.511	86.56
424.733	110.56
424.956	111.56
425.178	111.56
425.401	103.56
425.623	90.56
425.846	97.56
426.068	83.56
426.291	95.56
426.513	112.56
426.735	97.56
426.958	85.56
427.18	114.56
427.402	153.56
427.625	190.56
427.847	192.56
428.069	164.56
428.292	120.56
428.514	87.56
428.736	95.56
428.958	88.56
429.181	73.56
429.403	87.56
429.625	85.56
429.847	100.56
430.069	98.56
430.292	88.56
430.514	87.56
430.736	90.56
430.958	83.56
431.18	86.56
431.402	99.56
431.624	78.56
431.846	84.56
432.068	101.56
432.29	91.56
432.512	87.56
432.734	86.56
432.956	81.56
433.178	110.56
433.4	98.56
433.622	91.56
433.844	84.56
434.066	87.56
434.287	102.56
434.509	98.56
434.731	96.56
434.953	94.56
435.175	95.56
435.397	91.56
435.618	96.56
435.84	121.56
436.062	133.56
436.284	112.56
436.505	103.56
436.727	113.56
436.949	83.56
437.17	94.56
437.392	92.56
437.614	99.56
437.835	111.56
438.057	127.56
438.278	128.56
438.5	105.56
438.721	136.56
438.943	107.56
439.165	85.56
439.386	98.56
439.608	101.56
439.829	100.56
440.05	143.56
440.272	168.56
440.493	96.56
440.715	83.56
440.936	79.56
441.158	86.56
441.379	87.56
441.6	95.56
441.822	94.56
442.043	107.56
442.264	104.56
442.486	118.56
442.707	89.56
442.928	99.56
443.149	142.56
443.371	147.56
443.592	120.56
443.813	129.56
444.034	116.56
444.255	92.56
444.476	84.56
444.698	77.56
444.919	70.56
445.14	125.56
445.361	123.56
445.582	123.56
445.803	153.56
446.024	181.56
446.245	169.56
446.466	103.56
446.687	96.56
446.908	91.56
447.129	83.56
447.35	85.56
447.571	96.56
447.792	100.56
448.013	102.56
448.234	107.56
448.455	106.56
448.675	112.56
448.896	132.56
449.117	117.56
449.338	100.56
449.559	133.56
449.779	144.56
450	106.56
450.221	84.56
450.442	86.56
450.662	99.56
450.883	104.56
451.104	110.56
451.324	107.56
451.545	98.56
451.766	88.56
451.986	82.56
452.207	81.56
452.428	87.56
452.648	95.56
452.869	127.56
453.089	116.56
453.31	111.56
453.53	99.56
453.751	91.56
453.971	108.56
454.192	113.56
454.412	99.56
454.633	79.56
454.853	88.56
455.073	100.56
455.294	87.56
455.514	119.56
455.734	95.56
455.955	91.56
456.175	87.56
456.395	90.56
456.616	85.56
456.836	89.56
457.056	79.56
457.276	98.56
457.497	88.56
457.717	97.56
457.937	103.56
458.157	88.56
458.377	84.56
458.598	103.56
458.818	174.56
459.038	171.56
459.258	132.56
459.478	82.56
459.698	87.56
459.918	96.56
460.138	92.56
460.358	88.56
460.578	84.56
460.798	89.56
461.018	98.56
461.238	88.56
461.458	91.56
461.678	81.56
461.898	78.56
462.118	84.56
462.338	90.56
462.558	103.56
462.777	90.56
462.997	94.56
463.217	96.56
463.437	91.56
463.657	86.56
463.876	87.56
464.096	90.56
464.316	103.56
464.536	90.56
464.755	92.56
464.975	111.56
465.195	189.56
465.414	174.56
465.634	101.56
465.854	83.56
466.073	102.56
466.293	84.56
466.512	88.56
466.732	96.56
466.951	83.56
467.171	99.56
467.391	109.56
467.61	105.56
467.829	141.56
468.049	308.56
468.268	427.56
468.488	141.56
468.707	93.56
468.927	103.56
469.146	77.56
469.365	92.56
469.585	76.56
469.804	111.56
470.023	103.56
470.243	101.56
470.462	119.56
470.681	118.56
470.901	101.56
471.12	109.56
471.339	92.56
471.558	110.56
471.777	114.56
471.997	198.56
472.216	557.56
472.435	1205.56
472.654	299.56
472.873	116.56
473.092	109.56
473.311	96.56
473.53	77.56
473.749	82.56
473.968	88.56
474.187	110.56
474.406	94.56
474.625	88.56
474.844	99.56
475.063	71.56
475.282	70.56
475.501	84.56
475.72	87.56
475.939	83.56
476.158	80.56
476.377	85.56
476.596	89.56
476.814	98.56
477.033	84.56
477.252	103.56
477.471	87.56
477.69	95.56
477.908	97.56
478.127	93.56
478.346	79.56
478.564	103.56
478.783	111.56
479.002	98.56
479.22	97.56
479.439	103.56
479.658	118.56
479.876	96.56
480.095	98.56
480.313	116.56
480.532	124.56
480.751	193.56
480.969	523.56
481.188	2052.56
481.406	1233.56
481.624	211.56
481.843	91.56
482.061	102.56
482.28	96.56
482.498	84.56
482.717	90.56
482.935	85.56
483.153	83.56
483.372	81.56
483.59	91.56
483.808	94.56
484.027	96.56
484.245	101.56
484.463	90.56
484.681	84.56
484.9	86.56
485.118	93.56
485.336	89.56
485.554	93.56
485.772	111.56
485.99	102.56
486.209	100.56
486.427	99.56
486.645	99.56
486.863	98.56
487.081	105.56
487.299	101.56
487.517	92.56
487.735	94.56
487.953	81.56
488.171	85.56
488.389	87.56
488.607	95.56
488.825	92.56
489.043	85.56
489.261	93.56
489.479	83.56
489.696	84.56
489.914	87.56
490.132	88.56
490.35	85.56
490.568	83.56
490.786	97.56
491.003	92.56
491.221	89.56
491.439	88.56
491.657	89.56
491.874	90.56
492.092	102.56
492.31	92.56
492.527	99.56
492.745	90.56
492.963	99.56
493.18	102.56
493.398	84.56
493.615	85.56
493.833	92.56
494.05	101.56
494.268	94.56
494.485	89.56
494.703	93.56
494.92	99.56
495.138	91.56
495.355	97.56
495.573	89.56
495.79	83.56
496.008	89.56
496.225	97.56
496.442	84.56
496.66	100.56
496.877	103.56
497.094	103.56
497.312	88.56
497.529	83.56
497.746	93.56
497.963	98.56
498.181	100.56
498.398	102.56
498.615	117.56
498.832	114.56
499.049	96.56
499.267	101.56
499.484	91.56
499.701	87.56
499.918	92.56
500.135	96.56
500.352	84.56
500.569	82.56
500.786	85.56
501.003	79.56
501.22	87.56
501.437	95.56
501.654	78.56
501.871	118.56
502.088	93.56
502.305	95.56
502.522	87.56
502.739	99.56
502.956	83.56
503.172	81.56
503.389	89.56
503.606	102.56
503.823	91.56
504.04	89.56
504.256	84.56
504.473	79.56
504.69	79.56
504.907	102.56
505.123	98.56
505.34	95.56
505.557	87.56
505.773	85.56
505.99	91.56
506.207	75.56
506.423	86.56
506.64	104.56
506.856	95.56
507.073	102.56
507.289	92.56
507.506	104.56
507.722	109.56
507.939	124.56
508.155	105.56
508.372	85.56
508.588	87.56
508.805	93.56
509.021	103.56
509.238	83.56
509.454	85.56
509.67	101.56
509.887	102.56
510.103	133.56
510.319	222.56
510.536	801.56
510.752	2582.56
510.968	702.56
511.184	159.56
511.401	111.56
511.617	103.56
511.833	109.56
512.049	105.56
512.265	96.56
512.481	82.56
512.698	103.56
512.914	94.56
513.13	100.56
513.346	97.56
513.562	98.56
513.778	101.56
513.994	103.56
514.21	112.56
514.426	124.56
