Data from Circ_1991_H10_HRD10591_00080.txt Node
Date: Wed Jan 03 11:51:57 EST 2024
User: Yrep
Spectrometer: HR+D1059
Trigger mode: 1
Integration Time (sec): 1.000000E-1
Scans to average: 1
Electric dark correction enabled: true
Nonlinearity correction enabled: false
Boxcar width: 0
XAxis mode: Wavelengths
Number of Pixels in Spectrum: 2048
>>>>>Begin Spectral Data<<<<<
223.165	-19.06
223.4	-19.06
223.635	-19.06
223.869	-14.06
224.104	-22.06
224.338	-28.06
224.573	-12.06
224.808	-8.06
225.042	-14.06
225.277	-18.06
225.511	6.94
225.746	-5.06
225.98	13.94
226.215	8.94
226.449	26.94
226.683	22.94
226.918	35.94
227.152	24.94
227.387	31.94
227.621	38.94
227.856	38.94
228.09	52.94
228.324	43.94
228.559	48.94
228.793	61.94
229.027	74.94
229.262	72.94
229.496	84.94
229.73	69.94
229.964	85.94
230.199	66.94
230.433	83.94
230.667	90.94
230.901	73.94
231.136	82.94
231.37	78.94
231.604	73.94
231.838	74.94
232.072	76.94
232.306	65.94
232.541	78.94
232.775	74.94
233.009	81.94
233.243	80.94
233.477	90.94
233.711	99.94
233.945	74.94
234.179	81.94
234.413	84.94
234.647	97.94
234.881	89.94
235.115	81.94
235.349	75.94
235.583	76.94
235.817	84.94
236.051	70.94
236.285	77.94
236.519	66.94
236.753	69.94
236.987	76.94
237.221	80.94
237.455	95.94
237.689	73.94
237.922	77.94
238.156	68.94
238.39	76.94
238.624	67.94
238.858	88.94
239.091	72.94
239.325	83.94
239.559	84.94
239.793	72.94
240.027	94.94
240.26	77.94
240.494	76.94
240.728	67.94
240.961	80.94
241.195	69.94
241.429	79.94
241.662	76.94
241.896	72.94
242.13	82.94
242.363	66.94
242.597	63.94
242.83	67.94
243.064	72.94
243.298	72.94
243.531	63.94
243.765	87.94
243.998	77.94
244.232	83.94
244.465	82.94
244.699	70.94
244.932	81.94
245.166	74.94
245.399	62.94
245.633	65.94
245.866	75.94
246.099	73.94
246.333	68.94
246.566	59.94
246.8	67.94
247.033	71.94
247.266	68.94
247.5	80.94
247.733	74.94
247.966	80.94
248.2	94.94
248.433	76.94
248.666	69.94
248.899	84.94
249.133	95.94
249.366	103.94
249.599	98.94
249.832	92.94
250.066	81.94
250.299	80.94
250.532	85.94
250.765	72.94
250.998	73.94
251.231	84.94
251.465	81.94
251.698	84.94
251.931	84.94
252.164	72.94
252.397	69.94
252.63	76.94
252.863	83.94
253.096	89.94
253.329	77.94
253.562	73.94
253.795	76.94
254.028	81.94
254.261	82.94
254.494	83.94
254.727	72.94
254.96	90.94
255.193	75.94
255.426	72.94
255.659	81.94
255.892	91.94
256.124	98.94
256.357	81.94
256.59	83.94
256.823	91.94
257.056	67.94
257.289	70.94
257.521	78.94
257.754	97.94
257.987	78.94
258.22	74.94
258.452	97.94
258.685	80.94
258.918	86.94
259.151	64.94
259.383	64.94
259.616	84.94
259.849	88.94
260.081	100.94
260.314	89.94
260.547	88.94
260.779	89.94
261.012	91.94
261.244	93.94
261.477	89.94
261.71	102.94
261.942	121.94
262.175	129.94
262.407	88.94
262.64	81.94
262.872	83.94
263.105	92.94
263.337	80.94
263.57	94.94
263.802	77.94
264.035	70.94
264.267	53.94
264.499	90.94
264.732	95.94
264.964	86.94
265.197	81.94
265.429	81.94
265.661	81.94
265.894	90.94
266.126	99.94
266.358	78.94
266.591	78.94
266.823	79.94
267.055	76.94
267.287	68.94
267.52	90.94
267.752	72.94
267.984	80.94
268.216	80.94
268.448	91.94
268.681	80.94
268.913	84.94
269.145	82.94
269.377	82.94
269.609	81.94
269.841	80.94
270.073	100.94
270.306	78.94
270.538	76.94
270.77	91.94
271.002	78.94
271.234	76.94
271.466	84.94
271.698	96.94
271.93	83.94
272.162	86.94
272.394	77.94
272.626	83.94
272.858	82.94
273.09	78.94
273.322	76.94
273.553	94.94
273.785	83.94
274.017	74.94
274.249	68.94
274.481	76.94
274.713	77.94
274.945	90.94
275.176	78.94
275.408	91.94
275.64	101.94
275.872	115.94
276.104	80.94
276.335	103.94
276.567	106.94
276.799	116.94
277.031	133.94
277.262	127.94
277.494	90.94
277.726	78.94
277.957	79.94
278.189	88.94
278.421	95.94
278.652	88.94
278.884	80.94
279.115	91.94
279.347	88.94
279.579	96.94
279.81	90.94
280.042	124.94
280.273	125.94
280.505	105.94
280.736	93.94
280.968	94.94
281.199	82.94
281.431	100.94
281.662	89.94
281.894	92.94
282.125	105.94
282.356	118.94
282.588	146.94
282.819	129.94
283.051	98.94
283.282	84.94
283.513	98.94
283.745	76.94
283.976	85.94
284.207	80.94
284.439	97.94
284.67	90.94
284.901	86.94
285.132	84.94
285.364	82.94
285.595	88.94
285.826	88.94
286.057	87.94
286.288	97.94
286.52	85.94
286.751	79.94
286.982	86.94
287.213	69.94
287.444	79.94
287.675	88.94
287.906	92.94
288.138	92.94
288.369	87.94
288.6	101.94
288.831	74.94
289.062	85.94
289.293	86.94
289.524	82.94
289.755	80.94
289.986	53.94
290.217	63.94
290.448	84.94
290.679	80.94
290.91	95.94
291.141	97.94
291.371	77.94
291.602	78.94
291.833	92.94
292.064	78.94
292.295	84.94
292.526	76.94
292.757	86.94
292.987	86.94
293.218	103.94
293.449	84.94
293.68	81.94
293.91	89.94
294.141	90.94
294.372	102.94
294.603	88.94
294.833	89.94
295.064	85.94
295.295	94.94
295.525	88.94
295.756	104.94
295.987	109.94
296.217	129.94
296.448	130.94
296.679	117.94
296.909	91.94
297.14	92.94
297.37	86.94
297.601	94.94
297.831	84.94
298.062	89.94
298.292	88.94
298.523	87.94
298.753	63.94
298.984	100.94
299.214	94.94
299.445	101.94
299.675	90.94
299.905	106.94
300.136	98.94
300.366	102.94
300.597	91.94
300.827	103.94
301.057	92.94
301.288	112.94
301.518	84.94
301.748	100.94
301.979	108.94
302.209	102.94
302.439	83.94
302.669	89.94
302.9	76.94
303.13	91.94
303.36	92.94
303.59	99.94
303.82	102.94
304.051	96.94
304.281	102.94
304.511	93.94
304.741	94.94
304.971	77.94
305.201	89.94
305.431	76.94
305.661	88.94
305.891	111.94
306.121	106.94
306.352	104.94
306.582	105.94
306.812	104.94
307.042	97.94
307.272	128.94
307.502	130.94
307.731	137.94
307.961	118.94
308.191	102.94
308.421	95.94
308.651	96.94
308.881	102.94
309.111	100.94
309.341	105.94
309.571	103.94
309.8	99.94
310.03	95.94
310.26	89.94
310.49	96.94
310.72	99.94
310.949	90.94
311.179	110.94
311.409	75.94
311.639	80.94
311.868	89.94
312.098	101.94
312.328	96.94
312.557	106.94
312.787	105.94
313.017	99.94
313.246	94.94
313.476	72.94
313.706	99.94
313.935	100.94
314.165	109.94
314.394	101.94
314.624	93.94
314.853	92.94
315.083	111.94
315.312	98.94
315.542	89.94
315.771	96.94
316.001	85.94
316.23	85.94
316.46	85.94
316.689	106.94
316.919	79.94
317.148	112.94
317.377	94.94
317.607	96.94
317.836	74.94
318.065	89.94
318.295	99.94
318.524	78.94
318.753	86.94
318.983	85.94
319.212	121.94
319.441	108.94
319.67	102.94
319.9	85.94
320.129	91.94
320.358	90.94
320.587	95.94
320.816	102.94
321.046	99.94
321.275	117.94
321.504	96.94
321.733	95.94
321.962	99.94
322.191	92.94
322.42	101.94
322.649	109.94
322.878	111.94
323.108	120.94
323.337	124.94
323.566	140.94
323.795	156.94
324.024	220.94
324.253	451.94
324.482	1041.94
324.71	2204.94
324.939	2988.94
325.168	1053.94
325.397	288.94
325.626	170.94
325.855	138.94
326.084	118.94
326.313	150.94
326.542	170.94
326.77	268.94
326.999	534.94
327.228	1180.94
327.457	2243.94
327.686	1760.94
327.914	490.94
328.143	328.94
328.372	330.94
328.6	211.94
328.829	134.94
329.058	141.94
329.287	164.94
329.515	127.94
329.744	158.94
329.972	236.94
330.201	462.94
330.43	646.94
330.658	317.94
330.887	197.94
331.115	143.94
331.344	100.94
331.572	99.94
331.801	115.94
332.03	99.94
332.258	102.94
332.486	94.94
332.715	97.94
332.943	95.94
333.172	105.94
333.4	100.94
333.629	140.94
333.857	175.94
334.085	251.94
334.314	405.94
334.542	814.94
334.771	747.94
334.999	243.94
335.227	111.94
335.455	115.94
335.684	111.94
335.912	108.94
336.14	95.94
336.369	98.94
336.597	95.94
336.825	94.94
337.053	108.94
337.281	102.94
337.51	83.94
337.738	85.94
337.966	90.94
338.194	82.94
338.422	99.94
338.65	108.94
338.878	102.94
339.106	98.94
339.334	96.94
339.562	94.94
339.79	94.94
340.018	92.94
340.246	102.94
340.474	93.94
340.702	88.94
340.93	84.94
341.158	90.94
341.386	98.94
341.614	92.94
341.842	102.94
342.07	90.94
342.298	94.94
342.526	79.94
342.754	100.94
342.981	85.94
343.209	77.94
343.437	102.94
343.665	84.94
343.893	94.94
344.12	77.94
344.348	81.94
344.576	91.94
344.804	85.94
345.031	85.94
345.259	92.94
345.487	93.94
345.714	101.94
345.942	96.94
346.17	95.94
346.397	99.94
346.625	103.94
346.853	87.94
347.08	90.94
347.308	83.94
347.535	94.94
347.763	100.94
347.99	106.94
348.218	110.94
348.445	114.94
348.673	98.94
348.9	88.94
349.128	90.94
349.355	96.94
349.583	96.94
349.81	89.94
350.037	70.94
350.265	95.94
350.492	111.94
350.72	88.94
350.947	98.94
351.174	118.94
351.402	109.94
351.629	100.94
351.856	104.94
352.083	94.94
352.311	110.94
352.538	118.94
352.765	102.94
352.992	112.94
353.22	99.94
353.447	96.94
353.674	105.94
353.901	84.94
354.128	99.94
354.355	89.94
354.583	81.94
354.81	86.94
355.037	86.94
355.264	99.94
355.491	91.94
355.718	90.94
355.945	98.94
356.172	79.94
356.399	81.94
356.626	86.94
356.853	76.94
357.08	78.94
357.307	93.94
357.534	85.94
357.761	91.94
357.988	97.94
358.215	98.94
358.441	82.94
358.668	91.94
358.895	95.94
359.122	83.94
359.349	91.94
359.576	86.94
359.802	91.94
360.029	104.94
360.256	126.94
360.483	104.94
360.709	88.94
360.936	98.94
361.163	88.94
361.39	104.94
361.616	90.94
361.843	80.94
362.07	82.94
362.296	110.94
362.523	94.94
362.749	92.94
362.976	96.94
363.203	83.94
363.429	84.94
363.656	83.94
363.882	98.94
364.109	93.94
364.335	95.94
364.562	84.94
364.788	84.94
365.015	92.94
365.241	85.94
365.468	109.94
365.694	101.94
365.92	99.94
366.147	99.94
366.373	84.94
366.599	84.94
366.826	88.94
367.052	98.94
367.278	92.94
367.505	88.94
367.731	77.94
367.957	74.94
368.184	94.94
368.41	102.94
368.636	105.94
368.862	125.94
369.089	115.94
369.315	97.94
369.541	83.94
369.767	97.94
369.993	77.94
370.219	90.94
370.445	100.94
370.672	82.94
370.898	94.94
371.124	92.94
371.35	83.94
371.576	97.94
371.802	85.94
372.028	77.94
372.254	82.94
372.48	81.94
372.706	86.94
372.932	89.94
373.158	100.94
373.384	82.94
373.61	104.94
373.835	89.94
374.061	96.94
374.287	99.94
374.513	88.94
374.739	72.94
374.965	89.94
375.191	72.94
375.416	91.94
375.642	102.94
375.868	85.94
376.094	81.94
376.319	83.94
376.545	83.94
376.771	89.94
376.997	91.94
377.222	87.94
377.448	92.94
377.674	85.94
377.899	92.94
378.125	98.94
378.35	84.94
378.576	98.94
378.802	96.94
379.027	92.94
379.253	92.94
379.478	88.94
379.704	94.94
379.929	93.94
380.155	82.94
380.38	90.94
380.606	113.94
380.831	91.94
381.057	102.94
381.282	97.94
381.507	93.94
381.733	85.94
381.958	102.94
382.184	94.94
382.409	93.94
382.634	97.94
382.86	93.94
383.085	98.94
383.31	85.94
383.535	105.94
383.761	87.94
383.986	92.94
384.211	90.94
384.436	93.94
384.662	97.94
384.887	99.94
385.112	101.94
385.337	78.94
385.562	100.94
385.787	88.94
386.013	111.94
386.238	95.94
386.463	92.94
386.688	100.94
386.913	90.94
387.138	99.94
387.363	90.94
387.588	97.94
387.813	90.94
388.038	87.94
388.263	99.94
388.488	101.94
388.713	92.94
388.938	92.94
389.163	84.94
389.387	95.94
389.612	93.94
389.837	87.94
390.062	105.94
390.287	94.94
390.512	89.94
390.736	84.94
390.961	106.94
391.186	100.94
391.411	91.94
391.636	94.94
391.86	85.94
392.085	78.94
392.31	70.94
392.534	81.94
392.759	83.94
392.984	94.94
393.208	86.94
393.433	102.94
393.658	102.94
393.882	66.94
394.107	93.94
394.331	89.94
394.556	80.94
394.78	76.94
395.005	89.94
395.229	85.94
395.454	84.94
395.678	71.94
395.903	67.94
396.127	95.94
396.352	83.94
396.576	78.94
396.801	81.94
397.025	101.94
397.249	85.94
397.474	73.94
397.698	91.94
397.922	84.94
398.147	63.94
398.371	81.94
398.595	87.94
398.82	90.94
399.044	77.94
399.268	85.94
399.492	89.94
399.717	78.94
399.941	84.94
400.165	94.94
400.389	82.94
400.613	93.94
400.837	92.94
401.062	84.94
401.286	94.94
401.51	93.94
401.734	79.94
401.958	100.94
402.182	117.94
402.406	177.94
402.63	117.94
402.854	77.94
403.078	100.94
403.302	79.94
403.526	65.94
403.75	95.94
403.974	72.94
404.198	88.94
404.422	81.94
404.645	98.94
404.869	93.94
405.093	91.94
405.317	114.94
405.541	103.94
405.765	104.94
405.988	121.94
406.212	207.94
406.436	268.94
406.66	162.94
406.883	98.94
407.107	93.94
407.331	93.94
407.555	80.94
407.778	100.94
408.002	95.94
408.226	92.94
408.449	93.94
408.673	76.94
408.896	88.94
409.12	96.94
409.344	82.94
409.567	79.94
409.791	102.94
410.014	81.94
410.238	81.94
410.461	88.94
410.685	96.94
410.908	91.94
411.132	106.94
411.355	98.94
411.578	101.94
411.802	100.94
412.025	92.94
412.249	93.94
412.472	108.94
412.695	119.94
412.919	107.94
413.142	83.94
413.365	95.94
413.589	81.94
413.812	89.94
414.035	97.94
414.258	80.94
414.482	90.94
414.705	84.94
414.928	98.94
415.151	86.94
415.374	93.94
415.597	89.94
415.821	85.94
416.044	95.94
416.267	92.94
416.49	81.94
416.713	104.94
416.936	106.94
417.159	80.94
417.382	92.94
417.605	87.94
417.828	112.94
418.051	89.94
418.274	83.94
418.497	78.94
418.72	90.94
418.943	82.94
419.166	85.94
419.389	92.94
419.611	88.94
419.834	96.94
420.057	95.94
420.28	89.94
420.503	79.94
420.726	76.94
420.948	86.94
421.171	99.94
421.394	84.94
421.617	86.94
421.839	78.94
422.062	85.94
422.285	99.94
422.507	96.94
422.73	108.94
422.953	96.94
423.175	103.94
423.398	84.94
423.621	83.94
423.843	85.94
424.066	80.94
424.288	97.94
424.511	93.94
424.733	92.94
424.956	101.94
425.178	92.94
425.401	95.94
425.623	108.94
425.846	88.94
426.068	105.94
426.291	92.94
426.513	85.94
426.735	99.94
426.958	96.94
427.18	110.94
427.402	154.94
427.625	197.94
427.847	198.94
428.069	183.94
428.292	120.94
428.514	83.94
428.736	98.94
428.958	92.94
429.181	93.94
429.403	81.94
429.625	88.94
429.847	93.94
430.069	90.94
430.292	98.94
430.514	103.94
430.736	80.94
430.958	94.94
431.18	89.94
431.402	74.94
431.624	89.94
431.846	66.94
432.068	84.94
432.29	85.94
432.512	92.94
432.734	83.94
432.956	81.94
433.178	95.94
433.4	96.94
433.622	96.94
433.844	85.94
434.066	88.94
434.287	95.94
434.509	96.94
434.731	73.94
434.953	78.94
435.175	90.94
435.397	89.94
435.618	96.94
435.84	100.94
436.062	123.94
436.284	114.94
436.505	104.94
436.727	112.94
436.949	100.94
437.17	90.94
437.392	83.94
437.614	82.94
437.835	106.94
438.057	133.94
438.278	113.94
438.5	105.94
438.721	92.94
438.943	90.94
439.165	85.94
439.386	83.94
439.608	102.94
439.829	95.94
440.05	120.94
440.272	152.94
440.493	101.94
440.715	85.94
440.936	85.94
441.158	92.94
441.379	83.94
441.6	95.94
441.822	108.94
442.043	88.94
442.264	103.94
442.486	106.94
442.707	97.94
442.928	92.94
443.149	137.94
443.371	140.94
443.592	113.94
443.813	113.94
444.034	104.94
444.255	86.94
444.476	85.94
444.698	80.94
444.919	104.94
445.14	142.94
445.361	128.94
445.582	130.94
445.803	166.94
446.024	134.94
446.245	134.94
446.466	115.94
446.687	105.94
446.908	84.94
447.129	82.94
447.35	91.94
447.571	85.94
447.792	97.94
448.013	102.94
448.234	100.94
448.455	94.94
448.675	113.94
448.896	137.94
449.117	109.94
449.338	102.94
449.559	138.94
449.779	139.94
450	98.94
450.221	91.94
450.442	97.94
450.662	85.94
450.883	111.94
451.104	117.94
451.324	88.94
451.545	90.94
451.766	85.94
451.986	81.94
452.207	74.94
452.428	97.94
452.648	91.94
452.869	125.94
453.089	119.94
453.31	119.94
453.53	97.94
453.751	74.94
453.971	95.94
454.192	104.94
454.412	83.94
454.633	88.94
454.853	75.94
455.073	88.94
455.294	96.94
455.514	103.94
455.734	90.94
455.955	90.94
456.175	59.94
456.395	65.94
456.616	76.94
456.836	99.94
457.056	94.94
457.276	84.94
457.497	79.94
457.717	80.94
457.937	89.94
458.157	73.94
458.377	99.94
458.598	115.94
458.818	164.94
459.038	176.94
459.258	109.94
459.478	98.94
459.698	79.94
459.918	85.94
460.138	83.94
460.358	77.94
460.578	89.94
460.798	73.94
461.018	80.94
461.238	93.94
461.458	88.94
461.678	84.94
461.898	91.94
462.118	86.94
462.338	85.94
462.558	89.94
462.777	93.94
462.997	90.94
463.217	94.94
463.437	85.94
463.657	85.94
463.876	76.94
464.096	86.94
464.316	80.94
464.536	98.94
464.755	105.94
464.975	116.94
465.195	208.94
465.414	182.94
465.634	99.94
465.854	88.94
466.073	87.94
466.293	84.94
466.512	68.94
466.732	100.94
466.951	90.94
467.171	94.94
467.391	120.94
467.61	111.94
467.829	143.94
468.049	309.94
468.268	375.94
468.488	136.94
468.707	95.94
468.927	88.94
469.146	94.94
469.365	81.94
469.585	91.94
469.804	84.94
470.023	95.94
470.243	81.94
470.462	116.94
470.681	121.94
470.901	101.94
471.12	96.94
471.339	93.94
471.558	97.94
471.777	109.94
471.997	205.94
472.216	551.94
472.435	1154.94
472.654	318.94
472.873	126.94
473.092	96.94
473.311	93.94
473.53	91.94
473.749	73.94
473.968	91.94
474.187	102.94
474.406	97.94
474.625	85.94
474.844	86.94
475.063	86.94
475.282	81.94
475.501	83.94
475.72	81.94
475.939	86.94
476.158	89.94
476.377	82.94
476.596	88.94
476.814	109.94
477.033	112.94
477.252	79.94
477.471	79.94
477.69	87.94
477.908	101.94
478.127	85.94
478.346	100.94
478.564	92.94
478.783	109.94
479.002	92.94
479.22	82.94
479.439	101.94
479.658	118.94
479.876	98.94
480.095	93.94
480.313	109.94
480.532	129.94
480.751	192.94
480.969	534.94
481.188	2096.94
481.406	1164.94
481.624	210.94
481.843	98.94
482.061	80.94
482.28	81.94
482.498	98.94
482.717	84.94
482.935	92.94
483.153	90.94
483.372	95.94
483.59	83.94
483.808	79.94
484.027	88.94
484.245	89.94
484.463	74.94
484.681	85.94
484.9	92.94
485.118	100.94
485.336	83.94
485.554	78.94
485.772	82.94
485.99	88.94
486.209	91.94
486.427	105.94
486.645	106.94
486.863	105.94
487.081	101.94
487.299	100.94
487.517	88.94
487.735	81.94
487.953	79.94
488.171	98.94
488.389	102.94
488.607	118.94
488.825	97.94
489.043	97.94
489.261	90.94
489.479	96.94
489.696	86.94
489.914	95.94
490.132	90.94
490.35	86.94
490.568	84.94
490.786	63.94
491.003	83.94
491.221	100.94
491.439	99.94
491.657	84.94
491.874	91.94
492.092	78.94
492.31	85.94
492.527	89.94
492.745	97.94
492.963	86.94
493.18	85.94
493.398	82.94
493.615	95.94
493.833	90.94
494.05	101.94
494.268	80.94
494.485	101.94
494.703	85.94
494.92	87.94
495.138	83.94
495.355	81.94
495.573	94.94
495.79	92.94
496.008	81.94
496.225	82.94
496.442	89.94
496.66	101.94
496.877	90.94
497.094	86.94
497.312	91.94
497.529	82.94
497.746	75.94
497.963	92.94
498.181	78.94
498.398	109.94
498.615	109.94
498.832	118.94
499.049	94.94
499.267	92.94
499.484	94.94
499.701	81.94
499.918	79.94
500.135	77.94
500.352	82.94
500.569	96.94
500.786	81.94
501.003	84.94
501.22	81.94
501.437	88.94
501.654	84.94
501.871	94.94
502.088	102.94
502.305	91.94
502.522	95.94
502.739	98.94
502.956	99.94
503.172	99.94
503.389	105.94
503.606	106.94
503.823	92.94
504.04	95.94
504.256	99.94
504.473	77.94
504.69	74.94
504.907	88.94
505.123	91.94
505.34	85.94
505.557	85.94
505.773	88.94
505.99	84.94
506.207	70.94
506.423	88.94
506.64	77.94
506.856	76.94
507.073	95.94
507.289	93.94
507.506	83.94
507.722	107.94
507.939	94.94
508.155	89.94
508.372	94.94
508.588	98.94
508.805	99.94
509.021	107.94
509.238	102.94
509.454	96.94
509.67	114.94
509.887	114.94
510.103	136.94
510.319	220.94
510.536	894.94
510.752	2985.94
510.968	776.94
511.184	162.94
511.401	97.94
511.617	103.94
511.833	97.94
512.049	104.94
512.265	90.94
512.481	93.94
512.698	94.94
512.914	118.94
513.13	88.94
513.346	86.94
513.562	93.94
513.778	98.94
513.994	97.94
514.21	108.94
514.426	130.94
514.642	142.94
514.858	122.94
515.074	189.94
515.29	542.94
