Data from Circ_1991_H10_HRD10591_00084.txt Node
Date: Wed Jan 03 11:51:58 EST 2024
User: Yrep
Spectrometer: HR+D1059
Trigger mode: 1
Integration Time (sec): 1.000000E-1
Scans to average: 1
Electric dark correction enabled: true
Nonlinearity correction enabled: false
Boxcar width: 0
XAxis mode: Wavelengths
Number of Pixels in Spectrum: 2048
>>>>>Begin Spectral Data<<<<<
223.165	-18.19
223.4	-18.19
223.635	-18.19
223.869	-17.19
224.104	-5.19
224.338	-17.19
224.573	-11.19
224.808	-15.19
225.042	-8.19
225.277	-1.19
225.511	6.81
225.746	-0.19
225.98	8.81
226.215	14.81
226.449	12.81
226.683	19.81
226.918	9.81
227.152	20.81
227.387	35.81
227.621	37.81
227.856	61.81
228.09	57.81
228.324	58.81
228.559	67.81
228.793	63.81
229.027	74.81
229.262	62.81
229.496	80.81
229.73	90.81
229.964	92.81
230.199	77.81
230.433	80.81
230.667	77.81
230.901	79.81
231.136	64.81
231.37	77.81
231.604	80.81
231.838	81.81
232.072	81.81
232.306	87.81
232.541	79.81
232.775	76.81
233.009	57.81
233.243	71.81
233.477	89.81
233.711	93.81
233.945	85.81
234.179	74.81
234.413	87.81
234.647	92.81
234.881	71.81
235.115	63.81
235.349	86.81
235.583	81.81
235.817	82.81
236.051	92.81
236.285	90.81
236.519	86.81
236.753	78.81
236.987	94.81
237.221	69.81
237.455	98.81
237.689	79.81
237.922	80.81
238.156	65.81
238.39	85.81
238.624	75.81
238.858	86.81
239.091	71.81
239.325	76.81
239.559	88.81
239.793	80.81
240.027	82.81
240.26	77.81
240.494	82.81
240.728	84.81
240.961	66.81
241.195	87.81
241.429	74.81
241.662	76.81
241.896	80.81
242.13	84.81
242.363	93.81
242.597	86.81
242.83	78.81
243.064	79.81
243.298	77.81
243.531	82.81
243.765	74.81
243.998	83.81
244.232	84.81
244.465	104.81
244.699	84.81
244.932	82.81
245.166	90.81
245.399	90.81
245.633	79.81
245.866	83.81
246.099	91.81
246.333	78.81
246.566	74.81
246.8	87.81
247.033	88.81
247.266	78.81
247.5	78.81
247.733	78.81
247.966	82.81
248.2	88.81
248.433	80.81
248.666	76.81
248.899	78.81
249.133	80.81
249.366	88.81
249.599	97.81
249.832	86.81
250.066	77.81
250.299	92.81
250.532	80.81
250.765	81.81
250.998	86.81
251.231	75.81
251.465	67.81
251.698	75.81
251.931	78.81
252.164	74.81
252.397	73.81
252.63	95.81
252.863	85.81
253.096	87.81
253.329	96.81
253.562	74.81
253.795	96.81
254.028	94.81
254.261	90.81
254.494	86.81
254.727	71.81
254.96	82.81
255.193	95.81
255.426	91.81
255.659	77.81
255.892	84.81
256.124	90.81
256.357	83.81
256.59	89.81
256.823	75.81
257.056	87.81
257.289	89.81
257.521	91.81
257.754	82.81
257.987	87.81
258.22	90.81
258.452	90.81
258.685	91.81
258.918	86.81
259.151	80.81
259.383	82.81
259.616	83.81
259.849	64.81
260.081	83.81
260.314	83.81
260.547	71.81
260.779	84.81
261.012	92.81
261.244	98.81
261.477	86.81
261.71	108.81
261.942	104.81
262.175	114.81
262.407	89.81
262.64	78.81
262.872	87.81
263.105	94.81
263.337	87.81
263.57	67.81
263.802	84.81
264.035	66.81
264.267	84.81
264.499	90.81
264.732	75.81
264.964	81.81
265.197	89.81
265.429	81.81
265.661	86.81
265.894	73.81
266.126	80.81
266.358	87.81
266.591	90.81
266.823	94.81
267.055	83.81
267.287	78.81
267.52	99.81
267.752	82.81
267.984	87.81
268.216	87.81
268.448	86.81
268.681	90.81
268.913	91.81
269.145	90.81
269.377	83.81
269.609	82.81
269.841	85.81
270.073	85.81
270.306	78.81
270.538	94.81
270.77	83.81
271.002	82.81
271.234	94.81
271.466	92.81
271.698	77.81
271.93	83.81
272.162	93.81
272.394	82.81
272.626	87.81
272.858	88.81
273.09	93.81
273.322	97.81
273.553	90.81
273.785	79.81
274.017	81.81
274.249	91.81
274.481	79.81
274.713	80.81
274.945	103.81
275.176	92.81
275.408	80.81
275.64	93.81
275.872	103.81
276.104	82.81
276.335	91.81
276.567	92.81
276.799	114.81
277.031	109.81
277.262	115.81
277.494	108.81
277.726	95.81
277.957	97.81
278.189	83.81
278.421	92.81
278.652	75.81
278.884	83.81
279.115	71.81
279.347	94.81
279.579	98.81
279.81	90.81
280.042	110.81
280.273	134.81
280.505	104.81
280.736	101.81
280.968	100.81
281.199	92.81
281.431	104.81
281.662	96.81
281.894	82.81
282.125	99.81
282.356	116.81
282.588	143.81
282.819	100.81
283.051	72.81
283.282	93.81
283.513	90.81
283.745	93.81
283.976	84.81
284.207	93.81
284.439	84.81
284.67	90.81
284.901	93.81
285.132	95.81
285.364	71.81
285.595	87.81
285.826	101.81
286.057	93.81
286.288	92.81
286.52	97.81
286.751	93.81
286.982	74.81
287.213	79.81
287.444	94.81
287.675	94.81
287.906	95.81
288.138	77.81
288.369	88.81
288.6	100.81
288.831	87.81
289.062	93.81
289.293	74.81
289.524	94.81
289.755	82.81
289.986	94.81
290.217	83.81
290.448	92.81
290.679	84.81
290.91	84.81
291.141	78.81
291.371	86.81
291.602	92.81
291.833	86.81
292.064	85.81
292.295	89.81
292.526	96.81
292.757	95.81
292.987	93.81
293.218	94.81
293.449	94.81
293.68	85.81
293.91	92.81
294.141	91.81
294.372	86.81
294.603	94.81
294.833	94.81
295.064	97.81
295.295	99.81
295.525	103.81
295.756	113.81
295.987	123.81
296.217	132.81
296.448	119.81
296.679	80.81
296.909	69.81
297.14	82.81
297.37	89.81
297.601	101.81
297.831	81.81
298.062	100.81
298.292	88.81
298.523	80.81
298.753	78.81
298.984	93.81
299.214	78.81
299.445	107.81
299.675	89.81
299.905	101.81
300.136	91.81
300.366	83.81
300.597	83.81
300.827	97.81
301.057	110.81
301.288	91.81
301.518	99.81
301.748	98.81
301.979	103.81
302.209	92.81
302.439	90.81
302.669	95.81
302.9	91.81
303.13	98.81
303.36	92.81
303.59	116.81
303.82	104.81
304.051	102.81
304.281	90.81
304.511	88.81
304.741	82.81
304.971	101.81
305.201	102.81
305.431	91.81
305.661	92.81
305.891	108.81
306.121	109.81
306.352	94.81
306.582	104.81
306.812	105.81
307.042	96.81
307.272	110.81
307.502	130.81
307.731	142.81
307.961	111.81
308.191	107.81
308.421	95.81
308.651	95.81
308.881	97.81
309.111	75.81
309.341	98.81
309.571	110.81
309.8	104.81
310.03	105.81
310.26	109.81
310.49	86.81
310.72	91.81
310.949	102.81
311.179	111.81
311.409	92.81
311.639	114.81
311.868	109.81
312.098	105.81
312.328	102.81
312.557	110.81
312.787	110.81
313.017	103.81
313.246	98.81
313.476	78.81
313.706	86.81
313.935	102.81
314.165	104.81
314.394	97.81
314.624	79.81
314.853	83.81
315.083	83.81
315.312	87.81
315.542	102.81
315.771	85.81
316.001	90.81
316.23	87.81
316.46	86.81
316.689	94.81
316.919	87.81
317.148	92.81
317.377	98.81
317.607	103.81
317.836	92.81
318.065	90.81
318.295	107.81
318.524	96.81
318.753	90.81
318.983	103.81
319.212	124.81
319.441	118.81
319.67	95.81
319.9	102.81
320.129	86.81
320.358	88.81
320.587	83.81
320.816	94.81
321.046	106.81
321.275	121.81
321.504	95.81
321.733	95.81
321.962	91.81
322.191	97.81
322.42	102.81
322.649	112.81
322.878	126.81
323.108	107.81
323.337	114.81
323.566	125.81
323.795	161.81
324.024	230.81
324.253	433.81
324.482	915.81
324.71	1974.81
324.939	2665.81
325.168	951.81
325.397	266.81
325.626	154.81
325.855	137.81
326.084	141.81
326.313	144.81
326.542	171.81
326.77	227.81
326.999	513.81
327.228	1049.81
327.457	2042.81
327.686	1633.81
327.914	464.81
328.143	320.81
328.372	326.81
328.6	198.81
328.829	154.81
329.058	147.81
329.287	138.81
329.515	136.81
329.744	154.81
329.972	249.81
330.201	439.81
330.43	608.81
330.658	302.81
330.887	166.81
331.115	136.81
331.344	110.81
331.572	112.81
331.801	118.81
332.03	114.81
332.258	102.81
332.486	95.81
332.715	86.81
332.943	97.81
333.172	101.81
333.4	111.81
333.629	131.81
333.857	175.81
334.085	216.81
334.314	397.81
334.542	744.81
334.771	701.81
334.999	222.81
335.227	125.81
335.455	117.81
335.684	104.81
335.912	107.81
336.14	108.81
336.369	105.81
336.597	105.81
336.825	105.81
337.053	87.81
337.281	108.81
337.51	108.81
337.738	102.81
337.966	109.81
338.194	94.81
338.422	100.81
338.65	91.81
338.878	93.81
339.106	93.81
339.334	91.81
339.562	103.81
339.79	93.81
340.018	89.81
340.246	106.81
340.474	94.81
340.702	104.81
340.93	87.81
341.158	96.81
341.386	101.81
341.614	90.81
341.842	90.81
342.07	91.81
342.298	103.81
342.526	87.81
342.754	77.81
342.981	87.81
343.209	86.81
343.437	102.81
343.665	86.81
343.893	90.81
344.12	99.81
344.348	71.81
344.576	84.81
344.804	86.81
345.031	102.81
345.259	99.81
345.487	94.81
345.714	96.81
345.942	92.81
346.17	96.81
346.397	90.81
346.625	92.81
346.853	95.81
347.08	100.81
347.308	81.81
347.535	93.81
347.763	93.81
347.99	108.81
348.218	94.81
348.445	94.81
348.673	95.81
348.9	105.81
349.128	97.81
349.355	100.81
349.583	107.81
349.81	95.81
350.037	102.81
350.265	95.81
350.492	94.81
350.72	80.81
350.947	92.81
351.174	107.81
351.402	109.81
351.629	104.81
351.856	98.81
352.083	93.81
352.311	90.81
352.538	111.81
352.765	108.81
352.992	113.81
353.22	114.81
353.447	95.81
353.674	97.81
353.901	100.81
354.128	98.81
354.355	91.81
354.583	104.81
354.81	93.81
355.037	96.81
355.264	110.81
355.491	87.81
355.718	82.81
355.945	97.81
356.172	86.81
356.399	89.81
356.626	100.81
356.853	90.81
357.08	94.81
357.307	109.81
357.534	83.81
357.761	101.81
357.988	96.81
358.215	101.81
358.441	102.81
358.668	82.81
358.895	94.81
359.122	88.81
359.349	92.81
359.576	78.81
359.802	116.81
360.029	113.81
360.256	110.81
360.483	103.81
360.709	91.81
360.936	104.81
361.163	87.81
361.39	86.81
361.616	92.81
361.843	95.81
362.07	98.81
362.296	111.81
362.523	99.81
362.749	90.81
362.976	95.81
363.203	95.81
363.429	81.81
363.656	95.81
363.882	86.81
364.109	99.81
364.335	96.81
364.562	84.81
364.788	92.81
365.015	92.81
365.241	96.81
365.468	103.81
365.694	94.81
365.92	94.81
366.147	84.81
366.373	98.81
366.599	108.81
366.826	94.81
367.052	102.81
367.278	95.81
367.505	103.81
367.731	94.81
367.957	90.81
368.184	85.81
368.41	100.81
368.636	99.81
368.862	100.81
369.089	108.81
369.315	81.81
369.541	114.81
369.767	101.81
369.993	83.81
370.219	93.81
370.445	78.81
370.672	82.81
370.898	87.81
371.124	91.81
371.35	77.81
371.576	85.81
371.802	89.81
372.028	94.81
372.254	99.81
372.48	90.81
372.706	85.81
372.932	86.81
373.158	88.81
373.384	90.81
373.61	87.81
373.835	99.81
374.061	76.81
374.287	84.81
374.513	100.81
374.739	93.81
374.965	90.81
375.191	94.81
375.416	89.81
375.642	78.81
375.868	86.81
376.094	82.81
376.319	89.81
376.545	95.81
376.771	86.81
376.997	84.81
377.222	86.81
377.448	98.81
377.674	83.81
377.899	97.81
378.125	89.81
378.35	96.81
378.576	90.81
378.802	89.81
379.027	99.81
379.253	76.81
379.478	94.81
379.704	98.81
379.929	100.81
380.155	94.81
380.38	90.81
380.606	82.81
380.831	97.81
381.057	108.81
381.282	91.81
381.507	91.81
381.733	101.81
381.958	102.81
382.184	89.81
382.409	77.81
382.634	93.81
382.86	98.81
383.085	106.81
383.31	87.81
383.535	108.81
383.761	92.81
383.986	103.81
384.211	105.81
384.436	96.81
384.662	92.81
384.887	103.81
385.112	103.81
385.337	95.81
385.562	96.81
385.787	86.81
386.013	110.81
386.238	109.81
386.463	84.81
386.688	96.81
386.913	111.81
387.138	94.81
387.363	113.81
387.588	114.81
387.813	104.81
388.038	102.81
388.263	124.81
388.488	94.81
388.713	98.81
388.938	85.81
389.163	84.81
389.387	78.81
389.612	90.81
389.837	99.81
390.062	102.81
390.287	93.81
390.512	87.81
390.736	76.81
390.961	91.81
391.186	88.81
391.411	92.81
391.636	100.81
391.86	78.81
392.085	75.81
392.31	73.81
392.534	84.81
392.759	107.81
392.984	90.81
393.208	88.81
393.433	97.81
393.658	105.81
393.882	87.81
394.107	85.81
394.331	98.81
394.556	87.81
394.78	80.81
395.005	85.81
395.229	87.81
395.454	98.81
395.678	83.81
395.903	97.81
396.127	103.81
396.352	86.81
396.576	78.81
396.801	102.81
397.025	88.81
397.249	99.81
397.474	87.81
397.698	84.81
397.922	99.81
398.147	85.81
398.371	101.81
398.595	94.81
398.82	90.81
399.044	98.81
399.268	96.81
399.492	92.81
399.717	106.81
399.941	92.81
400.165	88.81
400.389	98.81
400.613	84.81
400.837	86.81
401.062	80.81
401.286	79.81
401.51	99.81
401.734	103.81
401.958	87.81
402.182	110.81
402.406	149.81
402.63	111.81
402.854	81.81
403.078	98.81
403.302	89.81
403.526	86.81
403.75	80.81
403.974	93.81
404.198	87.81
404.422	80.81
404.645	76.81
404.869	86.81
405.093	103.81
405.317	107.81
405.541	109.81
405.765	92.81
405.988	106.81
406.212	166.81
406.436	211.81
406.66	141.81
406.883	95.81
407.107	81.81
407.331	104.81
407.555	102.81
407.778	90.81
408.002	87.81
408.226	89.81
408.449	93.81
408.673	95.81
408.896	90.81
409.12	86.81
409.344	86.81
409.567	69.81
409.791	90.81
410.014	103.81
410.238	101.81
410.461	87.81
410.685	94.81
410.908	94.81
411.132	96.81
411.355	99.81
411.578	84.81
411.802	86.81
412.025	88.81
412.249	102.81
412.472	92.81
412.695	113.81
412.919	87.81
413.142	89.81
413.365	94.81
413.589	83.81
413.812	80.81
414.035	109.81
414.258	97.81
414.482	100.81
414.705	90.81
414.928	86.81
415.151	79.81
415.374	102.81
415.597	98.81
415.821	98.81
416.044	87.81
416.267	86.81
416.49	75.81
416.713	84.81
416.936	80.81
417.159	86.81
417.382	99.81
417.605	82.81
417.828	106.81
418.051	86.81
418.274	80.81
418.497	87.81
418.72	78.81
418.943	102.81
419.166	71.81
419.389	104.81
419.611	90.81
419.834	90.81
420.057	90.81
420.28	88.81
420.503	82.81
420.726	90.81
420.948	96.81
421.171	93.81
421.394	86.81
421.617	86.81
421.839	88.81
422.062	81.81
422.285	90.81
422.507	91.81
422.73	112.81
422.953	96.81
423.175	92.81
423.398	84.81
423.621	97.81
423.843	88.81
424.066	96.81
424.288	90.81
424.511	95.81
424.733	104.81
424.956	123.81
425.178	103.81
425.401	92.81
425.623	99.81
425.846	81.81
426.068	87.81
426.291	86.81
426.513	101.81
426.735	102.81
426.958	95.81
427.18	94.81
427.402	125.81
427.625	162.81
427.847	166.81
428.069	183.81
428.292	103.81
428.514	107.81
428.736	82.81
428.958	95.81
429.181	87.81
429.403	75.81
429.625	93.81
429.847	94.81
430.069	93.81
430.292	104.81
430.514	92.81
430.736	101.81
430.958	90.81
431.18	102.81
431.402	83.81
431.624	78.81
431.846	75.81
432.068	98.81
432.29	90.81
432.512	98.81
432.734	79.81
432.956	93.81
433.178	112.81
433.4	101.81
433.622	107.81
433.844	97.81
434.066	95.81
434.287	84.81
434.509	92.81
434.731	88.81
434.953	89.81
435.175	88.81
435.397	92.81
435.618	105.81
435.84	95.81
436.062	124.81
436.284	121.81
436.505	120.81
436.727	102.81
436.949	87.81
437.17	84.81
437.392	85.81
437.614	83.81
437.835	111.81
438.057	117.81
438.278	127.81
438.5	101.81
438.721	114.81
438.943	109.81
439.165	92.81
439.386	91.81
439.608	91.81
439.829	91.81
440.05	128.81
440.272	156.81
440.493	94.81
440.715	91.81
440.936	88.81
441.158	92.81
441.379	84.81
441.6	86.81
441.822	107.81
442.043	96.81
442.264	99.81
442.486	90.81
442.707	87.81
442.928	101.81
443.149	126.81
443.371	137.81
443.592	111.81
443.813	110.81
444.034	110.81
444.255	104.81
444.476	91.81
444.698	85.81
444.919	83.81
445.14	138.81
445.361	114.81
445.582	125.81
445.803	142.81
446.024	134.81
446.245	147.81
446.466	120.81
446.687	88.81
446.908	105.81
447.129	94.81
447.35	85.81
447.571	89.81
447.792	95.81
448.013	104.81
448.234	123.81
448.455	119.81
448.675	114.81
448.896	108.81
449.117	115.81
449.338	98.81
449.559	120.81
449.779	124.81
450	86.81
450.221	72.81
450.442	84.81
450.662	94.81
450.883	110.81
451.104	119.81
451.324	95.81
451.545	102.81
451.766	85.81
451.986	94.81
452.207	101.81
452.428	94.81
452.648	94.81
452.869	109.81
453.089	103.81
453.31	103.81
453.53	91.81
453.751	93.81
453.971	100.81
454.192	123.81
454.412	100.81
454.633	81.81
454.853	88.81
455.073	89.81
455.294	86.81
455.514	106.81
455.734	92.81
455.955	88.81
456.175	77.81
456.395	87.81
456.616	71.81
456.836	91.81
457.056	96.81
457.276	72.81
457.497	95.81
457.717	86.81
457.937	87.81
458.157	87.81
458.377	90.81
458.598	119.81
458.818	147.81
459.038	150.81
459.258	117.81
459.478	87.81
459.698	88.81
459.918	98.81
460.138	79.81
460.358	78.81
460.578	82.81
460.798	83.81
461.018	93.81
461.238	93.81
461.458	85.81
461.678	99.81
461.898	98.81
462.118	74.81
462.338	93.81
462.558	84.81
462.777	92.81
462.997	87.81
463.217	96.81
463.437	103.81
463.657	85.81
463.876	90.81
464.096	94.81
464.316	83.81
464.536	81.81
464.755	94.81
464.975	100.81
465.195	181.81
465.414	156.81
465.634	102.81
465.854	83.81
466.073	83.81
466.293	94.81
466.512	87.81
466.732	87.81
466.951	94.81
467.171	86.81
467.391	113.81
467.61	118.81
467.829	147.81
468.049	306.81
468.268	385.81
468.488	138.81
468.707	88.81
468.927	82.81
469.146	91.81
469.365	100.81
469.585	98.81
469.804	103.81
470.023	107.81
470.243	99.81
470.462	103.81
470.681	103.81
470.901	103.81
471.12	108.81
471.339	88.81
471.558	100.81
471.777	120.81
471.997	174.81
472.216	524.81
472.435	1074.81
472.654	301.81
472.873	108.81
473.092	102.81
473.311	103.81
473.53	104.81
473.749	96.81
473.968	89.81
474.187	111.81
474.406	97.81
474.625	91.81
474.844	100.81
475.063	84.81
475.282	99.81
475.501	87.81
475.72	79.81
475.939	84.81
476.158	87.81
476.377	84.81
476.596	90.81
476.814	96.81
477.033	80.81
477.252	88.81
477.471	84.81
477.69	89.81
477.908	99.81
478.127	89.81
478.346	96.81
478.564	98.81
478.783	97.81
479.002	97.81
479.22	99.81
479.439	107.81
479.658	115.81
479.876	108.81
480.095	106.81
480.313	97.81
480.532	132.81
480.751	166.81
480.969	520.81
481.188	1931.81
481.406	1114.81
481.624	214.81
481.843	103.81
482.061	95.81
482.28	88.81
482.498	97.81
482.717	81.81
482.935	84.81
483.153	90.81
483.372	87.81
483.59	94.81
483.808	98.81
484.027	100.81
484.245	92.81
484.463	99.81
484.681	97.81
484.9	97.81
485.118	97.81
485.336	114.81
485.554	92.81
485.772	115.81
485.99	114.81
486.209	103.81
486.427	114.81
486.645	110.81
486.863	110.81
487.081	114.81
487.299	95.81
487.517	94.81
487.735	99.81
487.953	88.81
488.171	103.81
488.389	99.81
488.607	103.81
488.825	96.81
489.043	76.81
489.261	83.81
489.479	94.81
489.696	108.81
489.914	99.81
490.132	103.81
490.35	108.81
490.568	99.81
490.786	108.81
491.003	108.81
491.221	93.81
491.439	82.81
491.657	100.81
491.874	95.81
492.092	105.81
492.31	92.81
492.527	90.81
492.745	82.81
492.963	98.81
493.18	91.81
493.398	94.81
493.615	109.81
493.833	94.81
494.05	100.81
494.268	104.81
494.485	93.81
494.703	93.81
494.92	96.81
495.138	84.81
495.355	77.81
495.573	81.81
495.79	91.81
496.008	93.81
496.225	89.81
496.442	99.81
496.66	83.81
496.877	82.81
497.094	110.81
497.312	103.81
497.529	92.81
497.746	90.81
497.963	93.81
498.181	95.81
498.398	96.81
498.615	113.81
498.832	93.81
499.049	88.81
499.267	92.81
499.484	83.81
499.701	92.81
499.918	106.81
500.135	86.81
500.352	91.81
500.569	90.81
500.786	78.81
501.003	104.81
501.22	92.81
501.437	89.81
501.654	102.81
501.871	117.81
502.088	92.81
502.305	102.81
502.522	81.81
502.739	82.81
502.956	96.81
503.172	95.81
503.389	102.81
503.606	110.81
503.823	102.81
504.04	100.81
504.256	93.81
504.473	84.81
504.69	99.81
504.907	82.81
505.123	96.81
505.34	87.81
505.557	84.81
505.773	95.81
505.99	87.81
506.207	90.81
506.423	76.81
506.64	93.81
506.856	94.81
507.073	93.81
507.289	80.81
507.506	96.81
507.722	108.81
507.939	122.81
508.155	97.81
508.372	96.81
508.588	90.81
508.805	84.81
509.021	100.81
509.238	90.81
509.454	102.81
509.67	105.81
509.887	108.81
510.103	131.81
510.319	204.81
510.536	703.81
510.752	2288.81
510.968	644.81
511.184	150.81
511.401	131.81
511.617	111.81
511.833	112.81
512.049	102.81
512.265	111.81
512.481	90.81
512.698	94.81
512.914	104.81
513.13	103.81
513.346	95.81
513.562	109.81
513.778	110.81
513.994	103.81
514.21	100.81
514.426	123.81
