Data from Circ_1991_H10_HRD10591_00008.txt Node
Date: Wed Jan 03 11:51:42 EST 2024
User: Yrep
Spectrometer: HR+D1059
Trigger mode: 1
Integration Time (sec): 1.000000E-1
Scans to average: 1
Electric dark correction enabled: true
Nonlinearity correction enabled: false
Boxcar width: 0
XAxis mode: Wavelengths
Number of Pixels in Spectrum: 2048
>>>>>Begin Spectral Data<<<<<
223.165	-24
223.4	-24
223.635	-24
223.869	-12
224.104	-30
224.338	-7
224.573	-18
224.808	-7
225.042	-11
225.277	-10
225.511	-3
225.746	14
225.98	5
226.215	4
226.449	16
226.683	22
226.918	27
227.152	34
227.387	35
227.621	34
227.856	33
228.09	38
228.324	37
228.559	48
228.793	52
229.027	76
229.262	51
229.496	59
229.73	99
229.964	84
230.199	70
230.433	80
230.667	81
230.901	79
231.136	79
231.37	75
231.604	69
231.838	90
232.072	88
232.306	85
232.541	85
232.775	78
233.009	76
233.243	87
233.477	77
233.711	80
233.945	83
234.179	87
234.413	80
234.647	79
234.881	64
235.115	70
235.349	66
235.583	74
235.817	77
236.051	86
236.285	87
236.519	86
236.753	67
236.987	67
237.221	81
237.455	72
237.689	68
237.922	90
238.156	67
238.39	68
238.624	86
238.858	74
239.091	79
239.325	72
239.559	70
239.793	89
240.027	76
240.26	59
240.494	74
240.728	64
240.961	69
241.195	66
241.429	82
241.662	68
241.896	79
242.13	61
242.363	80
242.597	84
242.83	66
243.064	76
243.298	75
243.531	69
243.765	69
243.998	72
244.232	77
244.465	82
244.699	84
244.932	76
245.166	77
245.399	83
245.633	92
245.866	78
246.099	73
246.333	83
246.566	84
246.8	78
247.033	72
247.266	59
247.5	80
247.733	83
247.966	74
248.2	92
248.433	79
248.666	86
248.899	84
249.133	78
249.366	90
249.599	84
249.832	62
250.066	74
250.299	89
250.532	78
250.765	75
250.998	83
251.231	79
251.465	79
251.698	79
251.931	79
252.164	77
252.397	78
252.63	70
252.863	76
253.096	72
253.329	87
253.562	91
253.795	84
254.028	74
254.261	76
254.494	76
254.727	84
254.96	86
255.193	75
255.426	89
255.659	85
255.892	69
256.124	84
256.357	84
256.59	85
256.823	67
257.056	60
257.289	78
257.521	84
257.754	69
257.987	90
258.22	81
258.452	76
258.685	74
258.918	77
259.151	91
259.383	81
259.616	80
259.849	83
260.081	81
260.314	82
260.547	92
260.779	82
261.012	76
261.244	90
261.477	78
261.71	77
261.942	97
262.175	97
262.407	91
262.64	84
262.872	81
263.105	78
263.337	85
263.57	80
263.802	67
264.035	91
264.267	76
264.499	80
264.732	84
264.964	78
265.197	89
265.429	80
265.661	65
265.894	78
266.126	81
266.358	81
266.591	86
266.823	82
267.055	76
267.287	68
267.52	64
267.752	79
267.984	78
268.216	89
268.448	79
268.681	94
268.913	102
269.145	71
269.377	77
269.609	86
269.841	88
270.073	79
270.306	100
270.538	79
270.77	94
271.002	82
271.234	88
271.466	72
271.698	85
271.93	79
272.162	80
272.394	78
272.626	67
272.858	80
273.09	84
273.322	86
273.553	81
273.785	72
274.017	86
274.249	78
274.481	76
274.713	86
274.945	92
275.176	89
275.408	88
275.64	93
275.872	89
276.104	85
276.335	84
276.567	90
276.799	101
277.031	88
277.262	87
277.494	80
277.726	92
277.957	87
278.189	85
278.421	92
278.652	74
278.884	88
279.115	92
279.347	96
279.579	76
279.81	92
280.042	96
280.273	84
280.505	97
280.736	100
280.968	91
281.199	82
281.431	70
281.662	72
281.894	78
282.125	83
282.356	106
282.588	109
282.819	109
283.051	85
283.282	82
283.513	87
283.745	80
283.976	73
284.207	87
284.439	76
284.67	84
284.901	84
285.132	87
285.364	79
285.595	96
285.826	80
286.057	88
286.288	102
286.52	93
286.751	97
286.982	90
287.213	84
287.444	95
287.675	82
287.906	82
288.138	93
288.369	88
288.6	88
288.831	97
289.062	90
289.293	94
289.524	74
289.755	90
289.986	80
290.217	77
290.448	78
290.679	83
290.91	90
291.141	88
291.371	78
291.602	84
291.833	92
292.064	78
292.295	84
292.526	100
292.757	95
292.987	88
293.218	96
293.449	98
293.68	88
293.91	69
294.141	85
294.372	84
294.603	92
294.833	90
295.064	82
295.295	84
295.525	94
295.756	97
295.987	108
296.217	131
296.448	113
296.679	94
296.909	88
297.14	86
297.37	75
297.601	84
297.831	75
298.062	82
298.292	78
298.523	83
298.753	79
298.984	85
299.214	86
299.445	91
299.675	67
299.905	89
300.136	84
300.366	92
300.597	98
300.827	88
301.057	93
301.288	97
301.518	84
301.748	102
301.979	90
302.209	73
302.439	78
302.669	80
302.9	89
303.13	93
303.36	96
303.59	91
303.82	96
304.051	102
304.281	93
304.511	89
304.741	94
304.971	85
305.201	88
305.431	80
305.661	83
305.891	84
306.121	85
306.352	98
306.582	93
306.812	100
307.042	96
307.272	93
307.502	92
307.731	110
307.961	82
308.191	83
308.421	92
308.651	89
308.881	93
309.111	97
309.341	99
309.571	101
309.8	90
310.03	85
310.26	92
310.49	92
310.72	98
310.949	76
311.179	97
311.409	98
311.639	97
311.868	96
312.098	91
312.328	99
312.557	101
312.787	103
313.017	98
313.246	94
313.476	88
313.706	93
313.935	102
314.165	103
314.394	92
314.624	95
314.853	92
315.083	111
315.312	84
315.542	100
315.771	84
316.001	93
316.23	93
316.46	88
316.689	90
316.919	93
317.148	93
317.377	85
317.607	90
317.836	103
318.065	84
318.295	78
318.524	79
318.753	90
318.983	81
319.212	88
319.441	97
319.67	101
319.9	97
320.129	89
320.358	92
320.587	95
320.816	101
321.046	103
321.275	99
321.504	100
321.733	79
321.962	86
322.191	93
322.42	97
322.649	92
322.878	104
323.108	107
323.337	129
323.566	124
323.795	138
324.024	174
324.253	317
324.482	640
324.71	1322
324.939	1757
325.168	641
325.397	196
325.626	133
325.855	122
326.084	121
326.313	115
326.542	132
326.77	181
326.999	393
327.228	765
327.457	1394
327.686	1110
327.914	296
328.143	190
328.372	164
328.6	128
328.829	114
329.058	100
329.287	116
329.515	99
329.744	121
329.972	126
330.201	176
330.43	233
330.658	152
330.887	117
331.115	105
331.344	89
331.572	98
331.801	95
332.03	86
332.258	98
332.486	84
332.715	77
332.943	83
333.172	83
333.4	91
333.629	85
333.857	105
334.085	141
334.314	180
334.542	267
334.771	255
334.999	136
335.227	89
335.455	89
335.684	89
335.912	89
336.14	99
336.369	91
336.597	89
336.825	92
337.053	90
337.281	85
337.51	87
337.738	101
337.966	93
338.194	89
338.422	95
338.65	106
338.878	97
339.106	93
339.334	83
339.562	96
339.79	89
340.018	82
340.246	84
340.474	83
340.702	79
340.93	80
341.158	90
341.386	98
341.614	89
341.842	82
342.07	87
342.298	89
342.526	97
342.754	84
342.981	96
343.209	92
343.437	99
343.665	93
343.893	86
344.12	97
344.348	92
344.576	77
344.804	82
345.031	76
345.259	94
345.487	94
345.714	96
345.942	93
346.17	87
346.397	98
346.625	115
346.853	82
347.08	85
347.308	99
347.535	107
347.763	99
347.99	76
348.218	98
348.445	85
348.673	94
348.9	100
349.128	103
349.355	104
349.583	80
349.81	101
350.037	91
350.265	93
350.492	96
350.72	92
350.947	86
351.174	91
351.402	94
351.629	99
351.856	81
352.083	104
352.311	84
352.538	92
352.765	105
352.992	104
353.22	114
353.447	99
353.674	81
353.901	96
354.128	102
354.355	95
354.583	101
354.81	88
355.037	92
355.264	92
355.491	105
355.718	85
355.945	107
356.172	92
356.399	101
356.626	89
356.853	88
357.08	100
357.307	85
357.534	82
357.761	92
357.988	88
358.215	103
358.441	84
358.668	98
358.895	85
359.122	85
359.349	80
359.576	95
359.802	89
360.029	96
360.256	114
360.483	81
360.709	92
360.936	85
361.163	95
361.39	93
361.616	90
361.843	80
362.07	88
362.296	88
362.523	90
362.749	82
362.976	83
363.203	82
363.429	88
363.656	92
363.882	76
364.109	91
364.335	89
364.562	89
364.788	84
365.015	99
365.241	99
365.468	81
365.694	92
365.92	88
366.147	80
366.373	88
366.599	88
366.826	94
367.052	88
367.278	90
367.505	90
367.731	81
367.957	76
368.184	80
368.41	92
368.636	95
368.862	89
369.089	86
369.315	90
369.541	96
369.767	77
369.993	83
370.219	77
370.445	100
370.672	85
370.898	96
371.124	105
371.35	78
371.576	80
371.802	84
372.028	88
372.254	91
372.48	89
372.706	74
372.932	84
373.158	101
373.384	90
373.61	88
373.835	69
374.061	92
374.287	80
374.513	80
374.739	92
374.965	91
375.191	86
375.416	85
375.642	84
375.868	81
376.094	87
376.319	103
376.545	91
376.771	73
376.997	77
377.222	84
377.448	100
377.674	102
377.899	99
378.125	98
378.35	89
378.576	87
378.802	77
379.027	98
379.253	86
379.478	100
379.704	98
379.929	89
380.155	80
380.38	124
380.606	97
380.831	105
381.057	95
381.282	93
381.507	108
381.733	103
381.958	110
382.184	112
382.409	94
382.634	94
382.86	109
383.085	117
383.31	105
383.535	109
383.761	111
383.986	102
384.211	108
384.436	108
384.662	104
384.887	108
385.112	119
385.337	123
385.562	113
385.787	123
386.013	133
386.238	158
386.463	131
386.688	124
386.913	118
387.138	133
387.363	110
387.588	105
387.813	109
388.038	116
388.263	147
388.488	129
388.713	97
388.938	80
389.163	98
389.387	104
389.612	89
389.837	87
390.062	100
390.287	85
390.512	76
390.736	73
390.961	76
391.186	92
391.411	87
391.636	95
391.86	90
392.085	68
392.31	92
392.534	90
392.759	87
392.984	91
393.208	107
393.433	145
393.658	127
393.882	96
394.107	84
394.331	84
394.556	96
394.78	82
395.005	75
395.229	95
395.454	97
395.678	77
395.903	84
396.127	82
396.352	82
396.576	100
396.801	107
397.025	130
397.249	101
397.474	90
397.698	96
397.922	69
398.147	81
398.371	87
398.595	68
398.82	81
399.044	90
399.268	72
399.492	79
399.717	91
399.941	94
400.165	102
400.389	87
400.613	86
400.837	87
401.062	84
401.286	84
401.51	76
401.734	74
401.958	84
402.182	89
402.406	125
402.63	101
402.854	90
403.078	88
403.302	72
403.526	96
403.75	83
403.974	80
404.198	91
404.422	81
404.645	69
404.869	80
405.093	85
405.317	91
405.541	92
405.765	91
405.988	95
406.212	144
406.436	165
406.66	116
406.883	86
407.107	95
407.331	85
407.555	102
407.778	78
408.002	103
408.226	94
408.449	86
408.673	86
408.896	88
409.12	74
409.344	94
409.567	81
409.791	85
410.014	99
410.238	84
410.461	102
410.685	86
410.908	89
411.132	87
411.355	92
411.578	89
411.802	87
412.025	94
412.249	90
412.472	91
412.695	91
412.919	94
413.142	96
413.365	86
413.589	74
413.812	102
414.035	74
414.258	99
414.482	82
414.705	88
414.928	98
415.151	86
415.374	87
415.597	79
415.821	76
416.044	77
416.267	100
416.49	87
416.713	85
416.936	82
417.159	80
417.382	81
417.605	89
417.828	96
418.051	94
418.274	78
418.497	92
418.72	98
418.943	83
419.166	93
419.389	78
419.611	91
419.834	97
420.057	104
420.28	94
420.503	66
420.726	99
420.948	93
421.171	98
421.394	80
421.617	89
421.839	96
422.062	86
422.285	88
422.507	102
422.73	115
422.953	100
423.175	88
423.398	81
423.621	80
423.843	82
424.066	75
424.288	79
424.511	84
424.733	87
424.956	88
425.178	87
425.401	104
425.623	101
425.846	74
426.068	69
426.291	82
426.513	81
426.735	93
426.958	98
427.18	96
427.402	103
427.625	136
427.847	128
428.069	109
428.292	84
428.514	90
428.736	78
428.958	78
429.181	73
429.403	75
429.625	82
429.847	99
430.069	99
430.292	98
430.514	95
430.736	87
430.958	85
431.18	84
431.402	91
431.624	73
431.846	96
432.068	76
432.29	72
432.512	91
432.734	82
432.956	82
433.178	93
433.4	80
433.622	77
433.844	84
434.066	76
434.287	91
434.509	90
434.731	73
434.953	87
435.175	96
435.397	91
435.618	87
435.84	90
436.062	103
436.284	102
436.505	110
436.727	93
436.949	65
437.17	81
437.392	83
437.614	89
437.835	105
438.057	101
438.278	81
438.5	82
438.721	110
438.943	89
439.165	80
439.386	85
439.608	83
439.829	85
440.05	105
440.272	123
440.493	89
440.715	72
440.936	83
441.158	83
441.379	81
441.6	87
441.822	83
442.043	89
442.264	85
442.486	77
442.707	79
442.928	96
443.149	110
443.371	133
443.592	102
443.813	101
444.034	96
444.255	85
444.476	80
444.698	82
444.919	79
445.14	130
445.361	114
445.582	97
445.803	115
446.024	111
446.245	114
446.466	113
446.687	89
446.908	89
447.129	68
447.35	90
447.571	94
447.792	76
448.013	96
448.234	86
448.455	84
448.675	100
448.896	107
449.117	96
449.338	110
449.559	111
449.779	110
450	90
450.221	89
450.442	92
450.662	88
450.883	101
451.104	108
451.324	90
451.545	97
451.766	70
451.986	95
452.207	82
452.428	88
452.648	100
452.869	104
453.089	96
453.31	94
453.53	86
453.751	80
453.971	88
454.192	100
454.412	69
454.633	79
454.853	88
455.073	89
455.294	91
455.514	98
455.734	90
455.955	80
456.175	81
456.395	79
456.616	73
456.836	77
457.056	73
457.276	79
457.497	80
457.717	84
457.937	83
458.157	74
458.377	82
458.598	81
458.818	105
459.038	116
459.258	105
459.478	89
459.698	73
459.918	93
460.138	68
460.358	82
460.578	80
460.798	79
461.018	76
461.238	91
461.458	90
461.678	83
461.898	90
462.118	87
462.338	74
462.558	84
462.777	93
462.997	80
463.217	99
463.437	88
463.657	86
463.876	88
464.096	92
464.316	80
464.536	83
464.755	77
464.975	87
465.195	141
465.414	124
465.634	100
465.854	91
466.073	86
466.293	78
466.512	84
466.732	76
466.951	84
467.171	92
467.391	77
467.61	98
467.829	94
468.049	130
468.268	158
468.488	99
468.707	83
468.927	81
469.146	76
469.365	83
469.585	70
469.804	93
470.023	89
470.243	84
470.462	75
470.681	87
470.901	88
471.12	80
471.339	82
471.558	83
471.777	84
471.997	99
472.216	210
472.435	380
472.654	142
472.873	83
473.092	101
473.311	97
473.53	93
473.749	82
473.968	89
474.187	104
474.406	81
474.625	96
474.844	88
475.063	70
475.282	92
475.501	86
475.72	72
475.939	75
476.158	92
476.377	82
476.596	85
476.814	87
477.033	93
477.252	90
477.471	91
477.69	97
477.908	85
478.127	88
478.346	82
478.564	83
478.783	96
479.002	82
479.22	86
479.439	95
479.658	99
479.876	94
480.095	81
480.313	99
480.532	105
480.751	111
480.969	206
481.188	611
481.406	404
481.624	116
481.843	95
482.061	94
482.28	88
482.498	74
482.717	90
482.935	84
483.153	78
483.372	98
483.59	94
483.808	106
484.027	94
484.245	106
484.463	77
484.681	93
484.9	91
485.118	90
485.336	88
485.554	85
485.772	101
485.99	93
486.209	106
486.427	104
486.645	113
486.863	98
487.081	92
487.299	88
487.517	87
487.735	87
487.953	74
488.171	67
488.389	103
488.607	86
488.825	80
489.043	62
489.261	93
489.479	88
489.696	98
489.914	85
490.132	92
490.35	96
490.568	87
490.786	89
491.003	91
491.221	93
491.439	92
491.657	85
491.874	92
492.092	92
492.31	106
492.527	71
492.745	95
492.963	88
493.18	85
493.398	93
493.615	102
493.833	86
494.05	83
494.268	88
494.485	99
494.703	91
494.92	85
495.138	82
495.355	101
495.573	97
495.79	90
496.008	90
496.225	86
496.442	81
496.66	91
496.877	88
497.094	89
497.312	85
497.529	89
497.746	97
497.963	78
498.181	87
498.398	90
498.615	105
498.832	83
499.049	76
499.267	86
499.484	89
499.701	88
499.918	84
500.135	99
500.352	97
500.569	86
500.786	85
501.003	88
501.22	91
501.437	95
501.654	101
501.871	107
502.088	83
502.305	99
502.522	92
502.739	85
502.956	86
503.172	75
503.389	82
503.606	101
503.823	101
504.04	107
504.256	86
504.473	91
504.69	86
504.907	88
505.123	84
505.34	77
505.557	86
505.773	83
505.99	89
506.207	86
506.423	84
506.64	99
506.856	93
507.073	98
507.289	99
507.506	92
507.722	107
507.939	92
508.155	78
508.372	84
508.588	93
508.805	81
509.021	95
509.238	96
509.454	93
509.67	83
509.887	88
510.103	130
510.319	170
510.536	553
510.752	1689
510.968	502
511.184	138
511.401	90
511.617	100
511.833	90
512.049	90
512.265	82
512.481	87
512.698	74
512.914	84
513.13	92
513.346	95
513.562	84
513.778	90
513.994	88
514.21	97
514.426	104
514.642	104
514.858	114
515.074	126
515.29	310
515.506	990
515.721	397
515.937	118
516.153	100
516.369	100
516.585	85
516.801	95
517.016	98
517.232	90
517.448	93
517.664	95
517.879	78
518.095	92
518.311	106
518.527	80
518.742	83
518.958	80
519.173	90
519.389	90
519.605	91
519.82	99
520.036	98
520.251	107
520.467	108
520.682	97
520.898	95
521.113	103
521.329	108
521.544	153
521.76	392
521.975	1568
522.19	970
522.406	230
522.621	97
522.836	88
523.052	94
523.267	100
523.482	87
523.698	98
523.913	112
524.128	89
524.343	88
524.559	93
524.774	83
524.989	100
525.204	100
525.419	90
525.634	89
525.849	89
526.064	77
526.28	89
526.495	73
526.71	73
526.925	92
527.14	67
527.355	91
527.57	81
527.785	77
527.999	91
528.214	105
528.429	79
528.644	79
528.859	78
529.074	100
529.289	112
529.503	136
529.718	98
529.933	90
530.148	96
530.363	96
530.577	85
530.792	90
531.007	86
531.221	91
531.436	87
531.651	90
531.865	92
532.08	85
532.295	82
532.509	85
532.724	93
532.938	86
533.153	92
533.367	85
533.582	104
533.796	92
534.011	82
534.225	80
534.44	98
534.654	95
534.868	86
535.083	92
535.297	90
535.511	95
535.726	94
535.94	91
536.154	79
536.369	80
536.583	105
536.797	103
537.011	86
537.225	94
537.44	85
537.654	95
537.868	89
538.082	82
538.296	74
538.51	82
538.724	77
538.938	81
539.153	88
539.367	90
539.581	88
539.795	83
540.009	86
540.222	85
540.436	90
540.65	89
540.864	84
541.078	92
541.292	76
541.506	83
541.72	86
541.934	88
542.147	92
542.361	86
542.575	82
542.789	77
543.002	80
543.216	94
543.43	72
543.644	82
543.857	69
544.071	74
544.285	94
544.498	90
544.712	90
544.925	104
545.139	93
545.352	90
545.566	90
545.779	97
545.993	95
546.206	89
546.42	98
546.633	84
546.847	84
547.06	87
547.274	84
547.487	76
547.7	82
547.914	95
548.127	76
548.34	85
548.554	92
548.767	96
548.98	82
549.193	82
549.407	94
549.62	78
549.833	92
550.046	94
550.259	114
550.473	94
550.686	78
550.899	88
551.112	88
551.325	85
551.538	80
551.751	76
551.964	86
552.177	95
552.39	80
552.603	94
552.816	96
553.029	88
553.242	89
553.455	80
553.667	91
553.88	94
554.093	90
554.306	89
554.519	96
554.732	92
554.944	91
555.157	80
555.37	85
555.583	104
555.795	84
556.008	93
556.221	90
556.433	82
556.646	90
556.859	84
557.071	70
557.284	89
557.496	88
557.709	72
557.921	92
558.134	84
558.346	79
558.559	77
558.771	81
558.984	93
559.196	92
559.409	95
559.621	85
559.833	82
560.046	79
560.258	90
560.47	100
560.683	92
560.895	86
561.107	83
561.32	109
561.532	93
561.744	86
561.956	98
562.168	85
562.381	79
562.593	88
562.805	99
563.017	82
563.229	92
563.441	75
563.653	77
563.865	94
564.077	100
564.289	91
564.501	84
564.713	97
564.925	101
565.137	93
565.349	83
565.561	88
565.773	95
565.985	96
566.197	84
566.408	75
566.62	82
566.832	84
567.044	75
567.255	82
567.467	100
567.679	91
567.891	92
568.102	84
568.314	86
568.526	84
568.737	95
568.949	100
569.161	84
569.372	83
569.584	92
569.795	90
570.007	104
570.218	189
570.43	108
570.641	92
570.853	85
571.064	92
571.276	74
571.487	96
571.698	86
571.91	89
572.121	97
572.333	81
572.544	86
572.755	86
572.966	94
573.178	93
573.389	88
573.6	85
573.811	88
574.023	85
574.234	93
574.445	90
574.656	96
574.867	88
575.078	87
575.289	100
575.501	95
575.712	78
575.923	93
576.134	82
576.345	86
576.556	82
576.767	90
576.978	104
577.188	89
577.399	90
577.61	93
577.821	100
578.032	106
578.243	203
578.454	529
578.665	172
578.875	80
579.086	81
579.297	74
579.508	90
579.718	82
579.929	77
580.14	90
580.35	82
580.561	90
580.772	84
580.982	84
581.193	90
581.403	81
581.614	77
581.825	77
582.035	86
582.246	89
582.456	93
582.667	89
582.877	85
583.087	84
583.298	81
583.508	84
583.719	74
583.929	85
584.139	69
584.35	78
584.56	86
584.77	100
584.981	76
585.191	83
585.401	72
585.611	81
585.821	96
586.032	92
