Data from Circ_1991_H10_HRD10591_00070.txt Node
Date: Wed Jan 03 11:51:55 EST 2024
User: Yrep
Spectrometer: HR+D1059
Trigger mode: 1
Integration Time (sec): 1.000000E-1
Scans to average: 1
Electric dark correction enabled: true
Nonlinearity correction enabled: false
Boxcar width: 0
XAxis mode: Wavelengths
Number of Pixels in Spectrum: 2048
>>>>>Begin Spectral Data<<<<<
223.165	-21.31
223.4	-21.31
223.635	-21.31
223.869	-18.31
224.104	-36.31
224.338	-5.31
224.573	-21.31
224.808	-5.31
225.042	-5.31
225.277	-6.31
225.511	-13.31
225.746	5.69
225.98	12.69
226.215	20.69
226.449	16.69
226.683	20.69
226.918	22.69
227.152	33.69
227.387	40.69
227.621	33.69
227.856	38.69
228.09	40.69
228.324	47.69
228.559	59.69
228.793	67.69
229.027	64.69
229.262	58.69
229.496	79.69
229.73	96.69
229.964	86.69
230.199	77.69
230.433	93.69
230.667	88.69
230.901	73.69
231.136	93.69
231.37	74.69
231.604	81.69
231.838	73.69
232.072	92.69
232.306	81.69
232.541	59.69
232.775	71.69
233.009	76.69
233.243	82.69
233.477	78.69
233.711	85.69
233.945	76.69
234.179	84.69
234.413	91.69
234.647	63.69
234.881	80.69
235.115	67.69
235.349	75.69
235.583	73.69
235.817	62.69
236.051	77.69
236.285	79.69
236.519	84.69
236.753	66.69
236.987	85.69
237.221	93.69
237.455	82.69
237.689	67.69
237.922	83.69
238.156	82.69
238.39	74.69
238.624	89.69
238.858	73.69
239.091	72.69
239.325	62.69
239.559	71.69
239.793	82.69
240.027	75.69
240.26	75.69
240.494	74.69
240.728	94.69
240.961	82.69
241.195	80.69
241.429	62.69
241.662	70.69
241.896	75.69
242.13	80.69
242.363	62.69
242.597	62.69
242.83	68.69
243.064	76.69
243.298	70.69
243.531	82.69
243.765	82.69
243.998	77.69
244.232	80.69
244.465	85.69
244.699	67.69
244.932	85.69
245.166	82.69
245.399	78.69
245.633	97.69
245.866	84.69
246.099	76.69
246.333	75.69
246.566	66.69
246.8	83.69
247.033	83.69
247.266	66.69
247.5	86.69
247.733	80.69
247.966	88.69
248.2	82.69
248.433	76.69
248.666	79.69
248.899	74.69
249.133	85.69
249.366	82.69
249.599	96.69
249.832	75.69
250.066	87.69
250.299	81.69
250.532	56.69
250.765	77.69
250.998	91.69
251.231	84.69
251.465	87.69
251.698	90.69
251.931	92.69
252.164	93.69
252.397	89.69
252.63	78.69
252.863	86.69
253.096	78.69
253.329	76.69
253.562	85.69
253.795	79.69
254.028	83.69
254.261	70.69
254.494	83.69
254.727	70.69
254.96	92.69
255.193	85.69
255.426	75.69
255.659	85.69
255.892	89.69
256.124	93.69
256.357	68.69
256.59	86.69
256.823	77.69
257.056	88.69
257.289	86.69
257.521	83.69
257.754	92.69
257.987	90.69
258.22	89.69
258.452	82.69
258.685	87.69
258.918	86.69
259.151	89.69
259.383	77.69
259.616	70.69
259.849	83.69
260.081	82.69
260.314	73.69
260.547	89.69
260.779	65.69
261.012	94.69
261.244	86.69
261.477	93.69
261.71	89.69
261.942	116.69
262.175	134.69
262.407	99.69
262.64	81.69
262.872	90.69
263.105	70.69
263.337	89.69
263.57	86.69
263.802	80.69
264.035	63.69
264.267	77.69
264.499	79.69
264.732	94.69
264.964	90.69
265.197	71.69
265.429	81.69
265.661	79.69
265.894	96.69
266.126	93.69
266.358	76.69
266.591	89.69
266.823	93.69
267.055	100.69
267.287	83.69
267.52	87.69
267.752	83.69
267.984	85.69
268.216	79.69
268.448	90.69
268.681	87.69
268.913	83.69
269.145	88.69
269.377	89.69
269.609	77.69
269.841	87.69
270.073	99.69
270.306	89.69
270.538	81.69
270.77	74.69
271.002	69.69
271.234	94.69
271.466	91.69
271.698	91.69
271.93	84.69
272.162	87.69
272.394	86.69
272.626	88.69
272.858	73.69
273.09	90.69
273.322	93.69
273.553	82.69
273.785	75.69
274.017	79.69
274.249	85.69
274.481	71.69
274.713	81.69
274.945	82.69
275.176	80.69
275.408	78.69
275.64	81.69
275.872	101.69
276.104	93.69
276.335	78.69
276.567	101.69
276.799	124.69
277.031	107.69
277.262	128.69
277.494	109.69
277.726	93.69
277.957	87.69
278.189	88.69
278.421	83.69
278.652	73.69
278.884	86.69
279.115	92.69
279.347	70.69
279.579	91.69
279.81	103.69
280.042	118.69
280.273	125.69
280.505	113.69
280.736	83.69
280.968	96.69
281.199	84.69
281.431	78.69
281.662	73.69
281.894	92.69
282.125	88.69
282.356	124.69
282.588	159.69
282.819	129.69
283.051	96.69
283.282	88.69
283.513	84.69
283.745	77.69
283.976	84.69
284.207	79.69
284.439	84.69
284.67	93.69
284.901	77.69
285.132	77.69
285.364	95.69
285.595	93.69
285.826	83.69
286.057	89.69
286.288	84.69
286.52	83.69
286.751	65.69
286.982	86.69
287.213	77.69
287.444	108.69
287.675	85.69
287.906	85.69
288.138	84.69
288.369	86.69
288.6	78.69
288.831	93.69
289.062	94.69
289.293	85.69
289.524	87.69
289.755	96.69
289.986	89.69
290.217	92.69
290.448	82.69
290.679	76.69
290.91	86.69
291.141	98.69
291.371	83.69
291.602	89.69
291.833	82.69
292.064	70.69
292.295	79.69
292.526	90.69
292.757	82.69
292.987	97.69
293.218	94.69
293.449	88.69
293.68	93.69
293.91	82.69
294.141	88.69
294.372	94.69
294.603	95.69
294.833	79.69
295.064	92.69
295.295	82.69
295.525	86.69
295.756	84.69
295.987	104.69
296.217	145.69
296.448	118.69
296.679	94.69
296.909	98.69
297.14	91.69
297.37	92.69
297.601	107.69
297.831	73.69
298.062	90.69
298.292	97.69
298.523	83.69
298.753	81.69
298.984	79.69
299.214	92.69
299.445	103.69
299.675	77.69
299.905	100.69
300.136	105.69
300.366	81.69
300.597	92.69
300.827	86.69
301.057	92.69
301.288	108.69
301.518	101.69
301.748	78.69
301.979	93.69
302.209	95.69
302.439	94.69
302.669	81.69
302.9	83.69
303.13	98.69
303.36	91.69
303.59	103.69
303.82	120.69
304.051	108.69
304.281	88.69
304.511	98.69
304.741	90.69
304.971	82.69
305.201	90.69
305.431	90.69
305.661	107.69
305.891	88.69
306.121	97.69
306.352	118.69
306.582	97.69
306.812	89.69
307.042	103.69
307.272	107.69
307.502	126.69
307.731	130.69
307.961	107.69
308.191	92.69
308.421	104.69
308.651	97.69
308.881	94.69
309.111	93.69
309.341	93.69
309.571	113.69
309.8	96.69
310.03	105.69
310.26	100.69
310.49	96.69
310.72	118.69
310.949	109.69
311.179	97.69
311.409	86.69
311.639	103.69
311.868	99.69
312.098	108.69
312.328	92.69
312.557	93.69
312.787	96.69
313.017	106.69
313.246	83.69
313.476	77.69
313.706	97.69
313.935	100.69
314.165	104.69
314.394	93.69
314.624	99.69
314.853	93.69
315.083	86.69
315.312	88.69
315.542	97.69
315.771	93.69
316.001	102.69
316.23	85.69
316.46	87.69
316.689	91.69
316.919	87.69
317.148	88.69
317.377	98.69
317.607	101.69
317.836	104.69
318.065	93.69
318.295	91.69
318.524	88.69
318.753	92.69
318.983	94.69
319.212	91.69
319.441	106.69
319.67	105.69
319.9	98.69
320.129	89.69
320.358	98.69
320.587	103.69
320.816	91.69
321.046	95.69
321.275	93.69
321.504	99.69
321.733	99.69
321.962	91.69
322.191	92.69
322.42	107.69
322.649	111.69
322.878	101.69
323.108	122.69
323.337	125.69
323.566	143.69
323.795	167.69
324.024	234.69
324.253	444.69
324.482	977.69
324.71	2082.69
324.939	2859.69
325.168	1012.69
325.397	297.69
325.626	155.69
325.855	130.69
326.084	133.69
326.313	130.69
326.542	168.69
326.77	244.69
326.999	502.69
327.228	1129.69
327.457	2144.69
327.686	1747.69
327.914	498.69
328.143	323.69
328.372	324.69
328.6	207.69
328.829	132.69
329.058	154.69
329.287	142.69
329.515	124.69
329.744	159.69
329.972	256.69
330.201	457.69
330.43	593.69
330.658	292.69
330.887	190.69
331.115	144.69
331.344	110.69
331.572	105.69
331.801	107.69
332.03	104.69
332.258	79.69
332.486	89.69
332.715	93.69
332.943	93.69
333.172	99.69
333.4	94.69
333.629	124.69
333.857	136.69
334.085	250.69
334.314	415.69
334.542	765.69
334.771	733.69
334.999	238.69
335.227	126.69
335.455	109.69
335.684	108.69
335.912	107.69
336.14	107.69
336.369	107.69
336.597	94.69
336.825	86.69
337.053	87.69
337.281	83.69
337.51	89.69
337.738	98.69
337.966	93.69
338.194	105.69
338.422	99.69
338.65	100.69
338.878	85.69
339.106	86.69
339.334	93.69
339.562	87.69
339.79	79.69
340.018	85.69
340.246	97.69
340.474	96.69
340.702	77.69
340.93	82.69
341.158	94.69
341.386	91.69
341.614	77.69
341.842	98.69
342.07	89.69
342.298	98.69
342.526	101.69
342.754	83.69
342.981	86.69
343.209	92.69
343.437	103.69
343.665	89.69
343.893	103.69
344.12	111.69
344.348	99.69
344.576	96.69
344.804	103.69
345.031	103.69
345.259	106.69
345.487	98.69
345.714	101.69
345.942	94.69
346.17	81.69
346.397	87.69
346.625	106.69
346.853	94.69
347.08	97.69
347.308	97.69
347.535	108.69
347.763	107.69
347.99	103.69
348.218	102.69
348.445	101.69
348.673	95.69
348.9	99.69
349.128	96.69
349.355	85.69
349.583	89.69
349.81	91.69
350.037	109.69
350.265	85.69
350.492	104.69
350.72	97.69
350.947	98.69
351.174	99.69
351.402	108.69
351.629	103.69
351.856	99.69
352.083	114.69
352.311	108.69
352.538	113.69
352.765	109.69
352.992	107.69
353.22	110.69
353.447	106.69
353.674	93.69
353.901	97.69
354.128	102.69
354.355	92.69
354.583	99.69
354.81	77.69
355.037	101.69
355.264	78.69
355.491	96.69
355.718	95.69
355.945	98.69
356.172	92.69
356.399	101.69
356.626	97.69
356.853	98.69
357.08	98.69
357.307	82.69
357.534	84.69
357.761	89.69
357.988	105.69
358.215	94.69
358.441	94.69
358.668	103.69
358.895	68.69
359.122	81.69
359.349	97.69
359.576	103.69
359.802	107.69
360.029	125.69
360.256	116.69
360.483	100.69
360.709	100.69
360.936	85.69
361.163	90.69
361.39	88.69
361.616	99.69
361.843	87.69
362.07	111.69
362.296	98.69
362.523	89.69
362.749	107.69
362.976	93.69
363.203	94.69
363.429	82.69
363.656	93.69
363.882	89.69
364.109	86.69
364.335	81.69
364.562	87.69
364.788	94.69
365.015	93.69
365.241	106.69
365.468	107.69
365.694	108.69
365.92	106.69
366.147	98.69
366.373	89.69
366.599	107.69
366.826	81.69
367.052	84.69
367.278	101.69
367.505	87.69
367.731	103.69
367.957	85.69
368.184	93.69
368.41	104.69
368.636	103.69
368.862	123.69
369.089	117.69
369.315	97.69
369.541	90.69
369.767	89.69
369.993	83.69
370.219	83.69
370.445	89.69
370.672	93.69
370.898	77.69
371.124	68.69
371.35	85.69
371.576	91.69
371.802	91.69
372.028	97.69
372.254	77.69
372.48	91.69
372.706	87.69
372.932	88.69
373.158	98.69
373.384	86.69
373.61	86.69
373.835	95.69
374.061	94.69
374.287	102.69
374.513	89.69
374.739	84.69
374.965	99.69
375.191	103.69
375.416	86.69
375.642	83.69
375.868	91.69
376.094	92.69
376.319	94.69
376.545	91.69
376.771	83.69
376.997	98.69
377.222	86.69
377.448	97.69
377.674	76.69
377.899	85.69
378.125	86.69
378.35	79.69
378.576	90.69
378.802	83.69
379.027	83.69
379.253	88.69
379.478	81.69
379.704	86.69
379.929	99.69
380.155	93.69
380.38	80.69
380.606	90.69
380.831	80.69
381.057	96.69
381.282	86.69
381.507	100.69
381.733	98.69
381.958	111.69
382.184	96.69
382.409	101.69
382.634	97.69
382.86	95.69
383.085	101.69
383.31	102.69
383.535	96.69
383.761	91.69
383.986	104.69
384.211	91.69
384.436	98.69
384.662	108.69
384.887	92.69
385.112	107.69
385.337	97.69
385.562	89.69
385.787	118.69
386.013	112.69
386.238	119.69
386.463	98.69
386.688	118.69
386.913	109.69
387.138	107.69
387.363	85.69
387.588	105.69
387.813	99.69
388.038	95.69
388.263	106.69
388.488	115.69
388.713	113.69
388.938	94.69
389.163	98.69
389.387	84.69
389.612	85.69
389.837	94.69
390.062	92.69
390.287	94.69
390.512	90.69
390.736	106.69
390.961	90.69
391.186	93.69
391.411	95.69
391.636	104.69
391.86	103.69
392.085	87.69
392.31	82.69
392.534	77.69
392.759	93.69
392.984	95.69
393.208	96.69
393.433	114.69
393.658	104.69
393.882	83.69
394.107	87.69
394.331	87.69
394.556	74.69
394.78	81.69
395.005	80.69
395.229	89.69
395.454	75.69
395.678	94.69
395.903	67.69
396.127	101.69
396.352	101.69
396.576	89.69
396.801	90.69
397.025	108.69
397.249	87.69
397.474	81.69
397.698	87.69
397.922	101.69
398.147	91.69
398.371	79.69
398.595	86.69
398.82	85.69
399.044	68.69
399.268	98.69
399.492	91.69
399.717	96.69
399.941	87.69
400.165	92.69
400.389	97.69
400.613	95.69
400.837	89.69
401.062	89.69
401.286	92.69
401.51	98.69
401.734	95.69
401.958	102.69
402.182	112.69
402.406	153.69
402.63	124.69
402.854	98.69
403.078	89.69
403.302	81.69
403.526	98.69
403.75	89.69
403.974	85.69
404.198	85.69
404.422	80.69
404.645	91.69
404.869	100.69
405.093	117.69
405.317	124.69
405.541	111.69
405.765	113.69
405.988	108.69
406.212	188.69
406.436	240.69
406.66	154.69
406.883	113.69
407.107	97.69
407.331	93.69
407.555	93.69
407.778	109.69
408.002	85.69
408.226	87.69
408.449	97.69
408.673	86.69
408.896	98.69
409.12	89.69
409.344	78.69
409.567	83.69
409.791	96.69
410.014	97.69
410.238	97.69
410.461	93.69
410.685	91.69
410.908	93.69
411.132	106.69
411.355	86.69
411.578	100.69
411.802	100.69
412.025	80.69
412.249	82.69
412.472	91.69
412.695	111.69
412.919	91.69
413.142	102.69
413.365	83.69
413.589	89.69
413.812	96.69
414.035	101.69
414.258	84.69
414.482	99.69
414.705	86.69
414.928	91.69
415.151	90.69
415.374	87.69
415.597	82.69
415.821	74.69
416.044	84.69
416.267	97.69
416.49	90.69
416.713	78.69
416.936	92.69
417.159	92.69
417.382	100.69
417.605	89.69
417.828	96.69
418.051	93.69
418.274	93.69
418.497	93.69
418.72	93.69
418.943	96.69
419.166	93.69
419.389	84.69
419.611	95.69
419.834	92.69
420.057	107.69
420.28	98.69
420.503	91.69
420.726	90.69
420.948	93.69
421.171	102.69
421.394	107.69
421.617	93.69
421.839	74.69
422.062	77.69
422.285	73.69
422.507	99.69
422.73	97.69
422.953	88.69
423.175	89.69
423.398	102.69
423.621	90.69
423.843	81.69
424.066	86.69
424.288	84.69
424.511	95.69
424.733	113.69
424.956	103.69
425.178	100.69
425.401	119.69
425.623	113.69
425.846	96.69
426.068	93.69
426.291	96.69
426.513	84.69
426.735	86.69
426.958	103.69
427.18	113.69
427.402	167.69
427.625	208.69
427.847	182.69
428.069	179.69
428.292	103.69
428.514	107.69
428.736	92.69
428.958	77.69
429.181	85.69
429.403	81.69
429.625	97.69
429.847	77.69
430.069	91.69
430.292	110.69
430.514	96.69
430.736	86.69
430.958	96.69
431.18	88.69
431.402	91.69
431.624	97.69
431.846	91.69
432.068	87.69
432.29	93.69
432.512	93.69
432.734	105.69
432.956	86.69
433.178	102.69
433.4	96.69
433.622	97.69
433.844	85.69
434.066	85.69
434.287	102.69
434.509	91.69
434.731	101.69
434.953	79.69
435.175	89.69
435.397	84.69
435.618	101.69
435.84	109.69
436.062	131.69
436.284	118.69
436.505	113.69
436.727	98.69
436.949	96.69
437.17	91.69
437.392	96.69
437.614	94.69
437.835	99.69
438.057	110.69
438.278	108.69
438.5	111.69
438.721	133.69
438.943	102.69
439.165	86.69
439.386	93.69
439.608	97.69
439.829	106.69
440.05	138.69
440.272	163.69
440.493	115.69
440.715	92.69
440.936	86.69
441.158	84.69
441.379	94.69
441.6	95.69
441.822	93.69
442.043	100.69
442.264	105.69
442.486	109.69
442.707	91.69
442.928	113.69
443.149	144.69
443.371	145.69
443.592	118.69
443.813	113.69
444.034	111.69
444.255	99.69
444.476	91.69
444.698	84.69
444.919	85.69
445.14	129.69
445.361	115.69
445.582	120.69
445.803	149.69
446.024	141.69
446.245	153.69
446.466	86.69
446.687	89.69
446.908	89.69
447.129	79.69
447.35	80.69
447.571	107.69
447.792	99.69
448.013	81.69
448.234	104.69
448.455	94.69
448.675	112.69
448.896	112.69
449.117	110.69
449.338	116.69
449.559	141.69
449.779	138.69
450	92.69
450.221	93.69
450.442	82.69
450.662	91.69
450.883	99.69
451.104	115.69
451.324	90.69
451.545	78.69
451.766	71.69
451.986	84.69
452.207	85.69
452.428	96.69
452.648	93.69
452.869	95.69
453.089	128.69
453.31	113.69
453.53	97.69
453.751	99.69
453.971	101.69
454.192	117.69
454.412	99.69
454.633	97.69
454.853	85.69
455.073	87.69
455.294	94.69
455.514	88.69
455.734	96.69
455.955	91.69
456.175	90.69
456.395	94.69
456.616	96.69
456.836	79.69
457.056	79.69
457.276	81.69
457.497	87.69
457.717	88.69
457.937	74.69
458.157	79.69
458.377	84.69
458.598	114.69
458.818	148.69
459.038	175.69
459.258	124.69
459.478	97.69
459.698	115.69
459.918	103.69
460.138	79.69
460.358	94.69
460.578	92.69
460.798	84.69
461.018	87.69
461.238	91.69
461.458	94.69
461.678	73.69
461.898	71.69
462.118	87.69
462.338	92.69
462.558	81.69
462.777	92.69
462.997	77.69
463.217	106.69
463.437	92.69
463.657	101.69
463.876	82.69
464.096	97.69
464.316	97.69
464.536	96.69
464.755	83.69
464.975	115.69
465.195	190.69
465.414	186.69
465.634	93.69
465.854	73.69
466.073	83.69
466.293	89.69
466.512	74.69
466.732	96.69
466.951	88.69
467.171	99.69
467.391	106.69
467.61	119.69
467.829	141.69
468.049	271.69
468.268	377.69
468.488	124.69
468.707	101.69
468.927	91.69
469.146	87.69
469.365	100.69
469.585	100.69
469.804	106.69
470.023	95.69
470.243	77.69
470.462	104.69
470.681	125.69
470.901	98.69
471.12	71.69
471.339	93.69
471.558	98.69
471.777	103.69
471.997	177.69
472.216	505.69
472.435	1092.69
472.654	289.69
472.873	115.69
473.092	91.69
473.311	89.69
473.53	95.69
473.749	95.69
473.968	99.69
474.187	106.69
474.406	108.69
474.625	93.69
474.844	102.69
475.063	86.69
475.282	98.69
475.501	89.69
475.72	102.69
475.939	91.69
476.158	91.69
476.377	83.69
476.596	97.69
476.814	93.69
477.033	96.69
477.252	98.69
477.471	94.69
477.69	98.69
477.908	91.69
478.127	100.69
478.346	94.69
478.564	80.69
478.783	102.69
479.002	91.69
479.22	97.69
479.439	105.69
479.658	105.69
479.876	114.69
480.095	97.69
480.313	113.69
480.532	109.69
480.751	166.69
480.969	497.69
481.188	1917.69
481.406	1110.69
481.624	211.69
481.843	112.69
482.061	87.69
482.28	85.69
482.498	86.69
482.717	100.69
482.935	85.69
483.153	78.69
483.372	85.69
483.59	92.69
483.808	85.69
484.027	94.69
484.245	94.69
484.463	99.69
484.681	77.69
484.9	87.69
485.118	93.69
485.336	99.69
485.554	91.69
485.772	94.69
485.99	107.69
486.209	95.69
486.427	101.69
486.645	107.69
486.863	126.69
487.081	107.69
487.299	100.69
487.517	91.69
487.735	98.69
487.953	91.69
488.171	105.69
488.389	107.69
488.607	100.69
488.825	87.69
489.043	83.69
489.261	102.69
489.479	91.69
489.696	104.69
489.914	86.69
490.132	98.69
490.35	82.69
490.568	82.69
490.786	90.69
491.003	97.69
491.221	99.69
491.439	101.69
491.657	86.69
491.874	89.69
492.092	84.69
492.31	93.69
492.527	87.69
492.745	93.69
492.963	93.69
493.18	84.69
493.398	99.69
493.615	97.69
493.833	102.69
494.05	82.69
494.268	78.69
494.485	88.69
494.703	80.69
494.92	90.69
495.138	97.69
495.355	66.69
495.573	90.69
495.79	83.69
496.008	81.69
496.225	84.69
496.442	80.69
496.66	78.69
496.877	92.69
497.094	81.69
497.312	89.69
497.529	95.69
497.746	92.69
497.963	84.69
498.181	91.69
498.398	81.69
498.615	108.69
498.832	101.69
499.049	81.69
499.267	98.69
499.484	97.69
499.701	94.69
499.918	62.69
500.135	96.69
500.352	89.69
500.569	98.69
500.786	87.69
501.003	84.69
501.22	84.69
501.437	81.69
501.654	109.69
501.871	90.69
502.088	91.69
502.305	78.69
502.522	86.69
502.739	77.69
502.956	86.69
503.172	91.69
503.389	112.69
503.606	115.69
503.823	115.69
504.04	87.69
504.256	102.69
504.473	76.69
504.69	96.69
504.907	91.69
505.123	84.69
505.34	97.69
505.557	83.69
505.773	90.69
505.99	74.69
506.207	79.69
506.423	86.69
506.64	93.69
506.856	101.69
507.073	94.69
507.289	67.69
507.506	88.69
507.722	103.69
507.939	96.69
508.155	104.69
508.372	95.69
508.588	82.69
508.805	86.69
509.021	106.69
509.238	88.69
509.454	91.69
509.67	101.69
509.887	99.69
510.103	144.69
510.319	211.69
510.536	730.69
510.752	2536.69
510.968	705.69
511.184	147.69
511.401	109.69
511.617	107.69
511.833	92.69
512.049	81.69
512.265	92.69
512.481	76.69
512.698	89.69
512.914	82.69
513.13	94.69
513.346	103.69
513.562	91.69
513.778	95.69
513.994	94.69
514.21	108.69
514.426	119.69
514.642	149.69
514.858	142.69
