Data from Circ_1991_H10_HRD10591_00056.txt Node
Date: Wed Jan 03 11:51:52 EST 2024
User: Yrep
Spectrometer: HR+D1059
Trigger mode: 1
Integration Time (sec): 1.000000E-1
Scans to average: 1
Electric dark correction enabled: true
Nonlinearity correction enabled: false
Boxcar width: 0
XAxis mode: Wavelengths
Number of Pixels in Spectrum: 2048
>>>>>Begin Spectral Data<<<<<
223.165	-24.5
223.4	-24.5
223.635	-24.5
223.869	-21.5
224.104	-25.5
224.338	-5.5
224.573	-15.5
224.808	-17.5
225.042	-2.5
225.277	-1.5
225.511	-8.5
225.746	2.5
225.98	0.5
226.215	19.5
226.449	20.5
226.683	17.5
226.918	27.5
227.152	34.5
227.387	32.5
227.621	46.5
227.856	50.5
228.09	46.5
228.324	50.5
228.559	49.5
228.793	80.5
229.027	71.5
229.262	66.5
229.496	76.5
229.73	60.5
229.964	87.5
230.199	68.5
230.433	78.5
230.667	82.5
230.901	82.5
231.136	91.5
231.37	87.5
231.604	95.5
231.838	76.5
232.072	84.5
232.306	78.5
232.541	86.5
232.775	76.5
233.009	86.5
233.243	75.5
233.477	82.5
233.711	66.5
233.945	79.5
234.179	78.5
234.413	85.5
234.647	86.5
234.881	91.5
235.115	86.5
235.349	78.5
235.583	71.5
235.817	82.5
236.051	74.5
236.285	68.5
236.519	79.5
236.753	67.5
236.987	84.5
237.221	92.5
237.455	88.5
237.689	76.5
237.922	74.5
238.156	78.5
238.39	65.5
238.624	82.5
238.858	84.5
239.091	76.5
239.325	80.5
239.559	77.5
239.793	83.5
240.027	79.5
240.26	74.5
240.494	84.5
240.728	84.5
240.961	78.5
241.195	69.5
241.429	86.5
241.662	81.5
241.896	79.5
242.13	77.5
242.363	76.5
242.597	80.5
242.83	78.5
243.064	80.5
243.298	96.5
243.531	87.5
243.765	78.5
243.998	67.5
244.232	85.5
244.465	90.5
244.699	88.5
244.932	88.5
245.166	72.5
245.399	67.5
245.633	80.5
245.866	70.5
246.099	68.5
246.333	78.5
246.566	67.5
246.8	81.5
247.033	78.5
247.266	74.5
247.5	74.5
247.733	84.5
247.966	83.5
248.2	64.5
248.433	74.5
248.666	75.5
248.899	71.5
249.133	92.5
249.366	97.5
249.599	92.5
249.832	85.5
250.066	87.5
250.299	87.5
250.532	94.5
250.765	76.5
250.998	72.5
251.231	72.5
251.465	79.5
251.698	72.5
251.931	80.5
252.164	80.5
252.397	77.5
252.63	74.5
252.863	93.5
253.096	77.5
253.329	93.5
253.562	94.5
253.795	75.5
254.028	59.5
254.261	84.5
254.494	75.5
254.727	83.5
254.96	79.5
255.193	76.5
255.426	65.5
255.659	88.5
255.892	93.5
256.124	78.5
256.357	86.5
256.59	70.5
256.823	70.5
257.056	90.5
257.289	90.5
257.521	82.5
257.754	75.5
257.987	80.5
258.22	88.5
258.452	79.5
258.685	84.5
258.918	85.5
259.151	83.5
259.383	87.5
259.616	83.5
259.849	83.5
260.081	76.5
260.314	65.5
260.547	82.5
260.779	95.5
261.012	108.5
261.244	91.5
261.477	84.5
261.71	94.5
261.942	121.5
262.175	110.5
262.407	87.5
262.64	82.5
262.872	82.5
263.105	88.5
263.337	88.5
263.57	81.5
263.802	83.5
264.035	77.5
264.267	83.5
264.499	86.5
264.732	90.5
264.964	85.5
265.197	81.5
265.429	77.5
265.661	103.5
265.894	88.5
266.126	89.5
266.358	95.5
266.591	76.5
266.823	80.5
267.055	73.5
267.287	99.5
267.52	92.5
267.752	91.5
267.984	82.5
268.216	76.5
268.448	87.5
268.681	77.5
268.913	82.5
269.145	66.5
269.377	78.5
269.609	81.5
269.841	89.5
270.073	82.5
270.306	82.5
270.538	72.5
270.77	82.5
271.002	83.5
271.234	78.5
271.466	101.5
271.698	88.5
271.93	80.5
272.162	79.5
272.394	90.5
272.626	88.5
272.858	88.5
273.09	96.5
273.322	95.5
273.553	112.5
273.785	79.5
274.017	87.5
274.249	76.5
274.481	85.5
274.713	76.5
274.945	74.5
275.176	70.5
275.408	102.5
275.64	110.5
275.872	109.5
276.104	91.5
276.335	87.5
276.567	109.5
276.799	110.5
277.031	109.5
277.262	115.5
277.494	102.5
277.726	94.5
277.957	88.5
278.189	81.5
278.421	91.5
278.652	90.5
278.884	83.5
279.115	95.5
279.347	97.5
279.579	75.5
279.81	95.5
280.042	116.5
280.273	131.5
280.505	103.5
280.736	72.5
280.968	88.5
281.199	87.5
281.431	82.5
281.662	75.5
281.894	81.5
282.125	84.5
282.356	101.5
282.588	117.5
282.819	104.5
283.051	105.5
283.282	87.5
283.513	105.5
283.745	82.5
283.976	90.5
284.207	79.5
284.439	80.5
284.67	87.5
284.901	87.5
285.132	71.5
285.364	97.5
285.595	94.5
285.826	86.5
286.057	98.5
286.288	79.5
286.52	83.5
286.751	87.5
286.982	94.5
287.213	84.5
287.444	96.5
287.675	86.5
287.906	79.5
288.138	95.5
288.369	96.5
288.6	95.5
288.831	99.5
289.062	86.5
289.293	83.5
289.524	95.5
289.755	92.5
289.986	86.5
290.217	89.5
290.448	85.5
290.679	94.5
290.91	86.5
291.141	88.5
291.371	90.5
291.602	99.5
291.833	88.5
292.064	92.5
292.295	101.5
292.526	89.5
292.757	87.5
292.987	92.5
293.218	86.5
293.449	98.5
293.68	80.5
293.91	86.5
294.141	98.5
294.372	88.5
294.603	96.5
294.833	84.5
295.064	86.5
295.295	84.5
295.525	99.5
295.756	90.5
295.987	93.5
296.217	115.5
296.448	111.5
296.679	96.5
296.909	82.5
297.14	80.5
297.37	86.5
297.601	92.5
297.831	96.5
298.062	98.5
298.292	101.5
298.523	93.5
298.753	98.5
298.984	86.5
299.214	93.5
299.445	91.5
299.675	96.5
299.905	99.5
300.136	90.5
300.366	93.5
300.597	82.5
300.827	94.5
301.057	99.5
301.288	103.5
301.518	91.5
301.748	78.5
301.979	87.5
302.209	83.5
302.439	80.5
302.669	91.5
302.9	71.5
303.13	82.5
303.36	94.5
303.59	109.5
303.82	100.5
304.051	100.5
304.281	102.5
304.511	86.5
304.741	96.5
304.971	90.5
305.201	85.5
305.431	86.5
305.661	109.5
305.891	88.5
306.121	90.5
306.352	98.5
306.582	93.5
306.812	106.5
307.042	78.5
307.272	93.5
307.502	113.5
307.731	109.5
307.961	103.5
308.191	96.5
308.421	97.5
308.651	99.5
308.881	88.5
309.111	81.5
309.341	84.5
309.571	80.5
309.8	99.5
310.03	80.5
310.26	81.5
310.49	100.5
310.72	90.5
310.949	108.5
311.179	101.5
311.409	93.5
311.639	92.5
311.868	88.5
312.098	75.5
312.328	87.5
312.557	99.5
312.787	117.5
313.017	94.5
313.246	92.5
313.476	82.5
313.706	80.5
313.935	84.5
314.165	93.5
314.394	90.5
314.624	95.5
314.853	106.5
315.083	96.5
315.312	81.5
315.542	93.5
315.771	90.5
316.001	106.5
316.23	95.5
316.46	101.5
316.689	104.5
316.919	82.5
317.148	99.5
317.377	90.5
317.607	91.5
317.836	79.5
318.065	92.5
318.295	103.5
318.524	78.5
318.753	87.5
318.983	93.5
319.212	90.5
319.441	111.5
319.67	103.5
319.9	95.5
320.129	90.5
320.358	100.5
320.587	91.5
320.816	87.5
321.046	112.5
321.275	85.5
321.504	84.5
321.733	91.5
321.962	102.5
322.191	96.5
322.42	107.5
322.649	95.5
322.878	102.5
323.108	102.5
323.337	104.5
323.566	121.5
323.795	148.5
324.024	182.5
324.253	352.5
324.482	738.5
324.71	1498.5
324.939	2037.5
325.168	751.5
325.397	228.5
325.626	139.5
325.855	133.5
326.084	134.5
326.313	132.5
326.542	149.5
326.77	210.5
326.999	416.5
327.228	869.5
327.457	1572.5
327.686	1277.5
327.914	368.5
328.143	244.5
328.372	231.5
328.6	176.5
328.829	116.5
329.058	144.5
329.287	118.5
329.515	116.5
329.744	115.5
329.972	181.5
330.201	298.5
330.43	398.5
330.658	224.5
330.887	149.5
331.115	120.5
331.344	117.5
331.572	92.5
331.801	98.5
332.03	102.5
332.258	93.5
332.486	99.5
332.715	94.5
332.943	112.5
333.172	112.5
333.4	107.5
333.629	111.5
333.857	135.5
334.085	203.5
334.314	324.5
334.542	530.5
334.771	491.5
334.999	186.5
335.227	97.5
335.455	102.5
335.684	96.5
335.912	105.5
336.14	98.5
336.369	98.5
336.597	103.5
336.825	92.5
337.053	91.5
337.281	83.5
337.51	98.5
337.738	102.5
337.966	83.5
338.194	93.5
338.422	77.5
338.65	102.5
338.878	95.5
339.106	84.5
339.334	99.5
339.562	84.5
339.79	101.5
340.018	82.5
340.246	97.5
340.474	89.5
340.702	92.5
340.93	95.5
341.158	88.5
341.386	108.5
341.614	103.5
341.842	111.5
342.07	94.5
342.298	93.5
342.526	90.5
342.754	95.5
342.981	105.5
343.209	88.5
343.437	86.5
343.665	69.5
343.893	93.5
344.12	101.5
344.348	91.5
344.576	76.5
344.804	94.5
345.031	93.5
345.259	96.5
345.487	98.5
345.714	86.5
345.942	95.5
346.17	99.5
346.397	89.5
346.625	95.5
346.853	96.5
347.08	100.5
347.308	100.5
347.535	103.5
347.763	94.5
347.99	97.5
348.218	100.5
348.445	115.5
348.673	108.5
348.9	98.5
349.128	94.5
349.355	92.5
349.583	92.5
349.81	83.5
350.037	109.5
350.265	98.5
350.492	113.5
350.72	111.5
350.947	114.5
351.174	100.5
351.402	102.5
351.629	100.5
351.856	95.5
352.083	104.5
352.311	97.5
352.538	108.5
352.765	104.5
352.992	107.5
353.22	111.5
353.447	104.5
353.674	90.5
353.901	100.5
354.128	92.5
354.355	101.5
354.583	93.5
354.81	101.5
355.037	110.5
355.264	100.5
355.491	83.5
355.718	95.5
355.945	104.5
356.172	98.5
356.399	96.5
356.626	93.5
356.853	86.5
357.08	98.5
357.307	85.5
357.534	94.5
357.761	88.5
357.988	102.5
358.215	104.5
358.441	95.5
358.668	92.5
358.895	91.5
359.122	100.5
359.349	87.5
359.576	91.5
359.802	104.5
360.029	104.5
360.256	95.5
360.483	98.5
360.709	88.5
360.936	83.5
361.163	84.5
361.39	89.5
361.616	96.5
361.843	84.5
362.07	90.5
362.296	103.5
362.523	99.5
362.749	97.5
362.976	92.5
363.203	90.5
363.429	102.5
363.656	100.5
363.882	90.5
364.109	99.5
364.335	77.5
364.562	101.5
364.788	89.5
365.015	95.5
365.241	96.5
365.468	116.5
365.694	105.5
365.92	102.5
366.147	96.5
366.373	86.5
366.599	84.5
366.826	80.5
367.052	74.5
367.278	98.5
367.505	93.5
367.731	87.5
367.957	86.5
368.184	90.5
368.41	103.5
368.636	109.5
368.862	102.5
369.089	104.5
369.315	102.5
369.541	90.5
369.767	91.5
369.993	99.5
370.219	97.5
370.445	98.5
370.672	92.5
370.898	79.5
371.124	75.5
371.35	87.5
371.576	88.5
371.802	94.5
372.028	84.5
372.254	91.5
372.48	99.5
372.706	85.5
372.932	72.5
373.158	88.5
373.384	93.5
373.61	82.5
373.835	90.5
374.061	97.5
374.287	104.5
374.513	97.5
374.739	72.5
374.965	88.5
375.191	76.5
375.416	93.5
375.642	108.5
375.868	91.5
376.094	84.5
376.319	85.5
376.545	72.5
376.771	82.5
376.997	97.5
377.222	79.5
377.448	89.5
377.674	83.5
377.899	86.5
378.125	93.5
378.35	99.5
378.576	94.5
378.802	93.5
379.027	91.5
379.253	91.5
379.478	104.5
379.704	82.5
379.929	74.5
380.155	83.5
380.38	96.5
380.606	92.5
380.831	88.5
381.057	83.5
381.282	87.5
381.507	87.5
381.733	87.5
381.958	84.5
382.184	91.5
382.409	96.5
382.634	104.5
382.86	101.5
383.085	100.5
383.31	92.5
383.535	107.5
383.761	105.5
383.986	100.5
384.211	95.5
384.436	101.5
384.662	92.5
384.887	98.5
385.112	111.5
385.337	106.5
385.562	100.5
385.787	107.5
386.013	101.5
386.238	98.5
386.463	113.5
386.688	110.5
386.913	116.5
387.138	111.5
387.363	96.5
387.588	87.5
387.813	108.5
388.038	92.5
388.263	99.5
388.488	108.5
388.713	97.5
388.938	95.5
389.163	92.5
389.387	90.5
389.612	80.5
389.837	95.5
390.062	91.5
390.287	87.5
390.512	94.5
390.736	93.5
390.961	79.5
391.186	93.5
391.411	80.5
391.636	88.5
391.86	92.5
392.085	88.5
392.31	77.5
392.534	86.5
392.759	91.5
392.984	86.5
393.208	98.5
393.433	98.5
393.658	107.5
393.882	87.5
394.107	80.5
394.331	89.5
394.556	85.5
394.78	103.5
395.005	86.5
395.229	81.5
395.454	84.5
395.678	95.5
395.903	82.5
396.127	93.5
396.352	90.5
396.576	97.5
396.801	107.5
397.025	100.5
397.249	85.5
397.474	84.5
397.698	78.5
397.922	84.5
398.147	88.5
398.371	87.5
398.595	101.5
398.82	91.5
399.044	85.5
399.268	92.5
399.492	87.5
399.717	91.5
399.941	103.5
400.165	88.5
400.389	81.5
400.613	76.5
400.837	83.5
401.062	93.5
401.286	82.5
401.51	94.5
401.734	97.5
401.958	113.5
402.182	122.5
402.406	133.5
402.63	115.5
402.854	92.5
403.078	78.5
403.302	69.5
403.526	98.5
403.75	94.5
403.974	86.5
404.198	77.5
404.422	69.5
404.645	95.5
404.869	95.5
405.093	89.5
405.317	117.5
405.541	109.5
405.765	94.5
405.988	103.5
406.212	156.5
406.436	186.5
406.66	139.5
406.883	84.5
407.107	97.5
407.331	96.5
407.555	93.5
407.778	98.5
408.002	86.5
408.226	102.5
408.449	100.5
408.673	85.5
408.896	98.5
409.12	84.5
409.344	90.5
409.567	100.5
409.791	84.5
410.014	103.5
410.238	90.5
410.461	101.5
410.685	96.5
410.908	91.5
411.132	86.5
411.355	103.5
411.578	92.5
411.802	94.5
412.025	81.5
412.249	100.5
412.472	99.5
412.695	99.5
412.919	89.5
413.142	82.5
413.365	80.5
413.589	90.5
413.812	87.5
414.035	86.5
414.258	97.5
414.482	74.5
414.705	85.5
414.928	84.5
415.151	88.5
415.374	69.5
415.597	91.5
415.821	96.5
416.044	88.5
416.267	83.5
416.49	79.5
416.713	82.5
416.936	83.5
417.159	80.5
417.382	88.5
417.605	93.5
417.828	90.5
418.051	92.5
418.274	101.5
418.497	83.5
418.72	103.5
418.943	88.5
419.166	67.5
419.389	82.5
419.611	90.5
419.834	94.5
420.057	94.5
420.28	70.5
420.503	91.5
420.726	94.5
420.948	75.5
421.171	96.5
421.394	82.5
421.617	82.5
421.839	103.5
422.062	95.5
422.285	94.5
422.507	106.5
422.73	107.5
422.953	92.5
423.175	88.5
423.398	94.5
423.621	106.5
423.843	86.5
424.066	78.5
424.288	82.5
424.511	82.5
424.733	103.5
424.956	95.5
425.178	102.5
425.401	93.5
425.623	107.5
425.846	91.5
426.068	95.5
426.291	103.5
426.513	89.5
426.735	94.5
426.958	83.5
427.18	118.5
427.402	139.5
427.625	152.5
427.847	135.5
428.069	151.5
428.292	104.5
428.514	86.5
428.736	86.5
428.958	79.5
429.181	82.5
429.403	86.5
429.625	78.5
429.847	89.5
430.069	96.5
430.292	108.5
430.514	95.5
430.736	76.5
430.958	91.5
431.18	90.5
431.402	97.5
431.624	90.5
431.846	80.5
432.068	86.5
432.29	84.5
432.512	90.5
432.734	83.5
432.956	92.5
433.178	98.5
433.4	98.5
433.622	81.5
433.844	83.5
434.066	85.5
434.287	90.5
434.509	82.5
434.731	84.5
434.953	96.5
435.175	82.5
435.397	78.5
435.618	85.5
435.84	98.5
436.062	116.5
436.284	98.5
436.505	105.5
436.727	88.5
436.949	95.5
437.17	83.5
437.392	86.5
437.614	83.5
437.835	103.5
438.057	117.5
438.278	101.5
438.5	83.5
438.721	115.5
438.943	97.5
439.165	80.5
439.386	84.5
439.608	79.5
439.829	103.5
440.05	123.5
440.272	122.5
440.493	106.5
440.715	89.5
440.936	82.5
441.158	88.5
441.379	93.5
441.6	90.5
441.822	92.5
442.043	104.5
442.264	107.5
442.486	101.5
442.707	90.5
442.928	111.5
443.149	114.5
443.371	127.5
443.592	112.5
443.813	107.5
444.034	116.5
444.255	94.5
444.476	92.5
444.698	79.5
444.919	85.5
445.14	118.5
445.361	117.5
445.582	96.5
445.803	119.5
446.024	131.5
446.245	122.5
446.466	105.5
446.687	96.5
446.908	82.5
447.129	84.5
447.35	99.5
447.571	89.5
447.792	86.5
448.013	99.5
448.234	106.5
448.455	98.5
448.675	107.5
448.896	103.5
449.117	97.5
449.338	112.5
449.559	124.5
449.779	121.5
450	87.5
450.221	88.5
450.442	92.5
450.662	92.5
450.883	88.5
451.104	108.5
451.324	87.5
451.545	88.5
451.766	82.5
451.986	90.5
452.207	103.5
452.428	83.5
452.648	88.5
452.869	101.5
453.089	103.5
453.31	95.5
453.53	88.5
453.751	94.5
453.971	95.5
454.192	103.5
454.412	87.5
454.633	90.5
454.853	89.5
455.073	97.5
455.294	85.5
455.514	91.5
455.734	82.5
455.955	76.5
456.175	83.5
456.395	91.5
456.616	83.5
456.836	81.5
457.056	88.5
457.276	84.5
457.497	101.5
457.717	84.5
457.937	91.5
458.157	96.5
458.377	87.5
458.598	101.5
458.818	124.5
459.038	119.5
459.258	105.5
459.478	90.5
459.698	81.5
459.918	82.5
460.138	95.5
460.358	85.5
460.578	91.5
460.798	79.5
461.018	75.5
461.238	96.5
461.458	87.5
461.678	89.5
461.898	69.5
462.118	96.5
462.338	75.5
462.558	94.5
462.777	83.5
462.997	85.5
463.217	87.5
463.437	82.5
463.657	85.5
463.876	93.5
464.096	78.5
464.316	78.5
464.536	87.5
464.755	101.5
464.975	96.5
465.195	130.5
465.414	146.5
465.634	97.5
465.854	91.5
466.073	72.5
466.293	90.5
466.512	96.5
466.732	87.5
466.951	104.5
467.171	95.5
467.391	87.5
467.61	112.5
467.829	116.5
468.049	228.5
468.268	272.5
468.488	122.5
468.707	88.5
468.927	94.5
469.146	93.5
469.365	74.5
469.585	86.5
469.804	87.5
470.023	94.5
470.243	89.5
470.462	88.5
470.681	112.5
470.901	100.5
471.12	86.5
471.339	83.5
471.558	87.5
471.777	112.5
471.997	142.5
472.216	389.5
472.435	754.5
472.654	204.5
472.873	100.5
473.092	87.5
473.311	88.5
473.53	91.5
473.749	100.5
473.968	85.5
474.187	104.5
474.406	86.5
474.625	84.5
474.844	89.5
475.063	76.5
475.282	92.5
475.501	79.5
475.72	95.5
475.939	83.5
476.158	83.5
476.377	93.5
476.596	91.5
476.814	88.5
477.033	96.5
477.252	90.5
477.471	94.5
477.69	100.5
477.908	86.5
478.127	87.5
478.346	84.5
478.564	66.5
478.783	90.5
479.002	93.5
479.22	96.5
479.439	102.5
479.658	112.5
479.876	94.5
480.095	98.5
480.313	93.5
480.532	110.5
480.751	147.5
480.969	370.5
481.188	1290.5
481.406	752.5
481.624	171.5
481.843	105.5
482.061	92.5
482.28	96.5
482.498	77.5
482.717	83.5
482.935	87.5
483.153	81.5
483.372	80.5
483.59	89.5
483.808	75.5
484.027	87.5
484.245	96.5
484.463	90.5
484.681	88.5
484.9	92.5
485.118	95.5
485.336	92.5
485.554	96.5
485.772	105.5
485.99	109.5
486.209	117.5
486.427	92.5
486.645	106.5
486.863	101.5
487.081	103.5
487.299	92.5
487.517	104.5
487.735	98.5
487.953	98.5
488.171	99.5
488.389	90.5
488.607	106.5
488.825	86.5
489.043	85.5
489.261	101.5
489.479	97.5
489.696	92.5
489.914	79.5
490.132	81.5
490.35	85.5
490.568	76.5
490.786	87.5
491.003	90.5
491.221	86.5
491.439	95.5
491.657	98.5
491.874	94.5
492.092	94.5
492.31	93.5
492.527	95.5
492.745	103.5
492.963	99.5
493.18	90.5
493.398	103.5
493.615	92.5
493.833	76.5
494.05	89.5
494.268	83.5
494.485	85.5
494.703	81.5
494.92	91.5
495.138	93.5
495.355	96.5
495.573	83.5
495.79	92.5
496.008	91.5
496.225	85.5
496.442	85.5
496.66	85.5
496.877	84.5
497.094	80.5
497.312	81.5
497.529	74.5
497.746	79.5
497.963	95.5
498.181	85.5
498.398	108.5
498.615	110.5
498.832	85.5
499.049	94.5
499.267	92.5
499.484	78.5
499.701	81.5
499.918	100.5
500.135	94.5
500.352	75.5
500.569	91.5
500.786	88.5
501.003	83.5
501.22	103.5
501.437	95.5
501.654	76.5
501.871	94.5
502.088	93.5
502.305	88.5
502.522	90.5
502.739	84.5
502.956	95.5
503.172	94.5
503.389	99.5
503.606	83.5
503.823	116.5
504.04	104.5
504.256	88.5
504.473	90.5
504.69	82.5
504.907	104.5
505.123	73.5
505.34	93.5
505.557	90.5
505.773	87.5
505.99	80.5
506.207	98.5
506.423	92.5
506.64	90.5
506.856	81.5
507.073	88.5
507.289	92.5
507.506	100.5
507.722	95.5
507.939	107.5
508.155	85.5
508.372	95.5
508.588	68.5
508.805	93.5
509.021	98.5
509.238	108.5
509.454	87.5
509.67	89.5
509.887	94.5
510.103	123.5
510.319	176.5
510.536	583.5
510.752	1918.5
510.968	542.5
511.184	138.5
511.401	87.5
511.617	98.5
511.833	98.5
512.049	86.5
512.265	86.5
512.481	87.5
512.698	81.5
512.914	84.5
513.13	90.5
513.346	82.5
513.562	99.5
513.778	105.5
513.994	110.5
514.21	96.5
514.426	114.5
514.642	131.5
514.858	122.5
515.074	154.5
515.29	370.5
515.506	1161.5
515.721	428.5
515.937	138.5
516.153	100.5
516.369	99.5
516.585	79.5
516.801	108.5
517.016	93.5
517.232	86.5
517.448	104.5
517.664	104.5
517.879	98.5
518.095	89.5
518.311	103.5
518.527	92.5
518.742	95.5
518.958	78.5
519.173	92.5
519.389	94.5
519.605	99.5
519.82	87.5
520.036	108.5
520.251	102.5
520.467	107.5
520.682	92.5
520.898	94.5
521.113	115.5
521.329	120.5
521.544	155.5
521.76	473.5
521.975	1949.5
522.19	1163.5
522.406	250.5
522.621	105.5
522.836	101.5
523.052	96.5
523.267	84.5
523.482	93.5
523.698	85.5
523.913	109.5
524.128	82.5
524.343	78.5
524.559	87.5
524.774	80.5
524.989	81.5
525.204	97.5
525.419	93.5
525.634	94.5
525.849	82.5
526.064	96.5
526.28	83.5
526.495	80.5
526.71	98.5
526.925	80.5
527.14	88.5
527.355	97.5
527.57	99.5
527.785	86.5
527.999	86.5
528.214	79.5
528.429	78.5
528.644	87.5
528.859	98.5
529.074	106.5
529.289	125.5
529.503	151.5
529.718	102.5
529.933	79.5
530.148	86.5
530.363	114.5
530.577	77.5
530.792	92.5
531.007	84.5
531.221	96.5
531.436	87.5
531.651	98.5
531.865	72.5
532.08	96.5
532.295	94.5
532.509	85.5
532.724	76.5
532.938	101.5
533.153	94.5
533.367	103.5
533.582	105.5
533.796	96.5
534.011	91.5
534.225	91.5
534.44	89.5
534.654	94.5
534.868	78.5
535.083	77.5
