Data from Circ_1991_H10_HRD10591_00069.txt Node
Date: Wed Jan 03 11:51:55 EST 2024
User: Yrep
Spectrometer: HR+D1059
Trigger mode: 1
Integration Time (sec): 1.000000E-1
Scans to average: 1
Electric dark correction enabled: true
Nonlinearity correction enabled: false
Boxcar width: 0
XAxis mode: Wavelengths
Number of Pixels in Spectrum: 2048
>>>>>Begin Spectral Data<<<<<
223.165	-27.06
223.4	-27.06
223.635	-27.06
223.869	-13.06
224.104	-15.06
224.338	-13.06
224.573	-21.06
224.808	-8.06
225.042	-13.06
225.277	-12.06
225.511	-16.06
225.746	2.94
225.98	21.94
226.215	22.94
226.449	3.94
226.683	27.94
226.918	29.94
227.152	28.94
227.387	27.94
227.621	45.94
227.856	48.94
228.09	54.94
228.324	54.94
228.559	47.94
228.793	58.94
229.027	56.94
229.262	69.94
229.496	66.94
229.73	78.94
229.964	81.94
230.199	67.94
230.433	58.94
230.667	100.94
230.901	87.94
231.136	80.94
231.37	83.94
231.604	85.94
231.838	86.94
232.072	77.94
232.306	85.94
232.541	81.94
232.775	80.94
233.009	87.94
233.243	93.94
233.477	74.94
233.711	82.94
233.945	84.94
234.179	94.94
234.413	79.94
234.647	73.94
234.881	71.94
235.115	84.94
235.349	74.94
235.583	80.94
235.817	76.94
236.051	89.94
236.285	89.94
236.519	93.94
236.753	77.94
236.987	76.94
237.221	76.94
237.455	81.94
237.689	52.94
237.922	79.94
238.156	68.94
238.39	73.94
238.624	64.94
238.858	70.94
239.091	73.94
239.325	66.94
239.559	65.94
239.793	70.94
240.027	71.94
240.26	71.94
240.494	79.94
240.728	70.94
240.961	74.94
241.195	77.94
241.429	81.94
241.662	78.94
241.896	69.94
242.13	84.94
242.363	68.94
242.597	70.94
242.83	69.94
243.064	87.94
243.298	79.94
243.531	71.94
243.765	79.94
243.998	83.94
244.232	94.94
244.465	74.94
244.699	61.94
244.932	60.94
245.166	73.94
245.399	99.94
245.633	77.94
245.866	82.94
246.099	78.94
246.333	78.94
246.566	91.94
246.8	71.94
247.033	86.94
247.266	83.94
247.5	77.94
247.733	72.94
247.966	89.94
248.2	79.94
248.433	68.94
248.666	82.94
248.899	89.94
249.133	86.94
249.366	100.94
249.599	96.94
249.832	67.94
250.066	78.94
250.299	84.94
250.532	84.94
250.765	78.94
250.998	70.94
251.231	70.94
251.465	77.94
251.698	80.94
251.931	69.94
252.164	85.94
252.397	90.94
252.63	75.94
252.863	75.94
253.096	80.94
253.329	89.94
253.562	74.94
253.795	72.94
254.028	83.94
254.261	96.94
254.494	80.94
254.727	79.94
254.96	80.94
255.193	83.94
255.426	90.94
255.659	85.94
255.892	77.94
256.124	75.94
256.357	97.94
256.59	76.94
256.823	63.94
257.056	75.94
257.289	92.94
257.521	81.94
257.754	82.94
257.987	82.94
258.22	92.94
258.452	97.94
258.685	83.94
258.918	85.94
259.151	83.94
259.383	80.94
259.616	79.94
259.849	78.94
260.081	89.94
260.314	77.94
260.547	69.94
260.779	85.94
261.012	89.94
261.244	83.94
261.477	96.94
261.71	73.94
261.942	111.94
262.175	106.94
262.407	99.94
262.64	87.94
262.872	85.94
263.105	78.94
263.337	76.94
263.57	78.94
263.802	83.94
264.035	79.94
264.267	92.94
264.499	77.94
264.732	99.94
264.964	86.94
265.197	77.94
265.429	92.94
265.661	93.94
265.894	79.94
266.126	80.94
266.358	97.94
266.591	93.94
266.823	82.94
267.055	88.94
267.287	81.94
267.52	81.94
267.752	85.94
267.984	84.94
268.216	85.94
268.448	78.94
268.681	84.94
268.913	91.94
269.145	96.94
269.377	78.94
269.609	79.94
269.841	77.94
270.073	70.94
270.306	82.94
270.538	84.94
270.77	67.94
271.002	73.94
271.234	76.94
271.466	95.94
271.698	77.94
271.93	89.94
272.162	73.94
272.394	79.94
272.626	85.94
272.858	86.94
273.09	78.94
273.322	79.94
273.553	90.94
273.785	85.94
274.017	77.94
274.249	82.94
274.481	66.94
274.713	80.94
274.945	81.94
275.176	81.94
275.408	92.94
275.64	94.94
275.872	103.94
276.104	86.94
276.335	94.94
276.567	92.94
276.799	99.94
277.031	89.94
277.262	100.94
277.494	93.94
277.726	86.94
277.957	77.94
278.189	82.94
278.421	94.94
278.652	84.94
278.884	98.94
279.115	81.94
279.347	87.94
279.579	94.94
279.81	94.94
280.042	105.94
280.273	125.94
280.505	86.94
280.736	96.94
280.968	87.94
281.199	93.94
281.431	85.94
281.662	85.94
281.894	87.94
282.125	100.94
282.356	113.94
282.588	119.94
282.819	99.94
283.051	83.94
283.282	83.94
283.513	81.94
283.745	78.94
283.976	79.94
284.207	68.94
284.439	91.94
284.67	84.94
284.901	86.94
285.132	98.94
285.364	68.94
285.595	77.94
285.826	84.94
286.057	87.94
286.288	89.94
286.52	86.94
286.751	97.94
286.982	100.94
287.213	81.94
287.444	87.94
287.675	89.94
287.906	85.94
288.138	92.94
288.369	80.94
288.6	75.94
288.831	79.94
289.062	82.94
289.293	85.94
289.524	89.94
289.755	71.94
289.986	83.94
290.217	89.94
290.448	81.94
290.679	92.94
290.91	85.94
291.141	81.94
291.371	90.94
291.602	86.94
291.833	89.94
292.064	83.94
292.295	93.94
292.526	86.94
292.757	69.94
292.987	92.94
293.218	72.94
293.449	76.94
293.68	76.94
293.91	84.94
294.141	91.94
294.372	86.94
294.603	90.94
294.833	84.94
295.064	96.94
295.295	89.94
295.525	81.94
295.756	85.94
295.987	105.94
296.217	134.94
296.448	114.94
296.679	97.94
296.909	86.94
297.14	83.94
297.37	75.94
297.601	63.94
297.831	76.94
298.062	93.94
298.292	84.94
298.523	77.94
298.753	78.94
298.984	78.94
299.214	94.94
299.445	102.94
299.675	95.94
299.905	95.94
300.136	90.94
300.366	86.94
300.597	93.94
300.827	91.94
301.057	106.94
301.288	103.94
301.518	90.94
301.748	83.94
301.979	110.94
302.209	97.94
302.439	96.94
302.669	88.94
302.9	102.94
303.13	85.94
303.36	96.94
303.59	99.94
303.82	106.94
304.051	102.94
304.281	81.94
304.511	94.94
304.741	89.94
304.971	73.94
305.201	92.94
305.431	80.94
305.661	92.94
305.891	83.94
306.121	93.94
306.352	92.94
306.582	97.94
306.812	87.94
307.042	103.94
307.272	102.94
307.502	121.94
307.731	115.94
307.961	103.94
308.191	95.94
308.421	97.94
308.651	92.94
308.881	75.94
309.111	84.94
309.341	100.94
309.571	94.94
309.8	82.94
310.03	99.94
310.26	98.94
310.49	71.94
310.72	80.94
310.949	89.94
311.179	93.94
311.409	92.94
311.639	85.94
311.868	87.94
312.098	93.94
312.328	92.94
312.557	89.94
312.787	101.94
313.017	100.94
313.246	81.94
313.476	100.94
313.706	81.94
313.935	79.94
314.165	94.94
314.394	94.94
314.624	98.94
314.853	89.94
315.083	96.94
315.312	100.94
315.542	85.94
315.771	84.94
316.001	101.94
316.23	81.94
316.46	84.94
316.689	84.94
316.919	88.94
317.148	87.94
317.377	95.94
317.607	86.94
317.836	107.94
318.065	76.94
318.295	81.94
318.524	97.94
318.753	94.94
318.983	95.94
319.212	100.94
319.441	97.94
319.67	101.94
319.9	93.94
320.129	93.94
320.358	91.94
320.587	98.94
320.816	85.94
321.046	94.94
321.275	89.94
321.504	98.94
321.733	103.94
321.962	93.94
322.191	96.94
322.42	103.94
322.649	95.94
322.878	119.94
323.108	94.94
323.337	113.94
323.566	128.94
323.795	147.94
324.024	181.94
324.253	341.94
324.482	705.94
324.71	1468.94
324.939	1964.94
325.168	735.94
325.397	231.94
325.626	145.94
325.855	117.94
326.084	123.94
326.313	114.94
326.542	144.94
326.77	213.94
326.999	404.94
327.228	849.94
327.457	1491.94
327.686	1248.94
327.914	358.94
328.143	240.94
328.372	241.94
328.6	174.94
328.829	121.94
329.058	116.94
329.287	141.94
329.515	116.94
329.744	134.94
329.972	199.94
330.201	346.94
330.43	431.94
330.658	237.94
330.887	143.94
331.115	108.94
331.344	94.94
331.572	103.94
331.801	93.94
332.03	95.94
332.258	104.94
332.486	95.94
332.715	98.94
332.943	89.94
333.172	108.94
333.4	103.94
333.629	114.94
333.857	122.94
334.085	194.94
334.314	312.94
334.542	539.94
334.771	495.94
334.999	174.94
335.227	106.94
335.455	97.94
335.684	95.94
335.912	98.94
336.14	115.94
336.369	103.94
336.597	89.94
336.825	97.94
337.053	90.94
337.281	88.94
337.51	87.94
337.738	87.94
337.966	83.94
338.194	94.94
338.422	76.94
338.65	94.94
338.878	101.94
339.106	87.94
339.334	93.94
339.562	105.94
339.79	76.94
340.018	98.94
340.246	101.94
340.474	91.94
340.702	99.94
340.93	87.94
341.158	90.94
341.386	94.94
341.614	96.94
341.842	90.94
342.07	90.94
342.298	91.94
342.526	99.94
342.754	86.94
342.981	85.94
343.209	82.94
343.437	90.94
343.665	90.94
343.893	95.94
344.12	98.94
344.348	81.94
344.576	87.94
344.804	91.94
345.031	84.94
345.259	92.94
345.487	97.94
345.714	82.94
345.942	80.94
346.17	84.94
346.397	103.94
346.625	97.94
346.853	102.94
347.08	102.94
347.308	74.94
347.535	97.94
347.763	79.94
347.99	89.94
348.218	109.94
348.445	97.94
348.673	93.94
348.9	86.94
349.128	84.94
349.355	106.94
349.583	85.94
349.81	92.94
350.037	86.94
350.265	86.94
350.492	101.94
350.72	82.94
350.947	84.94
351.174	107.94
351.402	108.94
351.629	91.94
351.856	79.94
352.083	102.94
352.311	90.94
352.538	94.94
352.765	105.94
352.992	110.94
353.22	98.94
353.447	104.94
353.674	101.94
353.901	109.94
354.128	87.94
354.355	97.94
354.583	94.94
354.81	95.94
355.037	101.94
355.264	82.94
355.491	90.94
355.718	87.94
355.945	95.94
356.172	88.94
356.399	99.94
356.626	91.94
356.853	80.94
357.08	86.94
357.307	86.94
357.534	95.94
357.761	103.94
357.988	93.94
358.215	93.94
358.441	90.94
358.668	94.94
358.895	86.94
359.122	91.94
359.349	79.94
359.576	74.94
359.802	99.94
360.029	110.94
360.256	95.94
360.483	93.94
360.709	76.94
360.936	86.94
361.163	78.94
361.39	102.94
361.616	92.94
361.843	90.94
362.07	85.94
362.296	89.94
362.523	90.94
362.749	88.94
362.976	75.94
363.203	92.94
363.429	92.94
363.656	103.94
363.882	87.94
364.109	86.94
364.335	90.94
364.562	95.94
364.788	85.94
365.015	95.94
365.241	99.94
365.468	103.94
365.694	100.94
365.92	99.94
366.147	97.94
366.373	92.94
366.599	79.94
366.826	81.94
367.052	97.94
367.278	90.94
367.505	94.94
367.731	93.94
367.957	97.94
368.184	83.94
368.41	99.94
368.636	102.94
368.862	117.94
369.089	96.94
369.315	99.94
369.541	101.94
369.767	89.94
369.993	94.94
370.219	103.94
370.445	77.94
370.672	73.94
370.898	83.94
371.124	95.94
371.35	92.94
371.576	93.94
371.802	84.94
372.028	84.94
372.254	85.94
372.48	77.94
372.706	83.94
372.932	84.94
373.158	71.94
373.384	80.94
373.61	108.94
373.835	98.94
374.061	68.94
374.287	95.94
374.513	77.94
374.739	85.94
374.965	82.94
375.191	90.94
375.416	80.94
375.642	72.94
375.868	96.94
376.094	92.94
376.319	90.94
376.545	81.94
376.771	83.94
376.997	82.94
377.222	100.94
377.448	106.94
377.674	87.94
377.899	92.94
378.125	85.94
378.35	85.94
378.576	83.94
378.802	90.94
379.027	93.94
379.253	80.94
379.478	91.94
379.704	94.94
379.929	89.94
380.155	91.94
380.38	86.94
380.606	90.94
380.831	93.94
381.057	97.94
381.282	82.94
381.507	82.94
381.733	78.94
381.958	89.94
382.184	90.94
382.409	79.94
382.634	101.94
382.86	82.94
383.085	94.94
383.31	92.94
383.535	100.94
383.761	98.94
383.986	110.94
384.211	97.94
384.436	88.94
384.662	98.94
384.887	95.94
385.112	101.94
385.337	100.94
385.562	101.94
385.787	101.94
386.013	103.94
386.238	98.94
386.463	95.94
386.688	114.94
386.913	84.94
387.138	102.94
387.363	94.94
387.588	101.94
387.813	98.94
388.038	112.94
388.263	107.94
388.488	110.94
388.713	91.94
388.938	93.94
389.163	94.94
389.387	95.94
389.612	89.94
389.837	85.94
390.062	85.94
390.287	90.94
390.512	90.94
390.736	95.94
390.961	83.94
391.186	64.94
391.411	108.94
391.636	95.94
391.86	99.94
392.085	91.94
392.31	74.94
392.534	90.94
392.759	86.94
392.984	82.94
393.208	92.94
393.433	99.94
393.658	98.94
393.882	90.94
394.107	85.94
394.331	93.94
394.556	84.94
394.78	93.94
395.005	96.94
395.229	97.94
395.454	94.94
395.678	77.94
395.903	92.94
396.127	100.94
396.352	79.94
396.576	87.94
396.801	76.94
397.025	81.94
397.249	89.94
397.474	85.94
397.698	92.94
397.922	75.94
398.147	77.94
398.371	92.94
398.595	88.94
398.82	90.94
399.044	88.94
399.268	87.94
399.492	86.94
399.717	87.94
399.941	111.94
400.165	90.94
400.389	83.94
400.613	62.94
400.837	89.94
401.062	84.94
401.286	99.94
401.51	82.94
401.734	82.94
401.958	101.94
402.182	121.94
402.406	130.94
402.63	94.94
402.854	79.94
403.078	92.94
403.302	90.94
403.526	80.94
403.75	99.94
403.974	77.94
404.198	70.94
404.422	82.94
404.645	88.94
404.869	87.94
405.093	107.94
405.317	106.94
405.541	98.94
405.765	94.94
405.988	110.94
406.212	156.94
406.436	181.94
406.66	129.94
406.883	89.94
407.107	93.94
407.331	89.94
407.555	102.94
407.778	97.94
408.002	88.94
408.226	90.94
408.449	83.94
408.673	85.94
408.896	87.94
409.12	97.94
409.344	98.94
409.567	95.94
409.791	89.94
410.014	95.94
410.238	76.94
410.461	96.94
410.685	85.94
410.908	81.94
411.132	109.94
411.355	107.94
411.578	95.94
411.802	81.94
412.025	96.94
412.249	83.94
412.472	94.94
412.695	104.94
412.919	83.94
413.142	94.94
413.365	92.94
413.589	93.94
413.812	79.94
414.035	80.94
414.258	71.94
414.482	79.94
414.705	99.94
414.928	93.94
415.151	90.94
415.374	98.94
415.597	81.94
415.821	98.94
416.044	92.94
416.267	87.94
416.49	87.94
416.713	96.94
416.936	79.94
417.159	96.94
417.382	84.94
417.605	98.94
417.828	84.94
418.051	92.94
418.274	94.94
418.497	79.94
418.72	85.94
418.943	80.94
419.166	81.94
419.389	80.94
419.611	86.94
419.834	95.94
420.057	80.94
420.28	75.94
420.503	86.94
420.726	101.94
420.948	81.94
421.171	95.94
421.394	98.94
421.617	100.94
421.839	70.94
422.062	80.94
422.285	89.94
422.507	89.94
422.73	92.94
422.953	97.94
423.175	94.94
423.398	94.94
423.621	80.94
423.843	77.94
424.066	91.94
424.288	85.94
424.511	91.94
424.733	106.94
424.956	95.94
425.178	79.94
425.401	115.94
425.623	88.94
425.846	97.94
426.068	91.94
426.291	98.94
426.513	85.94
426.735	82.94
426.958	86.94
427.18	87.94
427.402	120.94
427.625	155.94
427.847	150.94
428.069	146.94
428.292	107.94
428.514	94.94
428.736	76.94
428.958	100.94
429.181	80.94
429.403	89.94
429.625	80.94
429.847	76.94
430.069	97.94
430.292	94.94
430.514	83.94
430.736	83.94
430.958	89.94
431.18	79.94
431.402	86.94
431.624	87.94
431.846	65.94
432.068	105.94
432.29	82.94
432.512	95.94
432.734	104.94
432.956	97.94
433.178	86.94
433.4	97.94
433.622	93.94
433.844	86.94
434.066	85.94
434.287	91.94
434.509	85.94
434.731	93.94
434.953	79.94
435.175	86.94
435.397	89.94
435.618	83.94
435.84	91.94
436.062	102.94
436.284	112.94
436.505	89.94
436.727	92.94
436.949	92.94
437.17	70.94
437.392	82.94
437.614	82.94
437.835	92.94
438.057	108.94
438.278	79.94
438.5	97.94
438.721	118.94
438.943	101.94
439.165	90.94
439.386	83.94
439.608	98.94
439.829	103.94
440.05	112.94
440.272	140.94
440.493	95.94
440.715	81.94
440.936	86.94
441.158	81.94
441.379	88.94
441.6	84.94
441.822	97.94
442.043	97.94
442.264	95.94
442.486	90.94
442.707	86.94
442.928	111.94
443.149	108.94
443.371	113.94
443.592	102.94
443.813	101.94
444.034	99.94
444.255	98.94
444.476	87.94
444.698	70.94
444.919	91.94
445.14	121.94
445.361	116.94
445.582	114.94
445.803	116.94
446.024	122.94
446.245	126.94
446.466	100.94
446.687	75.94
446.908	89.94
447.129	76.94
447.35	85.94
447.571	93.94
447.792	89.94
448.013	82.94
448.234	100.94
448.455	104.94
448.675	107.94
448.896	102.94
449.117	112.94
449.338	91.94
449.559	100.94
449.779	107.94
450	91.94
450.221	87.94
450.442	82.94
450.662	93.94
450.883	93.94
451.104	95.94
451.324	75.94
451.545	91.94
451.766	84.94
451.986	77.94
452.207	67.94
452.428	94.94
452.648	101.94
452.869	89.94
453.089	106.94
453.31	102.94
453.53	89.94
453.751	85.94
453.971	102.94
454.192	93.94
454.412	100.94
454.633	80.94
454.853	81.94
455.073	87.94
455.294	82.94
455.514	93.94
455.734	70.94
455.955	73.94
456.175	88.94
456.395	85.94
456.616	84.94
456.836	75.94
457.056	87.94
457.276	93.94
457.497	73.94
457.717	79.94
457.937	89.94
458.157	90.94
458.377	91.94
458.598	98.94
458.818	130.94
459.038	129.94
459.258	109.94
459.478	101.94
459.698	81.94
459.918	96.94
460.138	88.94
460.358	82.94
460.578	94.94
460.798	85.94
461.018	86.94
461.238	82.94
461.458	89.94
461.678	81.94
461.898	76.94
462.118	100.94
462.338	93.94
462.558	85.94
462.777	71.94
462.997	75.94
463.217	91.94
463.437	91.94
463.657	87.94
463.876	78.94
464.096	91.94
464.316	75.94
464.536	101.94
464.755	97.94
464.975	99.94
465.195	149.94
465.414	142.94
465.634	90.94
465.854	80.94
466.073	86.94
466.293	94.94
466.512	74.94
466.732	81.94
466.951	87.94
467.171	98.94
467.391	91.94
467.61	124.94
467.829	135.94
468.049	233.94
468.268	301.94
468.488	118.94
468.707	73.94
468.927	88.94
469.146	97.94
469.365	96.94
469.585	86.94
469.804	82.94
470.023	96.94
470.243	82.94
470.462	93.94
470.681	103.94
470.901	98.94
471.12	85.94
471.339	100.94
471.558	112.94
471.777	110.94
471.997	139.94
472.216	426.94
472.435	803.94
472.654	233.94
472.873	103.94
473.092	108.94
473.311	93.94
473.53	87.94
473.749	83.94
473.968	90.94
474.187	93.94
474.406	87.94
474.625	95.94
474.844	79.94
475.063	73.94
475.282	103.94
475.501	86.94
475.72	90.94
475.939	96.94
476.158	95.94
476.377	88.94
476.596	89.94
476.814	92.94
477.033	110.94
477.252	91.94
477.471	98.94
477.69	95.94
477.908	75.94
478.127	96.94
478.346	101.94
478.564	88.94
478.783	98.94
479.002	91.94
479.22	91.94
479.439	112.94
479.658	110.94
479.876	83.94
480.095	97.94
480.313	102.94
480.532	112.94
480.751	158.94
480.969	398.94
481.188	1377.94
481.406	774.94
481.624	174.94
481.843	96.94
482.061	100.94
482.28	82.94
482.498	81.94
482.717	88.94
482.935	84.94
483.153	84.94
483.372	93.94
483.59	87.94
483.808	80.94
484.027	77.94
484.245	90.94
484.463	97.94
484.681	102.94
484.9	90.94
485.118	98.94
485.336	77.94
485.554	87.94
485.772	86.94
485.99	83.94
486.209	121.94
486.427	100.94
486.645	92.94
486.863	101.94
487.081	104.94
487.299	99.94
487.517	93.94
487.735	92.94
487.953	90.94
488.171	82.94
488.389	93.94
488.607	98.94
488.825	82.94
489.043	74.94
489.261	84.94
489.479	84.94
489.696	90.94
489.914	73.94
490.132	89.94
490.35	97.94
490.568	92.94
490.786	89.94
491.003	92.94
491.221	103.94
491.439	93.94
491.657	83.94
491.874	80.94
492.092	94.94
492.31	86.94
492.527	87.94
492.745	82.94
492.963	87.94
493.18	82.94
493.398	78.94
493.615	84.94
493.833	83.94
494.05	78.94
494.268	94.94
494.485	88.94
494.703	84.94
494.92	83.94
495.138	84.94
495.355	95.94
495.573	93.94
495.79	99.94
496.008	71.94
496.225	93.94
496.442	104.94
496.66	94.94
496.877	99.94
497.094	74.94
497.312	95.94
497.529	73.94
497.746	92.94
497.963	94.94
498.181	95.94
498.398	86.94
498.615	98.94
498.832	100.94
499.049	107.94
499.267	80.94
499.484	87.94
499.701	90.94
499.918	93.94
500.135	103.94
500.352	94.94
500.569	89.94
500.786	96.94
501.003	95.94
501.22	85.94
501.437	86.94
501.654	91.94
501.871	101.94
502.088	93.94
502.305	80.94
502.522	90.94
502.739	93.94
502.956	94.94
503.172	90.94
503.389	94.94
503.606	99.94
503.823	91.94
504.04	89.94
504.256	107.94
504.473	76.94
504.69	85.94
504.907	99.94
505.123	76.94
505.34	95.94
505.557	71.94
505.773	81.94
505.99	93.94
506.207	94.94
506.423	92.94
506.64	94.94
506.856	80.94
507.073	94.94
507.289	98.94
507.506	84.94
507.722	109.94
507.939	98.94
508.155	81.94
508.372	86.94
508.588	80.94
508.805	99.94
509.021	85.94
509.238	102.94
509.454	73.94
509.67	93.94
509.887	92.94
510.103	121.94
510.319	195.94
510.536	589.94
510.752	1845.94
510.968	535.94
511.184	145.94
511.401	119.94
511.617	89.94
511.833	90.94
512.049	90.94
512.265	97.94
512.481	94.94
512.698	82.94
512.914	83.94
513.13	97.94
513.346	90.94
513.562	102.94
513.778	89.94
513.994	109.94
514.21	101.94
514.426	93.94
514.642	127.94
514.858	130.94
515.074	154.94
515.29	375.94
515.506	1145.94
515.721	420.94
515.937	143.94
516.153	99.94
516.369	93.94
