Data from Circ_1991_H10_HRD10591_00077.txt Node
Date: Wed Jan 03 11:51:56 EST 2024
User: Yrep
Spectrometer: HR+D1059
Trigger mode: 1
Integration Time (sec): 1.000000E-1
Scans to average: 1
Electric dark correction enabled: true
Nonlinearity correction enabled: false
Boxcar width: 0
XAxis mode: Wavelengths
Number of Pixels in Spectrum: 2048
>>>>>Begin Spectral Data<<<<<
223.165	-29.81
223.4	-29.81
223.635	-29.81
223.869	-19.81
224.104	-19.81
224.338	-19.81
224.573	-3.81
224.808	-8.81
225.042	-5.81
225.277	-2.81
225.511	-5.81
225.746	-6.81
225.98	3.19
226.215	10.19
226.449	21.19
226.683	29.19
226.918	25.19
227.152	34.19
227.387	43.19
227.621	39.19
227.856	38.19
228.09	42.19
228.324	43.19
228.559	53.19
228.793	62.19
229.027	61.19
229.262	68.19
229.496	80.19
229.73	87.19
229.964	84.19
230.199	63.19
230.433	81.19
230.667	92.19
230.901	82.19
231.136	69.19
231.37	66.19
231.604	84.19
231.838	74.19
232.072	82.19
232.306	91.19
232.541	88.19
232.775	85.19
233.009	86.19
233.243	80.19
233.477	82.19
233.711	77.19
233.945	69.19
234.179	79.19
234.413	70.19
234.647	81.19
234.881	76.19
235.115	70.19
235.349	74.19
235.583	74.19
235.817	65.19
236.051	67.19
236.285	77.19
236.519	77.19
236.753	70.19
236.987	81.19
237.221	87.19
237.455	85.19
237.689	62.19
237.922	82.19
238.156	88.19
238.39	79.19
238.624	85.19
238.858	78.19
239.091	71.19
239.325	84.19
239.559	79.19
239.793	79.19
240.027	74.19
240.26	66.19
240.494	89.19
240.728	76.19
240.961	71.19
241.195	64.19
241.429	68.19
241.662	67.19
241.896	65.19
242.13	80.19
242.363	70.19
242.597	72.19
242.83	84.19
243.064	86.19
243.298	76.19
243.531	76.19
243.765	70.19
243.998	61.19
244.232	83.19
244.465	94.19
244.699	83.19
244.932	76.19
245.166	76.19
245.399	78.19
245.633	89.19
245.866	81.19
246.099	91.19
246.333	92.19
246.566	77.19
246.8	89.19
247.033	89.19
247.266	77.19
247.5	86.19
247.733	89.19
247.966	84.19
248.2	69.19
248.433	92.19
248.666	80.19
248.899	84.19
249.133	88.19
249.366	106.19
249.599	93.19
249.832	77.19
250.066	85.19
250.299	75.19
250.532	83.19
250.765	79.19
250.998	66.19
251.231	72.19
251.465	100.19
251.698	81.19
251.931	74.19
252.164	94.19
252.397	71.19
252.63	88.19
252.863	79.19
253.096	92.19
253.329	79.19
253.562	78.19
253.795	84.19
254.028	86.19
254.261	74.19
254.494	78.19
254.727	90.19
254.96	77.19
255.193	91.19
255.426	74.19
255.659	91.19
255.892	90.19
256.124	80.19
256.357	90.19
256.59	81.19
256.823	77.19
257.056	76.19
257.289	78.19
257.521	90.19
257.754	83.19
257.987	87.19
258.22	77.19
258.452	89.19
258.685	83.19
258.918	71.19
259.151	72.19
259.383	92.19
259.616	82.19
259.849	79.19
260.081	77.19
260.314	87.19
260.547	96.19
260.779	92.19
261.012	94.19
261.244	88.19
261.477	100.19
261.71	80.19
261.942	112.19
262.175	115.19
262.407	84.19
262.64	76.19
262.872	82.19
263.105	86.19
263.337	85.19
263.57	82.19
263.802	78.19
264.035	90.19
264.267	69.19
264.499	82.19
264.732	77.19
264.964	86.19
265.197	68.19
265.429	79.19
265.661	93.19
265.894	76.19
266.126	87.19
266.358	81.19
266.591	79.19
266.823	81.19
267.055	90.19
267.287	91.19
267.52	86.19
267.752	91.19
267.984	86.19
268.216	69.19
268.448	92.19
268.681	93.19
268.913	93.19
269.145	89.19
269.377	68.19
269.609	84.19
269.841	84.19
270.073	83.19
270.306	91.19
270.538	80.19
270.77	92.19
271.002	97.19
271.234	87.19
271.466	95.19
271.698	95.19
271.93	76.19
272.162	83.19
272.394	87.19
272.626	90.19
272.858	91.19
273.09	94.19
273.322	86.19
273.553	76.19
273.785	80.19
274.017	90.19
274.249	95.19
274.481	91.19
274.713	88.19
274.945	80.19
275.176	77.19
275.408	102.19
275.64	108.19
275.872	104.19
276.104	94.19
276.335	88.19
276.567	97.19
276.799	110.19
277.031	119.19
277.262	121.19
277.494	115.19
277.726	78.19
277.957	74.19
278.189	109.19
278.421	99.19
278.652	90.19
278.884	86.19
279.115	91.19
279.347	108.19
279.579	96.19
279.81	97.19
280.042	114.19
280.273	133.19
280.505	113.19
280.736	92.19
280.968	92.19
281.199	94.19
281.431	93.19
281.662	79.19
281.894	86.19
282.125	105.19
282.356	122.19
282.588	132.19
282.819	100.19
283.051	98.19
283.282	79.19
283.513	103.19
283.745	88.19
283.976	88.19
284.207	92.19
284.439	79.19
284.67	86.19
284.901	83.19
285.132	106.19
285.364	91.19
285.595	100.19
285.826	87.19
286.057	98.19
286.288	87.19
286.52	85.19
286.751	81.19
286.982	80.19
287.213	88.19
287.444	97.19
287.675	88.19
287.906	82.19
288.138	89.19
288.369	88.19
288.6	91.19
288.831	93.19
289.062	106.19
289.293	81.19
289.524	100.19
289.755	95.19
289.986	91.19
290.217	78.19
290.448	83.19
290.679	94.19
290.91	96.19
291.141	96.19
291.371	92.19
291.602	87.19
291.833	92.19
292.064	100.19
292.295	91.19
292.526	92.19
292.757	92.19
292.987	78.19
293.218	95.19
293.449	91.19
293.68	86.19
293.91	94.19
294.141	95.19
294.372	95.19
294.603	93.19
294.833	92.19
295.064	86.19
295.295	95.19
295.525	91.19
295.756	103.19
295.987	107.19
296.217	142.19
296.448	114.19
296.679	96.19
296.909	92.19
297.14	101.19
297.37	109.19
297.601	100.19
297.831	101.19
298.062	93.19
298.292	77.19
298.523	99.19
298.753	94.19
298.984	78.19
299.214	82.19
299.445	90.19
299.675	88.19
299.905	94.19
300.136	91.19
300.366	85.19
300.597	98.19
300.827	97.19
301.057	104.19
301.288	102.19
301.518	109.19
301.748	81.19
301.979	111.19
302.209	98.19
302.439	100.19
302.669	88.19
302.9	94.19
303.13	81.19
303.36	84.19
303.59	104.19
303.82	120.19
304.051	95.19
304.281	95.19
304.511	94.19
304.741	82.19
304.971	76.19
305.201	104.19
305.431	86.19
305.661	96.19
305.891	93.19
306.121	98.19
306.352	97.19
306.582	87.19
306.812	99.19
307.042	100.19
307.272	107.19
307.502	143.19
307.731	118.19
307.961	115.19
308.191	97.19
308.421	95.19
308.651	90.19
308.881	102.19
309.111	81.19
309.341	91.19
309.571	105.19
309.8	102.19
310.03	96.19
310.26	89.19
310.49	96.19
310.72	99.19
310.949	96.19
311.179	97.19
311.409	95.19
311.639	102.19
311.868	101.19
312.098	96.19
312.328	110.19
312.557	100.19
312.787	113.19
313.017	97.19
313.246	90.19
313.476	81.19
313.706	90.19
313.935	98.19
314.165	90.19
314.394	98.19
314.624	100.19
314.853	99.19
315.083	89.19
315.312	86.19
315.542	85.19
315.771	99.19
316.001	88.19
316.23	97.19
316.46	95.19
316.689	96.19
316.919	94.19
317.148	102.19
317.377	92.19
317.607	96.19
317.836	92.19
318.065	83.19
318.295	81.19
318.524	81.19
318.753	86.19
318.983	95.19
319.212	113.19
319.441	108.19
319.67	107.19
319.9	97.19
320.129	101.19
320.358	84.19
320.587	98.19
320.816	96.19
321.046	106.19
321.275	94.19
321.504	107.19
321.733	92.19
321.962	90.19
322.191	117.19
322.42	104.19
322.649	110.19
322.878	106.19
323.108	131.19
323.337	122.19
323.566	133.19
323.795	165.19
324.024	200.19
324.253	414.19
324.482	878.19
324.71	1776.19
324.939	2543.19
325.168	868.19
325.397	254.19
325.626	146.19
325.855	128.19
326.084	122.19
326.313	124.19
326.542	156.19
326.77	221.19
326.999	474.19
327.228	1007.19
327.457	1869.19
327.686	1502.19
327.914	439.19
328.143	316.19
328.372	322.19
328.6	205.19
328.829	147.19
329.058	143.19
329.287	142.19
329.515	118.19
329.744	173.19
329.972	248.19
330.201	430.19
330.43	594.19
330.658	306.19
330.887	176.19
331.115	146.19
331.344	96.19
331.572	100.19
331.801	122.19
332.03	109.19
332.258	97.19
332.486	105.19
332.715	88.19
332.943	108.19
333.172	101.19
333.4	110.19
333.629	122.19
333.857	162.19
334.085	233.19
334.314	425.19
334.542	766.19
334.771	719.19
334.999	223.19
335.227	111.19
335.455	117.19
335.684	97.19
335.912	100.19
336.14	101.19
336.369	104.19
336.597	96.19
336.825	114.19
337.053	100.19
337.281	88.19
337.51	91.19
337.738	92.19
337.966	99.19
338.194	96.19
338.422	100.19
338.65	95.19
338.878	87.19
339.106	87.19
339.334	77.19
339.562	78.19
339.79	84.19
340.018	106.19
340.246	82.19
340.474	91.19
340.702	92.19
340.93	102.19
341.158	92.19
341.386	93.19
341.614	85.19
341.842	86.19
342.07	100.19
342.298	87.19
342.526	94.19
342.754	76.19
342.981	78.19
343.209	85.19
343.437	93.19
343.665	84.19
343.893	87.19
344.12	88.19
344.348	89.19
344.576	101.19
344.804	91.19
345.031	93.19
345.259	89.19
345.487	87.19
345.714	80.19
345.942	92.19
346.17	100.19
346.397	95.19
346.625	87.19
346.853	86.19
347.08	87.19
347.308	91.19
347.535	99.19
347.763	93.19
347.99	104.19
348.218	110.19
348.445	110.19
348.673	110.19
348.9	113.19
349.128	90.19
349.355	85.19
349.583	90.19
349.81	87.19
350.037	86.19
350.265	102.19
350.492	85.19
350.72	107.19
350.947	103.19
351.174	95.19
351.402	116.19
351.629	96.19
351.856	102.19
352.083	100.19
352.311	102.19
352.538	126.19
352.765	104.19
352.992	131.19
353.22	100.19
353.447	93.19
353.674	100.19
353.901	91.19
354.128	101.19
354.355	93.19
354.583	100.19
354.81	107.19
355.037	93.19
355.264	85.19
355.491	100.19
355.718	91.19
355.945	88.19
356.172	91.19
356.399	98.19
356.626	92.19
356.853	89.19
357.08	89.19
357.307	91.19
357.534	87.19
357.761	91.19
357.988	94.19
358.215	90.19
358.441	96.19
358.668	89.19
358.895	90.19
359.122	90.19
359.349	88.19
359.576	81.19
359.802	99.19
360.029	117.19
360.256	97.19
360.483	107.19
360.709	93.19
360.936	106.19
361.163	107.19
361.39	108.19
361.616	95.19
361.843	84.19
362.07	99.19
362.296	101.19
362.523	99.19
362.749	85.19
362.976	95.19
363.203	99.19
363.429	76.19
363.656	86.19
363.882	75.19
364.109	97.19
364.335	82.19
364.562	88.19
364.788	86.19
365.015	92.19
365.241	87.19
365.468	83.19
365.694	96.19
365.92	87.19
366.147	90.19
366.373	90.19
366.599	102.19
366.826	84.19
367.052	78.19
367.278	87.19
367.505	100.19
367.731	97.19
367.957	99.19
368.184	90.19
368.41	83.19
368.636	119.19
368.862	127.19
369.089	109.19
369.315	102.19
369.541	90.19
369.767	101.19
369.993	104.19
370.219	98.19
370.445	91.19
370.672	84.19
370.898	84.19
371.124	66.19
371.35	76.19
371.576	87.19
371.802	85.19
372.028	82.19
372.254	99.19
372.48	97.19
372.706	78.19
372.932	92.19
373.158	80.19
373.384	91.19
373.61	91.19
373.835	100.19
374.061	104.19
374.287	90.19
374.513	76.19
374.739	81.19
374.965	95.19
375.191	81.19
375.416	85.19
375.642	87.19
375.868	95.19
376.094	94.19
376.319	94.19
376.545	90.19
376.771	96.19
376.997	74.19
377.222	88.19
377.448	102.19
377.674	86.19
377.899	85.19
378.125	98.19
378.35	80.19
378.576	103.19
378.802	98.19
379.027	99.19
379.253	83.19
379.478	71.19
379.704	88.19
379.929	83.19
380.155	91.19
380.38	95.19
380.606	99.19
380.831	92.19
381.057	90.19
381.282	94.19
381.507	78.19
381.733	90.19
381.958	101.19
382.184	90.19
382.409	91.19
382.634	88.19
382.86	85.19
383.085	103.19
383.31	87.19
383.535	82.19
383.761	86.19
383.986	95.19
384.211	102.19
384.436	101.19
384.662	97.19
384.887	102.19
385.112	107.19
385.337	102.19
385.562	102.19
385.787	106.19
386.013	102.19
386.238	110.19
386.463	99.19
386.688	101.19
386.913	99.19
387.138	90.19
387.363	86.19
387.588	92.19
387.813	91.19
388.038	105.19
388.263	101.19
388.488	116.19
388.713	104.19
388.938	76.19
389.163	92.19
389.387	96.19
389.612	94.19
389.837	86.19
390.062	105.19
390.287	86.19
390.512	84.19
390.736	90.19
390.961	88.19
391.186	85.19
391.411	99.19
391.636	87.19
391.86	87.19
392.085	103.19
392.31	79.19
392.534	89.19
392.759	94.19
392.984	67.19
393.208	92.19
393.433	102.19
393.658	99.19
393.882	82.19
394.107	93.19
394.331	90.19
394.556	97.19
394.78	97.19
395.005	80.19
395.229	86.19
395.454	80.19
395.678	71.19
395.903	89.19
396.127	85.19
396.352	105.19
396.576	72.19
396.801	98.19
397.025	95.19
397.249	100.19
397.474	98.19
397.698	81.19
397.922	82.19
398.147	95.19
398.371	78.19
398.595	92.19
398.82	86.19
399.044	85.19
399.268	86.19
399.492	90.19
399.717	91.19
399.941	90.19
400.165	106.19
400.389	108.19
400.613	84.19
400.837	92.19
401.062	100.19
401.286	69.19
401.51	81.19
401.734	86.19
401.958	99.19
402.182	131.19
402.406	155.19
402.63	117.19
402.854	95.19
403.078	85.19
403.302	95.19
403.526	72.19
403.75	95.19
403.974	78.19
404.198	86.19
404.422	96.19
404.645	94.19
404.869	104.19
405.093	92.19
405.317	115.19
405.541	116.19
405.765	109.19
405.988	131.19
406.212	184.19
406.436	224.19
406.66	150.19
406.883	108.19
407.107	109.19
407.331	82.19
407.555	99.19
407.778	101.19
408.002	84.19
408.226	93.19
408.449	97.19
408.673	84.19
408.896	81.19
409.12	96.19
409.344	98.19
409.567	79.19
409.791	87.19
410.014	89.19
410.238	91.19
410.461	91.19
410.685	80.19
410.908	82.19
411.132	91.19
411.355	101.19
411.578	86.19
411.802	87.19
412.025	85.19
412.249	103.19
412.472	90.19
412.695	114.19
412.919	85.19
413.142	85.19
413.365	113.19
413.589	104.19
413.812	93.19
414.035	92.19
414.258	94.19
414.482	85.19
414.705	96.19
414.928	94.19
415.151	87.19
415.374	84.19
415.597	81.19
415.821	93.19
416.044	93.19
416.267	75.19
416.49	85.19
416.713	82.19
416.936	99.19
417.159	84.19
417.382	92.19
417.605	97.19
417.828	104.19
418.051	106.19
418.274	95.19
418.497	101.19
418.72	91.19
418.943	81.19
419.166	90.19
419.389	103.19
419.611	74.19
419.834	92.19
420.057	92.19
420.28	84.19
420.503	86.19
420.726	86.19
420.948	74.19
421.171	90.19
421.394	85.19
421.617	85.19
421.839	90.19
422.062	86.19
422.285	90.19
422.507	102.19
422.73	100.19
422.953	94.19
423.175	102.19
423.398	75.19
423.621	87.19
423.843	83.19
424.066	76.19
424.288	91.19
424.511	87.19
424.733	107.19
424.956	99.19
425.178	89.19
425.401	95.19
425.623	92.19
425.846	88.19
426.068	84.19
426.291	85.19
426.513	84.19
426.735	105.19
426.958	91.19
427.18	102.19
427.402	133.19
427.625	181.19
427.847	175.19
428.069	177.19
428.292	107.19
428.514	85.19
428.736	90.19
428.958	68.19
429.181	88.19
429.403	85.19
429.625	89.19
429.847	75.19
430.069	100.19
430.292	85.19
430.514	95.19
430.736	99.19
430.958	82.19
431.18	82.19
431.402	102.19
431.624	91.19
431.846	103.19
432.068	95.19
432.29	77.19
432.512	83.19
432.734	96.19
432.956	95.19
433.178	85.19
433.4	110.19
433.622	90.19
433.844	96.19
434.066	81.19
434.287	74.19
434.509	96.19
434.731	103.19
434.953	93.19
435.175	77.19
435.397	96.19
435.618	96.19
435.84	99.19
436.062	124.19
436.284	121.19
436.505	90.19
436.727	104.19
436.949	82.19
437.17	99.19
437.392	97.19
437.614	80.19
437.835	98.19
438.057	122.19
438.278	100.19
438.5	95.19
438.721	126.19
438.943	102.19
439.165	87.19
439.386	89.19
439.608	93.19
439.829	107.19
440.05	140.19
440.272	132.19
440.493	96.19
440.715	92.19
440.936	101.19
441.158	85.19
441.379	94.19
441.6	75.19
441.822	102.19
442.043	90.19
442.264	92.19
442.486	107.19
442.707	89.19
442.928	108.19
443.149	131.19
443.371	131.19
443.592	113.19
443.813	106.19
444.034	114.19
444.255	88.19
444.476	89.19
444.698	95.19
444.919	91.19
445.14	122.19
445.361	118.19
445.582	98.19
445.803	124.19
446.024	141.19
446.245	146.19
446.466	109.19
446.687	92.19
446.908	94.19
447.129	85.19
447.35	80.19
447.571	82.19
447.792	91.19
448.013	104.19
448.234	120.19
448.455	110.19
448.675	108.19
448.896	117.19
449.117	117.19
449.338	111.19
449.559	129.19
449.779	125.19
450	88.19
450.221	98.19
450.442	76.19
450.662	95.19
450.883	99.19
451.104	111.19
451.324	95.19
451.545	86.19
451.766	95.19
451.986	74.19
452.207	83.19
452.428	78.19
452.648	85.19
452.869	113.19
453.089	116.19
453.31	114.19
453.53	87.19
453.751	74.19
453.971	96.19
454.192	118.19
454.412	83.19
454.633	72.19
454.853	86.19
455.073	90.19
455.294	99.19
455.514	103.19
455.734	90.19
455.955	85.19
456.175	95.19
456.395	91.19
456.616	85.19
456.836	85.19
457.056	84.19
457.276	90.19
457.497	85.19
457.717	84.19
457.937	95.19
458.157	100.19
458.377	84.19
458.598	103.19
458.818	146.19
459.038	157.19
459.258	125.19
459.478	87.19
459.698	80.19
459.918	95.19
460.138	91.19
460.358	80.19
460.578	100.19
460.798	88.19
461.018	85.19
461.238	87.19
461.458	86.19
461.678	90.19
461.898	79.19
462.118	87.19
462.338	75.19
462.558	93.19
462.777	99.19
462.997	90.19
463.217	82.19
463.437	89.19
463.657	84.19
463.876	85.19
464.096	90.19
464.316	85.19
464.536	93.19
464.755	99.19
464.975	105.19
465.195	181.19
465.414	166.19
465.634	95.19
465.854	86.19
466.073	85.19
466.293	78.19
466.512	83.19
466.732	75.19
466.951	86.19
467.171	95.19
467.391	109.19
467.61	110.19
467.829	127.19
468.049	285.19
468.268	406.19
468.488	134.19
468.707	104.19
468.927	87.19
469.146	105.19
469.365	107.19
469.585	83.19
469.804	97.19
470.023	89.19
470.243	102.19
470.462	87.19
470.681	111.19
470.901	94.19
471.12	80.19
471.339	100.19
471.558	104.19
471.777	120.19
471.997	178.19
472.216	551.19
472.435	1088.19
472.654	296.19
472.873	112.19
473.092	94.19
473.311	104.19
473.53	100.19
473.749	86.19
473.968	101.19
474.187	110.19
474.406	109.19
474.625	87.19
474.844	70.19
475.063	95.19
475.282	85.19
475.501	95.19
475.72	88.19
475.939	92.19
476.158	99.19
476.377	89.19
476.596	90.19
476.814	96.19
477.033	86.19
477.252	89.19
477.471	92.19
477.69	90.19
477.908	82.19
478.127	96.19
478.346	97.19
478.564	86.19
478.783	95.19
479.002	98.19
479.22	96.19
479.439	102.19
479.658	98.19
479.876	108.19
480.095	97.19
480.313	110.19
480.532	110.19
480.751	175.19
480.969	481.19
481.188	1938.19
481.406	1109.19
481.624	204.19
481.843	91.19
482.061	90.19
482.28	91.19
482.498	96.19
482.717	91.19
482.935	101.19
483.153	85.19
483.372	88.19
483.59	82.19
483.808	99.19
484.027	89.19
484.245	82.19
484.463	77.19
484.681	88.19
484.9	91.19
485.118	102.19
485.336	101.19
485.554	79.19
485.772	99.19
485.99	91.19
486.209	101.19
486.427	99.19
486.645	98.19
486.863	104.19
487.081	93.19
487.299	96.19
487.517	104.19
487.735	88.19
487.953	91.19
488.171	97.19
488.389	87.19
488.607	96.19
488.825	77.19
489.043	78.19
489.261	95.19
489.479	90.19
489.696	103.19
489.914	99.19
490.132	75.19
490.35	92.19
490.568	89.19
490.786	92.19
491.003	88.19
491.221	87.19
491.439	93.19
491.657	99.19
491.874	94.19
492.092	91.19
492.31	79.19
492.527	82.19
492.745	88.19
492.963	87.19
493.18	86.19
493.398	88.19
493.615	99.19
493.833	93.19
494.05	101.19
494.268	98.19
494.485	95.19
494.703	91.19
494.92	100.19
495.138	80.19
495.355	96.19
495.573	93.19
495.79	84.19
496.008	100.19
496.225	89.19
496.442	86.19
496.66	102.19
496.877	75.19
497.094	86.19
497.312	92.19
497.529	88.19
497.746	86.19
497.963	82.19
498.181	87.19
498.398	98.19
498.615	120.19
498.832	108.19
499.049	72.19
499.267	84.19
499.484	103.19
499.701	87.19
499.918	88.19
500.135	108.19
500.352	81.19
500.569	80.19
500.786	107.19
501.003	105.19
501.22	83.19
501.437	97.19
501.654	88.19
501.871	103.19
502.088	84.19
502.305	87.19
502.522	91.19
502.739	83.19
502.956	86.19
503.172	95.19
503.389	96.19
503.606	98.19
503.823	100.19
504.04	91.19
504.256	88.19
504.473	85.19
504.69	83.19
504.907	96.19
505.123	88.19
505.34	101.19
505.557	91.19
505.773	95.19
505.99	87.19
506.207	78.19
506.423	75.19
506.64	87.19
506.856	92.19
507.073	86.19
507.289	90.19
507.506	93.19
507.722	124.19
507.939	121.19
508.155	94.19
508.372	88.19
508.588	93.19
508.805	112.19
509.021	88.19
509.238	85.19
509.454	98.19
509.67	86.19
509.887	104.19
510.103	106.19
510.319	199.19
510.536	715.19
510.752	2328.19
510.968	654.19
511.184	161.19
511.401	114.19
511.617	112.19
511.833	106.19
512.049	94.19
512.265	94.19
512.481	101.19
512.698	98.19
512.914	83.19
513.13	107.19
513.346	92.19
513.562	96.19
513.778	114.19
513.994	97.19
514.21	112.19
514.426	114.19
514.642	148.19
514.858	124.19
