Data from Circ_1991_H10_HRD10591_00087.txt Node
Date: Wed Jan 03 11:51:58 EST 2024
User: Yrep
Spectrometer: HR+D1059
Trigger mode: 1
Integration Time (sec): 1.000000E-1
Scans to average: 1
Electric dark correction enabled: true
Nonlinearity correction enabled: false
Boxcar width: 0
XAxis mode: Wavelengths
Number of Pixels in Spectrum: 2048
>>>>>Begin Spectral Data<<<<<
223.165	-19.31
223.4	-19.31
223.635	-19.31
223.869	-11.31
224.104	-17.31
224.338	-11.31
224.573	-21.31
224.808	-16.31
225.042	0.69
225.277	-3.31
225.511	-7.31
225.746	10.69
225.98	8.69
226.215	6.69
226.449	6.69
226.683	24.69
226.918	20.69
227.152	28.69
227.387	41.69
227.621	41.69
227.856	46.69
228.09	56.69
228.324	51.69
228.559	36.69
228.793	59.69
229.027	61.69
229.262	87.69
229.496	79.69
229.73	90.69
229.964	79.69
230.199	72.69
230.433	77.69
230.667	83.69
230.901	71.69
231.136	72.69
231.37	75.69
231.604	82.69
231.838	69.69
232.072	79.69
232.306	82.69
232.541	73.69
232.775	88.69
233.009	84.69
233.243	106.69
233.477	82.69
233.711	91.69
233.945	84.69
234.179	59.69
234.413	75.69
234.647	70.69
234.881	75.69
235.115	75.69
235.349	84.69
235.583	79.69
235.817	76.69
236.051	83.69
236.285	77.69
236.519	75.69
236.753	82.69
236.987	78.69
237.221	86.69
237.455	87.69
237.689	81.69
237.922	84.69
238.156	63.69
238.39	72.69
238.624	83.69
238.858	79.69
239.091	81.69
239.325	86.69
239.559	79.69
239.793	87.69
240.027	77.69
240.26	72.69
240.494	71.69
240.728	81.69
240.961	82.69
241.195	80.69
241.429	88.69
241.662	64.69
241.896	79.69
242.13	65.69
242.363	69.69
242.597	76.69
242.83	81.69
243.064	76.69
243.298	83.69
243.531	90.69
243.765	72.69
243.998	82.69
244.232	75.69
244.465	85.69
244.699	95.69
244.932	73.69
245.166	82.69
245.399	77.69
245.633	64.69
245.866	77.69
246.099	72.69
246.333	72.69
246.566	80.69
246.8	79.69
247.033	75.69
247.266	80.69
247.5	74.69
247.733	84.69
247.966	77.69
248.2	94.69
248.433	74.69
248.666	63.69
248.899	78.69
249.133	87.69
249.366	88.69
249.599	103.69
249.832	91.69
250.066	85.69
250.299	89.69
250.532	78.69
250.765	77.69
250.998	92.69
251.231	67.69
251.465	80.69
251.698	81.69
251.931	93.69
252.164	99.69
252.397	86.69
252.63	103.69
252.863	84.69
253.096	83.69
253.329	80.69
253.562	68.69
253.795	72.69
254.028	100.69
254.261	67.69
254.494	85.69
254.727	90.69
254.96	68.69
255.193	81.69
255.426	92.69
255.659	89.69
255.892	88.69
256.124	93.69
256.357	86.69
256.59	83.69
256.823	85.69
257.056	70.69
257.289	84.69
257.521	81.69
257.754	94.69
257.987	80.69
258.22	101.69
258.452	92.69
258.685	85.69
258.918	93.69
259.151	86.69
259.383	93.69
259.616	77.69
259.849	92.69
260.081	98.69
260.314	81.69
260.547	79.69
260.779	62.69
261.012	93.69
261.244	82.69
261.477	94.69
261.71	89.69
261.942	120.69
262.175	115.69
262.407	84.69
262.64	79.69
262.872	85.69
263.105	88.69
263.337	91.69
263.57	78.69
263.802	72.69
264.035	84.69
264.267	83.69
264.499	80.69
264.732	82.69
264.964	75.69
265.197	77.69
265.429	79.69
265.661	84.69
265.894	102.69
266.126	83.69
266.358	87.69
266.591	83.69
266.823	84.69
267.055	81.69
267.287	89.69
267.52	87.69
267.752	66.69
267.984	79.69
268.216	98.69
268.448	81.69
268.681	73.69
268.913	84.69
269.145	85.69
269.377	84.69
269.609	87.69
269.841	84.69
270.073	100.69
270.306	81.69
270.538	77.69
270.77	70.69
271.002	91.69
271.234	80.69
271.466	100.69
271.698	94.69
271.93	94.69
272.162	79.69
272.394	92.69
272.626	82.69
272.858	91.69
273.09	93.69
273.322	93.69
273.553	86.69
273.785	89.69
274.017	97.69
274.249	87.69
274.481	91.69
274.713	100.69
274.945	75.69
275.176	88.69
275.408	76.69
275.64	95.69
275.872	89.69
276.104	103.69
276.335	95.69
276.567	100.69
276.799	117.69
277.031	112.69
277.262	137.69
277.494	101.69
277.726	86.69
277.957	91.69
278.189	100.69
278.421	95.69
278.652	87.69
278.884	98.69
279.115	63.69
279.347	79.69
279.579	99.69
279.81	105.69
280.042	122.69
280.273	135.69
280.505	104.69
280.736	89.69
280.968	88.69
281.199	84.69
281.431	98.69
281.662	83.69
281.894	89.69
282.125	106.69
282.356	112.69
282.588	128.69
282.819	109.69
283.051	78.69
283.282	83.69
283.513	101.69
283.745	78.69
283.976	94.69
284.207	98.69
284.439	89.69
284.67	81.69
284.901	79.69
285.132	95.69
285.364	87.69
285.595	87.69
285.826	84.69
286.057	96.69
286.288	83.69
286.52	79.69
286.751	86.69
286.982	94.69
287.213	87.69
287.444	85.69
287.675	109.69
287.906	85.69
288.138	82.69
288.369	89.69
288.6	93.69
288.831	93.69
289.062	72.69
289.293	85.69
289.524	83.69
289.755	86.69
289.986	89.69
290.217	86.69
290.448	89.69
290.679	83.69
290.91	96.69
291.141	91.69
291.371	97.69
291.602	97.69
291.833	89.69
292.064	79.69
292.295	96.69
292.526	87.69
292.757	77.69
292.987	82.69
293.218	98.69
293.449	95.69
293.68	75.69
293.91	108.69
294.141	92.69
294.372	84.69
294.603	91.69
294.833	88.69
295.064	96.69
295.295	92.69
295.525	84.69
295.756	102.69
295.987	123.69
296.217	151.69
296.448	118.69
296.679	94.69
296.909	83.69
297.14	86.69
297.37	97.69
297.601	80.69
297.831	97.69
298.062	73.69
298.292	89.69
298.523	76.69
298.753	88.69
298.984	100.69
299.214	96.69
299.445	84.69
299.675	96.69
299.905	99.69
300.136	90.69
300.366	82.69
300.597	89.69
300.827	101.69
301.057	98.69
301.288	111.69
301.518	93.69
301.748	93.69
301.979	93.69
302.209	103.69
302.439	97.69
302.669	93.69
302.9	105.69
303.13	91.69
303.36	96.69
303.59	124.69
303.82	127.69
304.051	90.69
304.281	101.69
304.511	78.69
304.741	93.69
304.971	77.69
305.201	93.69
305.431	96.69
305.661	100.69
305.891	99.69
306.121	105.69
306.352	92.69
306.582	103.69
306.812	98.69
307.042	103.69
307.272	107.69
307.502	128.69
307.731	120.69
307.961	103.69
308.191	80.69
308.421	84.69
308.651	82.69
308.881	90.69
309.111	101.69
309.341	116.69
309.571	110.69
309.8	109.69
310.03	103.69
310.26	102.69
310.49	87.69
310.72	102.69
310.949	102.69
311.179	109.69
311.409	100.69
311.639	95.69
311.868	97.69
312.098	90.69
312.328	97.69
312.557	105.69
312.787	100.69
313.017	96.69
313.246	107.69
313.476	84.69
313.706	102.69
313.935	102.69
314.165	97.69
314.394	94.69
314.624	100.69
314.853	103.69
315.083	94.69
315.312	96.69
315.542	91.69
315.771	77.69
316.001	80.69
316.23	93.69
316.46	96.69
316.689	86.69
316.919	94.69
317.148	117.69
317.377	97.69
317.607	97.69
317.836	87.69
318.065	103.69
318.295	94.69
318.524	90.69
318.753	91.69
318.983	105.69
319.212	96.69
319.441	116.69
319.67	126.69
319.9	99.69
320.129	93.69
320.358	89.69
320.587	91.69
320.816	108.69
321.046	103.69
321.275	97.69
321.504	93.69
321.733	94.69
321.962	101.69
322.191	102.69
322.42	102.69
322.649	116.69
322.878	126.69
323.108	113.69
323.337	118.69
323.566	142.69
323.795	154.69
324.024	215.69
324.253	429.69
324.482	900.69
324.71	1860.69
324.939	2550.69
325.168	868.69
325.397	266.69
325.626	159.69
325.855	132.69
326.084	132.69
326.313	147.69
326.542	160.69
326.77	239.69
326.999	484.69
327.228	1037.69
327.457	1920.69
327.686	1553.69
327.914	447.69
328.143	314.69
328.372	321.69
328.6	197.69
328.829	143.69
329.058	137.69
329.287	137.69
329.515	124.69
329.744	165.69
329.972	225.69
330.201	426.69
330.43	575.69
330.658	295.69
330.887	177.69
331.115	133.69
331.344	110.69
331.572	91.69
331.801	91.69
332.03	108.69
332.258	105.69
332.486	93.69
332.715	92.69
332.943	103.69
333.172	105.69
333.4	105.69
333.629	117.69
333.857	161.69
334.085	222.69
334.314	424.69
334.542	740.69
334.771	696.69
334.999	220.69
335.227	113.69
335.455	122.69
335.684	98.69
335.912	92.69
336.14	107.69
336.369	91.69
336.597	99.69
336.825	103.69
337.053	105.69
337.281	83.69
337.51	98.69
337.738	100.69
337.966	103.69
338.194	94.69
338.422	110.69
338.65	108.69
338.878	101.69
339.106	85.69
339.334	95.69
339.562	96.69
339.79	85.69
340.018	83.69
340.246	85.69
340.474	100.69
340.702	91.69
340.93	100.69
341.158	93.69
341.386	85.69
341.614	105.69
341.842	105.69
342.07	96.69
342.298	111.69
342.526	89.69
342.754	86.69
342.981	91.69
343.209	84.69
343.437	97.69
343.665	68.69
343.893	95.69
344.12	93.69
344.348	73.69
344.576	92.69
344.804	92.69
345.031	104.69
345.259	102.69
345.487	92.69
345.714	95.69
345.942	86.69
346.17	99.69
346.397	85.69
346.625	97.69
346.853	89.69
347.08	91.69
347.308	99.69
347.535	99.69
347.763	107.69
347.99	105.69
348.218	96.69
348.445	104.69
348.673	111.69
348.9	107.69
349.128	102.69
349.355	91.69
349.583	94.69
349.81	93.69
350.037	98.69
350.265	83.69
350.492	100.69
350.72	89.69
350.947	100.69
351.174	102.69
351.402	119.69
351.629	96.69
351.856	95.69
352.083	102.69
352.311	100.69
352.538	88.69
352.765	107.69
352.992	116.69
353.22	113.69
353.447	95.69
353.674	111.69
353.901	92.69
354.128	113.69
354.355	93.69
354.583	100.69
354.81	90.69
355.037	87.69
355.264	97.69
355.491	100.69
355.718	78.69
355.945	113.69
356.172	102.69
356.399	91.69
356.626	91.69
356.853	100.69
357.08	93.69
357.307	97.69
357.534	91.69
357.761	95.69
357.988	87.69
358.215	105.69
358.441	87.69
358.668	91.69
358.895	91.69
359.122	94.69
359.349	93.69
359.576	101.69
359.802	100.69
360.029	105.69
360.256	119.69
360.483	99.69
360.709	83.69
360.936	82.69
361.163	91.69
361.39	88.69
361.616	93.69
361.843	89.69
362.07	87.69
362.296	96.69
362.523	101.69
362.749	85.69
362.976	95.69
363.203	91.69
363.429	91.69
363.656	103.69
363.882	89.69
364.109	88.69
364.335	82.69
364.562	88.69
364.788	95.69
365.015	103.69
365.241	93.69
365.468	104.69
365.694	115.69
365.92	113.69
366.147	87.69
366.373	102.69
366.599	101.69
366.826	92.69
367.052	99.69
367.278	81.69
367.505	83.69
367.731	91.69
367.957	102.69
368.184	96.69
368.41	94.69
368.636	109.69
368.862	112.69
369.089	95.69
369.315	89.69
369.541	95.69
369.767	89.69
369.993	75.69
370.219	87.69
370.445	83.69
370.672	86.69
370.898	89.69
371.124	93.69
371.35	91.69
371.576	89.69
371.802	81.69
372.028	96.69
372.254	81.69
372.48	95.69
372.706	91.69
372.932	87.69
373.158	97.69
373.384	102.69
373.61	95.69
373.835	96.69
374.061	92.69
374.287	88.69
374.513	87.69
374.739	77.69
374.965	101.69
375.191	79.69
375.416	86.69
375.642	83.69
375.868	90.69
376.094	77.69
376.319	83.69
376.545	94.69
376.771	103.69
376.997	105.69
377.222	86.69
377.448	98.69
377.674	93.69
377.899	79.69
378.125	97.69
378.35	93.69
378.576	92.69
378.802	92.69
379.027	88.69
379.253	97.69
379.478	99.69
379.704	95.69
379.929	96.69
380.155	96.69
380.38	98.69
380.606	94.69
380.831	84.69
381.057	107.69
381.282	93.69
381.507	99.69
381.733	104.69
381.958	99.69
382.184	109.69
382.409	113.69
382.634	117.69
382.86	100.69
383.085	100.69
383.31	97.69
383.535	100.69
383.761	97.69
383.986	86.69
384.211	111.69
384.436	111.69
384.662	88.69
384.887	91.69
385.112	96.69
385.337	109.69
385.562	102.69
385.787	100.69
386.013	105.69
386.238	112.69
386.463	111.69
386.688	105.69
386.913	107.69
387.138	98.69
387.363	98.69
387.588	93.69
387.813	107.69
388.038	103.69
388.263	122.69
388.488	91.69
388.713	107.69
388.938	108.69
389.163	93.69
389.387	96.69
389.612	101.69
389.837	90.69
390.062	100.69
390.287	101.69
390.512	94.69
390.736	88.69
390.961	92.69
391.186	87.69
391.411	95.69
391.636	96.69
391.86	84.69
392.085	77.69
392.31	98.69
392.534	101.69
392.759	88.69
392.984	83.69
393.208	98.69
393.433	103.69
393.658	99.69
393.882	95.69
394.107	91.69
394.331	82.69
394.556	89.69
394.78	95.69
395.005	91.69
395.229	84.69
395.454	85.69
395.678	76.69
395.903	80.69
396.127	104.69
396.352	98.69
396.576	100.69
396.801	100.69
397.025	95.69
397.249	95.69
397.474	85.69
397.698	88.69
397.922	92.69
398.147	94.69
398.371	89.69
398.595	92.69
398.82	77.69
399.044	92.69
399.268	90.69
399.492	88.69
399.717	112.69
399.941	95.69
400.165	95.69
400.389	97.69
400.613	72.69
400.837	89.69
401.062	95.69
401.286	78.69
401.51	67.69
401.734	88.69
401.958	102.69
402.182	122.69
402.406	155.69
402.63	120.69
402.854	81.69
403.078	98.69
403.302	86.69
403.526	96.69
403.75	103.69
403.974	82.69
404.198	94.69
404.422	101.69
404.645	88.69
404.869	81.69
405.093	103.69
405.317	115.69
405.541	112.69
405.765	92.69
405.988	132.69
406.212	169.69
406.436	240.69
406.66	151.69
406.883	98.69
407.107	93.69
407.331	119.69
407.555	93.69
407.778	106.69
408.002	92.69
408.226	97.69
408.449	80.69
408.673	102.69
408.896	89.69
409.12	96.69
409.344	84.69
409.567	104.69
409.791	77.69
410.014	88.69
410.238	92.69
410.461	84.69
410.685	91.69
410.908	88.69
411.132	93.69
411.355	97.69
411.578	92.69
411.802	84.69
412.025	96.69
412.249	98.69
412.472	88.69
412.695	110.69
412.919	88.69
413.142	78.69
413.365	91.69
413.589	103.69
413.812	84.69
414.035	85.69
414.258	93.69
414.482	82.69
414.705	90.69
414.928	95.69
415.151	102.69
415.374	105.69
415.597	93.69
415.821	92.69
416.044	95.69
416.267	94.69
416.49	81.69
416.713	85.69
416.936	88.69
417.159	99.69
417.382	96.69
417.605	92.69
417.828	94.69
418.051	86.69
418.274	104.69
418.497	84.69
418.72	82.69
418.943	104.69
419.166	82.69
419.389	87.69
419.611	101.69
419.834	96.69
420.057	94.69
420.28	100.69
420.503	86.69
420.726	91.69
420.948	105.69
421.171	97.69
421.394	93.69
421.617	93.69
421.839	89.69
422.062	83.69
422.285	79.69
422.507	109.69
422.73	114.69
422.953	88.69
423.175	91.69
423.398	106.69
423.621	89.69
423.843	105.69
424.066	88.69
424.288	93.69
424.511	97.69
424.733	86.69
424.956	100.69
425.178	97.69
425.401	87.69
425.623	91.69
425.846	91.69
426.068	111.69
426.291	87.69
426.513	83.69
426.735	81.69
426.958	107.69
427.18	100.69
427.402	143.69
427.625	189.69
427.847	181.69
428.069	159.69
428.292	101.69
428.514	90.69
428.736	81.69
428.958	92.69
429.181	92.69
429.403	84.69
429.625	85.69
429.847	99.69
430.069	100.69
430.292	97.69
430.514	91.69
430.736	101.69
430.958	96.69
431.18	89.69
431.402	87.69
431.624	80.69
431.846	89.69
432.068	91.69
432.29	75.69
432.512	93.69
432.734	78.69
432.956	93.69
433.178	108.69
433.4	110.69
433.622	103.69
433.844	88.69
434.066	105.69
434.287	86.69
434.509	88.69
434.731	97.69
434.953	92.69
435.175	93.69
435.397	88.69
435.618	97.69
435.84	106.69
436.062	133.69
436.284	113.69
436.505	96.69
436.727	99.69
436.949	92.69
437.17	85.69
437.392	84.69
437.614	105.69
437.835	107.69
438.057	113.69
438.278	125.69
438.5	91.69
438.721	110.69
438.943	96.69
439.165	103.69
439.386	73.69
439.608	101.69
439.829	95.69
440.05	120.69
440.272	151.69
440.493	113.69
440.715	84.69
440.936	97.69
441.158	85.69
441.379	95.69
441.6	97.69
441.822	100.69
442.043	99.69
442.264	101.69
442.486	106.69
442.707	100.69
442.928	121.69
443.149	122.69
443.371	136.69
443.592	118.69
443.813	115.69
444.034	106.69
444.255	93.69
444.476	81.69
444.698	85.69
444.919	90.69
445.14	149.69
445.361	131.69
445.582	131.69
445.803	141.69
446.024	134.69
446.245	139.69
446.466	115.69
446.687	97.69
446.908	95.69
447.129	100.69
447.35	83.69
447.571	104.69
447.792	89.69
448.013	102.69
448.234	116.69
448.455	107.69
448.675	113.69
448.896	131.69
449.117	113.69
449.338	109.69
449.559	108.69
449.779	131.69
450	91.69
450.221	81.69
450.442	107.69
450.662	104.69
450.883	99.69
451.104	105.69
451.324	109.69
451.545	91.69
451.766	103.69
451.986	88.69
452.207	92.69
452.428	104.69
452.648	103.69
452.869	102.69
453.089	129.69
453.31	106.69
453.53	117.69
453.751	95.69
453.971	101.69
454.192	107.69
454.412	94.69
454.633	92.69
454.853	81.69
455.073	94.69
455.294	81.69
455.514	102.69
455.734	92.69
455.955	80.69
456.175	98.69
456.395	78.69
456.616	86.69
456.836	94.69
457.056	87.69
457.276	78.69
457.497	88.69
457.717	87.69
457.937	88.69
458.157	90.69
458.377	120.69
458.598	111.69
458.818	142.69
459.038	156.69
459.258	124.69
459.478	89.69
459.698	85.69
459.918	88.69
460.138	96.69
460.358	96.69
460.578	93.69
460.798	94.69
461.018	98.69
461.238	99.69
461.458	96.69
461.678	86.69
461.898	83.69
462.118	99.69
462.338	85.69
462.558	87.69
462.777	86.69
462.997	101.69
463.217	95.69
463.437	87.69
463.657	85.69
463.876	91.69
464.096	92.69
464.316	93.69
464.536	105.69
464.755	104.69
464.975	113.69
465.195	175.69
465.414	152.69
465.634	106.69
465.854	72.69
466.073	81.69
466.293	103.69
466.512	102.69
466.732	87.69
466.951	100.69
467.171	92.69
467.391	94.69
467.61	118.69
467.829	143.69
468.049	294.69
468.268	364.69
468.488	140.69
468.707	96.69
468.927	87.69
469.146	98.69
469.365	96.69
469.585	84.69
469.804	92.69
470.023	105.69
470.243	93.69
470.462	104.69
470.681	122.69
470.901	94.69
471.12	108.69
471.339	107.69
471.558	107.69
471.777	136.69
471.997	197.69
472.216	527.69
472.435	1092.69
472.654	293.69
472.873	123.69
473.092	98.69
473.311	88.69
473.53	89.69
473.749	95.69
473.968	100.69
474.187	112.69
474.406	88.69
474.625	80.69
474.844	104.69
475.063	87.69
475.282	101.69
475.501	93.69
475.72	94.69
475.939	94.69
476.158	97.69
476.377	84.69
476.596	83.69
476.814	91.69
477.033	85.69
477.252	95.69
477.471	76.69
477.69	89.69
477.908	91.69
478.127	93.69
478.346	85.69
478.564	94.69
478.783	96.69
479.002	92.69
479.22	97.69
479.439	109.69
479.658	101.69
479.876	103.69
480.095	121.69
480.313	117.69
480.532	129.69
480.751	166.69
480.969	509.69
481.188	1939.69
481.406	1105.69
481.624	210.69
481.843	112.69
482.061	105.69
482.28	104.69
482.498	103.69
482.717	84.69
482.935	99.69
483.153	102.69
483.372	91.69
483.59	86.69
483.808	91.69
484.027	99.69
484.245	91.69
484.463	86.69
484.681	105.69
484.9	100.69
485.118	95.69
485.336	103.69
485.554	93.69
485.772	107.69
485.99	110.69
486.209	104.69
486.427	113.69
486.645	101.69
486.863	109.69
487.081	108.69
487.299	93.69
487.517	103.69
487.735	81.69
487.953	88.69
488.171	104.69
488.389	88.69
488.607	97.69
488.825	105.69
489.043	93.69
489.261	87.69
489.479	94.69
489.696	95.69
489.914	100.69
490.132	89.69
490.35	83.69
490.568	94.69
490.786	111.69
491.003	95.69
491.221	86.69
491.439	93.69
491.657	94.69
491.874	86.69
492.092	94.69
492.31	92.69
492.527	79.69
492.745	109.69
492.963	104.69
493.18	88.69
493.398	87.69
493.615	91.69
493.833	92.69
494.05	90.69
494.268	101.69
494.485	92.69
494.703	93.69
494.92	92.69
495.138	99.69
495.355	96.69
495.573	101.69
495.79	83.69
496.008	96.69
496.225	90.69
496.442	93.69
496.66	97.69
496.877	82.69
497.094	95.69
497.312	97.69
497.529	100.69
497.746	81.69
497.963	90.69
498.181	94.69
498.398	103.69
498.615	108.69
498.832	104.69
499.049	91.69
499.267	100.69
499.484	96.69
499.701	82.69
499.918	101.69
500.135	92.69
500.352	85.69
500.569	102.69
500.786	77.69
501.003	83.69
501.22	91.69
501.437	88.69
501.654	92.69
501.871	115.69
502.088	93.69
502.305	103.69
502.522	93.69
502.739	82.69
502.956	98.69
503.172	87.69
503.389	105.69
503.606	108.69
503.823	85.69
504.04	88.69
504.256	92.69
504.473	90.69
504.69	84.69
504.907	93.69
505.123	83.69
505.34	101.69
505.557	87.69
505.773	95.69
505.99	88.69
506.207	84.69
506.423	91.69
506.64	83.69
506.856	83.69
507.073	107.69
507.289	96.69
507.506	101.69
507.722	112.69
507.939	115.69
508.155	107.69
508.372	85.69
508.588	88.69
508.805	109.69
509.021	97.69
509.238	98.69
509.454	95.69
509.67	107.69
509.887	107.69
510.103	124.69
510.319	220.69
510.536	759.69
510.752	2469.69
510.968	688.69
511.184	152.69
511.401	126.69
511.617	105.69
511.833	99.69
512.049	84.69
512.265	93.69
512.481	100.69
512.698	105.69
512.914	104.69
513.13	95.69
513.346	107.69
513.562	88.69
513.778	107.69
513.994	106.69
