Data from Circ_1991_H10_HRD10591_00058.txt Node
Date: Wed Jan 03 11:51:52 EST 2024
User: Yrep
Spectrometer: HR+D1059
Trigger mode: 1
Integration Time (sec): 1.000000E-1
Scans to average: 1
Electric dark correction enabled: true
Nonlinearity correction enabled: false
Boxcar width: 0
XAxis mode: Wavelengths
Number of Pixels in Spectrum: 2048
>>>>>Begin Spectral Data<<<<<
223.165	-17.75
223.4	-17.75
223.635	-17.75
223.869	-27.75
224.104	-21.75
224.338	-13.75
224.573	-8.75
224.808	-16.75
225.042	-12.75
225.277	-3.75
225.511	-18.75
225.746	13.25
225.98	10.25
226.215	15.25
226.449	11.25
226.683	20.25
226.918	33.25
227.152	38.25
227.387	21.25
227.621	46.25
227.856	50.25
228.09	36.25
228.324	56.25
228.559	61.25
228.793	70.25
229.027	56.25
229.262	67.25
229.496	79.25
229.73	84.25
229.964	90.25
230.199	79.25
230.433	65.25
230.667	68.25
230.901	76.25
231.136	80.25
231.37	74.25
231.604	72.25
231.838	84.25
232.072	91.25
232.306	83.25
232.541	86.25
232.775	86.25
233.009	75.25
233.243	74.25
233.477	77.25
233.711	77.25
233.945	69.25
234.179	77.25
234.413	75.25
234.647	72.25
234.881	80.25
235.115	89.25
235.349	69.25
235.583	83.25
235.817	83.25
236.051	76.25
236.285	69.25
236.519	74.25
236.753	83.25
236.987	84.25
237.221	78.25
237.455	97.25
237.689	78.25
237.922	71.25
238.156	68.25
238.39	72.25
238.624	78.25
238.858	79.25
239.091	80.25
239.325	80.25
239.559	85.25
239.793	75.25
240.027	81.25
240.26	72.25
240.494	83.25
240.728	85.25
240.961	78.25
241.195	85.25
241.429	84.25
241.662	79.25
241.896	78.25
242.13	70.25
242.363	65.25
242.597	70.25
242.83	79.25
243.064	86.25
243.298	81.25
243.531	93.25
243.765	76.25
243.998	90.25
244.232	82.25
244.465	88.25
244.699	91.25
244.932	76.25
245.166	63.25
245.399	66.25
245.633	68.25
245.866	80.25
246.099	65.25
246.333	88.25
246.566	76.25
246.8	80.25
247.033	86.25
247.266	77.25
247.5	87.25
247.733	90.25
247.966	85.25
248.2	59.25
248.433	64.25
248.666	85.25
248.899	90.25
249.133	91.25
249.366	94.25
249.599	100.25
249.832	93.25
250.066	91.25
250.299	83.25
250.532	87.25
250.765	80.25
250.998	74.25
251.231	73.25
251.465	73.25
251.698	91.25
251.931	75.25
252.164	89.25
252.397	89.25
252.63	75.25
252.863	72.25
253.096	79.25
253.329	83.25
253.562	70.25
253.795	82.25
254.028	75.25
254.261	88.25
254.494	75.25
254.727	80.25
254.96	69.25
255.193	84.25
255.426	83.25
255.659	77.25
255.892	81.25
256.124	96.25
256.357	70.25
256.59	91.25
256.823	74.25
257.056	69.25
257.289	85.25
257.521	82.25
257.754	78.25
257.987	85.25
258.22	80.25
258.452	93.25
258.685	76.25
258.918	79.25
259.151	75.25
259.383	86.25
259.616	80.25
259.849	86.25
260.081	90.25
260.314	89.25
260.547	93.25
260.779	86.25
261.012	86.25
261.244	97.25
261.477	95.25
261.71	97.25
261.942	114.25
262.175	114.25
262.407	77.25
262.64	90.25
262.872	95.25
263.105	87.25
263.337	89.25
263.57	81.25
263.802	85.25
264.035	80.25
264.267	73.25
264.499	66.25
264.732	74.25
264.964	88.25
265.197	91.25
265.429	83.25
265.661	84.25
265.894	96.25
266.126	87.25
266.358	78.25
266.591	69.25
266.823	89.25
267.055	83.25
267.287	76.25
267.52	67.25
267.752	84.25
267.984	81.25
268.216	75.25
268.448	77.25
268.681	102.25
268.913	92.25
269.145	87.25
269.377	85.25
269.609	85.25
269.841	71.25
270.073	82.25
270.306	85.25
270.538	75.25
270.77	89.25
271.002	81.25
271.234	79.25
271.466	90.25
271.698	88.25
271.93	86.25
272.162	92.25
272.394	89.25
272.626	65.25
272.858	62.25
273.09	75.25
273.322	70.25
273.553	82.25
273.785	79.25
274.017	86.25
274.249	83.25
274.481	74.25
274.713	89.25
274.945	86.25
275.176	85.25
275.408	87.25
275.64	101.25
275.872	90.25
276.104	86.25
276.335	95.25
276.567	96.25
276.799	110.25
277.031	114.25
277.262	124.25
277.494	99.25
277.726	93.25
277.957	84.25
278.189	90.25
278.421	81.25
278.652	78.25
278.884	85.25
279.115	79.25
279.347	82.25
279.579	88.25
279.81	102.25
280.042	122.25
280.273	142.25
280.505	123.25
280.736	84.25
280.968	88.25
281.199	90.25
281.431	110.25
281.662	100.25
281.894	86.25
282.125	88.25
282.356	111.25
282.588	148.25
282.819	110.25
283.051	97.25
283.282	84.25
283.513	76.25
283.745	85.25
283.976	86.25
284.207	96.25
284.439	84.25
284.67	91.25
284.901	79.25
285.132	89.25
285.364	85.25
285.595	94.25
285.826	97.25
286.057	93.25
286.288	90.25
286.52	79.25
286.751	92.25
286.982	84.25
287.213	72.25
287.444	94.25
287.675	95.25
287.906	96.25
288.138	108.25
288.369	86.25
288.6	85.25
288.831	81.25
289.062	84.25
289.293	101.25
289.524	69.25
289.755	79.25
289.986	96.25
290.217	99.25
290.448	79.25
290.679	73.25
290.91	85.25
291.141	77.25
291.371	85.25
291.602	85.25
291.833	94.25
292.064	76.25
292.295	97.25
292.526	92.25
292.757	88.25
292.987	67.25
293.218	77.25
293.449	98.25
293.68	91.25
293.91	89.25
294.141	84.25
294.372	68.25
294.603	86.25
294.833	73.25
295.064	92.25
295.295	84.25
295.525	100.25
295.756	84.25
295.987	121.25
296.217	133.25
296.448	129.25
296.679	86.25
296.909	90.25
297.14	81.25
297.37	74.25
297.601	79.25
297.831	101.25
298.062	82.25
298.292	82.25
298.523	90.25
298.753	83.25
298.984	100.25
299.214	92.25
299.445	100.25
299.675	107.25
299.905	97.25
300.136	84.25
300.366	80.25
300.597	90.25
300.827	89.25
301.057	105.25
301.288	112.25
301.518	90.25
301.748	80.25
301.979	88.25
302.209	96.25
302.439	84.25
302.669	98.25
302.9	90.25
303.13	79.25
303.36	104.25
303.59	108.25
303.82	106.25
304.051	91.25
304.281	88.25
304.511	81.25
304.741	89.25
304.971	78.25
305.201	93.25
305.431	91.25
305.661	86.25
305.891	76.25
306.121	98.25
306.352	110.25
306.582	106.25
306.812	74.25
307.042	93.25
307.272	116.25
307.502	124.25
307.731	111.25
307.961	103.25
308.191	88.25
308.421	94.25
308.651	94.25
308.881	85.25
309.111	96.25
309.341	105.25
309.571	97.25
309.8	101.25
310.03	88.25
310.26	90.25
310.49	89.25
310.72	95.25
310.949	99.25
311.179	107.25
311.409	90.25
311.639	80.25
311.868	76.25
312.098	86.25
312.328	85.25
312.557	102.25
312.787	111.25
313.017	104.25
313.246	82.25
313.476	92.25
313.706	104.25
313.935	96.25
314.165	110.25
314.394	103.25
314.624	99.25
314.853	106.25
315.083	88.25
315.312	93.25
315.542	86.25
315.771	89.25
316.001	92.25
316.23	87.25
316.46	92.25
316.689	101.25
316.919	98.25
317.148	102.25
317.377	112.25
317.607	93.25
317.836	91.25
318.065	92.25
318.295	93.25
318.524	96.25
318.753	92.25
318.983	91.25
319.212	95.25
319.441	104.25
319.67	108.25
319.9	100.25
320.129	93.25
320.358	94.25
320.587	92.25
320.816	96.25
321.046	103.25
321.275	97.25
321.504	94.25
321.733	102.25
321.962	94.25
322.191	99.25
322.42	104.25
322.649	99.25
322.878	110.25
323.108	110.25
323.337	126.25
323.566	149.25
323.795	164.25
324.024	218.25
324.253	441.25
324.482	960.25
324.71	2000.25
324.939	2708.25
325.168	968.25
325.397	266.25
325.626	163.25
325.855	133.25
326.084	137.25
326.313	136.25
326.542	156.25
326.77	250.25
326.999	496.25
327.228	1075.25
327.457	2012.25
327.686	1630.25
327.914	448.25
328.143	307.25
328.372	339.25
328.6	229.25
328.829	129.25
329.058	131.25
329.287	151.25
329.515	127.25
329.744	159.25
329.972	251.25
330.201	460.25
330.43	617.25
330.658	304.25
330.887	189.25
331.115	122.25
331.344	111.25
331.572	105.25
331.801	117.25
332.03	107.25
332.258	107.25
332.486	96.25
332.715	93.25
332.943	101.25
333.172	104.25
333.4	114.25
333.629	124.25
333.857	141.25
334.085	223.25
334.314	431.25
334.542	774.25
334.771	718.25
334.999	238.25
335.227	127.25
335.455	110.25
335.684	97.25
335.912	86.25
336.14	101.25
336.369	102.25
336.597	104.25
336.825	109.25
337.053	93.25
337.281	91.25
337.51	97.25
337.738	97.25
337.966	80.25
338.194	110.25
338.422	122.25
338.65	89.25
338.878	77.25
339.106	89.25
339.334	84.25
339.562	92.25
339.79	91.25
340.018	92.25
340.246	86.25
340.474	85.25
340.702	75.25
340.93	81.25
341.158	97.25
341.386	92.25
341.614	97.25
341.842	96.25
342.07	83.25
342.298	83.25
342.526	87.25
342.754	83.25
342.981	79.25
343.209	89.25
343.437	74.25
343.665	95.25
343.893	89.25
344.12	92.25
344.348	98.25
344.576	86.25
344.804	83.25
345.031	93.25
345.259	98.25
345.487	97.25
345.714	99.25
345.942	85.25
346.17	92.25
346.397	92.25
346.625	88.25
346.853	100.25
347.08	94.25
347.308	97.25
347.535	97.25
347.763	100.25
347.99	88.25
348.218	108.25
348.445	91.25
348.673	99.25
348.9	100.25
349.128	94.25
349.355	99.25
349.583	102.25
349.81	102.25
350.037	101.25
350.265	91.25
350.492	89.25
350.72	106.25
350.947	94.25
351.174	108.25
351.402	108.25
351.629	110.25
351.856	89.25
352.083	111.25
352.311	101.25
352.538	99.25
352.765	97.25
352.992	90.25
353.22	100.25
353.447	110.25
353.674	90.25
353.901	95.25
354.128	108.25
354.355	93.25
354.583	98.25
354.81	95.25
355.037	103.25
355.264	98.25
355.491	97.25
355.718	83.25
355.945	85.25
356.172	101.25
356.399	81.25
356.626	76.25
356.853	93.25
357.08	105.25
357.307	90.25
357.534	88.25
357.761	95.25
357.988	89.25
358.215	90.25
358.441	91.25
358.668	103.25
358.895	80.25
359.122	84.25
359.349	96.25
359.576	84.25
359.802	97.25
360.029	109.25
360.256	101.25
360.483	97.25
360.709	96.25
360.936	97.25
361.163	85.25
361.39	88.25
361.616	93.25
361.843	89.25
362.07	100.25
362.296	101.25
362.523	115.25
362.749	97.25
362.976	82.25
363.203	97.25
363.429	90.25
363.656	94.25
363.882	79.25
364.109	84.25
364.335	94.25
364.562	99.25
364.788	89.25
365.015	91.25
365.241	89.25
365.468	102.25
365.694	104.25
365.92	98.25
366.147	87.25
366.373	96.25
366.599	85.25
366.826	86.25
367.052	87.25
367.278	85.25
367.505	80.25
367.731	86.25
367.957	83.25
368.184	91.25
368.41	93.25
368.636	108.25
368.862	123.25
369.089	102.25
369.315	97.25
369.541	81.25
369.767	93.25
369.993	92.25
370.219	88.25
370.445	81.25
370.672	87.25
370.898	78.25
371.124	80.25
371.35	92.25
371.576	95.25
371.802	82.25
372.028	85.25
372.254	80.25
372.48	81.25
372.706	100.25
372.932	89.25
373.158	79.25
373.384	90.25
373.61	81.25
373.835	89.25
374.061	99.25
374.287	98.25
374.513	76.25
374.739	85.25
374.965	100.25
375.191	82.25
375.416	84.25
375.642	86.25
375.868	99.25
376.094	84.25
376.319	82.25
376.545	77.25
376.771	78.25
376.997	86.25
377.222	88.25
377.448	88.25
377.674	74.25
377.899	76.25
378.125	86.25
378.35	96.25
378.576	92.25
378.802	85.25
379.027	91.25
379.253	72.25
379.478	98.25
379.704	92.25
379.929	92.25
380.155	101.25
380.38	105.25
380.606	90.25
380.831	86.25
381.057	103.25
381.282	92.25
381.507	89.25
381.733	96.25
381.958	98.25
382.184	93.25
382.409	96.25
382.634	98.25
382.86	99.25
383.085	88.25
383.31	114.25
383.535	92.25
383.761	98.25
383.986	88.25
384.211	91.25
384.436	89.25
384.662	108.25
384.887	106.25
385.112	101.25
385.337	102.25
385.562	99.25
385.787	104.25
386.013	111.25
386.238	106.25
386.463	108.25
386.688	108.25
386.913	100.25
387.138	115.25
387.363	92.25
387.588	88.25
387.813	91.25
388.038	95.25
388.263	110.25
388.488	108.25
388.713	91.25
388.938	93.25
389.163	86.25
389.387	93.25
389.612	110.25
389.837	85.25
390.062	89.25
390.287	99.25
390.512	97.25
390.736	87.25
390.961	92.25
391.186	82.25
391.411	89.25
391.636	85.25
391.86	87.25
392.085	76.25
392.31	88.25
392.534	93.25
392.759	82.25
392.984	75.25
393.208	96.25
393.433	127.25
393.658	111.25
393.882	88.25
394.107	70.25
394.331	91.25
394.556	89.25
394.78	96.25
395.005	96.25
395.229	92.25
395.454	100.25
395.678	86.25
395.903	84.25
396.127	78.25
396.352	92.25
396.576	80.25
396.801	105.25
397.025	90.25
397.249	98.25
397.474	88.25
397.698	88.25
397.922	96.25
398.147	76.25
398.371	85.25
398.595	60.25
398.82	84.25
399.044	75.25
399.268	83.25
399.492	87.25
399.717	78.25
399.941	75.25
400.165	96.25
400.389	94.25
400.613	82.25
400.837	83.25
401.062	88.25
401.286	80.25
401.51	94.25
401.734	97.25
401.958	102.25
402.182	128.25
402.406	161.25
402.63	120.25
402.854	92.25
403.078	86.25
403.302	88.25
403.526	76.25
403.75	80.25
403.974	75.25
404.198	91.25
404.422	89.25
404.645	86.25
404.869	99.25
405.093	106.25
405.317	109.25
405.541	112.25
405.765	109.25
405.988	107.25
406.212	181.25
406.436	269.25
406.66	146.25
406.883	80.25
407.107	83.25
407.331	93.25
407.555	97.25
407.778	90.25
408.002	102.25
408.226	72.25
408.449	92.25
408.673	77.25
408.896	87.25
409.12	96.25
409.344	94.25
409.567	95.25
409.791	83.25
410.014	97.25
410.238	96.25
410.461	106.25
410.685	94.25
410.908	79.25
411.132	107.25
411.355	90.25
411.578	82.25
411.802	74.25
412.025	81.25
412.249	100.25
412.472	104.25
412.695	103.25
412.919	92.25
413.142	87.25
413.365	76.25
413.589	86.25
413.812	98.25
414.035	99.25
414.258	100.25
414.482	85.25
414.705	73.25
414.928	84.25
415.151	86.25
415.374	94.25
415.597	74.25
415.821	108.25
416.044	101.25
416.267	90.25
416.49	92.25
416.713	92.25
416.936	71.25
417.159	89.25
417.382	81.25
417.605	102.25
417.828	94.25
418.051	84.25
418.274	96.25
418.497	94.25
418.72	70.25
418.943	84.25
419.166	86.25
419.389	82.25
419.611	79.25
419.834	79.25
420.057	90.25
420.28	108.25
420.503	78.25
420.726	88.25
420.948	96.25
421.171	90.25
421.394	93.25
421.617	92.25
421.839	91.25
422.062	93.25
422.285	89.25
422.507	96.25
422.73	105.25
422.953	85.25
423.175	93.25
423.398	81.25
423.621	97.25
423.843	85.25
424.066	89.25
424.288	87.25
424.511	82.25
424.733	96.25
424.956	106.25
425.178	93.25
425.401	111.25
425.623	99.25
425.846	88.25
426.068	91.25
426.291	81.25
426.513	84.25
426.735	85.25
426.958	92.25
427.18	117.25
427.402	139.25
427.625	196.25
427.847	174.25
428.069	178.25
428.292	111.25
428.514	85.25
428.736	74.25
428.958	86.25
429.181	72.25
429.403	86.25
429.625	89.25
429.847	100.25
430.069	106.25
430.292	84.25
430.514	83.25
430.736	87.25
430.958	85.25
431.18	77.25
431.402	96.25
431.624	90.25
431.846	91.25
432.068	93.25
432.29	83.25
432.512	85.25
432.734	88.25
432.956	90.25
433.178	91.25
433.4	98.25
433.622	89.25
433.844	88.25
434.066	77.25
434.287	97.25
434.509	88.25
434.731	91.25
434.953	77.25
435.175	88.25
435.397	95.25
435.618	84.25
435.84	108.25
436.062	125.25
436.284	125.25
436.505	100.25
436.727	93.25
436.949	88.25
437.17	81.25
437.392	81.25
437.614	87.25
437.835	98.25
438.057	113.25
438.278	111.25
438.5	97.25
438.721	129.25
438.943	115.25
439.165	88.25
439.386	76.25
439.608	91.25
439.829	116.25
440.05	124.25
440.272	137.25
440.493	96.25
440.715	85.25
440.936	89.25
441.158	95.25
441.379	87.25
441.6	92.25
441.822	101.25
442.043	109.25
442.264	111.25
442.486	106.25
442.707	98.25
442.928	109.25
443.149	140.25
443.371	132.25
443.592	100.25
443.813	113.25
444.034	113.25
444.255	84.25
444.476	80.25
444.698	91.25
444.919	88.25
445.14	112.25
445.361	127.25
445.582	112.25
445.803	153.25
446.024	136.25
446.245	149.25
446.466	117.25
446.687	88.25
446.908	89.25
447.129	85.25
447.35	83.25
447.571	95.25
447.792	100.25
448.013	97.25
448.234	110.25
448.455	108.25
448.675	116.25
448.896	112.25
449.117	84.25
449.338	114.25
449.559	131.25
449.779	135.25
450	93.25
450.221	81.25
450.442	84.25
450.662	91.25
450.883	110.25
451.104	119.25
451.324	90.25
451.545	95.25
451.766	74.25
451.986	93.25
452.207	88.25
452.428	87.25
452.648	100.25
452.869	105.25
453.089	112.25
453.31	94.25
453.53	94.25
453.751	82.25
453.971	110.25
454.192	112.25
454.412	94.25
454.633	80.25
454.853	94.25
455.073	63.25
455.294	98.25
455.514	101.25
455.734	82.25
455.955	94.25
456.175	89.25
456.395	76.25
456.616	74.25
456.836	91.25
457.056	91.25
457.276	72.25
457.497	80.25
457.717	90.25
457.937	95.25
458.157	79.25
458.377	70.25
458.598	111.25
458.818	155.25
459.038	178.25
459.258	115.25
459.478	95.25
459.698	83.25
459.918	86.25
460.138	77.25
460.358	103.25
460.578	87.25
460.798	86.25
461.018	80.25
461.238	76.25
461.458	88.25
461.678	83.25
461.898	88.25
462.118	91.25
462.338	88.25
462.558	82.25
462.777	86.25
462.997	93.25
463.217	90.25
463.437	92.25
463.657	87.25
463.876	79.25
464.096	97.25
464.316	88.25
464.536	80.25
464.755	97.25
464.975	115.25
465.195	171.25
465.414	187.25
465.634	109.25
465.854	90.25
466.073	85.25
466.293	99.25
466.512	92.25
466.732	96.25
466.951	89.25
467.171	77.25
467.391	97.25
467.61	122.25
467.829	147.25
468.049	297.25
468.268	374.25
468.488	127.25
468.707	92.25
468.927	92.25
469.146	82.25
469.365	106.25
469.585	86.25
469.804	104.25
470.023	93.25
470.243	92.25
470.462	100.25
470.681	108.25
470.901	85.25
471.12	94.25
471.339	90.25
471.558	84.25
471.777	108.25
471.997	166.25
472.216	530.25
472.435	1106.25
472.654	287.25
472.873	110.25
473.092	86.25
473.311	88.25
473.53	88.25
473.749	84.25
473.968	94.25
474.187	112.25
474.406	108.25
474.625	79.25
474.844	76.25
475.063	97.25
475.282	82.25
475.501	83.25
475.72	91.25
475.939	100.25
476.158	91.25
476.377	81.25
476.596	82.25
476.814	88.25
477.033	94.25
477.252	90.25
477.471	95.25
477.69	80.25
477.908	85.25
478.127	96.25
478.346	93.25
478.564	98.25
478.783	87.25
479.002	102.25
479.22	103.25
479.439	101.25
479.658	113.25
479.876	96.25
480.095	95.25
480.313	107.25
480.532	112.25
480.751	180.25
480.969	521.25
481.188	1996.25
481.406	1112.25
481.624	197.25
481.843	106.25
482.061	96.25
482.28	89.25
482.498	89.25
482.717	94.25
482.935	90.25
483.153	81.25
483.372	91.25
483.59	96.25
483.808	82.25
484.027	92.25
484.245	89.25
484.463	87.25
484.681	99.25
484.9	92.25
485.118	89.25
485.336	110.25
485.554	101.25
485.772	102.25
485.99	105.25
486.209	111.25
486.427	105.25
486.645	104.25
486.863	111.25
487.081	89.25
487.299	100.25
487.517	96.25
487.735	97.25
487.953	88.25
488.171	99.25
488.389	94.25
488.607	89.25
488.825	93.25
489.043	96.25
489.261	102.25
489.479	82.25
489.696	98.25
489.914	93.25
490.132	81.25
490.35	76.25
490.568	91.25
490.786	89.25
491.003	93.25
491.221	74.25
491.439	91.25
491.657	92.25
491.874	96.25
492.092	88.25
492.31	94.25
492.527	85.25
492.745	83.25
492.963	86.25
493.18	83.25
493.398	93.25
493.615	98.25
493.833	85.25
494.05	68.25
494.268	88.25
494.485	85.25
494.703	96.25
494.92	102.25
495.138	77.25
495.355	95.25
495.573	86.25
495.79	98.25
496.008	83.25
496.225	84.25
496.442	84.25
496.66	95.25
496.877	91.25
497.094	90.25
497.312	90.25
497.529	92.25
497.746	89.25
497.963	79.25
498.181	75.25
498.398	101.25
498.615	120.25
498.832	95.25
499.049	81.25
499.267	78.25
499.484	81.25
499.701	84.25
499.918	84.25
500.135	85.25
500.352	94.25
500.569	101.25
500.786	114.25
501.003	85.25
501.22	85.25
501.437	89.25
501.654	94.25
501.871	114.25
502.088	83.25
502.305	96.25
502.522	88.25
502.739	84.25
502.956	104.25
503.172	100.25
503.389	89.25
503.606	105.25
503.823	82.25
504.04	96.25
504.256	89.25
504.473	84.25
504.69	84.25
504.907	90.25
505.123	89.25
505.34	99.25
505.557	89.25
505.773	87.25
505.99	93.25
506.207	97.25
506.423	96.25
506.64	88.25
506.856	83.25
507.073	94.25
507.289	85.25
507.506	103.25
507.722	108.25
507.939	100.25
508.155	93.25
508.372	77.25
508.588	88.25
508.805	92.25
509.021	94.25
509.238	103.25
509.454	114.25
509.67	109.25
509.887	109.25
510.103	129.25
510.319	223.25
510.536	818.25
510.752	2640.25
510.968	702.25
511.184	165.25
511.401	113.25
511.617	110.25
511.833	99.25
512.049	87.25
512.265	87.25
512.481	92.25
512.698	88.25
512.914	91.25
513.13	86.25
513.346	102.25
513.562	98.25
513.778	89.25
513.994	110.25
514.21	108.25
514.426	133.25
514.642	139.25
514.858	125.25
515.074	179.25
515.29	508.25
