Data from Circ_1991_H10_HRD10591_00053.txt Node
Date: Wed Jan 03 11:51:51 EST 2024
User: Yrep
Spectrometer: HR+D1059
Trigger mode: 1
Integration Time (sec): 1.000000E-1
Scans to average: 1
Electric dark correction enabled: true
Nonlinearity correction enabled: false
Boxcar width: 0
XAxis mode: Wavelengths
Number of Pixels in Spectrum: 2048
>>>>>Begin Spectral Data<<<<<
223.165	-26.12
223.4	-26.12
223.635	-26.12
223.869	-23.12
224.104	-26.12
224.338	-11.12
224.573	-14.12
224.808	-14.12
225.042	-16.12
225.277	-12.12
225.511	-6.12
225.746	18.88
225.98	19.88
226.215	10.88
226.449	15.88
226.683	16.88
226.918	23.88
227.152	42.88
227.387	34.88
227.621	30.88
227.856	32.88
228.09	38.88
228.324	53.88
228.559	57.88
228.793	62.88
229.027	52.88
229.262	66.88
229.496	62.88
229.73	85.88
229.964	90.88
230.199	73.88
230.433	58.88
230.667	79.88
230.901	64.88
231.136	82.88
231.37	81.88
231.604	72.88
231.838	74.88
232.072	88.88
232.306	80.88
232.541	87.88
232.775	79.88
233.009	90.88
233.243	90.88
233.477	81.88
233.711	70.88
233.945	79.88
234.179	84.88
234.413	79.88
234.647	89.88
234.881	93.88
235.115	81.88
235.349	68.88
235.583	66.88
235.817	82.88
236.051	90.88
236.285	74.88
236.519	76.88
236.753	80.88
236.987	75.88
237.221	74.88
237.455	97.88
237.689	79.88
237.922	74.88
238.156	67.88
238.39	78.88
238.624	78.88
238.858	75.88
239.091	72.88
239.325	78.88
239.559	94.88
239.793	80.88
240.027	83.88
240.26	92.88
240.494	78.88
240.728	77.88
240.961	64.88
241.195	90.88
241.429	71.88
241.662	71.88
241.896	84.88
242.13	95.88
242.363	74.88
242.597	78.88
242.83	77.88
243.064	82.88
243.298	78.88
243.531	81.88
243.765	79.88
243.998	69.88
244.232	84.88
244.465	93.88
244.699	83.88
244.932	74.88
245.166	84.88
245.399	76.88
245.633	80.88
245.866	72.88
246.099	65.88
246.333	76.88
246.566	84.88
246.8	87.88
247.033	74.88
247.266	100.88
247.5	99.88
247.733	87.88
247.966	69.88
248.2	80.88
248.433	75.88
248.666	68.88
248.899	79.88
249.133	74.88
249.366	90.88
249.599	88.88
249.832	84.88
250.066	88.88
250.299	80.88
250.532	82.88
250.765	84.88
250.998	69.88
251.231	79.88
251.465	82.88
251.698	88.88
251.931	82.88
252.164	69.88
252.397	70.88
252.63	86.88
252.863	69.88
253.096	82.88
253.329	81.88
253.562	86.88
253.795	68.88
254.028	97.88
254.261	77.88
254.494	73.88
254.727	92.88
254.96	75.88
255.193	85.88
255.426	86.88
255.659	85.88
255.892	82.88
256.124	74.88
256.357	90.88
256.59	85.88
256.823	71.88
257.056	78.88
257.289	84.88
257.521	87.88
257.754	81.88
257.987	82.88
258.22	82.88
258.452	80.88
258.685	90.88
258.918	79.88
259.151	100.88
259.383	76.88
259.616	71.88
259.849	97.88
260.081	84.88
260.314	83.88
260.547	75.88
260.779	85.88
261.012	89.88
261.244	95.88
261.477	94.88
261.71	84.88
261.942	108.88
262.175	110.88
262.407	102.88
262.64	77.88
262.872	83.88
263.105	84.88
263.337	82.88
263.57	80.88
263.802	82.88
264.035	83.88
264.267	85.88
264.499	82.88
264.732	75.88
264.964	78.88
265.197	82.88
265.429	87.88
265.661	79.88
265.894	81.88
266.126	81.88
266.358	83.88
266.591	81.88
266.823	83.88
267.055	80.88
267.287	84.88
267.52	86.88
267.752	86.88
267.984	93.88
268.216	76.88
268.448	92.88
268.681	68.88
268.913	81.88
269.145	87.88
269.377	76.88
269.609	89.88
269.841	94.88
270.073	86.88
270.306	70.88
270.538	81.88
270.77	85.88
271.002	76.88
271.234	82.88
271.466	110.88
271.698	88.88
271.93	82.88
272.162	80.88
272.394	99.88
272.626	93.88
272.858	74.88
273.09	84.88
273.322	86.88
273.553	93.88
273.785	102.88
274.017	86.88
274.249	89.88
274.481	95.88
274.713	97.88
274.945	84.88
275.176	84.88
275.408	93.88
275.64	95.88
275.872	96.88
276.104	80.88
276.335	99.88
276.567	109.88
276.799	101.88
277.031	92.88
277.262	102.88
277.494	94.88
277.726	85.88
277.957	95.88
278.189	87.88
278.421	110.88
278.652	95.88
278.884	90.88
279.115	102.88
279.347	81.88
279.579	95.88
279.81	82.88
280.042	121.88
280.273	112.88
280.505	109.88
280.736	92.88
280.968	92.88
281.199	84.88
281.431	86.88
281.662	90.88
281.894	102.88
282.125	107.88
282.356	104.88
282.588	138.88
282.819	123.88
283.051	86.88
283.282	75.88
283.513	101.88
283.745	87.88
283.976	91.88
284.207	97.88
284.439	87.88
284.67	87.88
284.901	109.88
285.132	84.88
285.364	88.88
285.595	85.88
285.826	85.88
286.057	85.88
286.288	92.88
286.52	88.88
286.751	81.88
286.982	73.88
287.213	88.88
287.444	84.88
287.675	90.88
287.906	101.88
288.138	97.88
288.369	88.88
288.6	98.88
288.831	76.88
289.062	91.88
289.293	93.88
289.524	81.88
289.755	80.88
289.986	87.88
290.217	88.88
290.448	81.88
290.679	82.88
290.91	88.88
291.141	98.88
291.371	94.88
291.602	81.88
291.833	70.88
292.064	98.88
292.295	102.88
292.526	74.88
292.757	92.88
292.987	83.88
293.218	94.88
293.449	80.88
293.68	99.88
293.91	92.88
294.141	94.88
294.372	98.88
294.603	82.88
294.833	98.88
295.064	91.88
295.295	88.88
295.525	87.88
295.756	101.88
295.987	128.88
296.217	133.88
296.448	109.88
296.679	96.88
296.909	99.88
297.14	90.88
297.37	85.88
297.601	103.88
297.831	99.88
298.062	86.88
298.292	91.88
298.523	94.88
298.753	93.88
298.984	94.88
299.214	92.88
299.445	95.88
299.675	91.88
299.905	99.88
300.136	103.88
300.366	88.88
300.597	91.88
300.827	100.88
301.057	86.88
301.288	109.88
301.518	103.88
301.748	94.88
301.979	99.88
302.209	93.88
302.439	113.88
302.669	106.88
302.9	82.88
303.13	93.88
303.36	87.88
303.59	112.88
303.82	120.88
304.051	96.88
304.281	71.88
304.511	78.88
304.741	82.88
304.971	84.88
305.201	92.88
305.431	99.88
305.661	90.88
305.891	93.88
306.121	87.88
306.352	99.88
306.582	103.88
306.812	98.88
307.042	98.88
307.272	109.88
307.502	123.88
307.731	126.88
307.961	105.88
308.191	85.88
308.421	82.88
308.651	89.88
308.881	95.88
309.111	82.88
309.341	98.88
309.571	101.88
309.8	105.88
310.03	99.88
310.26	97.88
310.49	96.88
310.72	101.88
310.949	111.88
311.179	103.88
311.409	86.88
311.639	95.88
311.868	98.88
312.098	108.88
312.328	100.88
312.557	87.88
312.787	98.88
313.017	94.88
313.246	96.88
313.476	91.88
313.706	90.88
313.935	81.88
314.165	94.88
314.394	104.88
314.624	99.88
314.853	86.88
315.083	89.88
315.312	90.88
315.542	95.88
315.771	74.88
316.001	87.88
316.23	82.88
316.46	92.88
316.689	82.88
316.919	89.88
317.148	81.88
317.377	90.88
317.607	104.88
317.836	108.88
318.065	93.88
318.295	87.88
318.524	93.88
318.753	99.88
318.983	92.88
319.212	107.88
319.441	100.88
319.67	83.88
319.9	100.88
320.129	86.88
320.358	90.88
320.587	99.88
320.816	100.88
321.046	111.88
321.275	102.88
321.504	79.88
321.733	95.88
321.962	103.88
322.191	107.88
322.42	111.88
322.649	108.88
322.878	98.88
323.108	127.88
323.337	135.88
323.566	148.88
323.795	148.88
324.024	220.88
324.253	425.88
324.482	887.88
324.71	1901.88
324.939	2549.88
325.168	911.88
325.397	250.88
325.626	154.88
325.855	143.88
326.084	125.88
326.313	133.88
326.542	149.88
326.77	229.88
326.999	477.88
327.228	1004.88
327.457	1986.88
327.686	1578.88
327.914	434.88
328.143	278.88
328.372	261.88
328.6	185.88
328.829	123.88
329.058	145.88
329.287	134.88
329.515	127.88
329.744	143.88
329.972	219.88
330.201	396.88
330.43	513.88
330.658	275.88
330.887	167.88
331.115	134.88
331.344	90.88
331.572	102.88
331.801	94.88
332.03	93.88
332.258	90.88
332.486	108.88
332.715	90.88
332.943	102.88
333.172	107.88
333.4	101.88
333.629	109.88
333.857	130.88
334.085	205.88
334.314	357.88
334.542	657.88
334.771	583.88
334.999	215.88
335.227	113.88
335.455	101.88
335.684	105.88
335.912	96.88
336.14	101.88
336.369	99.88
336.597	105.88
336.825	89.88
337.053	99.88
337.281	94.88
337.51	90.88
337.738	91.88
337.966	91.88
338.194	101.88
338.422	85.88
338.65	98.88
338.878	91.88
339.106	83.88
339.334	97.88
339.562	93.88
339.79	96.88
340.018	98.88
340.246	81.88
340.474	100.88
340.702	102.88
340.93	75.88
341.158	96.88
341.386	101.88
341.614	99.88
341.842	91.88
342.07	92.88
342.298	110.88
342.526	96.88
342.754	103.88
342.981	81.88
343.209	88.88
343.437	114.88
343.665	84.88
343.893	74.88
344.12	97.88
344.348	102.88
344.576	71.88
344.804	103.88
345.031	81.88
345.259	94.88
345.487	92.88
345.714	90.88
345.942	84.88
346.17	78.88
346.397	90.88
346.625	82.88
346.853	81.88
347.08	102.88
347.308	92.88
347.535	93.88
347.763	96.88
347.99	101.88
348.218	101.88
348.445	104.88
348.673	98.88
348.9	104.88
349.128	98.88
349.355	89.88
349.583	97.88
349.81	97.88
350.037	93.88
350.265	90.88
350.492	101.88
350.72	80.88
350.947	90.88
351.174	112.88
351.402	109.88
351.629	106.88
351.856	92.88
352.083	90.88
352.311	112.88
352.538	108.88
352.765	108.88
352.992	86.88
353.22	109.88
353.447	101.88
353.674	91.88
353.901	102.88
354.128	90.88
354.355	81.88
354.583	107.88
354.81	111.88
355.037	98.88
355.264	90.88
355.491	98.88
355.718	92.88
355.945	111.88
356.172	99.88
356.399	103.88
356.626	94.88
356.853	85.88
357.08	84.88
357.307	90.88
357.534	96.88
357.761	103.88
357.988	98.88
358.215	94.88
358.441	99.88
358.668	104.88
358.895	88.88
359.122	88.88
359.349	74.88
359.576	81.88
359.802	88.88
360.029	104.88
360.256	112.88
360.483	98.88
360.709	96.88
360.936	86.88
361.163	99.88
361.39	106.88
361.616	92.88
361.843	93.88
362.07	96.88
362.296	95.88
362.523	77.88
362.749	80.88
362.976	87.88
363.203	86.88
363.429	88.88
363.656	99.88
363.882	82.88
364.109	86.88
364.335	97.88
364.562	99.88
364.788	90.88
365.015	94.88
365.241	87.88
365.468	121.88
365.694	98.88
365.92	95.88
366.147	77.88
366.373	91.88
366.599	89.88
366.826	71.88
367.052	81.88
367.278	88.88
367.505	83.88
367.731	82.88
367.957	80.88
368.184	84.88
368.41	85.88
368.636	104.88
368.862	118.88
369.089	112.88
369.315	99.88
369.541	91.88
369.767	80.88
369.993	85.88
370.219	98.88
370.445	86.88
370.672	87.88
370.898	87.88
371.124	85.88
371.35	79.88
371.576	81.88
371.802	90.88
372.028	92.88
372.254	96.88
372.48	90.88
372.706	84.88
372.932	72.88
373.158	87.88
373.384	85.88
373.61	84.88
373.835	81.88
374.061	98.88
374.287	108.88
374.513	98.88
374.739	90.88
374.965	82.88
375.191	98.88
375.416	90.88
375.642	89.88
375.868	78.88
376.094	90.88
376.319	100.88
376.545	100.88
376.771	94.88
376.997	91.88
377.222	100.88
377.448	93.88
377.674	83.88
377.899	95.88
378.125	84.88
378.35	84.88
378.576	100.88
378.802	92.88
379.027	86.88
379.253	89.88
379.478	80.88
379.704	111.88
379.929	103.88
380.155	98.88
380.38	98.88
380.606	102.88
380.831	101.88
381.057	100.88
381.282	100.88
381.507	96.88
381.733	99.88
381.958	98.88
382.184	96.88
382.409	96.88
382.634	101.88
382.86	93.88
383.085	106.88
383.31	99.88
383.535	95.88
383.761	107.88
383.986	102.88
384.211	106.88
384.436	88.88
384.662	90.88
384.887	83.88
385.112	95.88
385.337	85.88
385.562	111.88
385.787	111.88
386.013	113.88
386.238	114.88
386.463	96.88
386.688	96.88
386.913	104.88
387.138	113.88
387.363	101.88
387.588	101.88
387.813	102.88
388.038	109.88
388.263	115.88
388.488	108.88
388.713	108.88
388.938	85.88
389.163	84.88
389.387	89.88
389.612	93.88
389.837	89.88
390.062	74.88
390.287	76.88
390.512	100.88
390.736	85.88
390.961	94.88
391.186	71.88
391.411	92.88
391.636	88.88
391.86	91.88
392.085	77.88
392.31	97.88
392.534	87.88
392.759	92.88
392.984	76.88
393.208	99.88
393.433	116.88
393.658	104.88
393.882	90.88
394.107	82.88
394.331	88.88
394.556	100.88
394.78	86.88
395.005	78.88
395.229	87.88
395.454	74.88
395.678	83.88
395.903	87.88
396.127	94.88
396.352	85.88
396.576	92.88
396.801	94.88
397.025	96.88
397.249	93.88
397.474	97.88
397.698	84.88
397.922	90.88
398.147	86.88
398.371	98.88
398.595	79.88
398.82	80.88
399.044	72.88
399.268	81.88
399.492	88.88
399.717	86.88
399.941	85.88
400.165	90.88
400.389	82.88
400.613	91.88
400.837	78.88
401.062	85.88
401.286	92.88
401.51	86.88
401.734	100.88
401.958	91.88
402.182	122.88
402.406	153.88
402.63	112.88
402.854	86.88
403.078	93.88
403.302	87.88
403.526	71.88
403.75	79.88
403.974	88.88
404.198	102.88
404.422	81.88
404.645	79.88
404.869	83.88
405.093	85.88
405.317	104.88
405.541	107.88
405.765	108.88
405.988	101.88
406.212	156.88
406.436	208.88
406.66	149.88
406.883	110.88
407.107	92.88
407.331	87.88
407.555	98.88
407.778	104.88
408.002	93.88
408.226	89.88
408.449	71.88
408.673	85.88
408.896	87.88
409.12	96.88
409.344	111.88
409.567	82.88
409.791	82.88
410.014	99.88
410.238	81.88
410.461	86.88
410.685	97.88
410.908	79.88
411.132	104.88
411.355	102.88
411.578	89.88
411.802	89.88
412.025	103.88
412.249	101.88
412.472	80.88
412.695	105.88
412.919	94.88
413.142	76.88
413.365	97.88
413.589	79.88
413.812	99.88
414.035	87.88
414.258	75.88
414.482	78.88
414.705	90.88
414.928	84.88
415.151	104.88
415.374	92.88
415.597	91.88
415.821	80.88
416.044	79.88
416.267	86.88
416.49	80.88
416.713	83.88
416.936	95.88
417.159	97.88
417.382	90.88
417.605	94.88
417.828	98.88
418.051	97.88
418.274	76.88
418.497	90.88
418.72	97.88
418.943	83.88
419.166	93.88
419.389	91.88
419.611	91.88
419.834	90.88
420.057	102.88
420.28	82.88
420.503	86.88
420.726	87.88
420.948	83.88
421.171	92.88
421.394	82.88
421.617	79.88
421.839	95.88
422.062	102.88
422.285	90.88
422.507	98.88
422.73	104.88
422.953	99.88
423.175	90.88
423.398	94.88
423.621	83.88
423.843	88.88
424.066	88.88
424.288	96.88
424.511	79.88
424.733	93.88
424.956	104.88
425.178	106.88
425.401	84.88
425.623	91.88
425.846	91.88
426.068	85.88
426.291	91.88
426.513	88.88
426.735	86.88
426.958	93.88
427.18	97.88
427.402	142.88
427.625	196.88
427.847	160.88
428.069	155.88
428.292	114.88
428.514	86.88
428.736	83.88
428.958	87.88
429.181	83.88
429.403	75.88
429.625	93.88
429.847	88.88
430.069	93.88
430.292	90.88
430.514	90.88
430.736	92.88
430.958	78.88
431.18	104.88
431.402	83.88
431.624	80.88
431.846	86.88
432.068	87.88
432.29	90.88
432.512	82.88
432.734	101.88
432.956	92.88
433.178	107.88
433.4	100.88
433.622	84.88
433.844	96.88
434.066	94.88
434.287	82.88
434.509	90.88
434.731	88.88
434.953	86.88
435.175	79.88
435.397	93.88
435.618	93.88
435.84	110.88
436.062	132.88
436.284	110.88
436.505	99.88
436.727	102.88
436.949	85.88
437.17	92.88
437.392	82.88
437.614	111.88
437.835	108.88
438.057	124.88
438.278	103.88
438.5	103.88
438.721	118.88
438.943	101.88
439.165	93.88
439.386	93.88
439.608	85.88
439.829	86.88
440.05	117.88
440.272	136.88
440.493	87.88
440.715	79.88
440.936	108.88
441.158	97.88
441.379	86.88
441.6	84.88
441.822	97.88
442.043	86.88
442.264	114.88
442.486	92.88
442.707	84.88
442.928	102.88
443.149	121.88
443.371	131.88
443.592	116.88
443.813	114.88
444.034	111.88
444.255	84.88
444.476	84.88
444.698	94.88
444.919	84.88
445.14	127.88
445.361	114.88
445.582	104.88
445.803	152.88
446.024	130.88
446.245	153.88
446.466	110.88
446.687	83.88
446.908	89.88
447.129	89.88
447.35	100.88
447.571	100.88
447.792	80.88
448.013	86.88
448.234	102.88
448.455	101.88
448.675	112.88
448.896	114.88
449.117	98.88
449.338	100.88
449.559	126.88
449.779	138.88
450	94.88
450.221	84.88
450.442	91.88
450.662	91.88
450.883	83.88
451.104	106.88
451.324	92.88
451.545	78.88
451.766	89.88
451.986	100.88
452.207	93.88
452.428	86.88
452.648	118.88
452.869	110.88
453.089	95.88
453.31	113.88
453.53	86.88
453.751	86.88
453.971	104.88
454.192	106.88
454.412	97.88
454.633	86.88
454.853	83.88
455.073	93.88
455.294	97.88
455.514	97.88
455.734	92.88
455.955	84.88
456.175	86.88
456.395	86.88
456.616	90.88
456.836	102.88
457.056	84.88
457.276	79.88
457.497	86.88
457.717	93.88
457.937	90.88
458.157	80.88
458.377	102.88
458.598	111.88
458.818	162.88
459.038	160.88
459.258	124.88
459.478	78.88
459.698	80.88
459.918	90.88
460.138	78.88
460.358	79.88
460.578	87.88
460.798	87.88
461.018	88.88
461.238	90.88
461.458	82.88
461.678	77.88
461.898	83.88
462.118	86.88
462.338	91.88
462.558	94.88
462.777	76.88
462.997	98.88
463.217	100.88
463.437	88.88
463.657	84.88
463.876	106.88
464.096	86.88
464.316	94.88
464.536	88.88
464.755	95.88
464.975	119.88
465.195	157.88
465.414	154.88
465.634	94.88
465.854	87.88
466.073	100.88
466.293	97.88
466.512	80.88
466.732	86.88
466.951	81.88
467.171	91.88
467.391	87.88
467.61	112.88
467.829	118.88
468.049	259.88
468.268	352.88
468.488	130.88
468.707	81.88
468.927	77.88
469.146	82.88
469.365	99.88
469.585	95.88
469.804	90.88
470.023	103.88
470.243	89.88
470.462	84.88
470.681	127.88
470.901	98.88
471.12	100.88
471.339	98.88
471.558	85.88
471.777	115.88
471.997	164.88
472.216	482.88
472.435	935.88
472.654	261.88
472.873	113.88
473.092	93.88
473.311	97.88
473.53	95.88
473.749	85.88
473.968	100.88
474.187	103.88
474.406	100.88
474.625	95.88
474.844	106.88
475.063	84.88
475.282	80.88
475.501	83.88
475.72	89.88
475.939	76.88
476.158	86.88
476.377	95.88
476.596	86.88
476.814	99.88
477.033	114.88
477.252	90.88
477.471	87.88
477.69	82.88
477.908	101.88
478.127	92.88
478.346	94.88
478.564	95.88
478.783	91.88
479.002	95.88
479.22	87.88
479.439	102.88
479.658	104.88
479.876	106.88
480.095	100.88
480.313	111.88
480.532	116.88
480.751	177.88
480.969	454.88
481.188	1658.88
481.406	955.88
481.624	180.88
481.843	102.88
482.061	90.88
482.28	95.88
482.498	76.88
482.717	82.88
482.935	92.88
483.153	99.88
483.372	112.88
483.59	97.88
483.808	80.88
484.027	87.88
484.245	80.88
484.463	71.88
484.681	104.88
484.9	100.88
485.118	91.88
485.336	106.88
485.554	95.88
485.772	92.88
485.99	112.88
486.209	95.88
486.427	104.88
486.645	118.88
486.863	108.88
487.081	113.88
487.299	105.88
487.517	90.88
487.735	83.88
487.953	94.88
488.171	91.88
488.389	92.88
488.607	102.88
488.825	92.88
489.043	90.88
489.261	90.88
489.479	96.88
489.696	99.88
489.914	92.88
490.132	87.88
490.35	80.88
490.568	110.88
490.786	95.88
491.003	89.88
491.221	89.88
491.439	99.88
491.657	80.88
491.874	85.88
492.092	95.88
492.31	78.88
492.527	90.88
492.745	98.88
492.963	110.88
493.18	99.88
493.398	75.88
493.615	88.88
493.833	101.88
494.05	84.88
494.268	77.88
494.485	99.88
494.703	91.88
494.92	81.88
495.138	90.88
495.355	102.88
495.573	86.88
495.79	88.88
496.008	84.88
496.225	79.88
496.442	77.88
496.66	87.88
496.877	91.88
497.094	104.88
497.312	92.88
497.529	94.88
497.746	95.88
497.963	88.88
498.181	104.88
498.398	86.88
498.615	113.88
498.832	97.88
499.049	92.88
499.267	94.88
499.484	92.88
499.701	93.88
499.918	100.88
500.135	69.88
500.352	79.88
500.569	81.88
500.786	100.88
501.003	88.88
501.22	90.88
501.437	80.88
501.654	83.88
501.871	124.88
502.088	95.88
502.305	90.88
502.522	82.88
502.739	82.88
502.956	96.88
503.172	96.88
503.389	102.88
503.606	97.88
503.823	100.88
504.04	109.88
504.256	85.88
504.473	94.88
504.69	98.88
504.907	92.88
505.123	99.88
505.34	80.88
505.557	85.88
505.773	95.88
505.99	88.88
506.207	78.88
506.423	87.88
506.64	93.88
506.856	97.88
507.073	102.88
507.289	103.88
507.506	103.88
507.722	102.88
507.939	103.88
508.155	96.88
508.372	87.88
508.588	95.88
508.805	91.88
509.021	99.88
509.238	91.88
509.454	95.88
509.67	100.88
509.887	117.88
510.103	123.88
510.319	201.88
510.536	726.88
510.752	2251.88
510.968	635.88
511.184	157.88
511.401	98.88
511.617	94.88
511.833	100.88
512.049	93.88
512.265	82.88
512.481	104.88
512.698	83.88
512.914	74.88
513.13	94.88
513.346	84.88
513.562	102.88
513.778	118.88
513.994	92.88
514.21	92.88
514.426	112.88
514.642	133.88
514.858	123.88
