Data from Circ_1991_H10_HRD10591_00082.txt Node
Date: Wed Jan 03 11:51:57 EST 2024
User: Yrep
Spectrometer: HR+D1059
Trigger mode: 1
Integration Time (sec): 1.000000E-1
Scans to average: 1
Electric dark correction enabled: true
Nonlinearity correction enabled: false
Boxcar width: 0
XAxis mode: Wavelengths
Number of Pixels in Spectrum: 2048
>>>>>Begin Spectral Data<<<<<
223.165	-16.12
223.4	-16.12
223.635	-16.12
223.869	-23.12
224.104	-32.12
224.338	-19.12
224.573	-11.12
224.808	-12.12
225.042	-8.12
225.277	-7.12
225.511	-5.12
225.746	-0.12
225.98	12.88
226.215	16.88
226.449	18.88
226.683	19.88
226.918	32.88
227.152	32.88
227.387	34.88
227.621	22.88
227.856	29.88
228.09	32.88
228.324	51.88
228.559	65.88
228.793	57.88
229.027	72.88
229.262	66.88
229.496	62.88
229.73	96.88
229.964	70.88
230.199	81.88
230.433	65.88
230.667	75.88
230.901	68.88
231.136	73.88
231.37	80.88
231.604	71.88
231.838	64.88
232.072	76.88
232.306	74.88
232.541	59.88
232.775	75.88
233.009	82.88
233.243	73.88
233.477	71.88
233.711	83.88
233.945	77.88
234.179	76.88
234.413	68.88
234.647	63.88
234.881	76.88
235.115	74.88
235.349	72.88
235.583	76.88
235.817	60.88
236.051	66.88
236.285	63.88
236.519	67.88
236.753	68.88
236.987	84.88
237.221	78.88
237.455	89.88
237.689	73.88
237.922	67.88
238.156	64.88
238.39	52.88
238.624	71.88
238.858	85.88
239.091	70.88
239.325	74.88
239.559	77.88
239.793	76.88
240.027	71.88
240.26	73.88
240.494	74.88
240.728	89.88
240.961	71.88
241.195	70.88
241.429	80.88
241.662	74.88
241.896	71.88
242.13	82.88
242.363	86.88
242.597	61.88
242.83	71.88
243.064	62.88
243.298	50.88
243.531	78.88
243.765	64.88
243.998	63.88
244.232	80.88
244.465	88.88
244.699	71.88
244.932	84.88
245.166	81.88
245.399	70.88
245.633	80.88
245.866	73.88
246.099	87.88
246.333	84.88
246.566	72.88
246.8	66.88
247.033	58.88
247.266	70.88
247.5	82.88
247.733	65.88
247.966	72.88
248.2	61.88
248.433	68.88
248.666	66.88
248.899	75.88
249.133	71.88
249.366	93.88
249.599	81.88
249.832	69.88
250.066	88.88
250.299	70.88
250.532	66.88
250.765	74.88
250.998	68.88
251.231	78.88
251.465	68.88
251.698	80.88
251.931	72.88
252.164	71.88
252.397	77.88
252.63	88.88
252.863	74.88
253.096	78.88
253.329	81.88
253.562	70.88
253.795	76.88
254.028	68.88
254.261	80.88
254.494	69.88
254.727	82.88
254.96	70.88
255.193	72.88
255.426	57.88
255.659	84.88
255.892	85.88
256.124	73.88
256.357	81.88
256.59	86.88
256.823	63.88
257.056	71.88
257.289	71.88
257.521	78.88
257.754	87.88
257.987	75.88
258.22	90.88
258.452	87.88
258.685	80.88
258.918	69.88
259.151	84.88
259.383	88.88
259.616	90.88
259.849	66.88
260.081	80.88
260.314	73.88
260.547	74.88
260.779	81.88
261.012	68.88
261.244	93.88
261.477	95.88
261.71	89.88
261.942	116.88
262.175	100.88
262.407	84.88
262.64	82.88
262.872	81.88
263.105	80.88
263.337	72.88
263.57	82.88
263.802	87.88
264.035	72.88
264.267	74.88
264.499	81.88
264.732	89.88
264.964	71.88
265.197	79.88
265.429	72.88
265.661	76.88
265.894	78.88
266.126	73.88
266.358	80.88
266.591	79.88
266.823	70.88
267.055	91.88
267.287	93.88
267.52	88.88
267.752	77.88
267.984	78.88
268.216	84.88
268.448	88.88
268.681	82.88
268.913	72.88
269.145	62.88
269.377	85.88
269.609	88.88
269.841	84.88
270.073	69.88
270.306	76.88
270.538	82.88
270.77	80.88
271.002	75.88
271.234	66.88
271.466	78.88
271.698	72.88
271.93	63.88
272.162	80.88
272.394	88.88
272.626	88.88
272.858	76.88
273.09	85.88
273.322	79.88
273.553	90.88
273.785	86.88
274.017	69.88
274.249	89.88
274.481	68.88
274.713	77.88
274.945	78.88
275.176	83.88
275.408	81.88
275.64	72.88
275.872	81.88
276.104	81.88
276.335	77.88
276.567	85.88
276.799	116.88
277.031	101.88
277.262	113.88
277.494	102.88
277.726	86.88
277.957	76.88
278.189	91.88
278.421	100.88
278.652	92.88
278.884	79.88
279.115	110.88
279.347	84.88
279.579	87.88
279.81	97.88
280.042	117.88
280.273	127.88
280.505	113.88
280.736	88.88
280.968	81.88
281.199	84.88
281.431	96.88
281.662	87.88
281.894	85.88
282.125	96.88
282.356	121.88
282.588	129.88
282.819	109.88
283.051	78.88
283.282	77.88
283.513	79.88
283.745	67.88
283.976	72.88
284.207	76.88
284.439	81.88
284.67	72.88
284.901	80.88
285.132	79.88
285.364	78.88
285.595	82.88
285.826	104.88
286.057	79.88
286.288	82.88
286.52	76.88
286.751	85.88
286.982	77.88
287.213	65.88
287.444	89.88
287.675	89.88
287.906	99.88
288.138	90.88
288.369	100.88
288.6	89.88
288.831	84.88
289.062	71.88
289.293	77.88
289.524	76.88
289.755	84.88
289.986	90.88
290.217	79.88
290.448	69.88
290.679	72.88
290.91	88.88
291.141	85.88
291.371	77.88
291.602	72.88
291.833	76.88
292.064	82.88
292.295	74.88
292.526	81.88
292.757	80.88
292.987	81.88
293.218	88.88
293.449	79.88
293.68	84.88
293.91	82.88
294.141	95.88
294.372	90.88
294.603	89.88
294.833	78.88
295.064	81.88
295.295	77.88
295.525	93.88
295.756	85.88
295.987	112.88
296.217	131.88
296.448	117.88
296.679	88.88
296.909	73.88
297.14	82.88
297.37	81.88
297.601	81.88
297.831	83.88
298.062	90.88
298.292	71.88
298.523	75.88
298.753	81.88
298.984	85.88
299.214	73.88
299.445	68.88
299.675	91.88
299.905	104.88
300.136	92.88
300.366	86.88
300.597	93.88
300.827	80.88
301.057	100.88
301.288	87.88
301.518	95.88
301.748	81.88
301.979	97.88
302.209	83.88
302.439	74.88
302.669	83.88
302.9	83.88
303.13	95.88
303.36	91.88
303.59	113.88
303.82	104.88
304.051	95.88
304.281	84.88
304.511	78.88
304.741	78.88
304.971	79.88
305.201	88.88
305.431	83.88
305.661	87.88
305.891	86.88
306.121	86.88
306.352	92.88
306.582	88.88
306.812	89.88
307.042	88.88
307.272	109.88
307.502	112.88
307.731	119.88
307.961	108.88
308.191	87.88
308.421	81.88
308.651	87.88
308.881	80.88
309.111	94.88
309.341	93.88
309.571	97.88
309.8	89.88
310.03	90.88
310.26	77.88
310.49	100.88
310.72	87.88
310.949	91.88
311.179	101.88
311.409	87.88
311.639	84.88
311.868	104.88
312.098	89.88
312.328	92.88
312.557	100.88
312.787	106.88
313.017	98.88
313.246	92.88
313.476	92.88
313.706	90.88
313.935	88.88
314.165	99.88
314.394	98.88
314.624	92.88
314.853	84.88
315.083	97.88
315.312	71.88
315.542	86.88
315.771	95.88
316.001	80.88
316.23	77.88
316.46	85.88
316.689	92.88
316.919	103.88
317.148	87.88
317.377	88.88
317.607	83.88
317.836	77.88
318.065	93.88
318.295	92.88
318.524	93.88
318.753	92.88
318.983	86.88
319.212	90.88
319.441	100.88
319.67	102.88
319.9	96.88
320.129	78.88
320.358	88.88
320.587	90.88
320.816	88.88
321.046	93.88
321.275	89.88
321.504	93.88
321.733	80.88
321.962	79.88
322.191	99.88
322.42	104.88
322.649	103.88
322.878	113.88
323.108	96.88
323.337	127.88
323.566	124.88
323.795	149.88
324.024	206.88
324.253	381.88
324.482	844.88
324.71	1766.88
324.939	2397.88
325.168	849.88
325.397	263.88
325.626	146.88
325.855	124.88
326.084	134.88
326.313	140.88
326.542	153.88
326.77	227.88
326.999	456.88
327.228	950.88
327.457	1818.88
327.686	1473.88
327.914	444.88
328.143	299.88
328.372	315.88
328.6	200.88
328.829	148.88
329.058	127.88
329.287	132.88
329.515	127.88
329.744	139.88
329.972	230.88
330.201	422.88
330.43	575.88
330.658	296.88
330.887	168.88
331.115	134.88
331.344	110.88
331.572	110.88
331.801	91.88
332.03	99.88
332.258	102.88
332.486	99.88
332.715	97.88
332.943	103.88
333.172	101.88
333.4	121.88
333.629	122.88
333.857	165.88
334.085	220.88
334.314	413.88
334.542	773.88
334.771	683.88
334.999	222.88
335.227	123.88
335.455	102.88
335.684	85.88
335.912	102.88
336.14	94.88
336.369	94.88
336.597	105.88
336.825	106.88
337.053	87.88
337.281	97.88
337.51	87.88
337.738	84.88
337.966	85.88
338.194	97.88
338.422	104.88
338.65	94.88
338.878	103.88
339.106	87.88
339.334	93.88
339.562	87.88
339.79	82.88
340.018	96.88
340.246	72.88
340.474	94.88
340.702	96.88
340.93	80.88
341.158	84.88
341.386	88.88
341.614	89.88
341.842	85.88
342.07	81.88
342.298	80.88
342.526	89.88
342.754	98.88
342.981	83.88
343.209	80.88
343.437	91.88
343.665	68.88
343.893	85.88
344.12	80.88
344.348	80.88
344.576	81.88
344.804	88.88
345.031	93.88
345.259	91.88
345.487	85.88
345.714	98.88
345.942	78.88
346.17	79.88
346.397	92.88
346.625	96.88
346.853	89.88
347.08	76.88
347.308	96.88
347.535	81.88
347.763	98.88
347.99	94.88
348.218	104.88
348.445	95.88
348.673	90.88
348.9	90.88
349.128	93.88
349.355	93.88
349.583	89.88
349.81	96.88
350.037	77.88
350.265	89.88
350.492	82.88
350.72	94.88
350.947	76.88
351.174	96.88
351.402	112.88
351.629	83.88
351.856	86.88
352.083	108.88
352.311	97.88
352.538	98.88
352.765	116.88
352.992	110.88
353.22	101.88
353.447	93.88
353.674	99.88
353.901	84.88
354.128	82.88
354.355	82.88
354.583	75.88
354.81	95.88
355.037	105.88
355.264	95.88
355.491	86.88
355.718	99.88
355.945	80.88
356.172	104.88
356.399	88.88
356.626	91.88
356.853	89.88
357.08	91.88
357.307	95.88
357.534	82.88
357.761	84.88
357.988	79.88
358.215	80.88
358.441	79.88
358.668	88.88
358.895	87.88
359.122	88.88
359.349	93.88
359.576	72.88
359.802	99.88
360.029	98.88
360.256	97.88
360.483	90.88
360.709	93.88
360.936	82.88
361.163	91.88
361.39	96.88
361.616	90.88
361.843	90.88
362.07	91.88
362.296	97.88
362.523	89.88
362.749	75.88
362.976	82.88
363.203	82.88
363.429	90.88
363.656	85.88
363.882	86.88
364.109	84.88
364.335	83.88
364.562	76.88
364.788	83.88
365.015	89.88
365.241	81.88
365.468	111.88
365.694	90.88
365.92	88.88
366.147	80.88
366.373	81.88
366.599	70.88
366.826	89.88
367.052	59.88
367.278	81.88
367.505	95.88
367.731	76.88
367.957	80.88
368.184	88.88
368.41	88.88
368.636	107.88
368.862	121.88
369.089	94.88
369.315	88.88
369.541	87.88
369.767	84.88
369.993	94.88
370.219	82.88
370.445	96.88
370.672	87.88
370.898	101.88
371.124	98.88
371.35	80.88
371.576	84.88
371.802	92.88
372.028	91.88
372.254	94.88
372.48	71.88
372.706	82.88
372.932	92.88
373.158	80.88
373.384	93.88
373.61	73.88
373.835	88.88
374.061	70.88
374.287	92.88
374.513	79.88
374.739	87.88
374.965	76.88
375.191	77.88
375.416	85.88
375.642	77.88
375.868	76.88
376.094	81.88
376.319	84.88
376.545	79.88
376.771	86.88
376.997	91.88
377.222	91.88
377.448	77.88
377.674	66.88
377.899	90.88
378.125	68.88
378.35	85.88
378.576	87.88
378.802	80.88
379.027	93.88
379.253	84.88
379.478	92.88
379.704	83.88
379.929	82.88
380.155	89.88
380.38	78.88
380.606	90.88
380.831	86.88
381.057	103.88
381.282	88.88
381.507	91.88
381.733	82.88
381.958	98.88
382.184	96.88
382.409	87.88
382.634	93.88
382.86	96.88
383.085	97.88
383.31	90.88
383.535	84.88
383.761	89.88
383.986	93.88
384.211	85.88
384.436	103.88
384.662	97.88
384.887	88.88
385.112	86.88
385.337	107.88
385.562	102.88
385.787	95.88
386.013	96.88
386.238	103.88
386.463	106.88
386.688	101.88
386.913	89.88
387.138	110.88
387.363	91.88
387.588	83.88
387.813	105.88
388.038	88.88
388.263	106.88
388.488	88.88
388.713	94.88
388.938	105.88
389.163	82.88
389.387	82.88
389.612	94.88
389.837	80.88
390.062	100.88
390.287	90.88
390.512	82.88
390.736	97.88
390.961	99.88
391.186	93.88
391.411	90.88
391.636	73.88
391.86	79.88
392.085	90.88
392.31	80.88
392.534	86.88
392.759	79.88
392.984	91.88
393.208	95.88
393.433	97.88
393.658	93.88
393.882	66.88
394.107	70.88
394.331	68.88
394.556	81.88
394.78	88.88
395.005	89.88
395.229	86.88
395.454	91.88
395.678	76.88
395.903	64.88
396.127	89.88
396.352	82.88
396.576	94.88
396.801	81.88
397.025	101.88
397.249	81.88
397.474	86.88
397.698	81.88
397.922	89.88
398.147	89.88
398.371	77.88
398.595	73.88
398.82	83.88
399.044	91.88
399.268	77.88
399.492	79.88
399.717	92.88
399.941	85.88
400.165	84.88
400.389	82.88
400.613	76.88
400.837	85.88
401.062	82.88
401.286	75.88
401.51	93.88
401.734	89.88
401.958	88.88
402.182	128.88
402.406	169.88
402.63	104.88
402.854	99.88
403.078	96.88
403.302	77.88
403.526	84.88
403.75	102.88
403.974	78.88
404.198	80.88
404.422	72.88
404.645	81.88
404.869	94.88
405.093	92.88
405.317	104.88
405.541	104.88
405.765	85.88
405.988	100.88
406.212	156.88
406.436	232.88
406.66	135.88
406.883	94.88
407.107	82.88
407.331	89.88
407.555	99.88
407.778	107.88
408.002	74.88
408.226	85.88
408.449	83.88
408.673	92.88
408.896	84.88
409.12	85.88
409.344	79.88
409.567	94.88
409.791	87.88
410.014	81.88
410.238	86.88
410.461	87.88
410.685	84.88
410.908	79.88
411.132	78.88
411.355	95.88
411.578	97.88
411.802	88.88
412.025	80.88
412.249	80.88
412.472	91.88
412.695	91.88
412.919	95.88
413.142	81.88
413.365	90.88
413.589	86.88
413.812	83.88
414.035	94.88
414.258	82.88
414.482	87.88
414.705	85.88
414.928	84.88
415.151	86.88
415.374	75.88
415.597	74.88
415.821	80.88
416.044	81.88
416.267	87.88
416.49	83.88
416.713	87.88
416.936	89.88
417.159	84.88
417.382	76.88
417.605	91.88
417.828	88.88
418.051	75.88
418.274	91.88
418.497	74.88
418.72	84.88
418.943	70.88
419.166	88.88
419.389	80.88
419.611	77.88
419.834	86.88
420.057	87.88
420.28	81.88
420.503	95.88
420.726	70.88
420.948	84.88
421.171	80.88
421.394	97.88
421.617	90.88
421.839	85.88
422.062	76.88
422.285	82.88
422.507	90.88
422.73	85.88
422.953	98.88
423.175	75.88
423.398	81.88
423.621	82.88
423.843	76.88
424.066	70.88
424.288	73.88
424.511	73.88
424.733	96.88
424.956	96.88
425.178	92.88
425.401	93.88
425.623	107.88
425.846	100.88
426.068	88.88
426.291	72.88
426.513	81.88
426.735	84.88
426.958	86.88
427.18	100.88
427.402	130.88
427.625	177.88
427.847	158.88
428.069	161.88
428.292	111.88
428.514	97.88
428.736	95.88
428.958	97.88
429.181	93.88
429.403	72.88
429.625	76.88
429.847	79.88
430.069	88.88
430.292	75.88
430.514	72.88
430.736	80.88
430.958	93.88
431.18	75.88
431.402	86.88
431.624	79.88
431.846	77.88
432.068	79.88
432.29	78.88
432.512	95.88
432.734	90.88
432.956	95.88
433.178	108.88
433.4	89.88
433.622	73.88
433.844	81.88
434.066	95.88
434.287	77.88
434.509	76.88
434.731	87.88
434.953	82.88
435.175	73.88
435.397	81.88
435.618	78.88
435.84	93.88
436.062	112.88
436.284	104.88
436.505	101.88
436.727	93.88
436.949	97.88
437.17	90.88
437.392	90.88
437.614	86.88
437.835	95.88
438.057	110.88
438.278	97.88
438.5	100.88
438.721	112.88
438.943	88.88
439.165	98.88
439.386	93.88
439.608	75.88
439.829	98.88
440.05	113.88
440.272	142.88
440.493	92.88
440.715	85.88
440.936	73.88
441.158	92.88
441.379	88.88
441.6	87.88
441.822	91.88
442.043	93.88
442.264	89.88
442.486	88.88
442.707	95.88
442.928	109.88
443.149	123.88
443.371	129.88
443.592	104.88
443.813	93.88
444.034	102.88
444.255	81.88
444.476	82.88
444.698	87.88
444.919	71.88
445.14	121.88
445.361	112.88
445.582	122.88
445.803	136.88
446.024	134.88
446.245	129.88
446.466	112.88
446.687	100.88
446.908	83.88
447.129	80.88
447.35	73.88
447.571	81.88
447.792	90.88
448.013	85.88
448.234	104.88
448.455	94.88
448.675	105.88
448.896	105.88
449.117	90.88
449.338	89.88
449.559	120.88
449.779	122.88
450	83.88
450.221	74.88
450.442	84.88
450.662	85.88
450.883	93.88
451.104	105.88
451.324	88.88
451.545	79.88
451.766	78.88
451.986	73.88
452.207	88.88
452.428	79.88
452.648	93.88
452.869	112.88
453.089	109.88
453.31	114.88
453.53	95.88
453.751	76.88
453.971	78.88
454.192	112.88
454.412	84.88
454.633	85.88
454.853	66.88
455.073	90.88
455.294	78.88
455.514	88.88
455.734	62.88
455.955	77.88
456.175	76.88
456.395	84.88
456.616	86.88
456.836	87.88
457.056	72.88
457.276	77.88
457.497	83.88
457.717	80.88
457.937	79.88
458.157	88.88
458.377	90.88
458.598	81.88
458.818	132.88
459.038	160.88
459.258	104.88
459.478	91.88
459.698	98.88
459.918	91.88
460.138	96.88
460.358	89.88
460.578	83.88
460.798	79.88
461.018	89.88
461.238	88.88
461.458	98.88
461.678	87.88
461.898	77.88
462.118	91.88
462.338	78.88
462.558	96.88
462.777	78.88
462.997	104.88
463.217	96.88
463.437	73.88
463.657	90.88
463.876	78.88
464.096	73.88
464.316	88.88
464.536	94.88
464.755	96.88
464.975	102.88
465.195	171.88
465.414	157.88
465.634	86.88
465.854	82.88
466.073	65.88
466.293	90.88
466.512	78.88
466.732	77.88
466.951	83.88
467.171	87.88
467.391	86.88
467.61	116.88
467.829	126.88
468.049	290.88
468.268	381.88
468.488	122.88
468.707	97.88
468.927	83.88
469.146	70.88
469.365	74.88
469.585	73.88
469.804	77.88
470.023	93.88
470.243	93.88
470.462	98.88
470.681	110.88
470.901	95.88
471.12	95.88
471.339	73.88
471.558	85.88
471.777	102.88
471.997	168.88
472.216	524.88
472.435	1086.88
472.654	289.88
472.873	104.88
473.092	81.88
473.311	76.88
473.53	91.88
473.749	92.88
473.968	96.88
474.187	95.88
474.406	92.88
474.625	77.88
474.844	82.88
475.063	85.88
475.282	102.88
475.501	71.88
475.72	84.88
475.939	88.88
476.158	76.88
476.377	82.88
476.596	84.88
476.814	82.88
477.033	79.88
477.252	71.88
477.471	94.88
477.69	81.88
477.908	86.88
478.127	80.88
478.346	90.88
478.564	83.88
478.783	89.88
479.002	81.88
479.22	96.88
479.439	107.88
479.658	112.88
479.876	97.88
480.095	97.88
480.313	109.88
480.532	118.88
480.751	177.88
480.969	483.88
481.188	1925.88
481.406	1112.88
481.624	199.88
481.843	106.88
482.061	85.88
482.28	74.88
482.498	77.88
482.717	75.88
482.935	86.88
483.153	82.88
483.372	82.88
483.59	95.88
483.808	84.88
484.027	78.88
484.245	94.88
484.463	87.88
484.681	90.88
484.9	90.88
485.118	105.88
485.336	88.88
485.554	77.88
485.772	83.88
485.99	96.88
486.209	98.88
486.427	89.88
486.645	106.88
486.863	111.88
487.081	110.88
487.299	102.88
487.517	97.88
487.735	90.88
487.953	82.88
488.171	80.88
488.389	84.88
488.607	82.88
488.825	87.88
489.043	72.88
489.261	95.88
489.479	82.88
489.696	74.88
489.914	82.88
490.132	68.88
490.35	83.88
490.568	69.88
490.786	96.88
491.003	73.88
491.221	72.88
491.439	88.88
491.657	94.88
491.874	81.88
492.092	95.88
492.31	91.88
492.527	60.88
492.745	100.88
492.963	63.88
493.18	84.88
493.398	80.88
493.615	89.88
493.833	89.88
494.05	62.88
494.268	84.88
494.485	83.88
494.703	89.88
494.92	82.88
495.138	79.88
495.355	70.88
495.573	83.88
495.79	91.88
496.008	81.88
496.225	85.88
496.442	89.88
496.66	74.88
496.877	79.88
497.094	97.88
497.312	92.88
497.529	86.88
497.746	83.88
497.963	79.88
498.181	74.88
498.398	77.88
498.615	89.88
498.832	96.88
499.049	95.88
499.267	86.88
499.484	86.88
499.701	77.88
499.918	77.88
500.135	89.88
500.352	77.88
500.569	72.88
500.786	89.88
501.003	83.88
501.22	84.88
501.437	82.88
501.654	89.88
501.871	86.88
502.088	87.88
502.305	92.88
502.522	72.88
502.739	87.88
502.956	89.88
503.172	97.88
503.389	96.88
503.606	101.88
503.823	84.88
504.04	88.88
504.256	93.88
504.473	76.88
504.69	97.88
504.907	85.88
505.123	85.88
505.34	81.88
505.557	87.88
505.773	85.88
505.99	84.88
506.207	86.88
506.423	80.88
506.64	78.88
506.856	86.88
507.073	83.88
507.289	91.88
507.506	94.88
507.722	103.88
507.939	113.88
508.155	86.88
508.372	89.88
508.588	82.88
508.805	79.88
509.021	90.88
509.238	88.88
509.454	90.88
509.67	89.88
509.887	110.88
510.103	107.88
510.319	198.88
510.536	698.88
510.752	2349.88
510.968	658.88
511.184	155.88
511.401	100.88
511.617	110.88
511.833	86.88
512.049	93.88
512.265	99.88
512.481	80.88
512.698	88.88
512.914	106.88
513.13	82.88
513.346	81.88
513.562	78.88
513.778	79.88
513.994	94.88
514.21	100.88
514.426	117.88
514.642	123.88
514.858	110.88
515.074	162.88
515.29	458.88
515.506	1505.88
515.721	526.88
515.937	146.88
516.153	107.88
516.369	104.88
516.585	96.88
516.801	93.88
