Data from Circ_1991_H10_HRD10591_00001.txt Node
Date: Wed Jan 03 11:51:41 EST 2024
User: Yrep
Spectrometer: HR+D1059
Trigger mode: 1
Integration Time (sec): 1.000000E-1
Scans to average: 1
Electric dark correction enabled: true
Nonlinearity correction enabled: false
Boxcar width: 0
XAxis mode: Wavelengths
Number of Pixels in Spectrum: 2048
>>>>>Begin Spectral Data<<<<<
223.165	-13.31
223.4	-13.31
223.635	-13.31
223.869	-2.31
224.104	-18.31
224.338	-24.31
224.573	-14.31
224.808	-14.31
225.042	-16.31
225.277	-30.31
225.511	-0.31
225.746	-9.31
225.98	5.69
226.215	18.69
226.449	26.69
226.683	20.69
226.918	38.69
227.152	32.69
227.387	27.69
227.621	27.69
227.856	51.69
228.09	41.69
228.324	47.69
228.559	63.69
228.793	65.69
229.027	63.69
229.262	71.69
229.496	69.69
229.73	81.69
229.964	85.69
230.199	71.69
230.433	63.69
230.667	83.69
230.901	69.69
231.136	86.69
231.37	84.69
231.604	89.69
231.838	85.69
232.072	77.69
232.306	80.69
232.541	83.69
232.775	77.69
233.009	86.69
233.243	81.69
233.477	82.69
233.711	90.69
233.945	75.69
234.179	92.69
234.413	82.69
234.647	78.69
234.881	80.69
235.115	68.69
235.349	72.69
235.583	76.69
235.817	72.69
236.051	87.69
236.285	82.69
236.519	69.69
236.753	77.69
236.987	70.69
237.221	79.69
237.455	76.69
237.689	76.69
237.922	81.69
238.156	65.69
238.39	90.69
238.624	66.69
238.858	80.69
239.091	85.69
239.325	79.69
239.559	75.69
239.793	76.69
240.027	70.69
240.26	69.69
240.494	81.69
240.728	74.69
240.961	84.69
241.195	68.69
241.429	87.69
241.662	60.69
241.896	82.69
242.13	75.69
242.363	69.69
242.597	88.69
242.83	62.69
243.064	80.69
243.298	84.69
243.531	80.69
243.765	70.69
243.998	65.69
244.232	82.69
244.465	83.69
244.699	65.69
244.932	69.69
245.166	83.69
245.399	67.69
245.633	82.69
245.866	90.69
246.099	76.69
246.333	82.69
246.566	87.69
246.8	85.69
247.033	76.69
247.266	93.69
247.5	61.69
247.733	76.69
247.966	76.69
248.2	79.69
248.433	66.69
248.666	86.69
248.899	71.69
249.133	77.69
249.366	68.69
249.599	92.69
249.832	80.69
250.066	81.69
250.299	87.69
250.532	78.69
250.765	78.69
250.998	79.69
251.231	100.69
251.465	86.69
251.698	83.69
251.931	78.69
252.164	84.69
252.397	75.69
252.63	95.69
252.863	82.69
253.096	88.69
253.329	88.69
253.562	97.69
253.795	82.69
254.028	82.69
254.261	85.69
254.494	85.69
254.727	78.69
254.96	90.69
255.193	83.69
255.426	79.69
255.659	91.69
255.892	83.69
256.124	86.69
256.357	76.69
256.59	91.69
256.823	74.69
257.056	82.69
257.289	83.69
257.521	86.69
257.754	72.69
257.987	88.69
258.22	101.69
258.452	85.69
258.685	93.69
258.918	80.69
259.151	93.69
259.383	101.69
259.616	75.69
259.849	78.69
260.081	87.69
260.314	86.69
260.547	84.69
260.779	94.69
261.012	80.69
261.244	82.69
261.477	84.69
261.71	94.69
261.942	102.69
262.175	101.69
262.407	86.69
262.64	84.69
262.872	96.69
263.105	83.69
263.337	96.69
263.57	87.69
263.802	84.69
264.035	89.69
264.267	82.69
264.499	71.69
264.732	76.69
264.964	67.69
265.197	79.69
265.429	82.69
265.661	91.69
265.894	85.69
266.126	82.69
266.358	63.69
266.591	76.69
266.823	96.69
267.055	93.69
267.287	93.69
267.52	75.69
267.752	84.69
267.984	84.69
268.216	73.69
268.448	84.69
268.681	77.69
268.913	98.69
269.145	82.69
269.377	79.69
269.609	82.69
269.841	89.69
270.073	85.69
270.306	88.69
270.538	98.69
270.77	83.69
271.002	78.69
271.234	76.69
271.466	84.69
271.698	71.69
271.93	98.69
272.162	83.69
272.394	87.69
272.626	86.69
272.858	85.69
273.09	86.69
273.322	91.69
273.553	86.69
273.785	86.69
274.017	80.69
274.249	94.69
274.481	85.69
274.713	78.69
274.945	76.69
275.176	89.69
275.408	84.69
275.64	80.69
275.872	77.69
276.104	80.69
276.335	77.69
276.567	99.69
276.799	87.69
277.031	81.69
277.262	94.69
277.494	100.69
277.726	81.69
277.957	87.69
278.189	98.69
278.421	70.69
278.652	94.69
278.884	80.69
279.115	82.69
279.347	90.69
279.579	95.69
279.81	84.69
280.042	97.69
280.273	90.69
280.505	103.69
280.736	91.69
280.968	89.69
281.199	101.69
281.431	96.69
281.662	79.69
281.894	102.69
282.125	91.69
282.356	111.69
282.588	117.69
282.819	104.69
283.051	91.69
283.282	97.69
283.513	87.69
283.745	78.69
283.976	82.69
284.207	99.69
284.439	95.69
284.67	68.69
284.901	78.69
285.132	97.69
285.364	100.69
285.595	108.69
285.826	79.69
286.057	85.69
286.288	82.69
286.52	85.69
286.751	79.69
286.982	84.69
287.213	83.69
287.444	75.69
287.675	99.69
287.906	80.69
288.138	91.69
288.369	93.69
288.6	86.69
288.831	92.69
289.062	99.69
289.293	81.69
289.524	94.69
289.755	84.69
289.986	85.69
290.217	83.69
290.448	94.69
290.679	83.69
290.91	77.69
291.141	90.69
291.371	96.69
291.602	94.69
291.833	75.69
292.064	85.69
292.295	85.69
292.526	75.69
292.757	83.69
292.987	85.69
293.218	98.69
293.449	82.69
293.68	96.69
293.91	88.69
294.141	85.69
294.372	90.69
294.603	83.69
294.833	98.69
295.064	104.69
295.295	82.69
295.525	84.69
295.756	103.69
295.987	101.69
296.217	104.69
296.448	108.69
296.679	97.69
296.909	79.69
297.14	83.69
297.37	91.69
297.601	88.69
297.831	87.69
298.062	82.69
298.292	87.69
298.523	88.69
298.753	64.69
298.984	91.69
299.214	93.69
299.445	108.69
299.675	87.69
299.905	87.69
300.136	81.69
300.366	88.69
300.597	92.69
300.827	82.69
301.057	96.69
301.288	96.69
301.518	86.69
301.748	87.69
301.979	111.69
302.209	85.69
302.439	97.69
302.669	91.69
302.9	86.69
303.13	83.69
303.36	118.69
303.59	94.69
303.82	102.69
304.051	83.69
304.281	92.69
304.511	93.69
304.741	72.69
304.971	72.69
305.201	95.69
305.431	84.69
305.661	93.69
305.891	104.69
306.121	81.69
306.352	100.69
306.582	108.69
306.812	96.69
307.042	109.69
307.272	105.69
307.502	110.69
307.731	97.69
307.961	88.69
308.191	81.69
308.421	83.69
308.651	90.69
308.881	109.69
309.111	95.69
309.341	95.69
309.571	97.69
309.8	94.69
310.03	94.69
310.26	97.69
310.49	103.69
310.72	103.69
310.949	99.69
311.179	95.69
311.409	94.69
311.639	93.69
311.868	91.69
312.098	88.69
312.328	96.69
312.557	86.69
312.787	98.69
313.017	106.69
313.246	91.69
313.476	85.69
313.706	80.69
313.935	80.69
314.165	90.69
314.394	109.69
314.624	90.69
314.853	92.69
315.083	97.69
315.312	78.69
315.542	87.69
315.771	87.69
316.001	97.69
316.23	101.69
316.46	81.69
316.689	100.69
316.919	90.69
317.148	87.69
317.377	86.69
317.607	93.69
317.836	99.69
318.065	90.69
318.295	94.69
318.524	85.69
318.753	94.69
318.983	107.69
319.212	90.69
319.441	94.69
319.67	109.69
319.9	98.69
320.129	88.69
320.358	101.69
320.587	88.69
320.816	76.69
321.046	97.69
321.275	101.69
321.504	95.69
321.733	87.69
321.962	98.69
322.191	106.69
322.42	106.69
322.649	108.69
322.878	109.69
323.108	102.69
323.337	109.69
323.566	129.69
323.795	140.69
324.024	190.69
324.253	332.69
324.482	692.69
324.71	1408.69
324.939	1931.69
325.168	702.69
325.397	218.69
325.626	142.69
325.855	116.69
326.084	117.69
326.313	126.69
326.542	123.69
326.77	204.69
326.999	380.69
327.228	798.69
327.457	1510.69
327.686	1174.69
327.914	336.69
328.143	196.69
328.372	178.69
328.6	129.69
328.829	112.69
329.058	122.69
329.287	111.69
329.515	103.69
329.744	117.69
329.972	133.69
330.201	178.69
330.43	214.69
330.658	145.69
330.887	134.69
331.115	108.69
331.344	95.69
331.572	93.69
331.801	104.69
332.03	111.69
332.258	91.69
332.486	89.69
332.715	108.69
332.943	94.69
333.172	94.69
333.4	92.69
333.629	98.69
333.857	122.69
334.085	118.69
334.314	176.69
334.542	254.69
334.771	266.69
334.999	131.69
335.227	116.69
335.455	106.69
335.684	96.69
335.912	90.69
336.14	95.69
336.369	91.69
336.597	91.69
336.825	94.69
337.053	104.69
337.281	102.69
337.51	94.69
337.738	99.69
337.966	82.69
338.194	102.69
338.422	95.69
338.65	90.69
338.878	84.69
339.106	86.69
339.334	95.69
339.562	79.69
339.79	82.69
340.018	101.69
340.246	97.69
340.474	90.69
340.702	93.69
340.93	87.69
341.158	91.69
341.386	82.69
341.614	94.69
341.842	86.69
342.07	100.69
342.298	103.69
342.526	95.69
342.754	91.69
342.981	86.69
343.209	106.69
343.437	101.69
343.665	97.69
343.893	97.69
344.12	88.69
344.348	86.69
344.576	82.69
344.804	79.69
345.031	100.69
345.259	93.69
345.487	89.69
345.714	82.69
345.942	99.69
346.17	85.69
346.397	92.69
346.625	93.69
346.853	86.69
347.08	80.69
347.308	95.69
347.535	98.69
347.763	87.69
347.99	77.69
348.218	99.69
348.445	83.69
348.673	100.69
348.9	82.69
349.128	96.69
349.355	102.69
349.583	80.69
349.81	88.69
350.037	96.69
350.265	100.69
350.492	83.69
350.72	98.69
350.947	96.69
351.174	112.69
351.402	94.69
351.629	111.69
351.856	110.69
352.083	99.69
352.311	105.69
352.538	95.69
352.765	100.69
352.992	106.69
353.22	114.69
353.447	98.69
353.674	105.69
353.901	100.69
354.128	88.69
354.355	99.69
354.583	95.69
354.81	101.69
355.037	91.69
355.264	103.69
355.491	97.69
355.718	99.69
355.945	100.69
356.172	99.69
356.399	103.69
356.626	87.69
356.853	87.69
357.08	98.69
357.307	94.69
357.534	96.69
357.761	88.69
357.988	107.69
358.215	97.69
358.441	98.69
358.668	110.69
358.895	110.69
359.122	91.69
359.349	92.69
359.576	88.69
359.802	98.69
360.029	94.69
360.256	103.69
360.483	88.69
360.709	95.69
360.936	90.69
361.163	92.69
361.39	90.69
361.616	91.69
361.843	91.69
362.07	91.69
362.296	92.69
362.523	100.69
362.749	93.69
362.976	88.69
363.203	98.69
363.429	87.69
363.656	85.69
363.882	99.69
364.109	87.69
364.335	89.69
364.562	92.69
364.788	86.69
365.015	92.69
365.241	69.69
365.468	100.69
365.694	99.69
365.92	98.69
366.147	89.69
366.373	70.69
366.599	85.69
366.826	92.69
367.052	85.69
367.278	94.69
367.505	92.69
367.731	90.69
367.957	98.69
368.184	81.69
368.41	71.69
368.636	108.69
368.862	106.69
369.089	82.69
369.315	88.69
369.541	97.69
369.767	93.69
369.993	102.69
370.219	80.69
370.445	82.69
370.672	80.69
370.898	93.69
371.124	97.69
371.35	100.69
371.576	79.69
371.802	94.69
372.028	76.69
372.254	96.69
372.48	95.69
372.706	98.69
372.932	89.69
373.158	91.69
373.384	88.69
373.61	90.69
373.835	103.69
374.061	85.69
374.287	94.69
374.513	93.69
374.739	88.69
374.965	100.69
375.191	102.69
375.416	96.69
375.642	96.69
375.868	83.69
376.094	88.69
376.319	97.69
376.545	94.69
376.771	97.69
376.997	78.69
377.222	98.69
377.448	92.69
377.674	98.69
377.899	103.69
378.125	101.69
378.35	96.69
378.576	98.69
378.802	93.69
379.027	107.69
379.253	90.69
379.478	107.69
379.704	107.69
379.929	101.69
380.155	99.69
380.38	107.69
380.606	105.69
380.831	105.69
381.057	114.69
381.282	91.69
381.507	101.69
381.733	104.69
381.958	113.69
382.184	113.69
382.409	116.69
382.634	108.69
382.86	109.69
383.085	126.69
383.31	129.69
383.535	124.69
383.761	120.69
383.986	125.69
384.211	111.69
384.436	127.69
384.662	134.69
384.887	134.69
385.112	144.69
385.337	147.69
385.562	139.69
385.787	144.69
386.013	155.69
386.238	142.69
386.463	146.69
386.688	126.69
386.913	122.69
387.138	139.69
387.363	136.69
387.588	115.69
387.813	125.69
388.038	141.69
388.263	142.69
388.488	158.69
388.713	97.69
388.938	96.69
389.163	91.69
389.387	90.69
389.612	92.69
389.837	98.69
390.062	89.69
390.287	98.69
390.512	96.69
390.736	98.69
390.961	78.69
391.186	79.69
391.411	104.69
391.636	84.69
391.86	91.69
392.085	94.69
392.31	87.69
392.534	98.69
392.759	97.69
392.984	111.69
393.208	131.69
393.433	172.69
393.658	138.69
393.882	108.69
394.107	94.69
394.331	83.69
394.556	74.69
394.78	99.69
395.005	85.69
395.229	71.69
395.454	88.69
395.678	85.69
395.903	86.69
396.127	85.69
396.352	88.69
396.576	88.69
396.801	112.69
397.025	132.69
397.249	96.69
397.474	95.69
397.698	71.69
397.922	87.69
398.147	92.69
398.371	92.69
398.595	91.69
398.82	95.69
399.044	74.69
399.268	71.69
399.492	80.69
399.717	99.69
399.941	71.69
400.165	94.69
400.389	92.69
400.613	85.69
400.837	85.69
401.062	89.69
401.286	81.69
401.51	96.69
401.734	91.69
401.958	79.69
402.182	98.69
402.406	128.69
402.63	100.69
402.854	75.69
403.078	83.69
403.302	79.69
403.526	93.69
403.75	91.69
403.974	80.69
404.198	73.69
404.422	97.69
404.645	98.69
404.869	82.69
405.093	68.69
405.317	115.69
405.541	110.69
405.765	118.69
405.988	94.69
406.212	142.69
406.436	165.69
406.66	128.69
406.883	81.69
407.107	85.69
407.331	93.69
407.555	91.69
407.778	76.69
408.002	80.69
408.226	91.69
408.449	92.69
408.673	94.69
408.896	116.69
409.12	98.69
409.344	96.69
409.567	77.69
409.791	93.69
410.014	95.69
410.238	94.69
410.461	86.69
410.685	88.69
410.908	107.69
411.132	123.69
411.355	96.69
411.578	87.69
411.802	88.69
412.025	96.69
412.249	110.69
412.472	89.69
412.695	103.69
412.919	98.69
413.142	95.69
413.365	87.69
413.589	86.69
413.812	76.69
414.035	99.69
414.258	89.69
414.482	96.69
414.705	87.69
414.928	98.69
415.151	101.69
415.374	98.69
415.597	84.69
415.821	93.69
416.044	85.69
416.267	88.69
416.49	89.69
416.713	97.69
416.936	91.69
417.159	88.69
417.382	99.69
417.605	95.69
417.828	106.69
418.051	86.69
418.274	88.69
418.497	80.69
418.72	84.69
418.943	79.69
419.166	88.69
419.389	102.69
419.611	90.69
419.834	84.69
420.057	89.69
420.28	92.69
420.503	92.69
420.726	95.69
420.948	88.69
421.171	96.69
421.394	98.69
421.617	82.69
421.839	103.69
422.062	88.69
422.285	76.69
422.507	100.69
422.73	116.69
422.953	120.69
423.175	99.69
423.398	87.69
423.621	70.69
423.843	90.69
424.066	85.69
424.288	87.69
424.511	93.69
424.733	110.69
424.956	96.69
425.178	95.69
425.401	102.69
425.623	90.69
425.846	90.69
426.068	74.69
426.291	82.69
426.513	75.69
426.735	85.69
426.958	97.69
427.18	101.69
427.402	112.69
427.625	155.69
427.847	136.69
428.069	121.69
428.292	96.69
428.514	91.69
428.736	86.69
428.958	92.69
429.181	81.69
429.403	96.69
429.625	102.69
429.847	86.69
430.069	83.69
430.292	100.69
430.514	87.69
430.736	84.69
430.958	88.69
431.18	79.69
431.402	99.69
431.624	85.69
431.846	87.69
432.068	83.69
432.29	92.69
432.512	88.69
432.734	92.69
432.956	84.69
433.178	108.69
433.4	88.69
433.622	92.69
433.844	85.69
434.066	103.69
434.287	85.69
434.509	80.69
434.731	88.69
434.953	86.69
435.175	88.69
435.397	95.69
435.618	94.69
435.84	95.69
436.062	114.69
436.284	100.69
436.505	98.69
436.727	105.69
436.949	86.69
437.17	73.69
437.392	85.69
437.614	85.69
437.835	107.69
438.057	108.69
438.278	110.69
438.5	82.69
438.721	100.69
438.943	98.69
439.165	80.69
439.386	82.69
439.608	96.69
439.829	91.69
440.05	114.69
440.272	124.69
440.493	94.69
440.715	82.69
440.936	87.69
441.158	83.69
441.379	77.69
441.6	78.69
441.822	85.69
442.043	90.69
442.264	101.69
442.486	85.69
442.707	100.69
442.928	84.69
443.149	107.69
443.371	112.69
443.592	103.69
443.813	107.69
444.034	84.69
444.255	92.69
444.476	81.69
444.698	77.69
444.919	98.69
445.14	132.69
445.361	121.69
445.582	115.69
445.803	133.69
446.024	108.69
446.245	130.69
446.466	99.69
446.687	67.69
446.908	88.69
447.129	83.69
447.35	86.69
447.571	88.69
447.792	88.69
448.013	80.69
448.234	99.69
448.455	90.69
448.675	102.69
448.896	109.69
449.117	79.69
449.338	92.69
449.559	123.69
449.779	123.69
450	99.69
450.221	90.69
450.442	87.69
450.662	85.69
450.883	99.69
451.104	117.69
451.324	87.69
451.545	93.69
451.766	93.69
451.986	92.69
452.207	100.69
452.428	83.69
452.648	92.69
452.869	95.69
453.089	90.69
453.31	98.69
453.53	83.69
453.751	89.69
453.971	94.69
454.192	84.69
454.412	85.69
454.633	80.69
454.853	84.69
455.073	95.69
455.294	91.69
455.514	90.69
455.734	80.69
455.955	80.69
456.175	88.69
456.395	83.69
456.616	93.69
456.836	85.69
457.056	82.69
457.276	85.69
457.497	80.69
457.717	96.69
457.937	92.69
458.157	85.69
458.377	90.69
458.598	95.69
458.818	127.69
459.038	138.69
459.258	107.69
459.478	83.69
459.698	92.69
459.918	71.69
460.138	88.69
460.358	85.69
460.578	78.69
460.798	89.69
461.018	97.69
461.238	80.69
461.458	78.69
461.678	82.69
461.898	91.69
462.118	82.69
462.338	81.69
462.558	91.69
462.777	80.69
462.997	78.69
463.217	78.69
463.437	86.69
463.657	95.69
463.876	84.69
464.096	78.69
464.316	83.69
464.536	79.69
464.755	94.69
464.975	100.69
465.195	131.69
465.414	129.69
465.634	101.69
465.854	93.69
466.073	69.69
466.293	91.69
466.512	71.69
466.732	76.69
466.951	93.69
467.171	92.69
467.391	86.69
467.61	98.69
467.829	102.69
468.049	151.69
468.268	168.69
468.488	107.69
468.707	87.69
468.927	86.69
469.146	81.69
469.365	92.69
469.585	80.69
469.804	97.69
470.023	78.69
470.243	92.69
470.462	87.69
470.681	91.69
470.901	86.69
471.12	89.69
471.339	75.69
471.558	95.69
471.777	82.69
471.997	102.69
472.216	222.69
472.435	374.69
472.654	138.69
472.873	91.69
473.092	88.69
473.311	67.69
473.53	97.69
473.749	100.69
473.968	79.69
474.187	105.69
474.406	99.69
474.625	94.69
474.844	85.69
475.063	85.69
475.282	84.69
475.501	93.69
475.72	79.69
475.939	88.69
476.158	74.69
476.377	93.69
476.596	86.69
476.814	93.69
477.033	89.69
477.252	90.69
477.471	79.69
477.69	106.69
477.908	86.69
478.127	84.69
478.346	80.69
478.564	89.69
478.783	99.69
479.002	98.69
479.22	94.69
479.439	91.69
479.658	104.69
479.876	115.69
480.095	95.69
480.313	91.69
480.532	100.69
480.751	128.69
480.969	219.69
481.188	613.69
481.406	387.69
481.624	127.69
481.843	86.69
482.061	94.69
482.28	101.69
482.498	84.69
482.717	86.69
482.935	99.69
483.153	90.69
483.372	96.69
483.59	88.69
483.808	76.69
484.027	96.69
484.245	84.69
484.463	99.69
484.681	97.69
484.9	99.69
485.118	85.69
485.336	100.69
485.554	88.69
485.772	101.69
485.99	123.69
486.209	102.69
486.427	98.69
486.645	102.69
486.863	90.69
487.081	101.69
487.299	100.69
487.517	93.69
487.735	87.69
487.953	95.69
488.171	92.69
488.389	85.69
488.607	95.69
488.825	98.69
489.043	94.69
489.261	88.69
489.479	91.69
489.696	85.69
489.914	101.69
490.132	99.69
490.35	90.69
490.568	67.69
490.786	93.69
491.003	86.69
491.221	82.69
491.439	82.69
491.657	97.69
491.874	107.69
492.092	102.69
492.31	96.69
492.527	95.69
492.745	88.69
492.963	86.69
493.18	76.69
493.398	98.69
493.615	99.69
493.833	93.69
494.05	85.69
494.268	95.69
494.485	94.69
494.703	96.69
494.92	92.69
495.138	98.69
495.355	90.69
495.573	79.69
495.79	92.69
496.008	91.69
496.225	108.69
496.442	84.69
496.66	88.69
496.877	84.69
497.094	82.69
497.312	81.69
497.529	83.69
497.746	102.69
497.963	92.69
498.181	90.69
498.398	86.69
498.615	105.69
498.832	90.69
499.049	86.69
499.267	110.69
499.484	102.69
499.701	94.69
499.918	95.69
500.135	91.69
500.352	76.69
500.569	88.69
500.786	87.69
501.003	90.69
501.22	90.69
501.437	97.69
501.654	102.69
501.871	90.69
502.088	88.69
502.305	83.69
502.522	85.69
502.739	86.69
502.956	95.69
503.172	102.69
503.389	88.69
503.606	96.69
503.823	89.69
504.04	103.69
504.256	83.69
504.473	81.69
504.69	89.69
504.907	95.69
505.123	68.69
505.34	81.69
505.557	93.69
505.773	91.69
505.99	85.69
506.207	99.69
506.423	77.69
506.64	102.69
506.856	95.69
507.073	79.69
507.289	100.69
507.506	102.69
507.722	99.69
507.939	103.69
508.155	98.69
508.372	90.69
508.588	91.69
508.805	112.69
509.021	96.69
509.238	78.69
509.454	98.69
509.67	90.69
509.887	102.69
510.103	120.69
510.319	173.69
510.536	535.69
510.752	1580.69
510.968	470.69
511.184	133.69
511.401	102.69
511.617	96.69
511.833	86.69
512.049	88.69
512.265	87.69
512.481	95.69
512.698	85.69
512.914	101.69
513.13	77.69
513.346	93.69
513.562	91.69
513.778	106.69
513.994	93.69
514.21	88.69
514.426	100.69
514.642	112.69
514.858	111.69
515.074	142.69
515.29	318.69
515.506	961.69
515.721	367.69
