Data from Circ_1991_H10_HRD10591_00095.txt Node
Date: Wed Jan 03 11:52:00 EST 2024
User: Yrep
Spectrometer: HR+D1059
Trigger mode: 1
Integration Time (sec): 1.000000E-1
Scans to average: 1
Electric dark correction enabled: true
Nonlinearity correction enabled: false
Boxcar width: 0
XAxis mode: Wavelengths
Number of Pixels in Spectrum: 2048
>>>>>Begin Spectral Data<<<<<
223.165	-17.81
223.4	-17.81
223.635	-17.81
223.869	-13.81
224.104	-24.81
224.338	1.19
224.573	3.19
224.808	-25.81
225.042	-2.81
225.277	7.19
225.511	-18.81
225.746	2.19
225.98	4.19
226.215	14.19
226.449	-1.81
226.683	20.19
226.918	12.19
227.152	41.19
227.387	44.19
227.621	45.19
227.856	38.19
228.09	50.19
228.324	57.19
228.559	60.19
228.793	70.19
229.027	55.19
229.262	66.19
229.496	79.19
229.73	103.19
229.964	93.19
230.199	76.19
230.433	80.19
230.667	77.19
230.901	81.19
231.136	70.19
231.37	79.19
231.604	77.19
231.838	79.19
232.072	85.19
232.306	96.19
232.541	80.19
232.775	79.19
233.009	84.19
233.243	70.19
233.477	69.19
233.711	91.19
233.945	68.19
234.179	88.19
234.413	84.19
234.647	74.19
234.881	76.19
235.115	99.19
235.349	73.19
235.583	72.19
235.817	71.19
236.051	90.19
236.285	84.19
236.519	66.19
236.753	85.19
236.987	66.19
237.221	95.19
237.455	86.19
237.689	76.19
237.922	88.19
238.156	64.19
238.39	78.19
238.624	90.19
238.858	82.19
239.091	79.19
239.325	93.19
239.559	84.19
239.793	78.19
240.027	79.19
240.26	68.19
240.494	72.19
240.728	78.19
240.961	69.19
241.195	83.19
241.429	80.19
241.662	86.19
241.896	80.19
242.13	82.19
242.363	80.19
242.597	76.19
242.83	67.19
243.064	76.19
243.298	71.19
243.531	74.19
243.765	86.19
243.998	74.19
244.232	86.19
244.465	71.19
244.699	88.19
244.932	74.19
245.166	80.19
245.399	75.19
245.633	83.19
245.866	83.19
246.099	84.19
246.333	88.19
246.566	93.19
246.8	79.19
247.033	90.19
247.266	64.19
247.5	74.19
247.733	88.19
247.966	88.19
248.2	62.19
248.433	78.19
248.666	90.19
248.899	94.19
249.133	108.19
249.366	98.19
249.599	99.19
249.832	95.19
250.066	87.19
250.299	92.19
250.532	96.19
250.765	72.19
250.998	76.19
251.231	81.19
251.465	74.19
251.698	88.19
251.931	83.19
252.164	89.19
252.397	68.19
252.63	84.19
252.863	85.19
253.096	79.19
253.329	74.19
253.562	89.19
253.795	76.19
254.028	76.19
254.261	83.19
254.494	78.19
254.727	78.19
254.96	99.19
255.193	58.19
255.426	76.19
255.659	84.19
255.892	94.19
256.124	95.19
256.357	81.19
256.59	86.19
256.823	76.19
257.056	81.19
257.289	89.19
257.521	96.19
257.754	86.19
257.987	87.19
258.22	82.19
258.452	89.19
258.685	94.19
258.918	69.19
259.151	85.19
259.383	85.19
259.616	83.19
259.849	74.19
260.081	89.19
260.314	84.19
260.547	84.19
260.779	92.19
261.012	99.19
261.244	115.19
261.477	94.19
261.71	116.19
261.942	129.19
262.175	143.19
262.407	91.19
262.64	87.19
262.872	92.19
263.105	79.19
263.337	94.19
263.57	97.19
263.802	87.19
264.035	82.19
264.267	70.19
264.499	83.19
264.732	86.19
264.964	91.19
265.197	80.19
265.429	87.19
265.661	99.19
265.894	86.19
266.126	90.19
266.358	78.19
266.591	86.19
266.823	70.19
267.055	98.19
267.287	84.19
267.52	80.19
267.752	83.19
267.984	75.19
268.216	79.19
268.448	90.19
268.681	86.19
268.913	84.19
269.145	82.19
269.377	82.19
269.609	74.19
269.841	88.19
270.073	77.19
270.306	72.19
270.538	80.19
270.77	94.19
271.002	91.19
271.234	72.19
271.466	87.19
271.698	79.19
271.93	87.19
272.162	88.19
272.394	88.19
272.626	80.19
272.858	92.19
273.09	100.19
273.322	98.19
273.553	81.19
273.785	92.19
274.017	74.19
274.249	94.19
274.481	89.19
274.713	98.19
274.945	84.19
275.176	79.19
275.408	78.19
275.64	103.19
275.872	112.19
276.104	106.19
276.335	99.19
276.567	106.19
276.799	134.19
277.031	156.19
277.262	146.19
277.494	128.19
277.726	82.19
277.957	83.19
278.189	97.19
278.421	85.19
278.652	101.19
278.884	95.19
279.115	93.19
279.347	86.19
279.579	94.19
279.81	114.19
280.042	146.19
280.273	206.19
280.505	154.19
280.736	115.19
280.968	96.19
281.199	91.19
281.431	98.19
281.662	101.19
281.894	90.19
282.125	93.19
282.356	130.19
282.588	154.19
282.819	132.19
283.051	101.19
283.282	105.19
283.513	85.19
283.745	86.19
283.976	97.19
284.207	89.19
284.439	69.19
284.67	78.19
284.901	90.19
285.132	86.19
285.364	87.19
285.595	88.19
285.826	87.19
286.057	103.19
286.288	81.19
286.52	103.19
286.751	79.19
286.982	84.19
287.213	74.19
287.444	93.19
287.675	100.19
287.906	104.19
288.138	102.19
288.369	99.19
288.6	101.19
288.831	90.19
289.062	83.19
289.293	89.19
289.524	89.19
289.755	90.19
289.986	88.19
290.217	90.19
290.448	82.19
290.679	82.19
290.91	95.19
291.141	96.19
291.371	81.19
291.602	85.19
291.833	92.19
292.064	85.19
292.295	88.19
292.526	85.19
292.757	98.19
292.987	89.19
293.218	92.19
293.449	71.19
293.68	81.19
293.91	95.19
294.141	90.19
294.372	101.19
294.603	77.19
294.833	83.19
295.064	80.19
295.295	90.19
295.525	109.19
295.756	98.19
295.987	134.19
296.217	154.19
296.448	143.19
296.679	103.19
296.909	76.19
297.14	83.19
297.37	87.19
297.601	95.19
297.831	88.19
298.062	90.19
298.292	80.19
298.523	92.19
298.753	92.19
298.984	93.19
299.214	85.19
299.445	103.19
299.675	96.19
299.905	92.19
300.136	97.19
300.366	102.19
300.597	105.19
300.827	83.19
301.057	97.19
301.288	108.19
301.518	108.19
301.748	102.19
301.979	108.19
302.209	104.19
302.439	92.19
302.669	102.19
302.9	103.19
303.13	90.19
303.36	96.19
303.59	120.19
303.82	130.19
304.051	104.19
304.281	94.19
304.511	94.19
304.741	88.19
304.971	99.19
305.201	85.19
305.431	84.19
305.661	106.19
305.891	98.19
306.121	100.19
306.352	107.19
306.582	117.19
306.812	110.19
307.042	102.19
307.272	150.19
307.502	148.19
307.731	158.19
307.961	113.19
308.191	103.19
308.421	104.19
308.651	95.19
308.881	104.19
309.111	102.19
309.341	103.19
309.571	95.19
309.8	83.19
310.03	102.19
310.26	123.19
310.49	110.19
310.72	114.19
310.949	111.19
311.179	97.19
311.409	97.19
311.639	95.19
311.868	108.19
312.098	90.19
312.328	102.19
312.557	110.19
312.787	110.19
313.017	109.19
313.246	103.19
313.476	92.19
313.706	92.19
313.935	97.19
314.165	104.19
314.394	107.19
314.624	116.19
314.853	106.19
315.083	101.19
315.312	96.19
315.542	102.19
315.771	90.19
316.001	99.19
316.23	91.19
316.46	99.19
316.689	89.19
316.919	90.19
317.148	94.19
317.377	104.19
317.607	100.19
317.836	76.19
318.065	88.19
318.295	83.19
318.524	98.19
318.753	97.19
318.983	93.19
319.212	97.19
319.441	127.19
319.67	122.19
319.9	95.19
320.129	99.19
320.358	91.19
320.587	118.19
320.816	100.19
321.046	109.19
321.275	114.19
321.504	96.19
321.733	107.19
321.962	116.19
322.191	96.19
322.42	118.19
322.649	118.19
322.878	115.19
323.108	130.19
323.337	143.19
323.566	172.19
323.795	212.19
324.024	275.19
324.253	571.19
324.482	1297.19
324.71	2774.19
324.939	3879.19
325.168	1343.19
325.397	359.19
325.626	178.19
325.855	166.19
326.084	150.19
326.313	157.19
326.542	189.19
326.77	296.19
326.999	664.19
327.228	1420.19
327.457	2822.19
327.686	2310.19
327.914	644.19
328.143	459.19
328.372	545.19
328.6	308.19
328.829	168.19
329.058	185.19
329.287	193.19
329.515	164.19
329.744	207.19
329.972	370.19
330.201	723.19
330.43	1094.19
330.658	534.19
330.887	260.19
331.115	180.19
331.344	125.19
331.572	123.19
331.801	119.19
332.03	123.19
332.258	100.19
332.486	98.19
332.715	102.19
332.943	116.19
333.172	109.19
333.4	134.19
333.629	132.19
333.857	195.19
334.085	349.19
334.314	698.19
334.542	1389.19
334.771	1316.19
334.999	365.19
335.227	156.19
335.455	118.19
335.684	114.19
335.912	103.19
336.14	115.19
336.369	98.19
336.597	106.19
336.825	98.19
337.053	100.19
337.281	110.19
337.51	86.19
337.738	85.19
337.966	93.19
338.194	115.19
338.422	104.19
338.65	93.19
338.878	105.19
339.106	100.19
339.334	90.19
339.562	87.19
339.79	96.19
340.018	93.19
340.246	109.19
340.474	100.19
340.702	97.19
340.93	96.19
341.158	108.19
341.386	106.19
341.614	99.19
341.842	93.19
342.07	87.19
342.298	96.19
342.526	97.19
342.754	101.19
342.981	99.19
343.209	88.19
343.437	100.19
343.665	98.19
343.893	99.19
344.12	94.19
344.348	85.19
344.576	86.19
344.804	89.19
345.031	100.19
345.259	113.19
345.487	111.19
345.714	108.19
345.942	102.19
346.17	85.19
346.397	95.19
346.625	96.19
346.853	92.19
347.08	92.19
347.308	95.19
347.535	91.19
347.763	116.19
347.99	85.19
348.218	105.19
348.445	122.19
348.673	103.19
348.9	90.19
349.128	98.19
349.355	90.19
349.583	94.19
349.81	88.19
350.037	100.19
350.265	94.19
350.492	90.19
350.72	91.19
350.947	100.19
351.174	121.19
351.402	119.19
351.629	108.19
351.856	99.19
352.083	101.19
352.311	127.19
352.538	114.19
352.765	112.19
352.992	124.19
353.22	106.19
353.447	98.19
353.674	98.19
353.901	88.19
354.128	110.19
354.355	91.19
354.583	103.19
354.81	91.19
355.037	84.19
355.264	92.19
355.491	91.19
355.718	95.19
355.945	104.19
356.172	100.19
356.399	94.19
356.626	99.19
356.853	92.19
357.08	93.19
357.307	94.19
357.534	82.19
357.761	94.19
357.988	95.19
358.215	108.19
358.441	86.19
358.668	80.19
358.895	70.19
359.122	78.19
359.349	88.19
359.576	95.19
359.802	111.19
360.029	130.19
360.256	130.19
360.483	126.19
360.709	103.19
360.936	96.19
361.163	78.19
361.39	100.19
361.616	108.19
361.843	100.19
362.07	93.19
362.296	110.19
362.523	104.19
362.749	87.19
362.976	92.19
363.203	78.19
363.429	93.19
363.656	88.19
363.882	91.19
364.109	87.19
364.335	89.19
364.562	104.19
364.788	104.19
365.015	112.19
365.241	105.19
365.468	115.19
365.694	126.19
365.92	89.19
366.147	92.19
366.373	93.19
366.599	96.19
366.826	101.19
367.052	88.19
367.278	93.19
367.505	96.19
367.731	109.19
367.957	87.19
368.184	103.19
368.41	109.19
368.636	124.19
368.862	125.19
369.089	112.19
369.315	105.19
369.541	93.19
369.767	87.19
369.993	97.19
370.219	96.19
370.445	87.19
370.672	99.19
370.898	85.19
371.124	92.19
371.35	84.19
371.576	82.19
371.802	85.19
372.028	97.19
372.254	90.19
372.48	91.19
372.706	72.19
372.932	99.19
373.158	99.19
373.384	97.19
373.61	108.19
373.835	97.19
374.061	103.19
374.287	91.19
374.513	99.19
374.739	101.19
374.965	81.19
375.191	78.19
375.416	94.19
375.642	95.19
375.868	96.19
376.094	104.19
376.319	102.19
376.545	106.19
376.771	84.19
376.997	84.19
377.222	94.19
377.448	90.19
377.674	91.19
377.899	82.19
378.125	90.19
378.35	96.19
378.576	94.19
378.802	89.19
379.027	91.19
379.253	86.19
379.478	81.19
379.704	93.19
379.929	108.19
380.155	95.19
380.38	98.19
380.606	95.19
380.831	103.19
381.057	94.19
381.282	82.19
381.507	94.19
381.733	89.19
381.958	80.19
382.184	101.19
382.409	99.19
382.634	98.19
382.86	88.19
383.085	94.19
383.31	104.19
383.535	104.19
383.761	90.19
383.986	108.19
384.211	95.19
384.436	96.19
384.662	95.19
384.887	103.19
385.112	105.19
385.337	103.19
385.562	101.19
385.787	103.19
386.013	110.19
386.238	111.19
386.463	109.19
386.688	108.19
386.913	93.19
387.138	106.19
387.363	101.19
387.588	99.19
387.813	98.19
388.038	104.19
388.263	115.19
388.488	118.19
388.713	101.19
388.938	100.19
389.163	101.19
389.387	92.19
389.612	85.19
389.837	99.19
390.062	100.19
390.287	87.19
390.512	87.19
390.736	80.19
390.961	99.19
391.186	86.19
391.411	84.19
391.636	80.19
391.86	92.19
392.085	80.19
392.31	83.19
392.534	93.19
392.759	83.19
392.984	86.19
393.208	89.19
393.433	106.19
393.658	100.19
393.882	81.19
394.107	74.19
394.331	78.19
394.556	68.19
394.78	92.19
395.005	77.19
395.229	72.19
395.454	88.19
395.678	81.19
395.903	87.19
396.127	93.19
396.352	86.19
396.576	82.19
396.801	99.19
397.025	99.19
397.249	86.19
397.474	80.19
397.698	89.19
397.922	88.19
398.147	98.19
398.371	84.19
398.595	101.19
398.82	94.19
399.044	69.19
399.268	71.19
399.492	82.19
399.717	82.19
399.941	87.19
400.165	94.19
400.389	96.19
400.613	92.19
400.837	83.19
401.062	82.19
401.286	93.19
401.51	92.19
401.734	97.19
401.958	101.19
402.182	150.19
402.406	194.19
402.63	148.19
402.854	104.19
403.078	94.19
403.302	101.19
403.526	81.19
403.75	62.19
403.974	83.19
404.198	98.19
404.422	78.19
404.645	97.19
404.869	84.19
405.093	117.19
405.317	135.19
405.541	142.19
405.765	125.19
405.988	143.19
406.212	218.19
406.436	308.19
406.66	204.19
406.883	126.19
407.107	116.19
407.331	122.19
407.555	111.19
407.778	102.19
408.002	94.19
408.226	94.19
408.449	84.19
408.673	94.19
408.896	112.19
409.12	110.19
409.344	89.19
409.567	91.19
409.791	86.19
410.014	87.19
410.238	91.19
410.461	98.19
410.685	94.19
410.908	112.19
411.132	116.19
411.355	96.19
411.578	105.19
411.802	90.19
412.025	86.19
412.249	107.19
412.472	115.19
412.695	132.19
412.919	103.19
413.142	99.19
413.365	90.19
413.589	84.19
413.812	94.19
414.035	91.19
414.258	100.19
414.482	86.19
414.705	84.19
414.928	74.19
415.151	83.19
415.374	101.19
415.597	92.19
415.821	92.19
416.044	91.19
416.267	82.19
416.49	96.19
416.713	87.19
416.936	89.19
417.159	107.19
417.382	87.19
417.605	106.19
417.828	104.19
418.051	94.19
418.274	86.19
418.497	84.19
418.72	75.19
418.943	100.19
419.166	86.19
419.389	97.19
419.611	96.19
419.834	94.19
420.057	95.19
420.28	100.19
420.503	105.19
420.726	94.19
420.948	91.19
421.171	120.19
421.394	80.19
421.617	88.19
421.839	82.19
422.062	87.19
422.285	82.19
422.507	94.19
422.73	110.19
422.953	100.19
423.175	92.19
423.398	94.19
423.621	82.19
423.843	108.19
424.066	102.19
424.288	80.19
424.511	102.19
424.733	109.19
424.956	112.19
425.178	110.19
425.401	105.19
425.623	98.19
425.846	90.19
426.068	99.19
426.291	100.19
426.513	100.19
426.735	102.19
426.958	103.19
427.18	127.19
427.402	197.19
427.625	248.19
427.847	250.19
428.069	226.19
428.292	143.19
428.514	101.19
428.736	94.19
428.958	83.19
429.181	100.19
429.403	83.19
429.625	89.19
429.847	99.19
430.069	129.19
430.292	113.19
430.514	87.19
430.736	87.19
430.958	82.19
431.18	99.19
431.402	99.19
431.624	89.19
431.846	90.19
432.068	86.19
432.29	83.19
432.512	87.19
432.734	95.19
432.956	92.19
433.178	133.19
433.4	110.19
433.622	94.19
433.844	93.19
434.066	92.19
434.287	87.19
434.509	83.19
434.731	90.19
434.953	90.19
435.175	86.19
435.397	87.19
435.618	104.19
435.84	131.19
436.062	162.19
436.284	142.19
436.505	111.19
436.727	130.19
436.949	104.19
437.17	90.19
437.392	98.19
437.614	94.19
437.835	120.19
438.057	160.19
438.278	130.19
438.5	109.19
438.721	154.19
438.943	120.19
439.165	97.19
439.386	92.19
439.608	106.19
439.829	111.19
440.05	177.19
440.272	223.19
440.493	119.19
440.715	101.19
440.936	92.19
441.158	101.19
441.379	102.19
441.6	108.19
441.822	102.19
442.043	99.19
442.264	116.19
442.486	131.19
442.707	99.19
442.928	119.19
443.149	181.19
443.371	183.19
443.592	141.19
443.813	147.19
444.034	125.19
444.255	88.19
444.476	80.19
444.698	84.19
444.919	82.19
445.14	134.19
445.361	148.19
445.582	138.19
445.803	215.19
446.024	188.19
446.245	173.19
446.466	137.19
446.687	108.19
446.908	85.19
447.129	95.19
447.35	87.19
447.571	96.19
447.792	100.19
448.013	112.19
448.234	125.19
448.455	113.19
448.675	141.19
448.896	166.19
449.117	114.19
449.338	122.19
449.559	154.19
449.779	164.19
450	101.19
450.221	77.19
450.442	86.19
450.662	104.19
450.883	132.19
451.104	139.19
451.324	92.19
451.545	95.19
451.766	78.19
451.986	86.19
452.207	86.19
452.428	86.19
452.648	120.19
452.869	121.19
453.089	118.19
453.31	148.19
453.53	114.19
453.751	108.19
453.971	111.19
454.192	132.19
454.412	106.19
454.633	84.19
454.853	94.19
455.073	69.19
455.294	97.19
455.514	109.19
455.734	97.19
455.955	88.19
456.175	83.19
456.395	90.19
456.616	83.19
456.836	90.19
457.056	85.19
457.276	78.19
457.497	88.19
457.717	99.19
457.937	75.19
458.157	79.19
458.377	108.19
458.598	122.19
458.818	203.19
459.038	220.19
459.258	139.19
459.478	98.19
459.698	90.19
459.918	83.19
460.138	94.19
460.358	84.19
460.578	90.19
460.798	90.19
461.018	107.19
461.238	95.19
461.458	89.19
461.678	87.19
461.898	82.19
462.118	79.19
462.338	83.19
462.558	93.19
462.777	88.19
462.997	91.19
463.217	91.19
463.437	94.19
463.657	90.19
463.876	77.19
464.096	93.19
464.316	101.19
464.536	106.19
464.755	90.19
464.975	121.19
465.195	245.19
465.414	227.19
465.634	107.19
465.854	108.19
466.073	88.19
466.293	92.19
466.512	90.19
466.732	101.19
466.951	92.19
467.171	91.19
467.391	108.19
467.61	127.19
467.829	172.19
468.049	450.19
468.268	624.19
468.488	181.19
468.707	116.19
468.927	86.19
469.146	100.19
469.365	83.19
469.585	105.19
469.804	100.19
470.023	110.19
470.243	111.19
470.462	123.19
470.681	147.19
470.901	105.19
471.12	102.19
471.339	101.19
471.558	111.19
471.777	148.19
471.997	258.19
472.216	817.19
472.435	1939.19
472.654	482.19
472.873	140.19
473.092	101.19
473.311	113.19
473.53	103.19
473.749	109.19
473.968	97.19
474.187	135.19
474.406	100.19
474.625	93.19
474.844	87.19
475.063	84.19
475.282	92.19
475.501	95.19
475.72	94.19
475.939	98.19
476.158	95.19
476.377	87.19
476.596	95.19
476.814	103.19
477.033	92.19
477.252	100.19
477.471	80.19
477.69	95.19
477.908	91.19
478.127	105.19
478.346	98.19
478.564	93.19
478.783	107.19
479.002	135.19
479.22	97.19
479.439	129.19
479.658	127.19
479.876	102.19
480.095	115.19
480.313	123.19
480.532	135.19
480.751	232.19
480.969	774.19
481.188	3322.19
481.406	1939.19
481.624	300.19
481.843	125.19
482.061	99.19
482.28	86.19
482.498	94.19
482.717	87.19
482.935	104.19
483.153	100.19
483.372	86.19
483.59	108.19
483.808	94.19
484.027	99.19
484.245	90.19
484.463	71.19
484.681	110.19
484.9	90.19
485.118	94.19
485.336	104.19
485.554	91.19
485.772	104.19
485.99	114.19
486.209	112.19
486.427	112.19
486.645	117.19
486.863	140.19
487.081	99.19
487.299	101.19
487.517	112.19
487.735	91.19
487.953	108.19
488.171	86.19
488.389	94.19
488.607	95.19
488.825	81.19
489.043	88.19
489.261	90.19
489.479	88.19
489.696	84.19
489.914	87.19
490.132	72.19
490.35	86.19
490.568	83.19
490.786	115.19
491.003	90.19
491.221	86.19
491.439	95.19
491.657	93.19
491.874	94.19
492.092	95.19
492.31	103.19
492.527	93.19
492.745	90.19
492.963	82.19
493.18	87.19
493.398	92.19
493.615	79.19
493.833	86.19
494.05	82.19
494.268	86.19
494.485	86.19
494.703	102.19
494.92	103.19
495.138	95.19
495.355	99.19
495.573	94.19
495.79	80.19
496.008	99.19
496.225	98.19
496.442	96.19
496.66	90.19
496.877	111.19
497.094	86.19
497.312	95.19
497.529	97.19
497.746	103.19
497.963	88.19
498.181	87.19
498.398	100.19
498.615	120.19
498.832	117.19
499.049	105.19
499.267	103.19
499.484	90.19
499.701	90.19
499.918	90.19
500.135	90.19
500.352	100.19
500.569	93.19
500.786	89.19
501.003	78.19
501.22	101.19
501.437	94.19
501.654	84.19
501.871	116.19
502.088	103.19
502.305	99.19
502.522	78.19
502.739	90.19
502.956	93.19
503.172	91.19
503.389	105.19
503.606	114.19
503.823	104.19
504.04	87.19
504.256	102.19
504.473	93.19
504.69	93.19
504.907	100.19
505.123	88.19
505.34	94.19
505.557	92.19
505.773	107.19
505.99	87.19
506.207	96.19
506.423	102.19
506.64	103.19
506.856	74.19
507.073	90.19
507.289	100.19
507.506	107.19
507.722	132.19
507.939	118.19
508.155	108.19
508.372	96.19
508.588	92.19
508.805	103.19
509.021	95.19
509.238	102.19
509.454	101.19
509.67	103.19
509.887	122.19
510.103	140.19
510.319	248.19
510.536	984.19
510.752	3449.19
510.968	908.19
511.184	188.19
511.401	129.19
511.617	114.19
511.833	101.19
512.049	94.19
512.265	98.19
512.481	93.19
512.698	99.19
512.914	92.19
