Data from Circ_1991_H10_HRD10591_00061.txt Node
Date: Wed Jan 03 11:51:53 EST 2024
User: Yrep
Spectrometer: HR+D1059
Trigger mode: 1
Integration Time (sec): 1.000000E-1
Scans to average: 1
Electric dark correction enabled: true
Nonlinearity correction enabled: false
Boxcar width: 0
XAxis mode: Wavelengths
Number of Pixels in Spectrum: 2048
>>>>>Begin Spectral Data<<<<<
223.165	-37.75
223.4	-37.75
223.635	-37.75
223.869	-7.75
224.104	-16.75
224.338	-27.75
224.573	-8.75
224.808	-22.75
225.042	-8.75
225.277	-11.75
225.511	5.25
225.746	9.25
225.98	13.25
226.215	20.25
226.449	18.25
226.683	18.25
226.918	23.25
227.152	34.25
227.387	27.25
227.621	39.25
227.856	35.25
228.09	44.25
228.324	35.25
228.559	51.25
228.793	54.25
229.027	46.25
229.262	70.25
229.496	70.25
229.73	92.25
229.964	82.25
230.199	80.25
230.433	78.25
230.667	80.25
230.901	67.25
231.136	71.25
231.37	82.25
231.604	71.25
231.838	79.25
232.072	74.25
232.306	73.25
232.541	75.25
232.775	71.25
233.009	79.25
233.243	75.25
233.477	72.25
233.711	74.25
233.945	78.25
234.179	71.25
234.413	69.25
234.647	57.25
234.881	81.25
235.115	82.25
235.349	74.25
235.583	68.25
235.817	83.25
236.051	81.25
236.285	71.25
236.519	64.25
236.753	77.25
236.987	75.25
237.221	86.25
237.455	79.25
237.689	75.25
237.922	66.25
238.156	71.25
238.39	73.25
238.624	58.25
238.858	75.25
239.091	77.25
239.325	74.25
239.559	80.25
239.793	78.25
240.027	107.25
240.26	69.25
240.494	68.25
240.728	62.25
240.961	56.25
241.195	59.25
241.429	56.25
241.662	62.25
241.896	65.25
242.13	66.25
242.363	72.25
242.597	64.25
242.83	75.25
243.064	73.25
243.298	71.25
243.531	69.25
243.765	73.25
243.998	75.25
244.232	70.25
244.465	82.25
244.699	90.25
244.932	84.25
245.166	73.25
245.399	84.25
245.633	77.25
245.866	73.25
246.099	83.25
246.333	91.25
246.566	77.25
246.8	73.25
247.033	89.25
247.266	85.25
247.5	62.25
247.733	87.25
247.966	76.25
248.2	70.25
248.433	83.25
248.666	70.25
248.899	77.25
249.133	77.25
249.366	90.25
249.599	85.25
249.832	81.25
250.066	88.25
250.299	83.25
250.532	76.25
250.765	65.25
250.998	83.25
251.231	89.25
251.465	82.25
251.698	78.25
251.931	79.25
252.164	69.25
252.397	62.25
252.63	82.25
252.863	69.25
253.096	80.25
253.329	74.25
253.562	71.25
253.795	77.25
254.028	84.25
254.261	70.25
254.494	89.25
254.727	80.25
254.96	78.25
255.193	66.25
255.426	81.25
255.659	83.25
255.892	89.25
256.124	79.25
256.357	84.25
256.59	66.25
256.823	67.25
257.056	86.25
257.289	85.25
257.521	86.25
257.754	75.25
257.987	91.25
258.22	82.25
258.452	67.25
258.685	86.25
258.918	85.25
259.151	53.25
259.383	75.25
259.616	79.25
259.849	80.25
260.081	82.25
260.314	72.25
260.547	82.25
260.779	79.25
261.012	89.25
261.244	93.25
261.477	104.25
261.71	89.25
261.942	104.25
262.175	116.25
262.407	69.25
262.64	71.25
262.872	74.25
263.105	82.25
263.337	75.25
263.57	90.25
263.802	70.25
264.035	80.25
264.267	90.25
264.499	70.25
264.732	65.25
264.964	81.25
265.197	85.25
265.429	87.25
265.661	81.25
265.894	72.25
266.126	77.25
266.358	73.25
266.591	82.25
266.823	76.25
267.055	92.25
267.287	96.25
267.52	81.25
267.752	82.25
267.984	78.25
268.216	77.25
268.448	87.25
268.681	73.25
268.913	79.25
269.145	73.25
269.377	79.25
269.609	81.25
269.841	81.25
270.073	82.25
270.306	57.25
270.538	83.25
270.77	79.25
271.002	75.25
271.234	80.25
271.466	83.25
271.698	90.25
271.93	87.25
272.162	81.25
272.394	73.25
272.626	86.25
272.858	97.25
273.09	75.25
273.322	81.25
273.553	71.25
273.785	65.25
274.017	77.25
274.249	74.25
274.481	91.25
274.713	74.25
274.945	82.25
275.176	84.25
275.408	89.25
275.64	90.25
275.872	103.25
276.104	92.25
276.335	90.25
276.567	96.25
276.799	110.25
277.031	105.25
277.262	107.25
277.494	105.25
277.726	79.25
277.957	74.25
278.189	78.25
278.421	84.25
278.652	80.25
278.884	92.25
279.115	92.25
279.347	89.25
279.579	78.25
279.81	106.25
280.042	124.25
280.273	128.25
280.505	125.25
280.736	93.25
280.968	82.25
281.199	77.25
281.431	94.25
281.662	91.25
281.894	87.25
282.125	103.25
282.356	110.25
282.588	147.25
282.819	101.25
283.051	71.25
283.282	69.25
283.513	82.25
283.745	73.25
283.976	78.25
284.207	75.25
284.439	80.25
284.67	83.25
284.901	75.25
285.132	74.25
285.364	86.25
285.595	85.25
285.826	65.25
286.057	71.25
286.288	87.25
286.52	80.25
286.751	75.25
286.982	75.25
287.213	75.25
287.444	73.25
287.675	82.25
287.906	94.25
288.138	90.25
288.369	97.25
288.6	97.25
288.831	80.25
289.062	87.25
289.293	75.25
289.524	79.25
289.755	93.25
289.986	77.25
290.217	73.25
290.448	88.25
290.679	87.25
290.91	90.25
291.141	71.25
291.371	80.25
291.602	78.25
291.833	92.25
292.064	84.25
292.295	92.25
292.526	94.25
292.757	78.25
292.987	90.25
293.218	77.25
293.449	85.25
293.68	79.25
293.91	89.25
294.141	105.25
294.372	83.25
294.603	88.25
294.833	79.25
295.064	77.25
295.295	89.25
295.525	83.25
295.756	80.25
295.987	99.25
296.217	137.25
296.448	112.25
296.679	94.25
296.909	81.25
297.14	94.25
297.37	80.25
297.601	88.25
297.831	83.25
298.062	74.25
298.292	71.25
298.523	77.25
298.753	80.25
298.984	90.25
299.214	79.25
299.445	92.25
299.675	91.25
299.905	92.25
300.136	86.25
300.366	90.25
300.597	69.25
300.827	81.25
301.057	94.25
301.288	107.25
301.518	99.25
301.748	99.25
301.979	91.25
302.209	108.25
302.439	86.25
302.669	88.25
302.9	83.25
303.13	74.25
303.36	95.25
303.59	93.25
303.82	98.25
304.051	96.25
304.281	96.25
304.511	88.25
304.741	75.25
304.971	79.25
305.201	89.25
305.431	67.25
305.661	85.25
305.891	85.25
306.121	91.25
306.352	98.25
306.582	93.25
306.812	95.25
307.042	93.25
307.272	102.25
307.502	124.25
307.731	117.25
307.961	109.25
308.191	100.25
308.421	82.25
308.651	71.25
308.881	99.25
309.111	90.25
309.341	91.25
309.571	88.25
309.8	74.25
310.03	81.25
310.26	104.25
310.49	90.25
310.72	91.25
310.949	82.25
311.179	90.25
311.409	83.25
311.639	87.25
311.868	92.25
312.098	90.25
312.328	91.25
312.557	101.25
312.787	109.25
313.017	96.25
313.246	93.25
313.476	94.25
313.706	78.25
313.935	96.25
314.165	103.25
314.394	89.25
314.624	90.25
314.853	93.25
315.083	93.25
315.312	93.25
315.542	92.25
315.771	85.25
316.001	114.25
316.23	89.25
316.46	82.25
316.689	77.25
316.919	89.25
317.148	86.25
317.377	87.25
317.607	103.25
317.836	81.25
318.065	85.25
318.295	93.25
318.524	90.25
318.753	92.25
318.983	90.25
319.212	98.25
319.441	96.25
319.67	98.25
319.9	87.25
320.129	85.25
320.358	85.25
320.587	95.25
320.816	97.25
321.046	90.25
321.275	98.25
321.504	84.25
321.733	94.25
321.962	90.25
322.191	109.25
322.42	109.25
322.649	90.25
322.878	112.25
323.108	124.25
323.337	113.25
323.566	126.25
323.795	153.25
324.024	213.25
324.253	392.25
324.482	869.25
324.71	1829.25
324.939	2525.25
325.168	881.25
325.397	248.25
325.626	149.25
325.855	142.25
326.084	128.25
326.313	133.25
326.542	143.25
326.77	242.25
326.999	473.25
327.228	967.25
327.457	1886.25
327.686	1541.25
327.914	432.25
328.143	295.25
328.372	317.25
328.6	205.25
328.829	131.25
329.058	129.25
329.287	134.25
329.515	123.25
329.744	147.25
329.972	245.25
330.201	407.25
330.43	560.25
330.658	287.25
330.887	173.25
331.115	142.25
331.344	103.25
331.572	82.25
331.801	96.25
332.03	99.25
332.258	107.25
332.486	105.25
332.715	81.25
332.943	87.25
333.172	89.25
333.4	104.25
333.629	108.25
333.857	137.25
334.085	211.25
334.314	386.25
334.542	711.25
334.771	675.25
334.999	233.25
335.227	121.25
335.455	87.25
335.684	99.25
335.912	91.25
336.14	79.25
336.369	101.25
336.597	94.25
336.825	103.25
337.053	96.25
337.281	90.25
337.51	91.25
337.738	83.25
337.966	90.25
338.194	81.25
338.422	99.25
338.65	93.25
338.878	81.25
339.106	79.25
339.334	75.25
339.562	86.25
339.79	95.25
340.018	84.25
340.246	85.25
340.474	92.25
340.702	76.25
340.93	86.25
341.158	72.25
341.386	87.25
341.614	75.25
341.842	83.25
342.07	87.25
342.298	85.25
342.526	78.25
342.754	92.25
342.981	95.25
343.209	78.25
343.437	105.25
343.665	93.25
343.893	104.25
344.12	81.25
344.348	91.25
344.576	77.25
344.804	85.25
345.031	91.25
345.259	93.25
345.487	95.25
345.714	90.25
345.942	82.25
346.17	86.25
346.397	89.25
346.625	85.25
346.853	90.25
347.08	83.25
347.308	93.25
347.535	96.25
347.763	103.25
347.99	109.25
348.218	98.25
348.445	94.25
348.673	98.25
348.9	91.25
349.128	89.25
349.355	90.25
349.583	90.25
349.81	93.25
350.037	97.25
350.265	91.25
350.492	83.25
350.72	93.25
350.947	110.25
351.174	113.25
351.402	105.25
351.629	110.25
351.856	110.25
352.083	91.25
352.311	99.25
352.538	101.25
352.765	95.25
352.992	101.25
353.22	111.25
353.447	108.25
353.674	96.25
353.901	97.25
354.128	89.25
354.355	94.25
354.583	98.25
354.81	99.25
355.037	102.25
355.264	92.25
355.491	98.25
355.718	74.25
355.945	89.25
356.172	94.25
356.399	89.25
356.626	87.25
356.853	94.25
357.08	80.25
357.307	90.25
357.534	95.25
357.761	91.25
357.988	82.25
358.215	97.25
358.441	93.25
358.668	93.25
358.895	103.25
359.122	86.25
359.349	88.25
359.576	64.25
359.802	89.25
360.029	93.25
360.256	106.25
360.483	101.25
360.709	97.25
360.936	90.25
361.163	109.25
361.39	105.25
361.616	93.25
361.843	93.25
362.07	75.25
362.296	90.25
362.523	94.25
362.749	92.25
362.976	87.25
363.203	81.25
363.429	83.25
363.656	90.25
363.882	75.25
364.109	87.25
364.335	82.25
364.562	87.25
364.788	92.25
365.015	79.25
365.241	92.25
365.468	101.25
365.694	92.25
365.92	85.25
366.147	86.25
366.373	88.25
366.599	92.25
366.826	86.25
367.052	84.25
367.278	67.25
367.505	100.25
367.731	90.25
367.957	72.25
368.184	89.25
368.41	86.25
368.636	113.25
368.862	108.25
369.089	95.25
369.315	98.25
369.541	83.25
369.767	86.25
369.993	96.25
370.219	83.25
370.445	93.25
370.672	76.25
370.898	74.25
371.124	90.25
371.35	80.25
371.576	79.25
371.802	74.25
372.028	80.25
372.254	90.25
372.48	94.25
372.706	80.25
372.932	87.25
373.158	77.25
373.384	80.25
373.61	89.25
373.835	74.25
374.061	93.25
374.287	107.25
374.513	78.25
374.739	85.25
374.965	96.25
375.191	78.25
375.416	81.25
375.642	83.25
375.868	96.25
376.094	74.25
376.319	94.25
376.545	77.25
376.771	82.25
376.997	85.25
377.222	79.25
377.448	94.25
377.674	88.25
377.899	102.25
378.125	83.25
378.35	93.25
378.576	90.25
378.802	82.25
379.027	74.25
379.253	86.25
379.478	101.25
379.704	84.25
379.929	91.25
380.155	91.25
380.38	92.25
380.606	96.25
380.831	98.25
381.057	95.25
381.282	93.25
381.507	90.25
381.733	90.25
381.958	83.25
382.184	86.25
382.409	92.25
382.634	103.25
382.86	98.25
383.085	100.25
383.31	90.25
383.535	81.25
383.761	89.25
383.986	99.25
384.211	86.25
384.436	85.25
384.662	105.25
384.887	117.25
385.112	86.25
385.337	92.25
385.562	83.25
385.787	106.25
386.013	111.25
386.238	110.25
386.463	93.25
386.688	106.25
386.913	113.25
387.138	97.25
387.363	105.25
387.588	96.25
387.813	111.25
388.038	97.25
388.263	102.25
388.488	102.25
388.713	93.25
388.938	94.25
389.163	93.25
389.387	102.25
389.612	90.25
389.837	91.25
390.062	90.25
390.287	88.25
390.512	98.25
390.736	89.25
390.961	78.25
391.186	89.25
391.411	96.25
391.636	80.25
391.86	88.25
392.085	83.25
392.31	90.25
392.534	95.25
392.759	79.25
392.984	75.25
393.208	93.25
393.433	106.25
393.658	96.25
393.882	89.25
394.107	90.25
394.331	73.25
394.556	86.25
394.78	92.25
395.005	90.25
395.229	81.25
395.454	81.25
395.678	82.25
395.903	83.25
396.127	97.25
396.352	91.25
396.576	88.25
396.801	92.25
397.025	90.25
397.249	87.25
397.474	89.25
397.698	66.25
397.922	85.25
398.147	79.25
398.371	74.25
398.595	85.25
398.82	86.25
399.044	77.25
399.268	65.25
399.492	75.25
399.717	95.25
399.941	114.25
400.165	97.25
400.389	87.25
400.613	83.25
400.837	87.25
401.062	93.25
401.286	91.25
401.51	93.25
401.734	89.25
401.958	111.25
402.182	128.25
402.406	135.25
402.63	109.25
402.854	95.25
403.078	85.25
403.302	69.25
403.526	82.25
403.75	92.25
403.974	90.25
404.198	96.25
404.422	90.25
404.645	71.25
404.869	94.25
405.093	93.25
405.317	97.25
405.541	113.25
405.765	104.25
405.988	117.25
406.212	153.25
406.436	221.25
406.66	128.25
406.883	101.25
407.107	102.25
407.331	102.25
407.555	98.25
407.778	91.25
408.002	79.25
408.226	87.25
408.449	84.25
408.673	89.25
408.896	95.25
409.12	109.25
409.344	79.25
409.567	82.25
409.791	84.25
410.014	82.25
410.238	85.25
410.461	102.25
410.685	97.25
410.908	96.25
411.132	92.25
411.355	90.25
411.578	95.25
411.802	96.25
412.025	62.25
412.249	91.25
412.472	96.25
412.695	114.25
412.919	89.25
413.142	91.25
413.365	81.25
413.589	74.25
413.812	91.25
414.035	77.25
414.258	91.25
414.482	79.25
414.705	74.25
414.928	91.25
415.151	86.25
415.374	82.25
415.597	77.25
415.821	79.25
416.044	98.25
416.267	89.25
416.49	94.25
416.713	93.25
416.936	87.25
417.159	83.25
417.382	82.25
417.605	90.25
417.828	98.25
418.051	82.25
418.274	79.25
418.497	77.25
418.72	97.25
418.943	91.25
419.166	79.25
419.389	99.25
419.611	74.25
419.834	81.25
420.057	83.25
420.28	78.25
420.503	73.25
420.726	90.25
420.948	82.25
421.171	94.25
421.394	93.25
421.617	92.25
421.839	86.25
422.062	77.25
422.285	81.25
422.507	102.25
422.73	101.25
422.953	98.25
423.175	81.25
423.398	105.25
423.621	103.25
423.843	82.25
424.066	88.25
424.288	89.25
424.511	97.25
424.733	88.25
424.956	102.25
425.178	84.25
425.401	96.25
425.623	107.25
425.846	85.25
426.068	87.25
426.291	84.25
426.513	99.25
426.735	88.25
426.958	95.25
427.18	92.25
427.402	130.25
427.625	182.25
427.847	169.25
428.069	169.25
428.292	85.25
428.514	89.25
428.736	91.25
428.958	93.25
429.181	91.25
429.403	98.25
429.625	87.25
429.847	99.25
430.069	105.25
430.292	93.25
430.514	102.25
430.736	85.25
430.958	81.25
431.18	77.25
431.402	71.25
431.624	92.25
431.846	80.25
432.068	76.25
432.29	97.25
432.512	66.25
432.734	90.25
432.956	94.25
433.178	89.25
433.4	94.25
433.622	89.25
433.844	91.25
434.066	77.25
434.287	74.25
434.509	79.25
434.731	73.25
434.953	96.25
435.175	79.25
435.397	91.25
435.618	87.25
435.84	96.25
436.062	132.25
436.284	126.25
436.505	109.25
436.727	111.25
436.949	90.25
437.17	89.25
437.392	79.25
437.614	95.25
437.835	101.25
438.057	107.25
438.278	120.25
438.5	89.25
438.721	115.25
438.943	107.25
439.165	88.25
439.386	94.25
439.608	97.25
439.829	95.25
440.05	114.25
440.272	158.25
440.493	88.25
440.715	80.25
440.936	75.25
441.158	93.25
441.379	80.25
441.6	81.25
441.822	84.25
442.043	90.25
442.264	104.25
442.486	103.25
442.707	85.25
442.928	103.25
443.149	127.25
443.371	124.25
443.592	114.25
443.813	112.25
444.034	104.25
444.255	96.25
444.476	76.25
444.698	88.25
444.919	81.25
445.14	141.25
445.361	120.25
445.582	110.25
445.803	147.25
446.024	149.25
446.245	133.25
446.466	114.25
446.687	87.25
446.908	94.25
447.129	77.25
447.35	84.25
447.571	90.25
447.792	87.25
448.013	89.25
448.234	105.25
448.455	105.25
448.675	100.25
448.896	121.25
449.117	88.25
449.338	100.25
449.559	121.25
449.779	130.25
450	83.25
450.221	79.25
450.442	83.25
450.662	100.25
450.883	96.25
451.104	111.25
451.324	92.25
451.545	89.25
451.766	96.25
451.986	81.25
452.207	79.25
452.428	84.25
452.648	90.25
452.869	101.25
453.089	105.25
453.31	110.25
453.53	91.25
453.751	89.25
453.971	103.25
454.192	104.25
454.412	81.25
454.633	90.25
454.853	91.25
455.073	71.25
455.294	94.25
455.514	101.25
455.734	78.25
455.955	63.25
456.175	83.25
456.395	93.25
456.616	74.25
456.836	98.25
457.056	70.25
457.276	82.25
457.497	77.25
457.717	82.25
457.937	85.25
458.157	78.25
458.377	78.25
458.598	113.25
458.818	138.25
459.038	177.25
459.258	133.25
459.478	90.25
459.698	82.25
459.918	80.25
460.138	64.25
460.358	83.25
460.578	78.25
460.798	101.25
461.018	90.25
461.238	77.25
461.458	86.25
461.678	87.25
461.898	89.25
462.118	87.25
462.338	74.25
462.558	83.25
462.777	82.25
462.997	79.25
463.217	76.25
463.437	93.25
463.657	76.25
463.876	109.25
464.096	91.25
464.316	94.25
464.536	82.25
464.755	83.25
464.975	105.25
465.195	158.25
465.414	150.25
465.634	78.25
465.854	86.25
466.073	78.25
466.293	82.25
466.512	102.25
466.732	95.25
466.951	77.25
467.171	83.25
467.391	104.25
467.61	100.25
467.829	135.25
468.049	257.25
468.268	369.25
468.488	121.25
468.707	101.25
468.927	100.25
469.146	78.25
469.365	71.25
469.585	72.25
469.804	93.25
470.023	98.25
470.243	94.25
470.462	97.25
470.681	108.25
470.901	89.25
471.12	84.25
471.339	87.25
471.558	88.25
471.777	101.25
471.997	169.25
472.216	492.25
472.435	1039.25
472.654	273.25
472.873	113.25
473.092	100.25
473.311	81.25
473.53	88.25
473.749	97.25
473.968	95.25
474.187	99.25
474.406	99.25
474.625	93.25
474.844	91.25
475.063	95.25
475.282	83.25
475.501	89.25
475.72	96.25
475.939	73.25
476.158	96.25
476.377	83.25
476.596	61.25
476.814	83.25
477.033	88.25
477.252	81.25
477.471	81.25
477.69	84.25
477.908	87.25
478.127	95.25
478.346	82.25
478.564	84.25
478.783	89.25
479.002	100.25
479.22	80.25
479.439	97.25
479.658	111.25
479.876	95.25
480.095	91.25
480.313	111.25
480.532	106.25
480.751	165.25
480.969	475.25
481.188	1797.25
481.406	1035.25
481.624	196.25
481.843	77.25
482.061	98.25
482.28	94.25
482.498	92.25
482.717	86.25
482.935	93.25
483.153	92.25
483.372	83.25
483.59	82.25
483.808	86.25
484.027	74.25
484.245	95.25
484.463	85.25
484.681	107.25
484.9	85.25
485.118	82.25
485.336	82.25
485.554	66.25
485.772	90.25
485.99	85.25
486.209	90.25
486.427	96.25
486.645	90.25
486.863	113.25
487.081	107.25
487.299	103.25
487.517	82.25
487.735	93.25
487.953	97.25
488.171	86.25
488.389	89.25
488.607	84.25
488.825	77.25
489.043	67.25
489.261	93.25
489.479	88.25
489.696	92.25
489.914	83.25
490.132	81.25
490.35	85.25
490.568	82.25
490.786	88.25
491.003	86.25
491.221	98.25
491.439	86.25
491.657	97.25
491.874	94.25
492.092	96.25
492.31	88.25
492.527	84.25
492.745	89.25
492.963	87.25
493.18	91.25
493.398	87.25
493.615	97.25
493.833	86.25
494.05	78.25
494.268	85.25
494.485	79.25
494.703	74.25
494.92	81.25
495.138	83.25
495.355	78.25
495.573	96.25
495.79	79.25
496.008	70.25
496.225	92.25
496.442	79.25
496.66	73.25
496.877	97.25
497.094	86.25
497.312	78.25
497.529	69.25
497.746	91.25
497.963	88.25
498.181	80.25
498.398	90.25
498.615	98.25
498.832	108.25
499.049	73.25
499.267	77.25
499.484	71.25
499.701	89.25
499.918	81.25
500.135	82.25
500.352	84.25
500.569	85.25
500.786	98.25
501.003	91.25
501.22	91.25
501.437	72.25
501.654	88.25
501.871	98.25
502.088	95.25
502.305	83.25
502.522	88.25
502.739	89.25
502.956	86.25
503.172	85.25
503.389	93.25
503.606	105.25
503.823	80.25
504.04	89.25
504.256	82.25
504.473	84.25
504.69	81.25
504.907	83.25
505.123	89.25
505.34	90.25
505.557	87.25
505.773	75.25
505.99	75.25
506.207	82.25
506.423	77.25
506.64	84.25
506.856	92.25
507.073	94.25
507.289	72.25
507.506	89.25
507.722	91.25
507.939	93.25
508.155	96.25
508.372	85.25
508.588	83.25
508.805	91.25
509.021	92.25
509.238	80.25
509.454	95.25
509.67	79.25
509.887	103.25
510.103	117.25
510.319	204.25
510.536	671.25
510.752	2215.25
510.968	622.25
511.184	151.25
511.401	107.25
511.617	95.25
511.833	88.25
512.049	96.25
512.265	97.25
512.481	96.25
512.698	94.25
512.914	104.25
513.13	97.25
513.346	90.25
513.562	92.25
513.778	84.25
513.994	84.25
514.21	95.25
514.426	116.25
514.642	130.25
514.858	117.25
515.074	173.25
515.29	447.25
515.506	1539.25
515.721	535.25
515.937	129.25
516.153	105.25
516.369	87.25
