Data from Circ_1991_H10_HRD10591_00093.txt Node
Date: Wed Jan 03 11:51:59 EST 2024
User: Yrep
Spectrometer: HR+D1059
Trigger mode: 1
Integration Time (sec): 1.000000E-1
Scans to average: 1
Electric dark correction enabled: true
Nonlinearity correction enabled: false
Boxcar width: 0
XAxis mode: Wavelengths
Number of Pixels in Spectrum: 2048
>>>>>Begin Spectral Data<<<<<
223.165	-23
223.4	-23
223.635	-23
223.869	-24
224.104	-13
224.338	-19
224.573	-12
224.808	-18
225.042	-16
225.277	-3
225.511	2
225.746	1
225.98	16
226.215	9
226.449	19
226.683	16
226.918	27
227.152	38
227.387	46
227.621	39
227.856	39
228.09	42
228.324	40
228.559	43
228.793	55
229.027	66
229.262	79
229.496	73
229.73	105
229.964	84
230.199	67
230.433	59
230.667	81
230.901	73
231.136	71
231.37	71
231.604	74
231.838	96
232.072	84
232.306	92
232.541	90
232.775	75
233.009	77
233.243	77
233.477	76
233.711	68
233.945	83
234.179	62
234.413	93
234.647	86
234.881	81
235.115	67
235.349	86
235.583	72
235.817	85
236.051	91
236.285	84
236.519	77
236.753	81
236.987	77
237.221	77
237.455	80
237.689	71
237.922	70
238.156	80
238.39	67
238.624	75
238.858	69
239.091	81
239.325	70
239.559	85
239.793	70
240.027	86
240.26	75
240.494	83
240.728	61
240.961	79
241.195	89
241.429	91
241.662	70
241.896	75
242.13	76
242.363	86
242.597	89
242.83	76
243.064	75
243.298	81
243.531	88
243.765	76
243.998	74
244.232	70
244.465	84
244.699	87
244.932	86
245.166	74
245.399	70
245.633	83
245.866	84
246.099	83
246.333	84
246.566	89
246.8	85
247.033	77
247.266	84
247.5	86
247.733	102
247.966	76
248.2	83
248.433	79
248.666	95
248.899	81
249.133	97
249.366	95
249.599	85
249.832	83
250.066	91
250.299	76
250.532	61
250.765	78
250.998	69
251.231	78
251.465	81
251.698	98
251.931	85
252.164	67
252.397	67
252.63	80
252.863	77
253.096	79
253.329	74
253.562	84
253.795	87
254.028	91
254.261	93
254.494	81
254.727	83
254.96	73
255.193	81
255.426	82
255.659	98
255.892	82
256.124	94
256.357	85
256.59	87
256.823	84
257.056	82
257.289	88
257.521	96
257.754	84
257.987	93
258.22	88
258.452	78
258.685	90
258.918	91
259.151	73
259.383	98
259.616	93
259.849	77
260.081	84
260.314	83
260.547	81
260.779	104
261.012	94
261.244	90
261.477	85
261.71	95
261.942	105
262.175	113
262.407	97
262.64	83
262.872	63
263.105	73
263.337	80
263.57	79
263.802	92
264.035	77
264.267	77
264.499	70
264.732	66
264.964	83
265.197	90
265.429	80
265.661	88
265.894	82
266.126	83
266.358	69
266.591	85
266.823	86
267.055	82
267.287	89
267.52	87
267.752	87
267.984	86
268.216	83
268.448	85
268.681	94
268.913	74
269.145	69
269.377	89
269.609	88
269.841	94
270.073	83
270.306	82
270.538	85
270.77	84
271.002	77
271.234	66
271.466	82
271.698	86
271.93	95
272.162	82
272.394	84
272.626	89
272.858	87
273.09	78
273.322	82
273.553	85
273.785	76
274.017	79
274.249	86
274.481	82
274.713	78
274.945	92
275.176	91
275.408	99
275.64	102
275.872	96
276.104	103
276.335	86
276.567	95
276.799	118
277.031	139
277.262	138
277.494	105
277.726	94
277.957	63
278.189	83
278.421	96
278.652	98
278.884	88
279.115	92
279.347	90
279.579	95
279.81	91
280.042	130
280.273	154
280.505	122
280.736	82
280.968	91
281.199	83
281.431	102
281.662	82
281.894	97
282.125	94
282.356	119
282.588	136
282.819	113
283.051	86
283.282	79
283.513	83
283.745	81
283.976	81
284.207	90
284.439	78
284.67	81
284.901	93
285.132	93
285.364	79
285.595	82
285.826	83
286.057	91
286.288	93
286.52	103
286.751	86
286.982	89
287.213	89
287.444	103
287.675	91
287.906	84
288.138	88
288.369	93
288.6	95
288.831	92
289.062	88
289.293	82
289.524	77
289.755	85
289.986	87
290.217	81
290.448	81
290.679	86
290.91	71
291.141	95
291.371	98
291.602	98
291.833	77
292.064	89
292.295	92
292.526	99
292.757	93
292.987	93
293.218	85
293.449	90
293.68	91
293.91	101
294.141	88
294.372	93
294.603	96
294.833	94
295.064	98
295.295	87
295.525	84
295.756	98
295.987	120
296.217	134
296.448	138
296.679	98
296.909	96
297.14	86
297.37	93
297.601	95
297.831	101
298.062	86
298.292	99
298.523	92
298.753	81
298.984	77
299.214	79
299.445	92
299.675	94
299.905	87
300.136	88
300.366	70
300.597	94
300.827	90
301.057	116
301.288	98
301.518	94
301.748	76
301.979	116
302.209	94
302.439	101
302.669	81
302.9	83
303.13	91
303.36	100
303.59	102
303.82	116
304.051	83
304.281	87
304.511	106
304.741	93
304.971	92
305.201	105
305.431	93
305.661	83
305.891	96
306.121	92
306.352	103
306.582	107
306.812	95
307.042	93
307.272	124
307.502	137
307.731	123
307.961	106
308.191	88
308.421	94
308.651	87
308.881	93
309.111	113
309.341	97
309.571	94
309.8	85
310.03	92
310.26	104
310.49	88
310.72	103
310.949	90
311.179	91
311.409	99
311.639	100
311.868	87
312.098	100
312.328	103
312.557	113
312.787	115
313.017	103
313.246	88
313.476	92
313.706	82
313.935	86
314.165	94
314.394	97
314.624	92
314.853	92
315.083	89
315.312	83
315.542	94
315.771	77
316.001	91
316.23	94
316.46	94
316.689	92
316.919	83
317.148	93
317.377	96
317.607	105
317.836	102
318.065	86
318.295	98
318.524	93
318.753	95
318.983	90
319.212	117
319.441	109
319.67	110
319.9	102
320.129	91
320.358	93
320.587	93
320.816	95
321.046	94
321.275	102
321.504	99
321.733	84
321.962	89
322.191	95
322.42	99
322.649	109
322.878	116
323.108	125
323.337	130
323.566	146
323.795	154
324.024	206
324.253	438
324.482	913
324.71	2021
324.939	2682
325.168	973
325.397	273
325.626	146
325.855	131
326.084	147
326.313	144
326.542	161
326.77	255
326.999	500
327.228	1090
327.457	2093
327.686	1693
327.914	463
328.143	324
328.372	341
328.6	210
328.829	143
329.058	157
329.287	151
329.515	119
329.744	170
329.972	265
330.201	479
330.43	653
330.658	317
330.887	182
331.115	130
331.344	107
331.572	107
331.801	117
332.03	88
332.258	103
332.486	106
332.715	99
332.943	100
333.172	116
333.4	107
333.629	119
333.857	156
334.085	237
334.314	452
334.542	812
334.771	763
334.999	236
335.227	139
335.455	111
335.684	88
335.912	96
336.14	82
336.369	102
336.597	115
336.825	99
337.053	95
337.281	94
337.51	88
337.738	90
337.966	91
338.194	99
338.422	107
338.65	112
338.878	98
339.106	91
339.334	90
339.562	89
339.79	89
340.018	87
340.246	91
340.474	100
340.702	90
340.93	102
341.158	85
341.386	83
341.614	85
341.842	89
342.07	95
342.298	91
342.526	94
342.754	100
342.981	84
343.209	77
343.437	105
343.665	83
343.893	74
344.12	98
344.348	98
344.576	91
344.804	93
345.031	79
345.259	91
345.487	103
345.714	89
345.942	77
346.17	97
346.397	76
346.625	109
346.853	78
347.08	94
347.308	82
347.535	88
347.763	101
347.99	109
348.218	95
348.445	90
348.673	87
348.9	103
349.128	102
349.355	94
349.583	106
349.81	93
350.037	92
350.265	102
350.492	106
350.72	99
350.947	98
351.174	120
351.402	100
351.629	99
351.856	121
352.083	108
352.311	112
352.538	111
352.765	106
352.992	102
353.22	105
353.447	91
353.674	91
353.901	93
354.128	68
354.355	93
354.583	84
354.81	95
355.037	105
355.264	100
355.491	100
355.718	103
355.945	91
356.172	92
356.399	98
356.626	91
356.853	93
357.08	102
357.307	101
357.534	95
357.761	96
357.988	89
358.215	98
358.441	95
358.668	86
358.895	92
359.122	85
359.349	90
359.576	91
359.802	99
360.029	116
360.256	119
360.483	99
360.709	98
360.936	101
361.163	81
361.39	91
361.616	110
361.843	85
362.07	107
362.296	102
362.523	77
362.749	113
362.976	98
363.203	86
363.429	79
363.656	93
363.882	87
364.109	100
364.335	81
364.562	101
364.788	97
365.015	87
365.241	90
365.468	104
365.694	97
365.92	107
366.147	90
366.373	74
366.599	95
366.826	105
367.052	77
367.278	86
367.505	88
367.731	84
367.957	83
368.184	88
368.41	101
368.636	110
368.862	108
369.089	108
369.315	97
369.541	96
369.767	85
369.993	101
370.219	74
370.445	92
370.672	95
370.898	86
371.124	88
371.35	83
371.576	89
371.802	108
372.028	77
372.254	80
372.48	85
372.706	77
372.932	95
373.158	87
373.384	103
373.61	89
373.835	90
374.061	77
374.287	106
374.513	76
374.739	79
374.965	94
375.191	94
375.416	94
375.642	94
375.868	102
376.094	80
376.319	85
376.545	92
376.771	82
376.997	100
377.222	85
377.448	88
377.674	88
377.899	90
378.125	93
378.35	87
378.576	94
378.802	93
379.027	101
379.253	97
379.478	96
379.704	73
379.929	103
380.155	89
380.38	101
380.606	92
380.831	90
381.057	78
381.282	96
381.507	82
381.733	87
381.958	90
382.184	104
382.409	101
382.634	94
382.86	89
383.085	98
383.31	106
383.535	101
383.761	84
383.986	101
384.211	91
384.436	83
384.662	95
384.887	87
385.112	105
385.337	105
385.562	103
385.787	98
386.013	113
386.238	103
386.463	101
386.688	93
386.913	98
387.138	96
387.363	110
387.588	95
387.813	83
388.038	102
388.263	94
388.488	92
388.713	90
388.938	92
389.163	93
389.387	83
389.612	91
389.837	86
390.062	89
390.287	92
390.512	99
390.736	96
390.961	103
391.186	83
391.411	74
391.636	83
391.86	73
392.085	93
392.31	97
392.534	92
392.759	95
392.984	81
393.208	89
393.433	102
393.658	106
393.882	83
394.107	87
394.331	65
394.556	80
394.78	98
395.005	84
395.229	86
395.454	95
395.678	85
395.903	81
396.127	89
396.352	94
396.576	88
396.801	87
397.025	83
397.249	80
397.474	88
397.698	87
397.922	93
398.147	87
398.371	83
398.595	84
398.82	88
399.044	109
399.268	86
399.492	85
399.717	83
399.941	70
400.165	109
400.389	91
400.613	81
400.837	88
401.062	88
401.286	90
401.51	86
401.734	88
401.958	98
402.182	119
402.406	148
402.63	111
402.854	98
403.078	93
403.302	87
403.526	87
403.75	89
403.974	91
404.198	83
404.422	82
404.645	100
404.869	89
405.093	100
405.317	112
405.541	105
405.765	109
405.988	118
406.212	159
406.436	227
406.66	157
406.883	99
407.107	102
407.331	99
407.555	88
407.778	106
408.002	81
408.226	90
408.449	94
408.673	94
408.896	85
409.12	90
409.344	94
409.567	89
409.791	93
410.014	91
410.238	82
410.461	83
410.685	85
410.908	92
411.132	115
411.355	112
411.578	100
411.802	72
412.025	92
412.249	103
412.472	112
412.695	107
412.919	101
413.142	79
413.365	88
413.589	87
413.812	75
414.035	82
414.258	78
414.482	79
414.705	92
414.928	77
415.151	93
415.374	86
415.597	77
415.821	77
416.044	80
416.267	83
416.49	95
416.713	91
416.936	94
417.159	93
417.382	91
417.605	86
417.828	93
418.051	94
418.274	82
418.497	88
418.72	92
418.943	83
419.166	79
419.389	91
419.611	83
419.834	79
420.057	76
420.28	87
420.503	93
420.726	83
420.948	107
421.171	87
421.394	69
421.617	92
421.839	89
422.062	94
422.285	84
422.507	90
422.73	110
422.953	88
423.175	86
423.398	76
423.621	79
423.843	82
424.066	90
424.288	86
424.511	91
424.733	88
424.956	100
425.178	91
425.401	99
425.623	107
425.846	91
426.068	88
426.291	86
426.513	73
426.735	81
426.958	102
427.18	98
427.402	147
427.625	205
427.847	175
428.069	172
428.292	123
428.514	88
428.736	95
428.958	87
429.181	81
429.403	76
429.625	69
429.847	100
430.069	96
430.292	99
430.514	92
430.736	90
430.958	93
431.18	89
431.402	86
431.624	89
431.846	91
432.068	84
432.29	77
432.512	90
432.734	87
432.956	93
433.178	105
433.4	92
433.622	91
433.844	91
434.066	95
434.287	100
434.509	75
434.731	83
434.953	94
435.175	79
435.397	89
435.618	92
435.84	96
436.062	135
436.284	121
436.505	105
436.727	105
436.949	88
437.17	65
437.392	78
437.614	92
437.835	102
438.057	114
438.278	116
438.5	112
438.721	130
438.943	100
439.165	89
439.386	70
439.608	99
439.829	104
440.05	131
440.272	156
440.493	109
440.715	78
440.936	90
441.158	90
441.379	82
441.6	104
441.822	93
442.043	79
442.264	123
442.486	115
442.707	81
442.928	110
443.149	130
443.371	141
443.592	111
443.813	103
444.034	117
444.255	100
444.476	84
444.698	84
444.919	95
445.14	132
445.361	107
445.582	110
445.803	159
446.024	137
446.245	160
446.466	108
446.687	83
446.908	77
447.129	96
447.35	93
447.571	90
447.792	100
448.013	103
448.234	89
448.455	87
448.675	125
448.896	120
449.117	87
449.338	91
449.559	140
449.779	148
450	97
450.221	86
450.442	82
450.662	87
450.883	95
451.104	110
451.324	92
451.545	94
451.766	91
451.986	95
452.207	88
452.428	96
452.648	93
452.869	114
453.089	115
453.31	106
453.53	89
453.751	93
453.971	115
454.192	99
454.412	96
454.633	87
454.853	101
455.073	76
455.294	91
455.514	101
455.734	89
455.955	79
456.175	78
456.395	92
456.616	69
456.836	75
457.056	84
457.276	76
457.497	92
457.717	74
457.937	82
458.157	94
458.377	85
458.598	112
458.818	158
459.038	165
459.258	120
459.478	91
459.698	87
459.918	94
460.138	84
460.358	79
460.578	74
460.798	74
461.018	86
461.238	75
461.458	88
461.678	77
461.898	83
462.118	79
462.338	59
462.558	86
462.777	83
462.997	98
463.217	83
463.437	76
463.657	83
463.876	84
464.096	100
464.316	95
464.536	97
464.755	97
464.975	94
465.195	161
465.414	158
465.634	107
465.854	79
466.073	87
466.293	87
466.512	87
466.732	90
466.951	93
467.171	83
467.391	102
467.61	106
467.829	147
468.049	292
468.268	406
468.488	134
468.707	98
468.927	96
469.146	85
469.365	85
469.585	96
469.804	84
470.023	93
470.243	96
470.462	91
470.681	107
470.901	91
471.12	84
471.339	100
471.558	100
471.777	107
471.997	179
472.216	535
472.435	1211
472.654	313
472.873	129
473.092	100
473.311	96
473.53	94
473.749	92
473.968	101
474.187	108
474.406	98
474.625	75
474.844	79
475.063	93
475.282	84
475.501	73
475.72	86
475.939	95
476.158	94
476.377	93
476.596	89
476.814	92
477.033	100
477.252	83
477.471	70
477.69	85
477.908	96
478.127	92
478.346	83
478.564	107
478.783	91
479.002	95
479.22	90
479.439	89
479.658	99
479.876	102
480.095	111
480.313	115
480.532	125
480.751	181
480.969	505
481.188	2085
481.406	1178
481.624	209
481.843	113
482.061	91
482.28	105
482.498	83
482.717	77
482.935	79
483.153	93
483.372	97
483.59	93
483.808	79
484.027	69
484.245	91
484.463	99
484.681	92
484.9	87
485.118	102
485.336	95
485.554	93
485.772	97
485.99	99
486.209	100
486.427	113
486.645	106
486.863	121
487.081	103
487.299	103
487.517	97
487.735	94
487.953	85
488.171	87
488.389	97
488.607	90
488.825	89
489.043	84
489.261	88
489.479	87
489.696	87
489.914	85
490.132	81
490.35	85
490.568	85
490.786	72
491.003	73
491.221	71
491.439	93
491.657	91
491.874	97
492.092	92
492.31	85
492.527	98
492.745	90
492.963	86
493.18	84
493.398	102
493.615	105
493.833	77
494.05	97
494.268	74
494.485	96
494.703	95
494.92	93
495.138	86
495.355	98
495.573	94
495.79	109
496.008	89
496.225	79
496.442	73
496.66	100
496.877	82
497.094	106
497.312	94
497.529	92
497.746	100
497.963	98
498.181	89
498.398	93
498.615	100
498.832	84
499.049	77
499.267	70
499.484	86
499.701	96
499.918	92
500.135	81
500.352	99
500.569	73
500.786	100
501.003	85
501.22	87
501.437	92
501.654	85
501.871	107
502.088	93
502.305	94
502.522	86
502.739	79
502.956	95
503.172	96
503.389	99
503.606	110
503.823	85
504.04	89
504.256	91
504.473	95
504.69	81
504.907	86
505.123	91
505.34	79
505.557	90
505.773	90
505.99	87
506.207	100
506.423	85
506.64	89
506.856	86
507.073	95
507.289	88
507.506	100
507.722	107
507.939	113
508.155	96
508.372	85
508.588	90
508.805	113
509.021	91
509.238	103
509.454	103
509.67	91
509.887	97
510.103	131
510.319	198
510.536	687
510.752	2296
510.968	628
511.184	150
511.401	122
511.617	112
511.833	82
512.049	92
512.265	78
512.481	93
512.698	85
512.914	97
513.13	95
513.346	82
513.562	89
513.778	104
513.994	103
514.21	100
514.426	122
514.642	130
514.858	130
515.074	177
515.29	444
515.506	1557
515.721	551
515.937	170
516.153	110
516.369	107
516.585	103
516.801	94
517.016	89
517.232	90
517.448	89
517.664	91
517.879	97
518.095	90
518.311	100
518.527	83
518.742	99
518.958	93
519.173	89
519.389	101
519.605	109
519.82	102
520.036	98
520.251	124
520.467	131
520.682	115
520.898	114
521.113	116
521.329	138
521.544	196
521.76	589
521.975	2581
522.19	1508
522.406	328
522.621	130
522.836	96
523.052	90
523.267	100
523.482	97
523.698	83
523.913	120
524.128	94
524.343	80
524.559	102
524.774	81
524.989	93
525.204	107
525.419	98
525.634	75
525.849	92
526.064	83
526.28	86
526.495	90
526.71	91
526.925	83
527.14	79
527.355	86
527.57	99
527.785	97
527.999	86
528.214	90
528.429	90
528.644	100
528.859	86
529.074	85
529.289	128
529.503	188
529.718	114
529.933	90
530.148	92
530.363	91
530.577	83
530.792	86
531.007	88
531.221	85
531.436	84
531.651	81
531.865	86
532.08	95
532.295	90
532.509	86
532.724	70
532.938	91
533.153	90
533.367	90
533.582	93
533.796	86
534.011	79
534.225	82
534.44	78
534.654	101
534.868	102
535.083	84
535.297	80
535.511	113
535.726	109
535.94	101
536.154	93
536.369	89
536.583	89
536.797	91
537.011	84
537.225	92
537.44	99
537.654	93
537.868	79
538.082	95
538.296	84
538.51	59
538.724	72
538.938	75
539.153	89
539.367	102
539.581	81
539.795	87
540.009	77
540.222	76
540.436	93
540.65	85
540.864	89
541.078	92
541.292	100
541.506	91
541.72	90
541.934	97
542.147	76
542.361	82
542.575	100
542.789	81
543.002	91
543.216	94
543.43	95
543.644	91
543.857	93
544.071	88
544.285	90
544.498	79
544.712	97
544.925	85
545.139	90
545.352	73
545.566	82
545.779	76
545.993	99
546.206	82
546.42	83
546.633	78
546.847	95
547.06	102
547.274	88
547.487	82
547.7	83
547.914	100
548.127	90
548.34	90
548.554	91
548.767	97
548.98	84
549.193	79
549.407	73
549.62	72
549.833	89
550.046	84
550.259	84
550.473	90
550.686	82
550.899	76
551.112	86
551.325	93
551.538	89
551.751	93
551.964	91
552.177	82
552.39	81
552.603	93
552.816	85
553.029	94
553.242	83
553.455	103
553.667	99
553.88	101
554.093	105
554.306	95
554.519	92
554.732	95
554.944	65
555.157	81
555.37	102
555.583	85
555.795	83
556.008	94
556.221	83
556.433	85
556.646	89
556.859	86
557.071	95
557.284	84
557.496	85
557.709	88
557.921	86
558.134	103
558.346	102
558.559	95
558.771	98
558.984	96
559.196	89
559.409	80
559.621	90
559.833	90
560.046	84
560.258	88
560.47	100
560.683	90
560.895	83
561.107	92
561.32	76
561.532	95
561.744	97
561.956	97
562.168	105
562.381	90
562.593	89
562.805	85
563.017	83
563.229	86
563.441	72
563.653	76
563.865	80
564.077	86
564.289	94
564.501	90
564.713	86
564.925	99
565.137	93
565.349	95
565.561	82
565.773	87
565.985	85
566.197	96
566.408	82
566.62	87
566.832	94
567.044	91
567.255	81
567.467	86
567.679	77
567.891	87
568.102	90
568.314	68
568.526	68
568.737	86
568.949	75
569.161	81
569.372	89
569.584	86
569.795	95
570.007	115
570.218	246
570.43	128
570.641	83
570.853	104
571.064	87
571.276	88
571.487	92
571.698	94
571.91	77
572.121	87
572.333	91
572.544	92
572.755	86
572.966	79
573.178	83
573.389	92
573.6	86
573.811	92
574.023	82
574.234	77
574.445	99
574.656	91
574.867	95
575.078	93
575.289	90
575.501	83
575.712	106
575.923	83
576.134	98
576.345	91
576.556	99
576.767	77
576.978	95
577.188	98
577.399	98
577.61	90
577.821	100
578.032	107
578.243	260
578.454	729
578.665	199
578.875	101
579.086	95
579.297	90
579.508	90
579.718	94
579.929	83
580.14	98
580.35	87
580.561	80
580.772	83
580.982	91
581.193	89
581.403	79
581.614	74
581.825	82
582.035	93
582.246	97
582.456	91
582.667	98
582.877	87
583.087	64
583.298	87
583.508	89
583.719	100
