Data from Circ_1991_H10_HRD10591_00033.txt Node
Date: Wed Jan 03 11:51:47 EST 2024
User: Yrep
Spectrometer: HR+D1059
Trigger mode: 1
Integration Time (sec): 1.000000E-1
Scans to average: 1
Electric dark correction enabled: true
Nonlinearity correction enabled: false
Boxcar width: 0
XAxis mode: Wavelengths
Number of Pixels in Spectrum: 2048
>>>>>Begin Spectral Data<<<<<
223.165	-21
223.4	-21
223.635	-21
223.869	-24
224.104	-7
224.338	-9
224.573	-16
224.808	-9
225.042	-9
225.277	-11
225.511	8
225.746	11
225.98	13
226.215	3
226.449	14
226.683	18
226.918	17
227.152	22
227.387	38
227.621	29
227.856	43
228.09	46
228.324	39
228.559	62
228.793	57
229.027	62
229.262	71
229.496	67
229.73	78
229.964	80
230.199	89
230.433	86
230.667	68
230.901	77
231.136	87
231.37	84
231.604	90
231.838	79
232.072	87
232.306	84
232.541	92
232.775	77
233.009	72
233.243	74
233.477	79
233.711	78
233.945	84
234.179	83
234.413	96
234.647	82
234.881	92
235.115	64
235.349	77
235.583	77
235.817	76
236.051	85
236.285	73
236.519	70
236.753	79
236.987	73
237.221	77
237.455	93
237.689	71
237.922	79
238.156	79
238.39	70
238.624	71
238.858	81
239.091	92
239.325	71
239.559	80
239.793	72
240.027	85
240.26	88
240.494	83
240.728	77
240.961	75
241.195	86
241.429	74
241.662	70
241.896	69
242.13	92
242.363	72
242.597	92
242.83	87
243.064	79
243.298	82
243.531	63
243.765	75
243.998	87
244.232	88
244.465	75
244.699	87
244.932	76
245.166	81
245.399	87
245.633	76
245.866	83
246.099	76
246.333	90
246.566	67
246.8	76
247.033	75
247.266	79
247.5	93
247.733	80
247.966	91
248.2	76
248.433	64
248.666	89
248.899	83
249.133	95
249.366	100
249.599	103
249.832	68
250.066	88
250.299	69
250.532	73
250.765	83
250.998	85
251.231	80
251.465	85
251.698	78
251.931	70
252.164	95
252.397	83
252.63	88
252.863	79
253.096	80
253.329	88
253.562	72
253.795	85
254.028	81
254.261	65
254.494	75
254.727	84
254.96	82
255.193	95
255.426	70
255.659	79
255.892	92
256.124	79
256.357	71
256.59	72
256.823	72
257.056	86
257.289	81
257.521	80
257.754	83
257.987	86
258.22	83
258.452	88
258.685	91
258.918	91
259.151	88
259.383	77
259.616	73
259.849	79
260.081	77
260.314	83
260.547	77
260.779	81
261.012	91
261.244	78
261.477	83
261.71	71
261.942	94
262.175	115
262.407	81
262.64	85
262.872	85
263.105	86
263.337	95
263.57	85
263.802	75
264.035	95
264.267	93
264.499	87
264.732	89
264.964	77
265.197	97
265.429	82
265.661	92
265.894	99
266.126	79
266.358	81
266.591	77
266.823	94
267.055	84
267.287	103
267.52	91
267.752	81
267.984	75
268.216	71
268.448	85
268.681	87
268.913	92
269.145	80
269.377	86
269.609	89
269.841	68
270.073	72
270.306	85
270.538	91
270.77	92
271.002	77
271.234	97
271.466	76
271.698	83
271.93	82
272.162	75
272.394	67
272.626	86
272.858	83
273.09	87
273.322	97
273.553	88
273.785	84
274.017	90
274.249	84
274.481	72
274.713	88
274.945	91
275.176	83
275.408	92
275.64	75
275.872	91
276.104	92
276.335	100
276.567	100
276.799	99
277.031	113
277.262	102
277.494	86
277.726	100
277.957	94
278.189	87
278.421	88
278.652	86
278.884	88
279.115	93
279.347	87
279.579	89
279.81	91
280.042	103
280.273	103
280.505	105
280.736	92
280.968	78
281.199	96
281.431	91
281.662	93
281.894	93
282.125	97
282.356	101
282.588	120
282.819	105
283.051	98
283.282	88
283.513	88
283.745	82
283.976	95
284.207	96
284.439	81
284.67	83
284.901	86
285.132	77
285.364	99
285.595	93
285.826	90
286.057	90
286.288	73
286.52	73
286.751	92
286.982	83
287.213	85
287.444	101
287.675	83
287.906	79
288.138	86
288.369	92
288.6	94
288.831	83
289.062	82
289.293	79
289.524	86
289.755	76
289.986	85
290.217	96
290.448	86
290.679	70
290.91	95
291.141	98
291.371	93
291.602	84
291.833	85
292.064	89
292.295	91
292.526	92
292.757	95
292.987	96
293.218	88
293.449	99
293.68	88
293.91	89
294.141	93
294.372	80
294.603	89
294.833	92
295.064	85
295.295	80
295.525	85
295.756	91
295.987	107
296.217	119
296.448	109
296.679	102
296.909	85
297.14	85
297.37	82
297.601	93
297.831	100
298.062	99
298.292	103
298.523	92
298.753	96
298.984	89
299.214	98
299.445	95
299.675	99
299.905	96
300.136	95
300.366	88
300.597	95
300.827	87
301.057	90
301.288	96
301.518	89
301.748	98
301.979	92
302.209	101
302.439	81
302.669	75
302.9	84
303.13	94
303.36	103
303.59	126
303.82	117
304.051	91
304.281	93
304.511	89
304.741	96
304.971	102
305.201	93
305.431	98
305.661	109
305.891	94
306.121	96
306.352	106
306.582	113
306.812	99
307.042	103
307.272	96
307.502	128
307.731	123
307.961	114
308.191	97
308.421	83
308.651	93
308.881	77
309.111	93
309.341	85
309.571	95
309.8	98
310.03	96
310.26	95
310.49	99
310.72	107
310.949	99
311.179	93
311.409	103
311.639	98
311.868	104
312.098	96
312.328	99
312.557	95
312.787	103
313.017	105
313.246	90
313.476	77
313.706	83
313.935	99
314.165	89
314.394	93
314.624	86
314.853	96
315.083	103
315.312	97
315.542	99
315.771	100
316.001	78
316.23	93
316.46	89
316.689	91
316.919	96
317.148	101
317.377	85
317.607	95
317.836	99
318.065	99
318.295	95
318.524	87
318.753	99
318.983	93
319.212	87
319.441	112
319.67	96
319.9	93
320.129	89
320.358	104
320.587	92
320.816	107
321.046	106
321.275	108
321.504	96
321.733	90
321.962	94
322.191	111
322.42	126
322.649	125
322.878	108
323.108	108
323.337	127
323.566	132
323.795	155
324.024	209
324.253	386
324.482	823
324.71	1734
324.939	2256
325.168	815
325.397	235
325.626	167
325.855	121
326.084	141
326.313	136
326.542	161
326.77	227
326.999	450
327.228	937
327.457	1782
327.686	1396
327.914	408
328.143	247
328.372	246
328.6	173
328.829	135
329.058	141
329.287	123
329.515	124
329.744	127
329.972	181
330.201	297
330.43	379
330.658	218
330.887	139
331.115	128
331.344	104
331.572	97
331.801	106
332.03	103
332.258	104
332.486	104
332.715	101
332.943	100
333.172	103
333.4	101
333.629	106
333.857	144
334.085	172
334.314	290
334.542	483
334.771	442
334.999	163
335.227	111
335.455	101
335.684	97
335.912	86
336.14	88
336.369	101
336.597	86
336.825	85
337.053	101
337.281	97
337.51	91
337.738	97
337.966	92
338.194	90
338.422	93
338.65	103
338.878	98
339.106	102
339.334	111
339.562	85
339.79	95
340.018	88
340.246	94
340.474	89
340.702	95
340.93	83
341.158	94
341.386	96
341.614	103
341.842	104
342.07	87
342.298	73
342.526	95
342.754	84
342.981	94
343.209	87
343.437	92
343.665	82
343.893	91
344.12	96
344.348	93
344.576	114
344.804	92
345.031	91
345.259	108
345.487	100
345.714	92
345.942	103
346.17	92
346.397	87
346.625	107
346.853	96
347.08	105
347.308	104
347.535	93
347.763	79
347.99	112
348.218	101
348.445	96
348.673	101
348.9	93
349.128	90
349.355	96
349.583	71
349.81	92
350.037	76
350.265	98
350.492	88
350.72	90
350.947	108
351.174	93
351.402	101
351.629	83
351.856	101
352.083	112
352.311	111
352.538	114
352.765	98
352.992	127
353.22	111
353.447	94
353.674	103
353.901	96
354.128	95
354.355	96
354.583	94
354.81	89
355.037	94
355.264	96
355.491	95
355.718	88
355.945	98
356.172	88
356.399	105
356.626	97
356.853	112
357.08	91
357.307	101
357.534	96
357.761	106
357.988	102
358.215	103
358.441	112
358.668	97
358.895	93
359.122	93
359.349	89
359.576	104
359.802	96
360.029	112
360.256	116
360.483	101
360.709	103
360.936	105
361.163	89
361.39	99
361.616	95
361.843	94
362.07	97
362.296	86
362.523	102
362.749	92
362.976	98
363.203	107
363.429	87
363.656	87
363.882	100
364.109	91
364.335	88
364.562	87
364.788	102
365.015	90
365.241	84
365.468	105
365.694	95
365.92	102
366.147	97
366.373	98
366.599	102
366.826	99
367.052	84
367.278	93
367.505	86
367.731	111
367.957	87
368.184	92
368.41	101
368.636	104
368.862	114
369.089	110
369.315	91
369.541	92
369.767	79
369.993	90
370.219	85
370.445	80
370.672	83
370.898	82
371.124	86
371.35	73
371.576	94
371.802	96
372.028	90
372.254	90
372.48	100
372.706	91
372.932	92
373.158	94
373.384	79
373.61	93
373.835	89
374.061	85
374.287	104
374.513	97
374.739	98
374.965	87
375.191	91
375.416	88
375.642	92
375.868	101
376.094	100
376.319	79
376.545	82
376.771	97
376.997	98
377.222	90
377.448	93
377.674	103
377.899	92
378.125	86
378.35	94
378.576	87
378.802	84
379.027	96
379.253	90
379.478	94
379.704	79
379.929	104
380.155	89
380.38	100
380.606	102
380.831	75
381.057	97
381.282	95
381.507	98
381.733	97
381.958	100
382.184	99
382.409	111
382.634	108
382.86	101
383.085	107
383.31	98
383.535	105
383.761	107
383.986	100
384.211	121
384.436	102
384.662	103
384.887	116
385.112	126
385.337	104
385.562	120
385.787	115
386.013	112
386.238	115
386.463	115
386.688	123
386.913	120
387.138	123
387.363	105
387.588	101
387.813	92
388.038	99
388.263	109
388.488	128
388.713	108
388.938	95
389.163	101
389.387	108
389.612	110
389.837	97
390.062	105
390.287	99
390.512	99
390.736	95
390.961	93
391.186	88
391.411	91
391.636	100
391.86	80
392.085	99
392.31	91
392.534	87
392.759	103
392.984	100
393.208	117
393.433	171
393.658	136
393.882	101
394.107	101
394.331	85
394.556	89
394.78	94
395.005	92
395.229	87
395.454	102
395.678	91
395.903	86
396.127	103
396.352	97
396.576	92
396.801	119
397.025	123
397.249	91
397.474	96
397.698	92
397.922	88
398.147	87
398.371	91
398.595	78
398.82	83
399.044	88
399.268	95
399.492	90
399.717	85
399.941	97
400.165	90
400.389	85
400.613	90
400.837	80
401.062	101
401.286	106
401.51	75
401.734	88
401.958	100
402.182	111
402.406	143
402.63	103
402.854	108
403.078	92
403.302	83
403.526	102
403.75	96
403.974	83
404.198	99
404.422	90
404.645	91
404.869	95
405.093	96
405.317	104
405.541	108
405.765	101
405.988	124
406.212	166
406.436	215
406.66	131
406.883	87
407.107	95
407.331	107
407.555	100
407.778	106
408.002	95
408.226	101
408.449	76
408.673	93
408.896	84
409.12	94
409.344	88
409.567	80
409.791	100
410.014	84
410.238	89
410.461	91
410.685	96
410.908	98
411.132	106
411.355	99
411.578	93
411.802	93
412.025	94
412.249	90
412.472	90
412.695	112
412.919	105
413.142	96
413.365	89
413.589	78
413.812	95
414.035	96
414.258	94
414.482	98
414.705	95
414.928	86
415.151	89
415.374	97
415.597	90
415.821	95
416.044	95
416.267	84
416.49	94
416.713	100
416.936	91
417.159	92
417.382	94
417.605	92
417.828	91
418.051	91
418.274	88
418.497	79
418.72	92
418.943	89
419.166	83
419.389	97
419.611	90
419.834	94
420.057	92
420.28	89
420.503	96
420.726	87
420.948	81
421.171	109
421.394	100
421.617	91
421.839	79
422.062	95
422.285	95
422.507	100
422.73	111
422.953	100
423.175	92
423.398	87
423.621	86
423.843	92
424.066	99
424.288	83
424.511	101
424.733	87
424.956	111
425.178	104
425.401	94
425.623	102
425.846	98
426.068	101
426.291	97
426.513	95
426.735	83
426.958	86
427.18	110
427.402	148
427.625	174
427.847	145
428.069	147
428.292	102
428.514	75
428.736	95
428.958	97
429.181	97
429.403	95
429.625	85
429.847	90
430.069	96
430.292	111
430.514	95
430.736	78
430.958	86
431.18	89
431.402	86
431.624	77
431.846	70
432.068	92
432.29	80
432.512	84
432.734	95
432.956	90
433.178	104
433.4	97
433.622	106
433.844	90
434.066	102
434.287	98
434.509	95
434.731	90
434.953	77
435.175	93
435.397	71
435.618	92
435.84	101
436.062	122
436.284	123
436.505	99
436.727	107
436.949	96
437.17	83
437.392	86
437.614	82
437.835	105
438.057	111
438.278	91
438.5	97
438.721	101
438.943	101
439.165	87
439.386	91
439.608	97
439.829	99
440.05	132
440.272	140
440.493	96
440.715	93
440.936	97
441.158	98
441.379	80
441.6	80
441.822	91
442.043	73
442.264	110
442.486	99
442.707	111
442.928	113
443.149	141
443.371	117
443.592	117
443.813	104
444.034	120
444.255	96
444.476	76
444.698	76
444.919	94
445.14	120
445.361	124
445.582	115
445.803	133
446.024	122
446.245	144
446.466	117
446.687	101
446.908	88
447.129	79
447.35	87
447.571	84
447.792	101
448.013	99
448.234	118
448.455	87
448.675	113
448.896	121
449.117	103
449.338	90
449.559	119
449.779	139
450	102
450.221	86
450.442	86
450.662	104
450.883	112
451.104	118
451.324	75
451.545	103
451.766	93
451.986	88
452.207	87
452.428	93
452.648	104
452.869	103
453.089	112
453.31	103
453.53	108
453.751	78
453.971	105
454.192	100
454.412	100
454.633	97
454.853	89
455.073	87
455.294	84
455.514	95
455.734	86
455.955	79
456.175	93
456.395	91
456.616	78
456.836	76
457.056	85
457.276	79
457.497	81
457.717	89
457.937	80
458.157	86
458.377	89
458.598	113
458.818	144
459.038	152
459.258	113
459.478	94
459.698	72
459.918	82
460.138	99
460.358	87
460.578	87
460.798	89
461.018	92
461.238	85
461.458	91
461.678	96
461.898	82
462.118	72
462.338	83
462.558	75
462.777	88
462.997	85
463.217	88
463.437	88
463.657	96
463.876	101
464.096	83
464.316	101
464.536	96
464.755	89
464.975	108
465.195	159
465.414	175
465.634	108
465.854	87
466.073	69
466.293	85
466.512	76
466.732	77
466.951	83
467.171	85
467.391	85
467.61	105
467.829	118
468.049	181
468.268	239
468.488	117
468.707	77
468.927	80
469.146	91
469.365	79
469.585	92
469.804	107
470.023	98
470.243	87
470.462	99
470.681	111
470.901	94
471.12	95
471.339	97
471.558	87
471.777	110
471.997	139
472.216	351
472.435	631
472.654	209
472.873	99
473.092	93
473.311	84
473.53	79
473.749	91
473.968	91
474.187	111
474.406	111
474.625	95
474.844	99
475.063	86
475.282	103
475.501	85
475.72	104
475.939	89
476.158	82
476.377	82
476.596	76
476.814	76
477.033	97
477.252	87
477.471	96
477.69	85
477.908	89
478.127	91
478.346	85
478.564	96
478.783	99
479.002	79
479.22	102
479.439	104
479.658	117
479.876	99
480.095	96
480.313	86
480.532	103
480.751	150
480.969	342
481.188	1122
481.406	678
481.624	163
481.843	91
482.061	82
482.28	91
482.498	95
482.717	91
482.935	102
483.153	89
483.372	96
483.59	97
483.808	81
484.027	83
484.245	99
484.463	97
484.681	94
484.9	97
485.118	89
485.336	106
485.554	92
485.772	92
485.99	92
486.209	112
486.427	113
486.645	105
486.863	110
487.081	97
487.299	88
487.517	91
487.735	87
487.953	81
488.171	84
488.389	96
488.607	93
488.825	81
489.043	99
489.261	99
489.479	91
489.696	89
489.914	70
490.132	86
490.35	85
490.568	88
490.786	85
491.003	95
491.221	98
491.439	87
491.657	90
491.874	92
492.092	103
492.31	99
492.527	90
492.745	86
492.963	94
493.18	91
493.398	88
493.615	104
493.833	95
494.05	80
494.268	105
494.485	81
494.703	89
494.92	78
495.138	99
495.355	99
495.573	78
495.79	75
496.008	81
496.225	88
496.442	71
496.66	88
496.877	86
497.094	91
497.312	83
497.529	104
497.746	93
497.963	90
498.181	101
498.398	89
498.615	123
498.832	117
499.049	101
499.267	111
499.484	92
499.701	83
499.918	102
500.135	88
500.352	100
500.569	83
500.786	89
501.003	83
501.22	107
501.437	98
501.654	103
501.871	117
502.088	77
502.305	93
502.522	107
502.739	101
502.956	88
503.172	89
503.389	98
503.606	99
503.823	91
504.04	98
504.256	91
504.473	102
504.69	91
504.907	99
505.123	84
505.34	95
505.557	87
505.773	104
505.99	100
506.207	86
506.423	88
506.64	93
506.856	89
507.073	104
507.289	87
507.506	92
507.722	99
507.939	104
508.155	108
508.372	98
508.588	96
508.805	94
509.021	96
509.238	105
509.454	88
509.67	114
509.887	104
510.103	135
510.319	204
510.536	707
510.752	2279
510.968	618
511.184	152
511.401	89
511.617	95
511.833	109
512.049	97
512.265	95
512.481	100
512.698	94
512.914	95
513.13	98
513.346	103
513.562	94
513.778	100
513.994	111
514.21	98
514.426	109
514.642	151
514.858	112
515.074	167
515.29	438
515.506	1405
515.721	531
515.937	156
516.153	113
516.369	112
516.585	88
516.801	91
517.016	102
517.232	92
517.448	99
517.664	86
517.879	98
518.095	92
518.311	101
518.527	110
518.742	104
518.958	93
519.173	103
519.389	112
519.605	89
519.82	85
520.036	93
520.251	100
520.467	105
520.682	118
520.898	109
521.113	102
521.329	139
521.544	191
521.76	545
521.975	2336
522.19	1397
522.406	308
522.621	133
522.836	100
523.052	101
523.267	103
523.482	96
523.698	97
523.913	123
524.128	100
524.343	87
524.559	91
524.774	100
524.989	83
525.204	100
525.419	93
525.634	105
525.849	94
526.064	100
526.28	97
526.495	93
526.71	93
526.925	88
527.14	95
527.355	87
527.57	85
527.785	95
527.999	79
528.214	83
528.429	99
528.644	92
528.859	94
529.074	101
529.289	117
529.503	189
529.718	103
529.933	85
530.148	98
530.363	98
530.577	89
530.792	81
531.007	104
531.221	96
531.436	92
531.651	95
531.865	96
532.08	90
532.295	86
532.509	91
532.724	96
532.938	83
533.153	100
533.367	83
533.582	85
533.796	97
534.011	90
534.225	90
534.44	101
534.654	88
534.868	95
535.083	88
535.297	109
535.511	104
535.726	114
535.94	99
536.154	87
536.369	80
536.583	98
536.797	87
537.011	84
537.225	90
537.44	80
537.654	79
537.868	92
538.082	94
538.296	100
538.51	79
538.724	91
538.938	97
539.153	94
539.367	103
539.581	98
539.795	82
540.009	94
540.222	98
540.436	90
540.65	89
540.864	93
541.078	93
541.292	94
541.506	92
541.72	96
541.934	90
542.147	81
542.361	93
542.575	96
542.789	92
543.002	97
543.216	85
543.43	97
543.644	89
543.857	97
544.071	94
544.285	97
544.498	79
544.712	88
544.925	85
545.139	93
545.352	97
545.566	92
545.779	96
545.993	101
546.206	91
546.42	68
546.633	91
546.847	93
547.06	94
547.274	89
547.487	95
547.7	89
547.914	97
548.127	88
548.34	91
548.554	93
548.767	95
548.98	93
549.193	86
549.407	91
549.62	96
549.833	79
550.046	74
550.259	86
550.473	99
550.686	92
550.899	93
551.112	92
551.325	102
551.538	85
551.751	81
551.964	95
552.177	87
552.39	92
552.603	101
552.816	83
553.029	80
553.242	98
553.455	93
553.667	98
553.88	99
554.093	85
554.306	104
554.519	92
554.732	106
554.944	103
555.157	112
555.37	84
555.583	88
555.795	101
556.008	103
556.221	100
556.433	92
556.646	90
556.859	88
557.071	101
557.284	103
557.496	85
557.709	86
557.921	79
558.134	98
558.346	86
558.559	100
558.771	104
558.984	95
559.196	90
559.409	101
559.621	94
559.833	84
560.046	98
560.258	87
560.47	106
560.683	83
560.895	94
561.107	91
561.32	81
561.532	96
561.744	85
561.956	100
562.168	101
562.381	95
562.593	86
562.805	96
563.017	89
563.229	87
563.441	97
563.653	83
563.865	95
564.077	83
564.289	94
564.501	84
564.713	89
564.925	105
565.137	88
565.349	96
565.561	88
565.773	96
565.985	91
566.197	99
566.408	102
566.62	95
566.832	81
567.044	82
567.255	87
567.467	92
567.679	87
567.891	98
568.102	82
568.314	78
568.526	88
568.737	102
568.949	81
569.161	91
569.372	106
569.584	82
569.795	93
570.007	125
570.218	227
570.43	115
570.641	89
570.853	84
571.064	96
571.276	91
571.487	87
571.698	84
571.91	77
572.121	87
572.333	88
572.544	92
572.755	99
572.966	104
573.178	78
573.389	95
573.6	88
573.811	71
574.023	89
574.234	99
574.445	86
574.656	86
574.867	91
575.078	82
575.289	95
575.501	81
575.712	88
575.923	79
576.134	69
576.345	93
576.556	84
576.767	91
576.978	89
577.188	99
577.399	89
577.61	96
577.821	109
578.032	114
578.243	253
578.454	705
578.665	187
578.875	104
579.086	95
579.297	100
579.508	87
579.718	92
579.929	97
580.14	94
580.35	71
580.561	91
580.772	97
580.982	88
581.193	79
581.403	87
581.614	87
581.825	101
582.035	90
582.246	82
582.456	84
582.667	80
582.877	90
