Data from Circ_1991_H10_HRD10591_00006.txt Node
Date: Wed Jan 03 11:51:42 EST 2024
User: Yrep
Spectrometer: HR+D1059
Trigger mode: 1
Integration Time (sec): 1.000000E-1
Scans to average: 1
Electric dark correction enabled: true
Nonlinearity correction enabled: false
Boxcar width: 0
XAxis mode: Wavelengths
Number of Pixels in Spectrum: 2048
>>>>>Begin Spectral Data<<<<<
223.165	-14.69
223.4	-14.69
223.635	-14.69
223.869	-13.69
224.104	-16.69
224.338	-23.69
224.573	-20.69
224.808	-26.69
225.042	-11.69
225.277	-6.69
225.511	-4.69
225.746	3.31
225.98	14.31
226.215	21.31
226.449	32.31
226.683	27.31
226.918	9.31
227.152	31.31
227.387	33.31
227.621	29.31
227.856	55.31
228.09	35.31
228.324	52.31
228.559	46.31
228.793	58.31
229.027	65.31
229.262	59.31
229.496	63.31
229.73	66.31
229.964	70.31
230.199	67.31
230.433	77.31
230.667	87.31
230.901	74.31
231.136	80.31
231.37	86.31
231.604	79.31
231.838	66.31
232.072	85.31
232.306	79.31
232.541	78.31
232.775	78.31
233.009	83.31
233.243	92.31
233.477	62.31
233.711	78.31
233.945	81.31
234.179	90.31
234.413	89.31
234.647	80.31
234.881	73.31
235.115	86.31
235.349	87.31
235.583	84.31
235.817	71.31
236.051	67.31
236.285	76.31
236.519	82.31
236.753	99.31
236.987	86.31
237.221	84.31
237.455	80.31
237.689	86.31
237.922	73.31
238.156	71.31
238.39	76.31
238.624	61.31
238.858	59.31
239.091	75.31
239.325	72.31
239.559	78.31
239.793	75.31
240.027	76.31
240.26	90.31
240.494	86.31
240.728	81.31
240.961	59.31
241.195	72.31
241.429	63.31
241.662	75.31
241.896	88.31
242.13	78.31
242.363	67.31
242.597	85.31
242.83	59.31
243.064	84.31
243.298	82.31
243.531	51.31
243.765	67.31
243.998	87.31
244.232	81.31
244.465	76.31
244.699	67.31
244.932	78.31
245.166	90.31
245.399	57.31
245.633	74.31
245.866	79.31
246.099	87.31
246.333	84.31
246.566	82.31
246.8	73.31
247.033	81.31
247.266	74.31
247.5	71.31
247.733	56.31
247.966	84.31
248.2	90.31
248.433	72.31
248.666	74.31
248.899	72.31
249.133	78.31
249.366	92.31
249.599	92.31
249.832	86.31
250.066	92.31
250.299	74.31
250.532	86.31
250.765	76.31
250.998	75.31
251.231	85.31
251.465	81.31
251.698	72.31
251.931	86.31
252.164	76.31
252.397	67.31
252.63	79.31
252.863	74.31
253.096	72.31
253.329	65.31
253.562	88.31
253.795	81.31
254.028	72.31
254.261	75.31
254.494	75.31
254.727	77.31
254.96	78.31
255.193	84.31
255.426	87.31
255.659	68.31
255.892	76.31
256.124	71.31
256.357	77.31
256.59	78.31
256.823	64.31
257.056	81.31
257.289	74.31
257.521	89.31
257.754	64.31
257.987	65.31
258.22	65.31
258.452	87.31
258.685	92.31
258.918	92.31
259.151	85.31
259.383	87.31
259.616	78.31
259.849	72.31
260.081	73.31
260.314	89.31
260.547	74.31
260.779	76.31
261.012	82.31
261.244	78.31
261.477	78.31
261.71	82.31
261.942	88.31
262.175	96.31
262.407	83.31
262.64	80.31
262.872	81.31
263.105	82.31
263.337	83.31
263.57	80.31
263.802	77.31
264.035	82.31
264.267	74.31
264.499	83.31
264.732	78.31
264.964	93.31
265.197	75.31
265.429	74.31
265.661	80.31
265.894	75.31
266.126	70.31
266.358	83.31
266.591	78.31
266.823	72.31
267.055	83.31
267.287	78.31
267.52	77.31
267.752	86.31
267.984	75.31
268.216	74.31
268.448	79.31
268.681	89.31
268.913	82.31
269.145	75.31
269.377	80.31
269.609	91.31
269.841	90.31
270.073	70.31
270.306	93.31
270.538	78.31
270.77	79.31
271.002	78.31
271.234	77.31
271.466	91.31
271.698	81.31
271.93	76.31
272.162	90.31
272.394	74.31
272.626	82.31
272.858	87.31
273.09	80.31
273.322	90.31
273.553	72.31
273.785	73.31
274.017	87.31
274.249	79.31
274.481	75.31
274.713	89.31
274.945	87.31
275.176	74.31
275.408	82.31
275.64	90.31
275.872	79.31
276.104	83.31
276.335	96.31
276.567	84.31
276.799	96.31
277.031	89.31
277.262	85.31
277.494	102.31
277.726	94.31
277.957	89.31
278.189	93.31
278.421	80.31
278.652	77.31
278.884	76.31
279.115	74.31
279.347	77.31
279.579	83.31
279.81	95.31
280.042	92.31
280.273	98.31
280.505	91.31
280.736	79.31
280.968	89.31
281.199	86.31
281.431	72.31
281.662	70.31
281.894	82.31
282.125	85.31
282.356	92.31
282.588	132.31
282.819	100.31
283.051	94.31
283.282	82.31
283.513	74.31
283.745	81.31
283.976	87.31
284.207	88.31
284.439	74.31
284.67	70.31
284.901	75.31
285.132	83.31
285.364	104.31
285.595	81.31
285.826	82.31
286.057	87.31
286.288	94.31
286.52	74.31
286.751	97.31
286.982	75.31
287.213	86.31
287.444	81.31
287.675	74.31
287.906	92.31
288.138	73.31
288.369	93.31
288.6	80.31
288.831	86.31
289.062	82.31
289.293	76.31
289.524	89.31
289.755	72.31
289.986	89.31
290.217	85.31
290.448	81.31
290.679	82.31
290.91	80.31
291.141	74.31
291.371	76.31
291.602	87.31
291.833	92.31
292.064	72.31
292.295	97.31
292.526	74.31
292.757	92.31
292.987	91.31
293.218	92.31
293.449	71.31
293.68	93.31
293.91	93.31
294.141	83.31
294.372	97.31
294.603	91.31
294.833	81.31
295.064	87.31
295.295	91.31
295.525	70.31
295.756	84.31
295.987	102.31
296.217	106.31
296.448	97.31
296.679	77.31
296.909	75.31
297.14	83.31
297.37	87.31
297.601	87.31
297.831	83.31
298.062	76.31
298.292	78.31
298.523	87.31
298.753	100.31
298.984	77.31
299.214	79.31
299.445	80.31
299.675	83.31
299.905	93.31
300.136	89.31
300.366	90.31
300.597	90.31
300.827	79.31
301.057	84.31
301.288	107.31
301.518	89.31
301.748	89.31
301.979	94.31
302.209	96.31
302.439	93.31
302.669	83.31
302.9	75.31
303.13	109.31
303.36	102.31
303.59	87.31
303.82	83.31
304.051	70.31
304.281	80.31
304.511	87.31
304.741	81.31
304.971	64.31
305.201	81.31
305.431	94.31
305.661	82.31
305.891	91.31
306.121	87.31
306.352	94.31
306.582	84.31
306.812	81.31
307.042	85.31
307.272	98.31
307.502	108.31
307.731	97.31
307.961	90.31
308.191	75.31
308.421	88.31
308.651	86.31
308.881	93.31
309.111	93.31
309.341	79.31
309.571	91.31
309.8	88.31
310.03	99.31
310.26	84.31
310.49	92.31
310.72	84.31
310.949	80.31
311.179	93.31
311.409	93.31
311.639	73.31
311.868	78.31
312.098	96.31
312.328	97.31
312.557	81.31
312.787	96.31
313.017	84.31
313.246	93.31
313.476	97.31
313.706	92.31
313.935	87.31
314.165	100.31
314.394	86.31
314.624	91.31
314.853	82.31
315.083	94.31
315.312	93.31
315.542	75.31
315.771	89.31
316.001	82.31
316.23	92.31
316.46	71.31
316.689	97.31
316.919	95.31
317.148	102.31
317.377	75.31
317.607	84.31
317.836	85.31
318.065	81.31
318.295	79.31
318.524	82.31
318.753	79.31
318.983	84.31
319.212	105.31
319.441	105.31
319.67	95.31
319.9	83.31
320.129	96.31
320.358	87.31
320.587	80.31
320.816	95.31
321.046	93.31
321.275	99.31
321.504	82.31
321.733	86.31
321.962	104.31
322.191	91.31
322.42	93.31
322.649	94.31
322.878	109.31
323.108	110.31
323.337	112.31
323.566	127.31
323.795	136.31
324.024	172.31
324.253	354.31
324.482	730.31
324.71	1535.31
324.939	2056.31
325.168	734.31
325.397	212.31
325.626	136.31
325.855	122.31
326.084	123.31
326.313	110.31
326.542	130.31
326.77	187.31
326.999	388.31
327.228	877.31
327.457	1566.31
327.686	1266.31
327.914	350.31
328.143	193.31
328.372	170.31
328.6	120.31
328.829	106.31
329.058	122.31
329.287	128.31
329.515	111.31
329.744	103.31
329.972	143.31
330.201	196.31
330.43	222.31
330.658	163.31
330.887	123.31
331.115	108.31
331.344	109.31
331.572	96.31
331.801	90.31
332.03	92.31
332.258	104.31
332.486	95.31
332.715	80.31
332.943	87.31
333.172	89.31
333.4	97.31
333.629	116.31
333.857	118.31
334.085	130.31
334.314	193.31
334.542	278.31
334.771	268.31
334.999	124.31
335.227	104.31
335.455	73.31
335.684	86.31
335.912	102.31
336.14	92.31
336.369	84.31
336.597	95.31
336.825	98.31
337.053	83.31
337.281	92.31
337.51	85.31
337.738	92.31
337.966	68.31
338.194	86.31
338.422	80.31
338.65	90.31
338.878	90.31
339.106	83.31
339.334	84.31
339.562	83.31
339.79	89.31
340.018	81.31
340.246	89.31
340.474	97.31
340.702	88.31
340.93	85.31
341.158	99.31
341.386	92.31
341.614	88.31
341.842	104.31
342.07	89.31
342.298	75.31
342.526	80.31
342.754	82.31
342.981	87.31
343.209	84.31
343.437	87.31
343.665	82.31
343.893	92.31
344.12	89.31
344.348	93.31
344.576	82.31
344.804	89.31
345.031	99.31
345.259	88.31
345.487	92.31
345.714	86.31
345.942	78.31
346.17	87.31
346.397	100.31
346.625	94.31
346.853	88.31
347.08	91.31
347.308	104.31
347.535	93.31
347.763	99.31
347.99	88.31
348.218	98.31
348.445	88.31
348.673	91.31
348.9	93.31
349.128	89.31
349.355	89.31
349.583	91.31
349.81	90.31
350.037	94.31
350.265	89.31
350.492	65.31
350.72	101.31
350.947	80.31
351.174	89.31
351.402	111.31
351.629	99.31
351.856	85.31
352.083	98.31
352.311	105.31
352.538	99.31
352.765	104.31
352.992	111.31
353.22	92.31
353.447	88.31
353.674	98.31
353.901	97.31
354.128	96.31
354.355	91.31
354.583	75.31
354.81	90.31
355.037	83.31
355.264	82.31
355.491	97.31
355.718	85.31
355.945	100.31
356.172	94.31
356.399	96.31
356.626	83.31
356.853	85.31
357.08	102.31
357.307	96.31
357.534	74.31
357.761	105.31
357.988	107.31
358.215	90.31
358.441	102.31
358.668	90.31
358.895	100.31
359.122	79.31
359.349	88.31
359.576	89.31
359.802	93.31
360.029	106.31
360.256	103.31
360.483	93.31
360.709	84.31
360.936	95.31
361.163	94.31
361.39	79.31
361.616	87.31
361.843	94.31
362.07	88.31
362.296	99.31
362.523	86.31
362.749	76.31
362.976	72.31
363.203	101.31
363.429	92.31
363.656	80.31
363.882	83.31
364.109	86.31
364.335	84.31
364.562	87.31
364.788	96.31
365.015	92.31
365.241	96.31
365.468	104.31
365.694	86.31
365.92	89.31
366.147	86.31
366.373	90.31
366.599	83.31
366.826	86.31
367.052	79.31
367.278	82.31
367.505	89.31
367.731	83.31
367.957	90.31
368.184	84.31
368.41	83.31
368.636	107.31
368.862	117.31
369.089	85.31
369.315	87.31
369.541	94.31
369.767	61.31
369.993	77.31
370.219	76.31
370.445	71.31
370.672	71.31
370.898	90.31
371.124	86.31
371.35	66.31
371.576	86.31
371.802	91.31
372.028	100.31
372.254	80.31
372.48	74.31
372.706	94.31
372.932	80.31
373.158	73.31
373.384	85.31
373.61	93.31
373.835	88.31
374.061	89.31
374.287	77.31
374.513	88.31
374.739	77.31
374.965	94.31
375.191	86.31
375.416	84.31
375.642	86.31
375.868	91.31
376.094	86.31
376.319	79.31
376.545	86.31
376.771	90.31
376.997	73.31
377.222	86.31
377.448	84.31
377.674	90.31
377.899	87.31
378.125	86.31
378.35	81.31
378.576	85.31
378.802	90.31
379.027	88.31
379.253	99.31
379.478	88.31
379.704	88.31
379.929	98.31
380.155	102.31
380.38	105.31
380.606	95.31
380.831	100.31
381.057	113.31
381.282	108.31
381.507	104.31
381.733	94.31
381.958	96.31
382.184	104.31
382.409	104.31
382.634	106.31
382.86	115.31
383.085	109.31
383.31	105.31
383.535	126.31
383.761	119.31
383.986	116.31
384.211	104.31
384.436	116.31
384.662	126.31
384.887	120.31
385.112	135.31
385.337	113.31
385.562	120.31
385.787	137.31
386.013	132.31
386.238	119.31
386.463	116.31
386.688	128.31
386.913	130.31
387.138	132.31
387.363	152.31
387.588	106.31
387.813	99.31
388.038	124.31
388.263	140.31
388.488	150.31
388.713	98.31
388.938	99.31
389.163	102.31
389.387	104.31
389.612	82.31
389.837	100.31
390.062	90.31
390.287	83.31
390.512	78.31
390.736	96.31
390.961	85.31
391.186	84.31
391.411	100.31
391.636	89.31
391.86	88.31
392.085	88.31
392.31	72.31
392.534	72.31
392.759	86.31
392.984	83.31
393.208	113.31
393.433	157.31
393.658	126.31
393.882	82.31
394.107	90.31
394.331	79.31
394.556	82.31
394.78	80.31
395.005	84.31
395.229	73.31
395.454	82.31
395.678	80.31
395.903	103.31
396.127	94.31
396.352	93.31
396.576	100.31
396.801	107.31
397.025	131.31
397.249	92.31
397.474	76.31
397.698	88.31
397.922	92.31
398.147	88.31
398.371	78.31
398.595	70.31
398.82	89.31
399.044	86.31
399.268	89.31
399.492	82.31
399.717	81.31
399.941	91.31
400.165	100.31
400.389	83.31
400.613	78.31
400.837	89.31
401.062	70.31
401.286	86.31
401.51	96.31
401.734	81.31
401.958	92.31
402.182	100.31
402.406	111.31
402.63	86.31
402.854	80.31
403.078	88.31
403.302	85.31
403.526	81.31
403.75	97.31
403.974	79.31
404.198	64.31
404.422	72.31
404.645	73.31
404.869	77.31
405.093	91.31
405.317	112.31
405.541	98.31
405.765	108.31
405.988	85.31
406.212	139.31
406.436	173.31
406.66	114.31
406.883	94.31
407.107	102.31
407.331	92.31
407.555	90.31
407.778	92.31
408.002	93.31
408.226	70.31
408.449	79.31
408.673	87.31
408.896	96.31
409.12	96.31
409.344	88.31
409.567	97.31
409.791	83.31
410.014	76.31
410.238	70.31
410.461	89.31
410.685	86.31
410.908	80.31
411.132	113.31
411.355	103.31
411.578	87.31
411.802	93.31
412.025	92.31
412.249	86.31
412.472	92.31
412.695	103.31
412.919	80.31
413.142	86.31
413.365	89.31
413.589	90.31
413.812	92.31
414.035	88.31
414.258	89.31
414.482	91.31
414.705	81.31
414.928	85.31
415.151	97.31
415.374	101.31
415.597	70.31
415.821	76.31
416.044	87.31
416.267	92.31
416.49	96.31
416.713	91.31
416.936	91.31
417.159	82.31
417.382	89.31
417.605	104.31
417.828	92.31
418.051	95.31
418.274	108.31
418.497	86.31
418.72	91.31
418.943	88.31
419.166	83.31
419.389	98.31
419.611	75.31
419.834	87.31
420.057	87.31
420.28	93.31
420.503	76.31
420.726	81.31
420.948	80.31
421.171	83.31
421.394	84.31
421.617	74.31
421.839	84.31
422.062	74.31
422.285	91.31
422.507	98.31
422.73	126.31
422.953	115.31
423.175	92.31
423.398	95.31
423.621	99.31
423.843	79.31
424.066	81.31
424.288	86.31
424.511	76.31
424.733	80.31
424.956	94.31
425.178	84.31
425.401	85.31
425.623	94.31
425.846	88.31
426.068	95.31
426.291	77.31
426.513	96.31
426.735	98.31
426.958	94.31
427.18	97.31
427.402	105.31
427.625	150.31
427.847	124.31
428.069	127.31
428.292	99.31
428.514	86.31
428.736	94.31
428.958	80.31
429.181	95.31
429.403	71.31
429.625	71.31
429.847	89.31
430.069	98.31
430.292	84.31
430.514	90.31
430.736	88.31
430.958	93.31
431.18	82.31
431.402	88.31
431.624	70.31
431.846	91.31
432.068	86.31
432.29	87.31
432.512	87.31
432.734	82.31
432.956	104.31
433.178	93.31
433.4	93.31
433.622	96.31
433.844	91.31
434.066	94.31
434.287	84.31
434.509	88.31
434.731	106.31
434.953	83.31
435.175	82.31
435.397	82.31
435.618	76.31
435.84	89.31
436.062	100.31
436.284	105.31
436.505	102.31
436.727	87.31
436.949	87.31
437.17	65.31
437.392	87.31
437.614	82.31
437.835	92.31
438.057	95.31
438.278	99.31
438.5	101.31
438.721	109.31
438.943	83.31
439.165	79.31
439.386	87.31
439.608	98.31
439.829	95.31
440.05	98.31
440.272	122.31
440.493	92.31
440.715	87.31
440.936	88.31
441.158	71.31
441.379	74.31
441.6	83.31
441.822	82.31
442.043	84.31
442.264	96.31
442.486	92.31
442.707	75.31
442.928	100.31
443.149	98.31
443.371	91.31
443.592	94.31
443.813	98.31
444.034	97.31
444.255	92.31
444.476	79.31
444.698	86.31
444.919	71.31
445.14	129.31
445.361	102.31
445.582	108.31
445.803	114.31
446.024	118.31
446.245	128.31
446.466	114.31
446.687	89.31
446.908	84.31
447.129	80.31
447.35	85.31
447.571	88.31
447.792	81.31
448.013	104.31
448.234	98.31
448.455	97.31
448.675	103.31
448.896	122.31
449.117	88.31
449.338	99.31
449.559	123.31
449.779	98.31
450	86.31
450.221	84.31
450.442	88.31
450.662	86.31
450.883	94.31
451.104	90.31
451.324	86.31
451.545	79.31
451.766	83.31
451.986	70.31
452.207	79.31
452.428	88.31
452.648	74.31
452.869	104.31
453.089	103.31
453.31	95.31
453.53	81.31
453.751	79.31
453.971	84.31
454.192	95.31
454.412	77.31
454.633	74.31
454.853	82.31
455.073	82.31
455.294	86.31
455.514	89.31
455.734	90.31
455.955	83.31
456.175	94.31
456.395	74.31
456.616	74.31
456.836	75.31
457.056	78.31
457.276	73.31
457.497	72.31
457.717	78.31
457.937	76.31
458.157	78.31
458.377	82.31
458.598	103.31
458.818	115.31
459.038	125.31
459.258	96.31
459.478	64.31
459.698	84.31
459.918	88.31
460.138	75.31
460.358	84.31
460.578	73.31
460.798	78.31
461.018	82.31
461.238	72.31
461.458	78.31
461.678	88.31
461.898	77.31
462.118	84.31
462.338	81.31
462.558	82.31
462.777	78.31
462.997	83.31
463.217	74.31
463.437	88.31
463.657	94.31
463.876	87.31
464.096	82.31
464.316	86.31
464.536	72.31
464.755	92.31
464.975	98.31
465.195	138.31
465.414	124.31
465.634	88.31
465.854	90.31
466.073	82.31
466.293	101.31
466.512	84.31
466.732	86.31
466.951	75.31
467.171	85.31
467.391	87.31
467.61	94.31
467.829	104.31
468.049	145.31
468.268	168.31
468.488	98.31
468.707	87.31
468.927	90.31
469.146	76.31
469.365	82.31
469.585	89.31
469.804	94.31
470.023	87.31
470.243	83.31
470.462	83.31
470.681	98.31
470.901	82.31
471.12	95.31
471.339	68.31
471.558	88.31
471.777	90.31
471.997	118.31
472.216	233.31
472.435	408.31
472.654	140.31
472.873	96.31
473.092	96.31
473.311	85.31
473.53	80.31
473.749	83.31
473.968	78.31
474.187	73.31
474.406	85.31
474.625	91.31
474.844	88.31
475.063	98.31
475.282	92.31
475.501	88.31
475.72	77.31
475.939	70.31
476.158	86.31
476.377	94.31
476.596	76.31
476.814	85.31
477.033	82.31
477.252	96.31
477.471	85.31
477.69	86.31
477.908	94.31
478.127	90.31
478.346	78.31
478.564	79.31
478.783	96.31
479.002	102.31
479.22	80.31
479.439	99.31
479.658	95.31
479.876	93.31
480.095	93.31
480.313	90.31
480.532	92.31
480.751	109.31
480.969	246.31
481.188	707.31
481.406	424.31
481.624	123.31
481.843	84.31
482.061	80.31
482.28	96.31
482.498	93.31
482.717	97.31
482.935	78.31
483.153	73.31
483.372	76.31
483.59	74.31
483.808	81.31
484.027	89.31
484.245	95.31
484.463	82.31
484.681	86.31
484.9	89.31
485.118	77.31
485.336	88.31
485.554	91.31
485.772	95.31
485.99	92.31
486.209	108.31
486.427	106.31
486.645	98.31
486.863	107.31
487.081	94.31
487.299	82.31
487.517	100.31
487.735	84.31
487.953	91.31
488.171	99.31
488.389	86.31
488.607	90.31
488.825	81.31
489.043	78.31
489.261	89.31
489.479	104.31
489.696	96.31
489.914	84.31
490.132	67.31
490.35	77.31
490.568	83.31
490.786	88.31
491.003	83.31
491.221	79.31
491.439	87.31
491.657	73.31
491.874	86.31
492.092	87.31
492.31	96.31
492.527	75.31
492.745	90.31
492.963	89.31
493.18	80.31
493.398	88.31
493.615	83.31
493.833	81.31
494.05	107.31
494.268	98.31
494.485	81.31
494.703	87.31
494.92	71.31
495.138	83.31
495.355	85.31
495.573	83.31
495.79	97.31
496.008	104.31
496.225	87.31
496.442	89.31
496.66	78.31
496.877	93.31
497.094	82.31
497.312	94.31
497.529	88.31
497.746	68.31
497.963	86.31
498.181	90.31
498.398	89.31
498.615	87.31
498.832	86.31
499.049	88.31
499.267	87.31
499.484	89.31
499.701	83.31
499.918	91.31
500.135	100.31
500.352	72.31
500.569	92.31
500.786	87.31
501.003	86.31
501.22	75.31
501.437	99.31
501.654	88.31
501.871	102.31
502.088	92.31
502.305	97.31
502.522	95.31
502.739	98.31
502.956	81.31
503.172	86.31
503.389	96.31
503.606	82.31
503.823	88.31
504.04	89.31
504.256	87.31
504.473	79.31
504.69	77.31
504.907	78.31
505.123	78.31
505.34	83.31
505.557	82.31
505.773	92.31
505.99	85.31
506.207	84.31
506.423	105.31
506.64	89.31
506.856	92.31
507.073	85.31
507.289	79.31
507.506	97.31
507.722	101.31
507.939	95.31
508.155	94.31
508.372	96.31
508.588	95.31
508.805	99.31
509.021	92.31
509.238	83.31
509.454	93.31
509.67	75.31
509.887	102.31
510.103	119.31
510.319	171.31
510.536	562.31
510.752	1737.31
510.968	488.31
511.184	127.31
511.401	91.31
511.617	93.31
511.833	81.31
512.049	78.31
512.265	96.31
512.481	88.31
512.698	76.31
512.914	82.31
513.13	96.31
513.346	79.31
513.562	85.31
513.778	91.31
513.994	94.31
514.21	93.31
514.426	104.31
514.642	118.31
514.858	106.31
515.074	138.31
515.29	344.31
515.506	1019.31
515.721	395.31
515.937	127.31
516.153	100.31
516.369	95.31
516.585	97.31
516.801	105.31
517.016	94.31
