Data from Circ_1991_H10_HRD10591_00074.txt Node
Date: Wed Jan 03 11:51:56 EST 2024
User: Yrep
Spectrometer: HR+D1059
Trigger mode: 1
Integration Time (sec): 1.000000E-1
Scans to average: 1
Electric dark correction enabled: true
Nonlinearity correction enabled: false
Boxcar width: 0
XAxis mode: Wavelengths
Number of Pixels in Spectrum: 2048
>>>>>Begin Spectral Data<<<<<
223.165	-20.75
223.4	-20.75
223.635	-20.75
223.869	-16.75
224.104	-19.75
224.338	-23.75
224.573	-15.75
224.808	-8.75
225.042	-1.75
225.277	0.25
225.511	-4.75
225.746	12.25
225.98	-3.75
226.215	13.25
226.449	23.25
226.683	25.25
226.918	20.25
227.152	21.25
227.387	44.25
227.621	28.25
227.856	33.25
228.09	37.25
228.324	56.25
228.559	67.25
228.793	71.25
229.027	60.25
229.262	62.25
229.496	64.25
229.73	87.25
229.964	84.25
230.199	59.25
230.433	77.25
230.667	70.25
230.901	84.25
231.136	80.25
231.37	76.25
231.604	88.25
231.838	76.25
232.072	75.25
232.306	78.25
232.541	85.25
232.775	81.25
233.009	82.25
233.243	82.25
233.477	72.25
233.711	75.25
233.945	91.25
234.179	74.25
234.413	76.25
234.647	90.25
234.881	84.25
235.115	76.25
235.349	71.25
235.583	63.25
235.817	61.25
236.051	75.25
236.285	75.25
236.519	79.25
236.753	82.25
236.987	68.25
237.221	95.25
237.455	72.25
237.689	94.25
237.922	67.25
238.156	75.25
238.39	85.25
238.624	66.25
238.858	65.25
239.091	66.25
239.325	59.25
239.559	76.25
239.793	83.25
240.027	87.25
240.26	85.25
240.494	80.25
240.728	75.25
240.961	88.25
241.195	91.25
241.429	81.25
241.662	73.25
241.896	71.25
242.13	76.25
242.363	69.25
242.597	75.25
242.83	88.25
243.064	73.25
243.298	81.25
243.531	89.25
243.765	75.25
243.998	70.25
244.232	90.25
244.465	71.25
244.699	75.25
244.932	78.25
245.166	60.25
245.399	63.25
245.633	75.25
245.866	59.25
246.099	76.25
246.333	72.25
246.566	85.25
246.8	72.25
247.033	74.25
247.266	69.25
247.5	81.25
247.733	76.25
247.966	72.25
248.2	75.25
248.433	84.25
248.666	86.25
248.899	68.25
249.133	85.25
249.366	109.25
249.599	88.25
249.832	89.25
250.066	66.25
250.299	67.25
250.532	68.25
250.765	78.25
250.998	88.25
251.231	85.25
251.465	82.25
251.698	88.25
251.931	79.25
252.164	81.25
252.397	70.25
252.63	82.25
252.863	71.25
253.096	70.25
253.329	75.25
253.562	75.25
253.795	93.25
254.028	74.25
254.261	83.25
254.494	80.25
254.727	83.25
254.96	87.25
255.193	76.25
255.426	71.25
255.659	93.25
255.892	73.25
256.124	77.25
256.357	89.25
256.59	70.25
256.823	80.25
257.056	89.25
257.289	81.25
257.521	80.25
257.754	68.25
257.987	75.25
258.22	76.25
258.452	76.25
258.685	80.25
258.918	81.25
259.151	67.25
259.383	82.25
259.616	80.25
259.849	89.25
260.081	87.25
260.314	83.25
260.547	82.25
260.779	74.25
261.012	104.25
261.244	96.25
261.477	86.25
261.71	92.25
261.942	115.25
262.175	98.25
262.407	72.25
262.64	68.25
262.872	80.25
263.105	80.25
263.337	81.25
263.57	59.25
263.802	77.25
264.035	74.25
264.267	80.25
264.499	64.25
264.732	88.25
264.964	83.25
265.197	91.25
265.429	79.25
265.661	76.25
265.894	74.25
266.126	82.25
266.358	76.25
266.591	85.25
266.823	69.25
267.055	81.25
267.287	79.25
267.52	58.25
267.752	93.25
267.984	84.25
268.216	78.25
268.448	73.25
268.681	84.25
268.913	78.25
269.145	85.25
269.377	86.25
269.609	63.25
269.841	82.25
270.073	81.25
270.306	78.25
270.538	90.25
270.77	77.25
271.002	81.25
271.234	92.25
271.466	85.25
271.698	100.25
271.93	86.25
272.162	85.25
272.394	87.25
272.626	79.25
272.858	95.25
273.09	77.25
273.322	95.25
273.553	69.25
273.785	72.25
274.017	79.25
274.249	92.25
274.481	59.25
274.713	73.25
274.945	86.25
275.176	79.25
275.408	86.25
275.64	89.25
275.872	85.25
276.104	89.25
276.335	90.25
276.567	91.25
276.799	114.25
277.031	102.25
277.262	131.25
277.494	91.25
277.726	82.25
277.957	91.25
278.189	97.25
278.421	72.25
278.652	83.25
278.884	83.25
279.115	97.25
279.347	73.25
279.579	85.25
279.81	93.25
280.042	106.25
280.273	128.25
280.505	105.25
280.736	82.25
280.968	95.25
281.199	87.25
281.431	80.25
281.662	92.25
281.894	93.25
282.125	79.25
282.356	106.25
282.588	130.25
282.819	111.25
283.051	89.25
283.282	82.25
283.513	88.25
283.745	103.25
283.976	78.25
284.207	90.25
284.439	101.25
284.67	89.25
284.901	78.25
285.132	77.25
285.364	86.25
285.595	88.25
285.826	87.25
286.057	77.25
286.288	92.25
286.52	85.25
286.751	79.25
286.982	74.25
287.213	73.25
287.444	76.25
287.675	84.25
287.906	83.25
288.138	82.25
288.369	92.25
288.6	77.25
288.831	77.25
289.062	82.25
289.293	81.25
289.524	90.25
289.755	81.25
289.986	87.25
290.217	91.25
290.448	91.25
290.679	89.25
290.91	83.25
291.141	90.25
291.371	76.25
291.602	88.25
291.833	94.25
292.064	81.25
292.295	86.25
292.526	75.25
292.757	65.25
292.987	76.25
293.218	85.25
293.449	80.25
293.68	84.25
293.91	88.25
294.141	77.25
294.372	82.25
294.603	91.25
294.833	97.25
295.064	83.25
295.295	88.25
295.525	95.25
295.756	110.25
295.987	98.25
296.217	111.25
296.448	106.25
296.679	96.25
296.909	76.25
297.14	89.25
297.37	78.25
297.601	89.25
297.831	90.25
298.062	92.25
298.292	85.25
298.523	80.25
298.753	94.25
298.984	87.25
299.214	95.25
299.445	91.25
299.675	89.25
299.905	94.25
300.136	80.25
300.366	78.25
300.597	86.25
300.827	88.25
301.057	104.25
301.288	100.25
301.518	93.25
301.748	95.25
301.979	86.25
302.209	88.25
302.439	98.25
302.669	83.25
302.9	91.25
303.13	75.25
303.36	96.25
303.59	91.25
303.82	107.25
304.051	85.25
304.281	99.25
304.511	79.25
304.741	83.25
304.971	84.25
305.201	95.25
305.431	91.25
305.661	85.25
305.891	83.25
306.121	91.25
306.352	101.25
306.582	96.25
306.812	89.25
307.042	98.25
307.272	110.25
307.502	119.25
307.731	120.25
307.961	93.25
308.191	78.25
308.421	90.25
308.651	94.25
308.881	91.25
309.111	90.25
309.341	87.25
309.571	106.25
309.8	91.25
310.03	96.25
310.26	94.25
310.49	104.25
310.72	89.25
310.949	102.25
311.179	106.25
311.409	95.25
311.639	88.25
311.868	98.25
312.098	100.25
312.328	84.25
312.557	102.25
312.787	95.25
313.017	95.25
313.246	84.25
313.476	92.25
313.706	84.25
313.935	88.25
314.165	98.25
314.394	100.25
314.624	100.25
314.853	101.25
315.083	84.25
315.312	82.25
315.542	81.25
315.771	88.25
316.001	98.25
316.23	88.25
316.46	90.25
316.689	83.25
316.919	79.25
317.148	80.25
317.377	106.25
317.607	89.25
317.836	87.25
318.065	96.25
318.295	82.25
318.524	86.25
318.753	107.25
318.983	104.25
319.212	87.25
319.441	106.25
319.67	115.25
319.9	90.25
320.129	93.25
320.358	87.25
320.587	95.25
320.816	86.25
321.046	89.25
321.275	97.25
321.504	94.25
321.733	77.25
321.962	95.25
322.191	96.25
322.42	102.25
322.649	96.25
322.878	106.25
323.108	105.25
323.337	131.25
323.566	121.25
323.795	137.25
324.024	215.25
324.253	378.25
324.482	845.25
324.71	1765.25
324.939	2362.25
325.168	845.25
325.397	239.25
325.626	131.25
325.855	126.25
326.084	127.25
326.313	123.25
326.542	159.25
326.77	225.25
326.999	453.25
327.228	969.25
327.457	1837.25
327.686	1423.25
327.914	418.25
328.143	281.25
328.372	281.25
328.6	187.25
328.829	127.25
329.058	135.25
329.287	125.25
329.515	112.25
329.744	133.25
329.972	215.25
330.201	367.25
330.43	496.25
330.658	268.25
330.887	167.25
331.115	119.25
331.344	101.25
331.572	84.25
331.801	110.25
332.03	113.25
332.258	93.25
332.486	100.25
332.715	111.25
332.943	97.25
333.172	103.25
333.4	102.25
333.629	119.25
333.857	132.25
334.085	192.25
334.314	363.25
334.542	643.25
334.771	602.25
334.999	204.25
335.227	129.25
335.455	86.25
335.684	94.25
335.912	90.25
336.14	109.25
336.369	100.25
336.597	97.25
336.825	92.25
337.053	99.25
337.281	74.25
337.51	84.25
337.738	93.25
337.966	92.25
338.194	94.25
338.422	88.25
338.65	94.25
338.878	104.25
339.106	92.25
339.334	85.25
339.562	87.25
339.79	91.25
340.018	89.25
340.246	95.25
340.474	93.25
340.702	92.25
340.93	101.25
341.158	91.25
341.386	93.25
341.614	99.25
341.842	96.25
342.07	104.25
342.298	91.25
342.526	81.25
342.754	88.25
342.981	87.25
343.209	83.25
343.437	99.25
343.665	91.25
343.893	91.25
344.12	91.25
344.348	85.25
344.576	99.25
344.804	97.25
345.031	97.25
345.259	89.25
345.487	79.25
345.714	79.25
345.942	91.25
346.17	79.25
346.397	73.25
346.625	87.25
346.853	89.25
347.08	89.25
347.308	83.25
347.535	77.25
347.763	98.25
347.99	94.25
348.218	84.25
348.445	100.25
348.673	101.25
348.9	98.25
349.128	77.25
349.355	104.25
349.583	103.25
349.81	88.25
350.037	75.25
350.265	81.25
350.492	94.25
350.72	86.25
350.947	90.25
351.174	104.25
351.402	100.25
351.629	115.25
351.856	105.25
352.083	91.25
352.311	93.25
352.538	78.25
352.765	111.25
352.992	116.25
353.22	109.25
353.447	96.25
353.674	87.25
353.901	81.25
354.128	107.25
354.355	107.25
354.583	101.25
354.81	94.25
355.037	84.25
355.264	90.25
355.491	92.25
355.718	84.25
355.945	88.25
356.172	88.25
356.399	82.25
356.626	89.25
356.853	78.25
357.08	96.25
357.307	84.25
357.534	76.25
357.761	96.25
357.988	91.25
358.215	83.25
358.441	84.25
358.668	95.25
358.895	88.25
359.122	94.25
359.349	91.25
359.576	90.25
359.802	86.25
360.029	110.25
360.256	99.25
360.483	98.25
360.709	93.25
360.936	100.25
361.163	100.25
361.39	86.25
361.616	72.25
361.843	72.25
362.07	90.25
362.296	89.25
362.523	94.25
362.749	78.25
362.976	91.25
363.203	84.25
363.429	82.25
363.656	83.25
363.882	93.25
364.109	97.25
364.335	95.25
364.562	87.25
364.788	91.25
365.015	95.25
365.241	88.25
365.468	112.25
365.694	87.25
365.92	98.25
366.147	92.25
366.373	85.25
366.599	84.25
366.826	97.25
367.052	76.25
367.278	80.25
367.505	85.25
367.731	85.25
367.957	81.25
368.184	86.25
368.41	97.25
368.636	116.25
368.862	117.25
369.089	89.25
369.315	87.25
369.541	66.25
369.767	77.25
369.993	87.25
370.219	88.25
370.445	74.25
370.672	79.25
370.898	76.25
371.124	91.25
371.35	81.25
371.576	84.25
371.802	96.25
372.028	88.25
372.254	80.25
372.48	89.25
372.706	80.25
372.932	92.25
373.158	106.25
373.384	77.25
373.61	86.25
373.835	83.25
374.061	83.25
374.287	97.25
374.513	84.25
374.739	101.25
374.965	80.25
375.191	89.25
375.416	90.25
375.642	89.25
375.868	83.25
376.094	83.25
376.319	81.25
376.545	80.25
376.771	74.25
376.997	86.25
377.222	79.25
377.448	88.25
377.674	89.25
377.899	76.25
378.125	90.25
378.35	96.25
378.576	82.25
378.802	80.25
379.027	79.25
379.253	80.25
379.478	91.25
379.704	77.25
379.929	78.25
380.155	96.25
380.38	85.25
380.606	79.25
380.831	81.25
381.057	99.25
381.282	95.25
381.507	85.25
381.733	76.25
381.958	103.25
382.184	83.25
382.409	96.25
382.634	95.25
382.86	90.25
383.085	89.25
383.31	92.25
383.535	93.25
383.761	90.25
383.986	95.25
384.211	94.25
384.436	104.25
384.662	105.25
384.887	103.25
385.112	84.25
385.337	95.25
385.562	103.25
385.787	104.25
386.013	103.25
386.238	105.25
386.463	97.25
386.688	101.25
386.913	102.25
387.138	95.25
387.363	87.25
387.588	92.25
387.813	111.25
388.038	97.25
388.263	114.25
388.488	101.25
388.713	97.25
388.938	98.25
389.163	102.25
389.387	95.25
389.612	89.25
389.837	100.25
390.062	98.25
390.287	93.25
390.512	89.25
390.736	94.25
390.961	90.25
391.186	92.25
391.411	84.25
391.636	92.25
391.86	92.25
392.085	77.25
392.31	96.25
392.534	77.25
392.759	81.25
392.984	85.25
393.208	87.25
393.433	104.25
393.658	99.25
393.882	83.25
394.107	88.25
394.331	83.25
394.556	83.25
394.78	97.25
395.005	82.25
395.229	80.25
395.454	88.25
395.678	87.25
395.903	91.25
396.127	81.25
396.352	77.25
396.576	89.25
396.801	93.25
397.025	99.25
397.249	83.25
397.474	77.25
397.698	88.25
397.922	83.25
398.147	87.25
398.371	85.25
398.595	83.25
398.82	82.25
399.044	80.25
399.268	88.25
399.492	71.25
399.717	83.25
399.941	89.25
400.165	83.25
400.389	78.25
400.613	96.25
400.837	86.25
401.062	67.25
401.286	83.25
401.51	95.25
401.734	86.25
401.958	96.25
402.182	117.25
402.406	145.25
402.63	117.25
402.854	83.25
403.078	75.25
403.302	82.25
403.526	88.25
403.75	83.25
403.974	83.25
404.198	86.25
404.422	78.25
404.645	88.25
404.869	104.25
405.093	82.25
405.317	100.25
405.541	107.25
405.765	105.25
405.988	93.25
406.212	167.25
406.436	211.25
406.66	122.25
406.883	98.25
407.107	101.25
407.331	93.25
407.555	94.25
407.778	88.25
408.002	92.25
408.226	84.25
408.449	77.25
408.673	81.25
408.896	86.25
409.12	91.25
409.344	93.25
409.567	90.25
409.791	92.25
410.014	93.25
410.238	94.25
410.461	93.25
410.685	89.25
410.908	84.25
411.132	100.25
411.355	93.25
411.578	92.25
411.802	86.25
412.025	85.25
412.249	95.25
412.472	95.25
412.695	98.25
412.919	95.25
413.142	78.25
413.365	77.25
413.589	73.25
413.812	92.25
414.035	106.25
414.258	89.25
414.482	83.25
414.705	84.25
414.928	85.25
415.151	87.25
415.374	109.25
415.597	85.25
415.821	85.25
416.044	83.25
416.267	88.25
416.49	96.25
416.713	94.25
416.936	91.25
417.159	77.25
417.382	75.25
417.605	81.25
417.828	92.25
418.051	82.25
418.274	73.25
418.497	95.25
418.72	73.25
418.943	87.25
419.166	86.25
419.389	90.25
419.611	89.25
419.834	100.25
420.057	97.25
420.28	79.25
420.503	82.25
420.726	84.25
420.948	86.25
421.171	75.25
421.394	84.25
421.617	76.25
421.839	96.25
422.062	80.25
422.285	92.25
422.507	96.25
422.73	94.25
422.953	96.25
423.175	89.25
423.398	90.25
423.621	81.25
423.843	90.25
424.066	83.25
424.288	82.25
424.511	88.25
424.733	80.25
424.956	85.25
425.178	110.25
425.401	95.25
425.623	85.25
425.846	78.25
426.068	81.25
426.291	88.25
426.513	81.25
426.735	92.25
426.958	96.25
427.18	91.25
427.402	136.25
427.625	177.25
427.847	138.25
428.069	147.25
428.292	91.25
428.514	85.25
428.736	82.25
428.958	71.25
429.181	91.25
429.403	98.25
429.625	88.25
429.847	85.25
430.069	83.25
430.292	82.25
430.514	86.25
430.736	81.25
430.958	77.25
431.18	85.25
431.402	92.25
431.624	81.25
431.846	78.25
432.068	85.25
432.29	87.25
432.512	84.25
432.734	88.25
432.956	86.25
433.178	87.25
433.4	94.25
433.622	86.25
433.844	85.25
434.066	83.25
434.287	90.25
434.509	91.25
434.731	107.25
434.953	85.25
435.175	80.25
435.397	95.25
435.618	88.25
435.84	93.25
436.062	111.25
436.284	102.25
436.505	80.25
436.727	109.25
436.949	76.25
437.17	84.25
437.392	74.25
437.614	96.25
437.835	93.25
438.057	116.25
438.278	118.25
438.5	111.25
438.721	108.25
438.943	97.25
439.165	78.25
439.386	88.25
439.608	81.25
439.829	82.25
440.05	114.25
440.272	130.25
440.493	107.25
440.715	72.25
440.936	88.25
441.158	79.25
441.379	84.25
441.6	81.25
441.822	87.25
442.043	88.25
442.264	107.25
442.486	107.25
442.707	92.25
442.928	113.25
443.149	116.25
443.371	134.25
443.592	109.25
443.813	113.25
444.034	98.25
444.255	84.25
444.476	100.25
444.698	80.25
444.919	97.25
445.14	118.25
445.361	123.25
445.582	115.25
445.803	142.25
446.024	139.25
446.245	126.25
446.466	116.25
446.687	89.25
446.908	87.25
447.129	85.25
447.35	75.25
447.571	92.25
447.792	87.25
448.013	83.25
448.234	107.25
448.455	105.25
448.675	109.25
448.896	115.25
449.117	84.25
449.338	105.25
449.559	128.25
449.779	122.25
450	98.25
450.221	80.25
450.442	81.25
450.662	87.25
450.883	99.25
451.104	101.25
451.324	80.25
451.545	92.25
451.766	75.25
451.986	79.25
452.207	94.25
452.428	80.25
452.648	89.25
452.869	98.25
453.089	109.25
453.31	110.25
453.53	88.25
453.751	97.25
453.971	98.25
454.192	111.25
454.412	98.25
454.633	77.25
454.853	80.25
455.073	81.25
455.294	93.25
455.514	104.25
455.734	93.25
455.955	65.25
456.175	79.25
456.395	78.25
456.616	90.25
456.836	86.25
457.056	98.25
457.276	82.25
457.497	88.25
457.717	61.25
457.937	80.25
458.157	73.25
458.377	96.25
458.598	98.25
458.818	132.25
459.038	142.25
459.258	102.25
459.478	99.25
459.698	73.25
459.918	73.25
460.138	89.25
460.358	87.25
460.578	87.25
460.798	82.25
461.018	86.25
461.238	77.25
461.458	77.25
461.678	72.25
461.898	80.25
462.118	83.25
462.338	83.25
462.558	92.25
462.777	92.25
462.997	90.25
463.217	91.25
463.437	83.25
463.657	84.25
463.876	82.25
464.096	79.25
464.316	85.25
464.536	93.25
464.755	93.25
464.975	106.25
465.195	138.25
465.414	161.25
465.634	92.25
465.854	89.25
466.073	81.25
466.293	76.25
466.512	75.25
466.732	73.25
466.951	81.25
467.171	99.25
467.391	100.25
467.61	100.25
467.829	121.25
468.049	253.25
468.268	324.25
468.488	128.25
468.707	90.25
468.927	85.25
469.146	82.25
469.365	80.25
469.585	89.25
469.804	83.25
470.023	97.25
470.243	109.25
470.462	108.25
470.681	116.25
470.901	92.25
471.12	89.25
471.339	87.25
471.558	107.25
471.777	113.25
471.997	149.25
472.216	461.25
472.435	894.25
472.654	248.25
472.873	104.25
473.092	88.25
473.311	94.25
473.53	92.25
473.749	81.25
473.968	104.25
474.187	109.25
474.406	100.25
474.625	57.25
474.844	89.25
475.063	77.25
475.282	89.25
475.501	88.25
475.72	92.25
475.939	93.25
476.158	69.25
476.377	87.25
476.596	67.25
476.814	84.25
477.033	91.25
477.252	76.25
477.471	91.25
477.69	83.25
477.908	92.25
478.127	102.25
478.346	79.25
478.564	97.25
478.783	89.25
479.002	93.25
479.22	97.25
479.439	92.25
479.658	99.25
479.876	102.25
480.095	88.25
480.313	101.25
480.532	107.25
480.751	155.25
480.969	444.25
481.188	1625.25
481.406	934.25
481.624	185.25
481.843	111.25
482.061	98.25
482.28	85.25
482.498	85.25
482.717	82.25
482.935	87.25
483.153	86.25
483.372	89.25
483.59	96.25
483.808	85.25
484.027	81.25
484.245	90.25
484.463	96.25
484.681	95.25
484.9	79.25
485.118	77.25
485.336	81.25
485.554	96.25
485.772	90.25
485.99	99.25
486.209	93.25
486.427	92.25
486.645	114.25
486.863	107.25
487.081	97.25
487.299	89.25
487.517	88.25
487.735	97.25
487.953	90.25
488.171	92.25
488.389	104.25
488.607	94.25
488.825	74.25
489.043	93.25
489.261	94.25
489.479	81.25
489.696	87.25
489.914	85.25
490.132	67.25
490.35	78.25
490.568	89.25
490.786	95.25
491.003	91.25
491.221	90.25
491.439	99.25
491.657	83.25
491.874	92.25
492.092	76.25
492.31	79.25
492.527	95.25
492.745	90.25
492.963	87.25
493.18	93.25
493.398	92.25
493.615	84.25
493.833	87.25
494.05	86.25
494.268	84.25
494.485	96.25
494.703	93.25
494.92	83.25
495.138	79.25
495.355	83.25
495.573	86.25
495.79	85.25
496.008	83.25
496.225	78.25
496.442	96.25
496.66	67.25
496.877	79.25
497.094	89.25
497.312	97.25
497.529	89.25
497.746	85.25
497.963	72.25
498.181	84.25
498.398	93.25
498.615	107.25
498.832	95.25
499.049	91.25
499.267	78.25
499.484	83.25
499.701	91.25
499.918	86.25
500.135	82.25
500.352	81.25
500.569	84.25
500.786	80.25
501.003	86.25
501.22	77.25
501.437	79.25
501.654	88.25
501.871	104.25
502.088	93.25
502.305	93.25
502.522	96.25
502.739	77.25
502.956	81.25
503.172	104.25
503.389	99.25
503.606	93.25
503.823	81.25
504.04	98.25
504.256	81.25
504.473	76.25
504.69	94.25
504.907	77.25
505.123	83.25
505.34	90.25
505.557	82.25
505.773	79.25
505.99	84.25
506.207	89.25
506.423	84.25
506.64	92.25
506.856	85.25
507.073	75.25
507.289	81.25
507.506	96.25
507.722	115.25
507.939	109.25
508.155	89.25
508.372	81.25
508.588	88.25
508.805	103.25
509.021	89.25
509.238	90.25
509.454	88.25
509.67	99.25
509.887	103.25
510.103	108.25
510.319	196.25
510.536	693.25
510.752	2283.25
510.968	612.25
511.184	142.25
511.401	106.25
511.617	99.25
511.833	99.25
512.049	87.25
512.265	83.25
512.481	88.25
512.698	98.25
512.914	84.25
513.13	89.25
513.346	91.25
513.562	102.25
513.778	98.25
513.994	109.25
514.21	106.25
514.426	124.25
514.642	128.25
514.858	112.25
515.074	151.25
515.29	423.25
515.506	1409.25
515.721	510.25
515.937	146.25
516.153	117.25
516.369	81.25
