Data from Circ_1991_H10_HRD10591_00064.txt Node
Date: Wed Jan 03 11:51:54 EST 2024
User: Yrep
Spectrometer: HR+D1059
Trigger mode: 1
Integration Time (sec): 1.000000E-1
Scans to average: 1
Electric dark correction enabled: true
Nonlinearity correction enabled: false
Boxcar width: 0
XAxis mode: Wavelengths
Number of Pixels in Spectrum: 2048
>>>>>Begin Spectral Data<<<<<
223.165	-16.5
223.4	-16.5
223.635	-16.5
223.869	-13.5
224.104	-34.5
224.338	-10.5
224.573	-15.5
224.808	-22.5
225.042	-19.5
225.277	3.5
225.511	-7.5
225.746	2.5
225.98	3.5
226.215	14.5
226.449	21.5
226.683	12.5
226.918	27.5
227.152	54.5
227.387	45.5
227.621	41.5
227.856	47.5
228.09	53.5
228.324	52.5
228.559	50.5
228.793	52.5
229.027	75.5
229.262	66.5
229.496	66.5
229.73	91.5
229.964	84.5
230.199	79.5
230.433	67.5
230.667	93.5
230.901	92.5
231.136	71.5
231.37	88.5
231.604	83.5
231.838	79.5
232.072	72.5
232.306	91.5
232.541	73.5
232.775	67.5
233.009	71.5
233.243	85.5
233.477	87.5
233.711	82.5
233.945	79.5
234.179	90.5
234.413	73.5
234.647	78.5
234.881	81.5
235.115	87.5
235.349	86.5
235.583	89.5
235.817	79.5
236.051	76.5
236.285	80.5
236.519	68.5
236.753	70.5
236.987	66.5
237.221	73.5
237.455	80.5
237.689	85.5
237.922	74.5
238.156	82.5
238.39	75.5
238.624	93.5
238.858	64.5
239.091	88.5
239.325	74.5
239.559	79.5
239.793	85.5
240.027	88.5
240.26	76.5
240.494	96.5
240.728	70.5
240.961	97.5
241.195	75.5
241.429	68.5
241.662	85.5
241.896	63.5
242.13	77.5
242.363	79.5
242.597	79.5
242.83	84.5
243.064	83.5
243.298	78.5
243.531	81.5
243.765	87.5
243.998	85.5
244.232	87.5
244.465	85.5
244.699	92.5
244.932	86.5
245.166	77.5
245.399	88.5
245.633	88.5
245.866	94.5
246.099	98.5
246.333	83.5
246.566	92.5
246.8	71.5
247.033	83.5
247.266	85.5
247.5	84.5
247.733	83.5
247.966	83.5
248.2	89.5
248.433	86.5
248.666	90.5
248.899	76.5
249.133	83.5
249.366	99.5
249.599	89.5
249.832	87.5
250.066	97.5
250.299	72.5
250.532	80.5
250.765	79.5
250.998	74.5
251.231	83.5
251.465	100.5
251.698	68.5
251.931	74.5
252.164	93.5
252.397	83.5
252.63	73.5
252.863	85.5
253.096	64.5
253.329	82.5
253.562	79.5
253.795	74.5
254.028	81.5
254.261	86.5
254.494	79.5
254.727	94.5
254.96	75.5
255.193	75.5
255.426	91.5
255.659	87.5
255.892	78.5
256.124	89.5
256.357	85.5
256.59	82.5
256.823	72.5
257.056	83.5
257.289	79.5
257.521	84.5
257.754	81.5
257.987	70.5
258.22	87.5
258.452	85.5
258.685	76.5
258.918	91.5
259.151	87.5
259.383	82.5
259.616	87.5
259.849	94.5
260.081	69.5
260.314	83.5
260.547	86.5
260.779	92.5
261.012	104.5
261.244	95.5
261.477	96.5
261.71	95.5
261.942	115.5
262.175	112.5
262.407	73.5
262.64	97.5
262.872	80.5
263.105	90.5
263.337	95.5
263.57	84.5
263.802	79.5
264.035	88.5
264.267	93.5
264.499	87.5
264.732	98.5
264.964	91.5
265.197	92.5
265.429	82.5
265.661	82.5
265.894	78.5
266.126	95.5
266.358	92.5
266.591	91.5
266.823	82.5
267.055	80.5
267.287	75.5
267.52	89.5
267.752	86.5
267.984	89.5
268.216	77.5
268.448	89.5
268.681	97.5
268.913	80.5
269.145	69.5
269.377	79.5
269.609	75.5
269.841	89.5
270.073	82.5
270.306	82.5
270.538	96.5
270.77	98.5
271.002	92.5
271.234	80.5
271.466	69.5
271.698	77.5
271.93	82.5
272.162	86.5
272.394	92.5
272.626	88.5
272.858	81.5
273.09	89.5
273.322	101.5
273.553	99.5
273.785	78.5
274.017	88.5
274.249	92.5
274.481	75.5
274.713	77.5
274.945	86.5
275.176	89.5
275.408	81.5
275.64	85.5
275.872	89.5
276.104	93.5
276.335	97.5
276.567	96.5
276.799	110.5
277.031	99.5
277.262	115.5
277.494	105.5
277.726	97.5
277.957	83.5
278.189	79.5
278.421	98.5
278.652	89.5
278.884	91.5
279.115	88.5
279.347	63.5
279.579	95.5
279.81	91.5
280.042	117.5
280.273	116.5
280.505	105.5
280.736	84.5
280.968	97.5
281.199	81.5
281.431	95.5
281.662	86.5
281.894	99.5
282.125	102.5
282.356	110.5
282.588	125.5
282.819	108.5
283.051	88.5
283.282	75.5
283.513	88.5
283.745	88.5
283.976	105.5
284.207	100.5
284.439	102.5
284.67	99.5
284.901	93.5
285.132	97.5
285.364	93.5
285.595	94.5
285.826	82.5
286.057	93.5
286.288	105.5
286.52	95.5
286.751	95.5
286.982	83.5
287.213	76.5
287.444	85.5
287.675	88.5
287.906	97.5
288.138	90.5
288.369	100.5
288.6	80.5
288.831	98.5
289.062	103.5
289.293	84.5
289.524	92.5
289.755	80.5
289.986	87.5
290.217	84.5
290.448	93.5
290.679	95.5
290.91	91.5
291.141	99.5
291.371	94.5
291.602	85.5
291.833	77.5
292.064	94.5
292.295	75.5
292.526	88.5
292.757	75.5
292.987	97.5
293.218	84.5
293.449	95.5
293.68	72.5
293.91	69.5
294.141	90.5
294.372	80.5
294.603	94.5
294.833	96.5
295.064	99.5
295.295	91.5
295.525	79.5
295.756	100.5
295.987	108.5
296.217	131.5
296.448	112.5
296.679	87.5
296.909	93.5
297.14	93.5
297.37	96.5
297.601	91.5
297.831	86.5
298.062	103.5
298.292	109.5
298.523	85.5
298.753	84.5
298.984	103.5
299.214	91.5
299.445	86.5
299.675	87.5
299.905	112.5
300.136	82.5
300.366	99.5
300.597	90.5
300.827	94.5
301.057	111.5
301.288	89.5
301.518	103.5
301.748	104.5
301.979	92.5
302.209	91.5
302.439	89.5
302.669	99.5
302.9	103.5
303.13	102.5
303.36	96.5
303.59	100.5
303.82	123.5
304.051	103.5
304.281	83.5
304.511	88.5
304.741	96.5
304.971	87.5
305.201	83.5
305.431	89.5
305.661	105.5
305.891	93.5
306.121	96.5
306.352	106.5
306.582	113.5
306.812	102.5
307.042	116.5
307.272	118.5
307.502	132.5
307.731	119.5
307.961	94.5
308.191	89.5
308.421	80.5
308.651	77.5
308.881	88.5
309.111	99.5
309.341	94.5
309.571	87.5
309.8	95.5
310.03	84.5
310.26	101.5
310.49	96.5
310.72	90.5
310.949	107.5
311.179	102.5
311.409	101.5
311.639	96.5
311.868	96.5
312.098	83.5
312.328	101.5
312.557	107.5
312.787	102.5
313.017	99.5
313.246	92.5
313.476	104.5
313.706	92.5
313.935	90.5
314.165	99.5
314.394	102.5
314.624	94.5
314.853	91.5
315.083	101.5
315.312	118.5
315.542	97.5
315.771	89.5
316.001	93.5
316.23	89.5
316.46	79.5
316.689	97.5
316.919	94.5
317.148	94.5
317.377	83.5
317.607	95.5
317.836	90.5
318.065	75.5
318.295	93.5
318.524	92.5
318.753	92.5
318.983	88.5
319.212	89.5
319.441	105.5
319.67	111.5
319.9	79.5
320.129	88.5
320.358	94.5
320.587	98.5
320.816	81.5
321.046	104.5
321.275	99.5
321.504	92.5
321.733	103.5
321.962	86.5
322.191	85.5
322.42	102.5
322.649	116.5
322.878	107.5
323.108	103.5
323.337	106.5
323.566	130.5
323.795	139.5
324.024	193.5
324.253	387.5
324.482	820.5
324.71	1690.5
324.939	2256.5
325.168	838.5
325.397	260.5
325.626	155.5
325.855	131.5
326.084	112.5
326.313	127.5
326.542	158.5
326.77	210.5
326.999	459.5
327.228	901.5
327.457	1677.5
327.686	1401.5
327.914	411.5
328.143	281.5
328.372	281.5
328.6	181.5
328.829	134.5
329.058	119.5
329.287	124.5
329.515	132.5
329.744	163.5
329.972	231.5
330.201	369.5
330.43	525.5
330.658	256.5
330.887	165.5
331.115	124.5
331.344	96.5
331.572	92.5
331.801	103.5
332.03	98.5
332.258	101.5
332.486	91.5
332.715	94.5
332.943	99.5
333.172	83.5
333.4	115.5
333.629	119.5
333.857	148.5
334.085	203.5
334.314	356.5
334.542	651.5
334.771	603.5
334.999	209.5
335.227	113.5
335.455	98.5
335.684	88.5
335.912	100.5
336.14	99.5
336.369	103.5
336.597	92.5
336.825	86.5
337.053	95.5
337.281	91.5
337.51	95.5
337.738	96.5
337.966	95.5
338.194	86.5
338.422	108.5
338.65	98.5
338.878	84.5
339.106	92.5
339.334	107.5
339.562	105.5
339.79	97.5
340.018	92.5
340.246	81.5
340.474	92.5
340.702	97.5
340.93	90.5
341.158	99.5
341.386	93.5
341.614	109.5
341.842	97.5
342.07	80.5
342.298	95.5
342.526	92.5
342.754	83.5
342.981	93.5
343.209	87.5
343.437	103.5
343.665	93.5
343.893	100.5
344.12	76.5
344.348	72.5
344.576	87.5
344.804	97.5
345.031	100.5
345.259	88.5
345.487	89.5
345.714	86.5
345.942	92.5
346.17	92.5
346.397	96.5
346.625	91.5
346.853	84.5
347.08	86.5
347.308	104.5
347.535	91.5
347.763	99.5
347.99	113.5
348.218	89.5
348.445	103.5
348.673	89.5
348.9	111.5
349.128	97.5
349.355	89.5
349.583	85.5
349.81	87.5
350.037	99.5
350.265	88.5
350.492	99.5
350.72	86.5
350.947	93.5
351.174	97.5
351.402	111.5
351.629	107.5
351.856	90.5
352.083	111.5
352.311	99.5
352.538	92.5
352.765	100.5
352.992	119.5
353.22	110.5
353.447	106.5
353.674	104.5
353.901	80.5
354.128	94.5
354.355	81.5
354.583	102.5
354.81	113.5
355.037	89.5
355.264	86.5
355.491	92.5
355.718	90.5
355.945	85.5
356.172	85.5
356.399	88.5
356.626	92.5
356.853	90.5
357.08	85.5
357.307	87.5
357.534	101.5
357.761	85.5
357.988	92.5
358.215	101.5
358.441	88.5
358.668	84.5
358.895	92.5
359.122	83.5
359.349	83.5
359.576	96.5
359.802	87.5
360.029	98.5
360.256	119.5
360.483	104.5
360.709	100.5
360.936	103.5
361.163	100.5
361.39	102.5
361.616	82.5
361.843	87.5
362.07	87.5
362.296	101.5
362.523	95.5
362.749	93.5
362.976	80.5
363.203	83.5
363.429	86.5
363.656	81.5
363.882	88.5
364.109	99.5
364.335	93.5
364.562	97.5
364.788	94.5
365.015	86.5
365.241	113.5
365.468	106.5
365.694	111.5
365.92	99.5
366.147	85.5
366.373	84.5
366.599	96.5
366.826	97.5
367.052	93.5
367.278	84.5
367.505	89.5
367.731	96.5
367.957	93.5
368.184	82.5
368.41	93.5
368.636	99.5
368.862	118.5
369.089	104.5
369.315	94.5
369.541	96.5
369.767	82.5
369.993	95.5
370.219	98.5
370.445	86.5
370.672	82.5
370.898	98.5
371.124	106.5
371.35	82.5
371.576	89.5
371.802	93.5
372.028	90.5
372.254	78.5
372.48	88.5
372.706	89.5
372.932	86.5
373.158	90.5
373.384	81.5
373.61	81.5
373.835	97.5
374.061	103.5
374.287	96.5
374.513	92.5
374.739	103.5
374.965	100.5
375.191	86.5
375.416	89.5
375.642	83.5
375.868	84.5
376.094	80.5
376.319	89.5
376.545	81.5
376.771	94.5
376.997	92.5
377.222	86.5
377.448	91.5
377.674	79.5
377.899	92.5
378.125	110.5
378.35	96.5
378.576	90.5
378.802	93.5
379.027	92.5
379.253	113.5
379.478	102.5
379.704	84.5
379.929	87.5
380.155	93.5
380.38	92.5
380.606	96.5
380.831	97.5
381.057	106.5
381.282	82.5
381.507	97.5
381.733	112.5
381.958	100.5
382.184	89.5
382.409	97.5
382.634	103.5
382.86	103.5
383.085	100.5
383.31	110.5
383.535	93.5
383.761	108.5
383.986	76.5
384.211	84.5
384.436	106.5
384.662	88.5
384.887	105.5
385.112	108.5
385.337	103.5
385.562	115.5
385.787	109.5
386.013	100.5
386.238	104.5
386.463	103.5
386.688	118.5
386.913	95.5
387.138	96.5
387.363	100.5
387.588	93.5
387.813	99.5
388.038	104.5
388.263	118.5
388.488	104.5
388.713	108.5
388.938	84.5
389.163	86.5
389.387	83.5
389.612	97.5
389.837	103.5
390.062	97.5
390.287	86.5
390.512	85.5
390.736	88.5
390.961	84.5
391.186	95.5
391.411	91.5
391.636	87.5
391.86	89.5
392.085	92.5
392.31	76.5
392.534	79.5
392.759	89.5
392.984	94.5
393.208	110.5
393.433	120.5
393.658	85.5
393.882	80.5
394.107	91.5
394.331	81.5
394.556	85.5
394.78	84.5
395.005	75.5
395.229	70.5
395.454	89.5
395.678	95.5
395.903	92.5
396.127	87.5
396.352	91.5
396.576	86.5
396.801	101.5
397.025	94.5
397.249	84.5
397.474	102.5
397.698	84.5
397.922	81.5
398.147	82.5
398.371	83.5
398.595	93.5
398.82	87.5
399.044	85.5
399.268	88.5
399.492	86.5
399.717	76.5
399.941	83.5
400.165	89.5
400.389	80.5
400.613	88.5
400.837	87.5
401.062	86.5
401.286	89.5
401.51	90.5
401.734	75.5
401.958	103.5
402.182	133.5
402.406	153.5
402.63	134.5
402.854	89.5
403.078	95.5
403.302	94.5
403.526	92.5
403.75	82.5
403.974	100.5
404.198	94.5
404.422	80.5
404.645	86.5
404.869	95.5
405.093	94.5
405.317	103.5
405.541	114.5
405.765	92.5
405.988	108.5
406.212	157.5
406.436	215.5
406.66	140.5
406.883	117.5
407.107	78.5
407.331	96.5
407.555	113.5
407.778	95.5
408.002	100.5
408.226	83.5
408.449	79.5
408.673	81.5
408.896	88.5
409.12	98.5
409.344	92.5
409.567	100.5
409.791	84.5
410.014	100.5
410.238	85.5
410.461	93.5
410.685	99.5
410.908	98.5
411.132	104.5
411.355	93.5
411.578	91.5
411.802	78.5
412.025	81.5
412.249	90.5
412.472	93.5
412.695	102.5
412.919	84.5
413.142	98.5
413.365	83.5
413.589	81.5
413.812	85.5
414.035	88.5
414.258	107.5
414.482	96.5
414.705	89.5
414.928	110.5
415.151	92.5
415.374	92.5
415.597	92.5
415.821	88.5
416.044	87.5
416.267	82.5
416.49	100.5
416.713	83.5
416.936	85.5
417.159	103.5
417.382	98.5
417.605	93.5
417.828	101.5
418.051	91.5
418.274	95.5
418.497	97.5
418.72	95.5
418.943	86.5
419.166	79.5
419.389	84.5
419.611	79.5
419.834	90.5
420.057	94.5
420.28	85.5
420.503	83.5
420.726	85.5
420.948	87.5
421.171	96.5
421.394	83.5
421.617	96.5
421.839	96.5
422.062	81.5
422.285	104.5
422.507	93.5
422.73	109.5
422.953	97.5
423.175	81.5
423.398	93.5
423.621	101.5
423.843	94.5
424.066	92.5
424.288	90.5
424.511	96.5
424.733	105.5
424.956	99.5
425.178	90.5
425.401	105.5
425.623	92.5
425.846	105.5
426.068	100.5
426.291	79.5
426.513	93.5
426.735	98.5
426.958	91.5
427.18	113.5
427.402	134.5
427.625	172.5
427.847	173.5
428.069	168.5
428.292	111.5
428.514	95.5
428.736	90.5
428.958	85.5
429.181	86.5
429.403	78.5
429.625	86.5
429.847	102.5
430.069	94.5
430.292	91.5
430.514	100.5
430.736	94.5
430.958	85.5
431.18	83.5
431.402	95.5
431.624	89.5
431.846	104.5
432.068	73.5
432.29	84.5
432.512	89.5
432.734	72.5
432.956	77.5
433.178	100.5
433.4	100.5
433.622	96.5
433.844	104.5
434.066	87.5
434.287	90.5
434.509	95.5
434.731	97.5
434.953	84.5
435.175	83.5
435.397	98.5
435.618	93.5
435.84	108.5
436.062	125.5
436.284	116.5
436.505	100.5
436.727	94.5
436.949	83.5
437.17	93.5
437.392	89.5
437.614	83.5
437.835	95.5
438.057	111.5
438.278	104.5
438.5	97.5
438.721	122.5
438.943	95.5
439.165	80.5
439.386	87.5
439.608	71.5
439.829	96.5
440.05	120.5
440.272	129.5
440.493	102.5
440.715	80.5
440.936	81.5
441.158	87.5
441.379	96.5
441.6	91.5
441.822	89.5
442.043	101.5
442.264	105.5
442.486	104.5
442.707	79.5
442.928	89.5
443.149	110.5
443.371	123.5
443.592	98.5
443.813	85.5
444.034	111.5
444.255	83.5
444.476	80.5
444.698	94.5
444.919	88.5
445.14	119.5
445.361	116.5
445.582	116.5
445.803	124.5
446.024	118.5
446.245	132.5
446.466	95.5
446.687	91.5
446.908	85.5
447.129	86.5
447.35	87.5
447.571	91.5
447.792	91.5
448.013	87.5
448.234	104.5
448.455	103.5
448.675	112.5
448.896	118.5
449.117	95.5
449.338	103.5
449.559	109.5
449.779	114.5
450	83.5
450.221	95.5
450.442	87.5
450.662	91.5
450.883	109.5
451.104	116.5
451.324	99.5
451.545	98.5
451.766	91.5
451.986	87.5
452.207	76.5
452.428	97.5
452.648	100.5
452.869	108.5
453.089	112.5
453.31	109.5
453.53	86.5
453.751	86.5
453.971	105.5
454.192	114.5
454.412	74.5
454.633	86.5
454.853	96.5
455.073	85.5
455.294	85.5
455.514	100.5
455.734	81.5
455.955	91.5
456.175	89.5
456.395	93.5
456.616	85.5
456.836	79.5
457.056	90.5
457.276	79.5
457.497	84.5
457.717	95.5
457.937	91.5
458.157	86.5
458.377	91.5
458.598	119.5
458.818	155.5
459.038	163.5
459.258	113.5
459.478	100.5
459.698	83.5
459.918	93.5
460.138	97.5
460.358	85.5
460.578	91.5
460.798	89.5
461.018	94.5
461.238	80.5
461.458	84.5
461.678	98.5
461.898	84.5
462.118	97.5
462.338	84.5
462.558	88.5
462.777	85.5
462.997	87.5
463.217	95.5
463.437	109.5
463.657	99.5
463.876	90.5
464.096	97.5
464.316	108.5
464.536	95.5
464.755	95.5
464.975	105.5
465.195	145.5
465.414	177.5
465.634	97.5
465.854	92.5
466.073	86.5
466.293	103.5
466.512	100.5
466.732	109.5
466.951	95.5
467.171	89.5
467.391	107.5
467.61	107.5
467.829	132.5
468.049	248.5
468.268	355.5
468.488	135.5
468.707	100.5
468.927	106.5
469.146	86.5
469.365	103.5
469.585	97.5
469.804	93.5
470.023	103.5
470.243	103.5
470.462	103.5
470.681	104.5
470.901	91.5
471.12	107.5
471.339	92.5
471.558	107.5
471.777	97.5
471.997	168.5
472.216	470.5
472.435	950.5
472.654	265.5
472.873	104.5
473.092	100.5
473.311	80.5
473.53	87.5
473.749	80.5
473.968	78.5
474.187	101.5
474.406	90.5
474.625	83.5
474.844	97.5
475.063	94.5
475.282	87.5
475.501	99.5
475.72	90.5
475.939	93.5
476.158	93.5
476.377	89.5
476.596	96.5
476.814	94.5
477.033	101.5
477.252	81.5
477.471	84.5
477.69	83.5
477.908	99.5
478.127	104.5
478.346	87.5
478.564	83.5
478.783	104.5
479.002	98.5
479.22	87.5
479.439	107.5
479.658	103.5
479.876	104.5
480.095	97.5
480.313	105.5
480.532	134.5
480.751	162.5
480.969	461.5
481.188	1657.5
481.406	940.5
481.624	189.5
481.843	104.5
482.061	97.5
482.28	95.5
482.498	84.5
482.717	103.5
482.935	88.5
483.153	85.5
483.372	97.5
483.59	94.5
483.808	92.5
484.027	93.5
484.245	93.5
484.463	94.5
484.681	92.5
484.9	81.5
485.118	94.5
485.336	100.5
485.554	93.5
485.772	104.5
485.99	93.5
486.209	110.5
486.427	103.5
486.645	99.5
486.863	116.5
487.081	103.5
487.299	114.5
487.517	105.5
487.735	117.5
487.953	85.5
488.171	102.5
488.389	104.5
488.607	111.5
488.825	105.5
489.043	70.5
489.261	86.5
489.479	86.5
489.696	99.5
489.914	87.5
490.132	92.5
490.35	85.5
490.568	79.5
490.786	76.5
491.003	93.5
491.221	95.5
491.439	97.5
491.657	95.5
491.874	94.5
492.092	93.5
492.31	109.5
492.527	110.5
492.745	101.5
492.963	97.5
493.18	91.5
493.398	96.5
493.615	104.5
493.833	105.5
494.05	95.5
494.268	85.5
494.485	96.5
494.703	94.5
494.92	99.5
495.138	87.5
495.355	91.5
495.573	88.5
495.79	98.5
496.008	101.5
496.225	97.5
496.442	87.5
496.66	97.5
496.877	83.5
497.094	89.5
497.312	93.5
497.529	95.5
497.746	89.5
497.963	105.5
498.181	99.5
498.398	93.5
498.615	100.5
498.832	93.5
499.049	103.5
499.267	87.5
499.484	103.5
499.701	88.5
499.918	97.5
500.135	100.5
500.352	93.5
500.569	96.5
500.786	100.5
501.003	94.5
501.22	100.5
501.437	99.5
501.654	98.5
501.871	104.5
502.088	94.5
502.305	87.5
502.522	91.5
502.739	93.5
502.956	90.5
503.172	96.5
503.389	92.5
503.606	102.5
503.823	97.5
504.04	96.5
504.256	90.5
504.473	103.5
504.69	97.5
504.907	94.5
505.123	92.5
505.34	95.5
505.557	91.5
505.773	94.5
505.99	91.5
506.207	82.5
506.423	88.5
506.64	86.5
506.856	91.5
507.073	85.5
507.289	91.5
507.506	85.5
507.722	99.5
507.939	113.5
508.155	99.5
508.372	91.5
508.588	96.5
508.805	92.5
509.021	101.5
509.238	93.5
509.454	101.5
509.67	93.5
509.887	114.5
510.103	128.5
510.319	192.5
510.536	713.5
510.752	2326.5
510.968	657.5
511.184	153.5
511.401	115.5
511.617	105.5
511.833	76.5
512.049	89.5
512.265	101.5
512.481	108.5
512.698	83.5
512.914	80.5
513.13	94.5
513.346	111.5
513.562	91.5
513.778	103.5
513.994	87.5
514.21	95.5
514.426	98.5
514.642	127.5
514.858	127.5
515.074	157.5
515.29	430.5
515.506	1446.5
515.721	531.5
515.937	155.5
516.153	104.5
516.369	110.5
516.585	104.5
516.801	89.5
517.016	99.5
517.232	93.5
517.448	96.5
517.664	85.5
517.879	91.5
518.095	83.5
518.311	101.5
518.527	95.5
518.742	90.5
518.958	83.5
519.173	88.5
519.389	82.5
519.605	79.5
519.82	101.5
520.036	108.5
520.251	121.5
520.467	117.5
520.682	112.5
520.898	112.5
521.113	105.5
521.329	129.5
521.544	200.5
521.76	545.5
521.975	2389.5
522.19	1427.5
522.406	313.5
522.621	133.5
522.836	103.5
523.052	99.5
523.267	84.5
523.482	93.5
523.698	102.5
523.913	115.5
524.128	103.5
524.343	95.5
524.559	102.5
524.774	87.5
524.989	96.5
525.204	121.5
525.419	110.5
525.634	107.5
525.849	94.5
526.064	94.5
526.28	102.5
526.495	80.5
526.71	87.5
526.925	89.5
527.14	101.5
527.355	83.5
527.57	89.5
527.785	94.5
527.999	94.5
528.214	95.5
528.429	84.5
528.644	88.5
528.859	103.5
529.074	100.5
529.289	116.5
529.503	182.5
529.718	119.5
529.933	99.5
530.148	99.5
530.363	85.5
530.577	97.5
530.792	90.5
531.007	90.5
531.221	95.5
531.436	88.5
531.651	85.5
531.865	94.5
532.08	99.5
532.295	100.5
532.509	97.5
532.724	95.5
532.938	88.5
533.153	96.5
533.367	100.5
533.582	100.5
533.796	86.5
534.011	85.5
534.225	97.5
