Data from Circ_1991_H10_HRD10591_00044.txt Node
Date: Wed Jan 03 11:51:50 EST 2024
User: Yrep
Spectrometer: HR+D1059
Trigger mode: 1
Integration Time (sec): 1.000000E-1
Scans to average: 1
Electric dark correction enabled: true
Nonlinearity correction enabled: false
Boxcar width: 0
XAxis mode: Wavelengths
Number of Pixels in Spectrum: 2048
>>>>>Begin Spectral Data<<<<<
223.165	-15.44
223.4	-15.44
223.635	-15.44
223.869	-20.44
224.104	-25.44
224.338	-20.44
224.573	-5.44
224.808	-13.44
225.042	-1.44
225.277	-0.44
225.511	-3.44
225.746	1.56
225.98	15.56
226.215	-1.44
226.449	5.56
226.683	24.56
226.918	30.56
227.152	29.56
227.387	29.56
227.621	35.56
227.856	28.56
228.09	57.56
228.324	57.56
228.559	58.56
228.793	56.56
229.027	72.56
229.262	59.56
229.496	73.56
229.73	86.56
229.964	90.56
230.199	79.56
230.433	76.56
230.667	85.56
230.901	69.56
231.136	74.56
231.37	75.56
231.604	69.56
231.838	83.56
232.072	76.56
232.306	94.56
232.541	79.56
232.775	91.56
233.009	81.56
233.243	88.56
233.477	81.56
233.711	76.56
233.945	74.56
234.179	92.56
234.413	90.56
234.647	83.56
234.881	91.56
235.115	80.56
235.349	78.56
235.583	68.56
235.817	70.56
236.051	77.56
236.285	73.56
236.519	75.56
236.753	73.56
236.987	83.56
237.221	89.56
237.455	89.56
237.689	84.56
237.922	66.56
238.156	83.56
238.39	65.56
238.624	71.56
238.858	84.56
239.091	69.56
239.325	80.56
239.559	84.56
239.793	81.56
240.027	72.56
240.26	58.56
240.494	69.56
240.728	72.56
240.961	81.56
241.195	80.56
241.429	77.56
241.662	74.56
241.896	57.56
242.13	80.56
242.363	81.56
242.597	76.56
242.83	93.56
243.064	75.56
243.298	76.56
243.531	69.56
243.765	78.56
243.998	82.56
244.232	72.56
244.465	65.56
244.699	74.56
244.932	81.56
245.166	83.56
245.399	71.56
245.633	67.56
245.866	76.56
246.099	81.56
246.333	68.56
246.566	73.56
246.8	81.56
247.033	74.56
247.266	74.56
247.5	88.56
247.733	82.56
247.966	75.56
248.2	85.56
248.433	62.56
248.666	69.56
248.899	92.56
249.133	85.56
249.366	89.56
249.599	85.56
249.832	74.56
250.066	81.56
250.299	85.56
250.532	73.56
250.765	64.56
250.998	74.56
251.231	70.56
251.465	86.56
251.698	80.56
251.931	77.56
252.164	77.56
252.397	90.56
252.63	86.56
252.863	73.56
253.096	92.56
253.329	84.56
253.562	89.56
253.795	83.56
254.028	78.56
254.261	68.56
254.494	68.56
254.727	80.56
254.96	78.56
255.193	81.56
255.426	85.56
255.659	70.56
255.892	85.56
256.124	80.56
256.357	84.56
256.59	78.56
256.823	63.56
257.056	82.56
257.289	65.56
257.521	79.56
257.754	76.56
257.987	92.56
258.22	85.56
258.452	67.56
258.685	88.56
258.918	81.56
259.151	68.56
259.383	81.56
259.616	91.56
259.849	82.56
260.081	83.56
260.314	88.56
260.547	78.56
260.779	84.56
261.012	90.56
261.244	90.56
261.477	94.56
261.71	96.56
261.942	101.56
262.175	106.56
262.407	82.56
262.64	67.56
262.872	82.56
263.105	73.56
263.337	94.56
263.57	90.56
263.802	89.56
264.035	78.56
264.267	81.56
264.499	74.56
264.732	100.56
264.964	84.56
265.197	72.56
265.429	86.56
265.661	82.56
265.894	95.56
266.126	81.56
266.358	80.56
266.591	76.56
266.823	68.56
267.055	90.56
267.287	92.56
267.52	84.56
267.752	97.56
267.984	72.56
268.216	84.56
268.448	71.56
268.681	85.56
268.913	86.56
269.145	83.56
269.377	86.56
269.609	80.56
269.841	83.56
270.073	83.56
270.306	91.56
270.538	75.56
270.77	68.56
271.002	84.56
271.234	91.56
271.466	87.56
271.698	97.56
271.93	96.56
272.162	90.56
272.394	100.56
272.626	68.56
272.858	83.56
273.09	74.56
273.322	83.56
273.553	66.56
273.785	80.56
274.017	74.56
274.249	94.56
274.481	88.56
274.713	74.56
274.945	95.56
275.176	88.56
275.408	86.56
275.64	90.56
275.872	76.56
276.104	80.56
276.335	99.56
276.567	99.56
276.799	100.56
277.031	123.56
277.262	95.56
277.494	85.56
277.726	80.56
277.957	89.56
278.189	75.56
278.421	91.56
278.652	76.56
278.884	85.56
279.115	90.56
279.347	81.56
279.579	85.56
279.81	101.56
280.042	109.56
280.273	120.56
280.505	99.56
280.736	79.56
280.968	89.56
281.199	90.56
281.431	94.56
281.662	96.56
281.894	92.56
282.125	104.56
282.356	112.56
282.588	141.56
282.819	106.56
283.051	86.56
283.282	75.56
283.513	97.56
283.745	81.56
283.976	85.56
284.207	95.56
284.439	88.56
284.67	93.56
284.901	89.56
285.132	96.56
285.364	96.56
285.595	96.56
285.826	81.56
286.057	95.56
286.288	96.56
286.52	75.56
286.751	83.56
286.982	86.56
287.213	90.56
287.444	80.56
287.675	76.56
287.906	96.56
288.138	90.56
288.369	79.56
288.6	85.56
288.831	84.56
289.062	81.56
289.293	85.56
289.524	75.56
289.755	90.56
289.986	79.56
290.217	84.56
290.448	84.56
290.679	84.56
290.91	78.56
291.141	88.56
291.371	97.56
291.602	94.56
291.833	69.56
292.064	77.56
292.295	80.56
292.526	92.56
292.757	92.56
292.987	88.56
293.218	94.56
293.449	86.56
293.68	93.56
293.91	93.56
294.141	92.56
294.372	83.56
294.603	82.56
294.833	93.56
295.064	92.56
295.295	80.56
295.525	85.56
295.756	107.56
295.987	111.56
296.217	138.56
296.448	123.56
296.679	87.56
296.909	92.56
297.14	77.56
297.37	80.56
297.601	97.56
297.831	78.56
298.062	83.56
298.292	91.56
298.523	74.56
298.753	88.56
298.984	92.56
299.214	92.56
299.445	87.56
299.675	78.56
299.905	86.56
300.136	90.56
300.366	87.56
300.597	83.56
300.827	84.56
301.057	88.56
301.288	90.56
301.518	97.56
301.748	106.56
301.979	102.56
302.209	77.56
302.439	97.56
302.669	88.56
302.9	80.56
303.13	90.56
303.36	90.56
303.59	106.56
303.82	106.56
304.051	91.56
304.281	92.56
304.511	96.56
304.741	92.56
304.971	86.56
305.201	98.56
305.431	80.56
305.661	96.56
305.891	103.56
306.121	104.56
306.352	116.56
306.582	96.56
306.812	92.56
307.042	101.56
307.272	131.56
307.502	102.56
307.731	101.56
307.961	110.56
308.191	93.56
308.421	85.56
308.651	82.56
308.881	86.56
309.111	87.56
309.341	86.56
309.571	100.56
309.8	95.56
310.03	85.56
310.26	94.56
310.49	87.56
310.72	97.56
310.949	99.56
311.179	81.56
311.409	100.56
311.639	88.56
311.868	101.56
312.098	111.56
312.328	95.56
312.557	89.56
312.787	99.56
313.017	97.56
313.246	82.56
313.476	103.56
313.706	82.56
313.935	92.56
314.165	96.56
314.394	109.56
314.624	92.56
314.853	97.56
315.083	87.56
315.312	89.56
315.542	97.56
315.771	88.56
316.001	93.56
316.23	106.56
316.46	88.56
316.689	97.56
316.919	93.56
317.148	93.56
317.377	75.56
317.607	86.56
317.836	92.56
318.065	85.56
318.295	84.56
318.524	92.56
318.753	81.56
318.983	90.56
319.212	93.56
319.441	97.56
319.67	88.56
319.9	81.56
320.129	88.56
320.358	87.56
320.587	84.56
320.816	86.56
321.046	96.56
321.275	106.56
321.504	97.56
321.733	89.56
321.962	84.56
322.191	98.56
322.42	101.56
322.649	99.56
322.878	92.56
323.108	105.56
323.337	109.56
323.566	126.56
323.795	137.56
324.024	190.56
324.253	394.56
324.482	809.56
324.71	1699.56
324.939	2264.56
325.168	817.56
325.397	249.56
325.626	142.56
325.855	126.56
326.084	115.56
326.313	137.56
326.542	153.56
326.77	229.56
326.999	428.56
327.228	924.56
327.457	1724.56
327.686	1391.56
327.914	396.56
328.143	269.56
328.372	245.56
328.6	185.56
328.829	124.56
329.058	144.56
329.287	127.56
329.515	102.56
329.744	113.56
329.972	189.56
330.201	333.56
330.43	435.56
330.658	247.56
330.887	154.56
331.115	117.56
331.344	88.56
331.572	115.56
331.801	86.56
332.03	93.56
332.258	95.56
332.486	95.56
332.715	93.56
332.943	90.56
333.172	97.56
333.4	110.56
333.629	108.56
333.857	127.56
334.085	190.56
334.314	318.56
334.542	563.56
334.771	506.56
334.999	178.56
335.227	120.56
335.455	85.56
335.684	94.56
335.912	108.56
336.14	95.56
336.369	103.56
336.597	101.56
336.825	98.56
337.053	101.56
337.281	92.56
337.51	88.56
337.738	92.56
337.966	82.56
338.194	76.56
338.422	93.56
338.65	91.56
338.878	82.56
339.106	92.56
339.334	74.56
339.562	90.56
339.79	80.56
340.018	88.56
340.246	80.56
340.474	87.56
340.702	90.56
340.93	90.56
341.158	89.56
341.386	90.56
341.614	91.56
341.842	76.56
342.07	84.56
342.298	82.56
342.526	78.56
342.754	92.56
342.981	101.56
343.209	87.56
343.437	92.56
343.665	91.56
343.893	91.56
344.12	80.56
344.348	90.56
344.576	75.56
344.804	95.56
345.031	96.56
345.259	96.56
345.487	80.56
345.714	87.56
345.942	90.56
346.17	98.56
346.397	89.56
346.625	88.56
346.853	84.56
347.08	87.56
347.308	82.56
347.535	88.56
347.763	86.56
347.99	83.56
348.218	98.56
348.445	97.56
348.673	82.56
348.9	87.56
349.128	86.56
349.355	88.56
349.583	100.56
349.81	107.56
350.037	108.56
350.265	91.56
350.492	84.56
350.72	90.56
350.947	107.56
351.174	95.56
351.402	91.56
351.629	95.56
351.856	86.56
352.083	101.56
352.311	112.56
352.538	116.56
352.765	109.56
352.992	113.56
353.22	115.56
353.447	95.56
353.674	91.56
353.901	93.56
354.128	103.56
354.355	101.56
354.583	92.56
354.81	86.56
355.037	92.56
355.264	84.56
355.491	88.56
355.718	73.56
355.945	89.56
356.172	90.56
356.399	81.56
356.626	84.56
356.853	88.56
357.08	93.56
357.307	113.56
357.534	105.56
357.761	82.56
357.988	92.56
358.215	94.56
358.441	91.56
358.668	84.56
358.895	104.56
359.122	82.56
359.349	84.56
359.576	100.56
359.802	131.56
360.029	113.56
360.256	91.56
360.483	86.56
360.709	92.56
360.936	94.56
361.163	81.56
361.39	95.56
361.616	94.56
361.843	84.56
362.07	89.56
362.296	85.56
362.523	86.56
362.749	83.56
362.976	109.56
363.203	107.56
363.429	95.56
363.656	79.56
363.882	84.56
364.109	94.56
364.335	94.56
364.562	93.56
364.788	85.56
365.015	84.56
365.241	103.56
365.468	121.56
365.694	107.56
365.92	91.56
366.147	89.56
366.373	86.56
366.599	96.56
366.826	84.56
367.052	81.56
367.278	93.56
367.505	84.56
367.731	84.56
367.957	82.56
368.184	95.56
368.41	88.56
368.636	102.56
368.862	128.56
369.089	114.56
369.315	86.56
369.541	91.56
369.767	89.56
369.993	91.56
370.219	91.56
370.445	86.56
370.672	88.56
370.898	78.56
371.124	81.56
371.35	77.56
371.576	83.56
371.802	83.56
372.028	93.56
372.254	102.56
372.48	65.56
372.706	89.56
372.932	91.56
373.158	95.56
373.384	92.56
373.61	90.56
373.835	91.56
374.061	80.56
374.287	92.56
374.513	85.56
374.739	90.56
374.965	75.56
375.191	85.56
375.416	91.56
375.642	83.56
375.868	84.56
376.094	78.56
376.319	90.56
376.545	91.56
376.771	90.56
376.997	85.56
377.222	85.56
377.448	98.56
377.674	93.56
377.899	92.56
378.125	90.56
378.35	88.56
378.576	85.56
378.802	95.56
379.027	90.56
379.253	98.56
379.478	96.56
379.704	95.56
379.929	84.56
380.155	99.56
380.38	84.56
380.606	86.56
380.831	94.56
381.057	108.56
381.282	99.56
381.507	105.56
381.733	94.56
381.958	94.56
382.184	90.56
382.409	104.56
382.634	93.56
382.86	107.56
383.085	112.56
383.31	97.56
383.535	104.56
383.761	94.56
383.986	105.56
384.211	97.56
384.436	96.56
384.662	84.56
384.887	93.56
385.112	89.56
385.337	95.56
385.562	107.56
385.787	97.56
386.013	115.56
386.238	115.56
386.463	91.56
386.688	95.56
386.913	102.56
387.138	100.56
387.363	112.56
387.588	97.56
387.813	85.56
388.038	111.56
388.263	119.56
388.488	121.56
388.713	98.56
388.938	93.56
389.163	86.56
389.387	96.56
389.612	81.56
389.837	91.56
390.062	93.56
390.287	88.56
390.512	88.56
390.736	97.56
390.961	88.56
391.186	92.56
391.411	100.56
391.636	87.56
391.86	83.56
392.085	82.56
392.31	88.56
392.534	98.56
392.759	85.56
392.984	109.56
393.208	98.56
393.433	124.56
393.658	115.56
393.882	89.56
394.107	86.56
394.331	81.56
394.556	89.56
394.78	93.56
395.005	83.56
395.229	92.56
395.454	92.56
395.678	78.56
395.903	88.56
396.127	94.56
396.352	86.56
396.576	84.56
396.801	99.56
397.025	104.56
397.249	88.56
397.474	91.56
397.698	85.56
397.922	92.56
398.147	84.56
398.371	84.56
398.595	88.56
398.82	84.56
399.044	81.56
399.268	83.56
399.492	83.56
399.717	80.56
399.941	81.56
400.165	84.56
400.389	89.56
400.613	94.56
400.837	78.56
401.062	96.56
401.286	87.56
401.51	92.56
401.734	81.56
401.958	100.56
402.182	130.56
402.406	140.56
402.63	116.56
402.854	88.56
403.078	86.56
403.302	79.56
403.526	87.56
403.75	91.56
403.974	90.56
404.198	73.56
404.422	91.56
404.645	93.56
404.869	95.56
405.093	94.56
405.317	102.56
405.541	110.56
405.765	94.56
405.988	109.56
406.212	156.56
406.436	211.56
406.66	136.56
406.883	97.56
407.107	92.56
407.331	89.56
407.555	93.56
407.778	92.56
408.002	88.56
408.226	89.56
408.449	95.56
408.673	101.56
408.896	94.56
409.12	93.56
409.344	79.56
409.567	88.56
409.791	98.56
410.014	97.56
410.238	93.56
410.461	87.56
410.685	98.56
410.908	91.56
411.132	100.56
411.355	96.56
411.578	84.56
411.802	86.56
412.025	100.56
412.249	101.56
412.472	93.56
412.695	97.56
412.919	97.56
413.142	93.56
413.365	82.56
413.589	85.56
413.812	68.56
414.035	87.56
414.258	101.56
414.482	96.56
414.705	83.56
414.928	92.56
415.151	83.56
415.374	85.56
415.597	99.56
415.821	82.56
416.044	81.56
416.267	94.56
416.49	77.56
416.713	82.56
416.936	83.56
417.159	83.56
417.382	73.56
417.605	85.56
417.828	81.56
418.051	97.56
418.274	92.56
418.497	91.56
418.72	72.56
418.943	96.56
419.166	98.56
419.389	94.56
419.611	81.56
419.834	101.56
420.057	96.56
420.28	76.56
420.503	83.56
420.726	82.56
420.948	94.56
421.171	105.56
421.394	96.56
421.617	102.56
421.839	82.56
422.062	99.56
422.285	87.56
422.507	76.56
422.73	117.56
422.953	104.56
423.175	86.56
423.398	89.56
423.621	89.56
423.843	79.56
424.066	83.56
424.288	83.56
424.511	87.56
424.733	103.56
424.956	100.56
425.178	103.56
425.401	93.56
425.623	100.56
425.846	93.56
426.068	86.56
426.291	96.56
426.513	84.56
426.735	85.56
426.958	115.56
427.18	98.56
427.402	137.56
427.625	163.56
427.847	156.56
428.069	168.56
428.292	96.56
428.514	78.56
428.736	81.56
428.958	73.56
429.181	79.56
429.403	87.56
429.625	83.56
429.847	84.56
430.069	91.56
430.292	91.56
430.514	80.56
430.736	78.56
430.958	97.56
431.18	88.56
431.402	82.56
431.624	100.56
431.846	84.56
432.068	91.56
432.29	92.56
432.512	88.56
432.734	86.56
432.956	83.56
433.178	91.56
433.4	94.56
433.622	78.56
433.844	84.56
434.066	89.56
434.287	90.56
434.509	88.56
434.731	78.56
434.953	82.56
435.175	79.56
435.397	96.56
435.618	88.56
435.84	97.56
436.062	110.56
436.284	102.56
436.505	112.56
436.727	102.56
436.949	95.56
437.17	67.56
437.392	96.56
437.614	106.56
437.835	101.56
438.057	116.56
438.278	115.56
438.5	99.56
438.721	117.56
438.943	100.56
439.165	80.56
439.386	81.56
439.608	93.56
439.829	98.56
440.05	113.56
440.272	140.56
440.493	92.56
440.715	77.56
440.936	90.56
441.158	89.56
441.379	85.56
441.6	101.56
441.822	94.56
442.043	109.56
442.264	103.56
442.486	110.56
442.707	100.56
442.928	104.56
443.149	115.56
443.371	135.56
443.592	106.56
443.813	131.56
444.034	102.56
444.255	95.56
444.476	84.56
444.698	92.56
444.919	98.56
445.14	124.56
445.361	112.56
445.582	109.56
445.803	142.56
446.024	140.56
446.245	142.56
446.466	110.56
446.687	77.56
446.908	91.56
447.129	90.56
447.35	94.56
447.571	98.56
447.792	93.56
448.013	106.56
448.234	102.56
448.455	121.56
448.675	117.56
448.896	116.56
449.117	96.56
449.338	97.56
449.559	138.56
449.779	129.56
450	86.56
450.221	82.56
450.442	86.56
450.662	109.56
450.883	97.56
451.104	109.56
451.324	79.56
451.545	88.56
451.766	101.56
451.986	92.56
452.207	89.56
452.428	101.56
452.648	96.56
452.869	108.56
453.089	108.56
453.31	110.56
453.53	86.56
453.751	94.56
453.971	95.56
454.192	106.56
454.412	109.56
454.633	93.56
454.853	78.56
455.073	85.56
455.294	90.56
455.514	95.56
455.734	84.56
455.955	84.56
456.175	91.56
456.395	75.56
456.616	73.56
456.836	90.56
457.056	85.56
457.276	84.56
457.497	82.56
457.717	90.56
457.937	80.56
458.157	85.56
458.377	104.56
458.598	113.56
458.818	137.56
459.038	152.56
459.258	113.56
459.478	82.56
459.698	82.56
459.918	93.56
460.138	83.56
460.358	82.56
460.578	85.56
460.798	81.56
461.018	89.56
461.238	93.56
461.458	90.56
461.678	88.56
461.898	80.56
462.118	78.56
462.338	78.56
462.558	90.56
462.777	84.56
462.997	83.56
463.217	89.56
463.437	92.56
463.657	93.56
463.876	89.56
464.096	84.56
464.316	100.56
464.536	94.56
464.755	89.56
464.975	96.56
465.195	173.56
465.414	140.56
465.634	89.56
465.854	88.56
466.073	84.56
466.293	85.56
466.512	78.56
466.732	83.56
466.951	94.56
467.171	100.56
467.391	95.56
467.61	117.56
467.829	110.56
468.049	227.56
468.268	290.56
468.488	111.56
468.707	74.56
468.927	90.56
469.146	84.56
469.365	80.56
469.585	88.56
469.804	93.56
470.023	102.56
470.243	96.56
470.462	96.56
470.681	101.56
470.901	99.56
471.12	95.56
471.339	90.56
471.558	94.56
471.777	92.56
471.997	148.56
472.216	412.56
472.435	755.56
472.654	224.56
472.873	109.56
473.092	86.56
473.311	76.56
473.53	80.56
473.749	93.56
473.968	109.56
474.187	104.56
474.406	97.56
474.625	69.56
474.844	82.56
475.063	85.56
475.282	85.56
475.501	86.56
475.72	90.56
475.939	90.56
476.158	75.56
476.377	81.56
476.596	86.56
476.814	99.56
477.033	101.56
477.252	88.56
477.471	96.56
477.69	90.56
477.908	95.56
478.127	79.56
478.346	70.56
478.564	77.56
478.783	95.56
479.002	92.56
479.22	86.56
479.439	101.56
479.658	103.56
479.876	96.56
480.095	88.56
480.313	99.56
480.532	105.56
480.751	152.56
480.969	378.56
481.188	1369.56
481.406	803.56
481.624	150.56
481.843	100.56
482.061	83.56
482.28	95.56
482.498	100.56
482.717	79.56
482.935	88.56
483.153	88.56
483.372	88.56
483.59	80.56
483.808	93.56
484.027	97.56
484.245	98.56
484.463	84.56
484.681	103.56
484.9	95.56
485.118	100.56
485.336	96.56
485.554	89.56
485.772	92.56
485.99	92.56
486.209	117.56
486.427	96.56
486.645	109.56
486.863	113.56
487.081	108.56
487.299	109.56
487.517	85.56
487.735	99.56
487.953	85.56
488.171	93.56
488.389	90.56
488.607	90.56
488.825	101.56
489.043	96.56
489.261	92.56
489.479	93.56
489.696	88.56
489.914	85.56
490.132	75.56
490.35	82.56
490.568	82.56
490.786	93.56
491.003	95.56
491.221	79.56
491.439	70.56
491.657	88.56
491.874	88.56
492.092	92.56
492.31	93.56
492.527	82.56
492.745	84.56
492.963	91.56
493.18	84.56
493.398	87.56
493.615	90.56
493.833	79.56
494.05	94.56
494.268	90.56
494.485	86.56
494.703	82.56
494.92	79.56
495.138	91.56
495.355	89.56
495.573	72.56
495.79	91.56
496.008	89.56
496.225	84.56
496.442	89.56
496.66	88.56
496.877	106.56
497.094	92.56
497.312	93.56
497.529	94.56
497.746	90.56
497.963	86.56
498.181	90.56
498.398	90.56
498.615	102.56
498.832	103.56
499.049	92.56
499.267	72.56
499.484	89.56
499.701	82.56
499.918	74.56
500.135	93.56
500.352	85.56
500.569	92.56
500.786	81.56
501.003	69.56
501.22	73.56
501.437	90.56
501.654	95.56
501.871	87.56
502.088	79.56
502.305	73.56
502.522	89.56
502.739	88.56
502.956	93.56
503.172	88.56
503.389	90.56
503.606	92.56
503.823	99.56
504.04	96.56
504.256	111.56
504.473	93.56
504.69	98.56
504.907	90.56
505.123	84.56
505.34	93.56
505.557	85.56
505.773	91.56
505.99	78.56
506.207	104.56
506.423	95.56
506.64	87.56
506.856	94.56
507.073	83.56
507.289	82.56
507.506	101.56
507.722	123.56
507.939	98.56
508.155	88.56
508.372	80.56
508.588	84.56
508.805	91.56
509.021	99.56
509.238	91.56
509.454	83.56
509.67	102.56
509.887	106.56
510.103	123.56
510.319	203.56
510.536	650.56
510.752	2111.56
510.968	579.56
511.184	147.56
511.401	107.56
511.617	107.56
511.833	96.56
512.049	97.56
512.265	94.56
512.481	96.56
512.698	81.56
512.914	91.56
513.13	95.56
513.346	80.56
513.562	102.56
513.778	89.56
513.994	103.56
514.21	98.56
514.426	121.56
514.642	122.56
514.858	114.56
515.074	164.56
515.29	403.56
515.506	1390.56
515.721	530.56
515.937	140.56
516.153	109.56
