Data from Circ_1991_H10_HRD10591_00009.txt Node
Date: Wed Jan 03 11:51:43 EST 2024
User: Yrep
Spectrometer: HR+D1059
Trigger mode: 1
Integration Time (sec): 1.000000E-1
Scans to average: 1
Electric dark correction enabled: true
Nonlinearity correction enabled: false
Boxcar width: 0
XAxis mode: Wavelengths
Number of Pixels in Spectrum: 2048
>>>>>Begin Spectral Data<<<<<
223.165	-25.81
223.4	-25.81
223.635	-25.81
223.869	-26.81
224.104	-4.81
224.338	-25.81
224.573	-6.81
224.808	-25.81
225.042	-8.81
225.277	-8.81
225.511	-9.81
225.746	8.19
225.98	12.19
226.215	24.19
226.449	17.19
226.683	18.19
226.918	25.19
227.152	38.19
227.387	33.19
227.621	30.19
227.856	53.19
228.09	49.19
228.324	46.19
228.559	49.19
228.793	37.19
229.027	57.19
229.262	63.19
229.496	60.19
229.73	86.19
229.964	94.19
230.199	82.19
230.433	78.19
230.667	76.19
230.901	67.19
231.136	75.19
231.37	85.19
231.604	84.19
231.838	93.19
232.072	78.19
232.306	79.19
232.541	84.19
232.775	88.19
233.009	86.19
233.243	93.19
233.477	93.19
233.711	81.19
233.945	84.19
234.179	91.19
234.413	88.19
234.647	76.19
234.881	85.19
235.115	79.19
235.349	73.19
235.583	89.19
235.817	88.19
236.051	72.19
236.285	78.19
236.519	97.19
236.753	85.19
236.987	89.19
237.221	83.19
237.455	78.19
237.689	93.19
237.922	65.19
238.156	62.19
238.39	81.19
238.624	86.19
238.858	77.19
239.091	93.19
239.325	87.19
239.559	79.19
239.793	68.19
240.027	75.19
240.26	77.19
240.494	90.19
240.728	77.19
240.961	82.19
241.195	87.19
241.429	77.19
241.662	71.19
241.896	75.19
242.13	68.19
242.363	89.19
242.597	63.19
242.83	91.19
243.064	71.19
243.298	81.19
243.531	71.19
243.765	89.19
243.998	75.19
244.232	86.19
244.465	86.19
244.699	87.19
244.932	77.19
245.166	80.19
245.399	86.19
245.633	94.19
245.866	86.19
246.099	79.19
246.333	78.19
246.566	80.19
246.8	76.19
247.033	80.19
247.266	87.19
247.5	81.19
247.733	79.19
247.966	67.19
248.2	75.19
248.433	69.19
248.666	84.19
248.899	73.19
249.133	83.19
249.366	101.19
249.599	96.19
249.832	94.19
250.066	71.19
250.299	85.19
250.532	82.19
250.765	89.19
250.998	68.19
251.231	78.19
251.465	77.19
251.698	91.19
251.931	71.19
252.164	87.19
252.397	79.19
252.63	84.19
252.863	66.19
253.096	91.19
253.329	87.19
253.562	78.19
253.795	90.19
254.028	81.19
254.261	64.19
254.494	69.19
254.727	66.19
254.96	80.19
255.193	85.19
255.426	76.19
255.659	77.19
255.892	83.19
256.124	80.19
256.357	98.19
256.59	84.19
256.823	81.19
257.056	79.19
257.289	72.19
257.521	68.19
257.754	91.19
257.987	90.19
258.22	85.19
258.452	82.19
258.685	88.19
258.918	91.19
259.151	87.19
259.383	89.19
259.616	90.19
259.849	72.19
260.081	89.19
260.314	79.19
260.547	81.19
260.779	93.19
261.012	79.19
261.244	86.19
261.477	90.19
261.71	86.19
261.942	97.19
262.175	94.19
262.407	86.19
262.64	94.19
262.872	81.19
263.105	72.19
263.337	88.19
263.57	99.19
263.802	83.19
264.035	87.19
264.267	80.19
264.499	92.19
264.732	91.19
264.964	81.19
265.197	95.19
265.429	85.19
265.661	85.19
265.894	87.19
266.126	87.19
266.358	83.19
266.591	89.19
266.823	85.19
267.055	81.19
267.287	89.19
267.52	85.19
267.752	85.19
267.984	96.19
268.216	93.19
268.448	91.19
268.681	91.19
268.913	81.19
269.145	81.19
269.377	78.19
269.609	78.19
269.841	95.19
270.073	91.19
270.306	90.19
270.538	82.19
270.77	86.19
271.002	97.19
271.234	89.19
271.466	84.19
271.698	83.19
271.93	77.19
272.162	101.19
272.394	77.19
272.626	83.19
272.858	86.19
273.09	70.19
273.322	80.19
273.553	88.19
273.785	98.19
274.017	91.19
274.249	86.19
274.481	82.19
274.713	83.19
274.945	88.19
275.176	92.19
275.408	88.19
275.64	92.19
275.872	107.19
276.104	86.19
276.335	96.19
276.567	95.19
276.799	99.19
277.031	106.19
277.262	83.19
277.494	98.19
277.726	89.19
277.957	89.19
278.189	85.19
278.421	93.19
278.652	83.19
278.884	72.19
279.115	91.19
279.347	81.19
279.579	85.19
279.81	98.19
280.042	96.19
280.273	101.19
280.505	92.19
280.736	112.19
280.968	100.19
281.199	73.19
281.431	91.19
281.662	82.19
281.894	83.19
282.125	96.19
282.356	109.19
282.588	139.19
282.819	105.19
283.051	86.19
283.282	81.19
283.513	87.19
283.745	89.19
283.976	93.19
284.207	77.19
284.439	94.19
284.67	84.19
284.901	89.19
285.132	89.19
285.364	88.19
285.595	93.19
285.826	96.19
286.057	91.19
286.288	87.19
286.52	69.19
286.751	97.19
286.982	91.19
287.213	101.19
287.444	79.19
287.675	73.19
287.906	89.19
288.138	94.19
288.369	86.19
288.6	105.19
288.831	87.19
289.062	86.19
289.293	87.19
289.524	79.19
289.755	87.19
289.986	84.19
290.217	91.19
290.448	84.19
290.679	89.19
290.91	93.19
291.141	105.19
291.371	93.19
291.602	77.19
291.833	82.19
292.064	80.19
292.295	80.19
292.526	91.19
292.757	104.19
292.987	104.19
293.218	84.19
293.449	92.19
293.68	100.19
293.91	86.19
294.141	93.19
294.372	91.19
294.603	79.19
294.833	77.19
295.064	72.19
295.295	79.19
295.525	81.19
295.756	92.19
295.987	101.19
296.217	119.19
296.448	113.19
296.679	88.19
296.909	101.19
297.14	90.19
297.37	89.19
297.601	85.19
297.831	71.19
298.062	87.19
298.292	95.19
298.523	97.19
298.753	90.19
298.984	78.19
299.214	94.19
299.445	89.19
299.675	95.19
299.905	84.19
300.136	87.19
300.366	81.19
300.597	92.19
300.827	90.19
301.057	89.19
301.288	80.19
301.518	84.19
301.748	86.19
301.979	106.19
302.209	91.19
302.439	87.19
302.669	91.19
302.9	81.19
303.13	93.19
303.36	92.19
303.59	93.19
303.82	115.19
304.051	83.19
304.281	97.19
304.511	99.19
304.741	87.19
304.971	93.19
305.201	88.19
305.431	100.19
305.661	91.19
305.891	95.19
306.121	97.19
306.352	102.19
306.582	97.19
306.812	100.19
307.042	95.19
307.272	105.19
307.502	99.19
307.731	108.19
307.961	110.19
308.191	96.19
308.421	97.19
308.651	84.19
308.881	81.19
309.111	82.19
309.341	85.19
309.571	85.19
309.8	100.19
310.03	99.19
310.26	98.19
310.49	92.19
310.72	91.19
310.949	97.19
311.179	98.19
311.409	94.19
311.639	99.19
311.868	92.19
312.098	104.19
312.328	86.19
312.557	99.19
312.787	114.19
313.017	94.19
313.246	86.19
313.476	94.19
313.706	97.19
313.935	95.19
314.165	95.19
314.394	84.19
314.624	99.19
314.853	113.19
315.083	97.19
315.312	91.19
315.542	86.19
315.771	95.19
316.001	86.19
316.23	79.19
316.46	96.19
316.689	85.19
316.919	100.19
317.148	104.19
317.377	93.19
317.607	97.19
317.836	109.19
318.065	90.19
318.295	93.19
318.524	97.19
318.753	84.19
318.983	91.19
319.212	94.19
319.441	104.19
319.67	110.19
319.9	107.19
320.129	115.19
320.358	93.19
320.587	91.19
320.816	101.19
321.046	89.19
321.275	106.19
321.504	94.19
321.733	83.19
321.962	88.19
322.191	108.19
322.42	112.19
322.649	115.19
322.878	102.19
323.108	102.19
323.337	117.19
323.566	122.19
323.795	136.19
324.024	177.19
324.253	341.19
324.482	697.19
324.71	1437.19
324.939	1921.19
325.168	721.19
325.397	223.19
325.626	136.19
325.855	125.19
326.084	128.19
326.313	129.19
326.542	137.19
326.77	210.19
326.999	397.19
327.228	803.19
327.457	1501.19
327.686	1199.19
327.914	337.19
328.143	217.19
328.372	185.19
328.6	138.19
328.829	126.19
329.058	124.19
329.287	116.19
329.515	104.19
329.744	109.19
329.972	155.19
330.201	187.19
330.43	234.19
330.658	164.19
330.887	140.19
331.115	111.19
331.344	104.19
331.572	103.19
331.801	96.19
332.03	100.19
332.258	87.19
332.486	96.19
332.715	100.19
332.943	107.19
333.172	106.19
333.4	99.19
333.629	99.19
333.857	109.19
334.085	147.19
334.314	186.19
334.542	304.19
334.771	283.19
334.999	133.19
335.227	107.19
335.455	92.19
335.684	109.19
335.912	94.19
336.14	94.19
336.369	121.19
336.597	113.19
336.825	109.19
337.053	98.19
337.281	97.19
337.51	77.19
337.738	91.19
337.966	84.19
338.194	83.19
338.422	99.19
338.65	98.19
338.878	103.19
339.106	88.19
339.334	95.19
339.562	100.19
339.79	100.19
340.018	90.19
340.246	94.19
340.474	84.19
340.702	86.19
340.93	85.19
341.158	109.19
341.386	87.19
341.614	81.19
341.842	83.19
342.07	84.19
342.298	103.19
342.526	83.19
342.754	71.19
342.981	70.19
343.209	77.19
343.437	100.19
343.665	89.19
343.893	91.19
344.12	91.19
344.348	92.19
344.576	82.19
344.804	83.19
345.031	94.19
345.259	96.19
345.487	92.19
345.714	92.19
345.942	85.19
346.17	85.19
346.397	97.19
346.625	104.19
346.853	93.19
347.08	102.19
347.308	108.19
347.535	103.19
347.763	99.19
347.99	103.19
348.218	103.19
348.445	118.19
348.673	101.19
348.9	92.19
349.128	111.19
349.355	100.19
349.583	88.19
349.81	100.19
350.037	105.19
350.265	98.19
350.492	84.19
350.72	92.19
350.947	96.19
351.174	107.19
351.402	95.19
351.629	92.19
351.856	99.19
352.083	104.19
352.311	94.19
352.538	87.19
352.765	101.19
352.992	111.19
353.22	118.19
353.447	102.19
353.674	87.19
353.901	112.19
354.128	91.19
354.355	91.19
354.583	92.19
354.81	100.19
355.037	103.19
355.264	112.19
355.491	87.19
355.718	85.19
355.945	117.19
356.172	100.19
356.399	101.19
356.626	84.19
356.853	97.19
357.08	85.19
357.307	85.19
357.534	99.19
357.761	99.19
357.988	99.19
358.215	90.19
358.441	100.19
358.668	95.19
358.895	87.19
359.122	105.19
359.349	83.19
359.576	99.19
359.802	91.19
360.029	103.19
360.256	104.19
360.483	100.19
360.709	99.19
360.936	86.19
361.163	93.19
361.39	104.19
361.616	96.19
361.843	83.19
362.07	81.19
362.296	97.19
362.523	99.19
362.749	85.19
362.976	93.19
363.203	103.19
363.429	87.19
363.656	93.19
363.882	71.19
364.109	87.19
364.335	84.19
364.562	99.19
364.788	96.19
365.015	105.19
365.241	88.19
365.468	96.19
365.694	105.19
365.92	89.19
366.147	98.19
366.373	91.19
366.599	92.19
366.826	86.19
367.052	105.19
367.278	85.19
367.505	102.19
367.731	87.19
367.957	104.19
368.184	105.19
368.41	98.19
368.636	123.19
368.862	103.19
369.089	113.19
369.315	93.19
369.541	92.19
369.767	94.19
369.993	104.19
370.219	94.19
370.445	91.19
370.672	99.19
370.898	90.19
371.124	92.19
371.35	91.19
371.576	84.19
371.802	77.19
372.028	103.19
372.254	83.19
372.48	82.19
372.706	87.19
372.932	82.19
373.158	85.19
373.384	93.19
373.61	103.19
373.835	89.19
374.061	80.19
374.287	87.19
374.513	82.19
374.739	99.19
374.965	84.19
375.191	100.19
375.416	94.19
375.642	87.19
375.868	84.19
376.094	100.19
376.319	94.19
376.545	80.19
376.771	95.19
376.997	88.19
377.222	93.19
377.448	100.19
377.674	87.19
377.899	92.19
378.125	92.19
378.35	100.19
378.576	105.19
378.802	94.19
379.027	103.19
379.253	94.19
379.478	104.19
379.704	103.19
379.929	101.19
380.155	95.19
380.38	111.19
380.606	100.19
380.831	116.19
381.057	103.19
381.282	95.19
381.507	112.19
381.733	96.19
381.958	91.19
382.184	104.19
382.409	111.19
382.634	99.19
382.86	126.19
383.085	113.19
383.31	115.19
383.535	117.19
383.761	112.19
383.986	107.19
384.211	123.19
384.436	108.19
384.662	97.19
384.887	122.19
385.112	133.19
385.337	131.19
385.562	136.19
385.787	120.19
386.013	124.19
386.238	129.19
386.463	127.19
386.688	134.19
386.913	137.19
387.138	117.19
387.363	121.19
387.588	130.19
387.813	116.19
388.038	139.19
388.263	132.19
388.488	131.19
388.713	93.19
388.938	96.19
389.163	94.19
389.387	101.19
389.612	88.19
389.837	87.19
390.062	96.19
390.287	93.19
390.512	94.19
390.736	105.19
390.961	95.19
391.186	91.19
391.411	83.19
391.636	102.19
391.86	89.19
392.085	88.19
392.31	85.19
392.534	82.19
392.759	87.19
392.984	92.19
393.208	146.19
393.433	188.19
393.658	171.19
393.882	95.19
394.107	103.19
394.331	77.19
394.556	87.19
394.78	82.19
395.005	89.19
395.229	95.19
395.454	79.19
395.678	87.19
395.903	82.19
396.127	89.19
396.352	98.19
396.576	111.19
396.801	129.19
397.025	133.19
397.249	98.19
397.474	80.19
397.698	92.19
397.922	92.19
398.147	78.19
398.371	93.19
398.595	71.19
398.82	91.19
399.044	98.19
399.268	90.19
399.492	93.19
399.717	96.19
399.941	89.19
400.165	93.19
400.389	86.19
400.613	101.19
400.837	87.19
401.062	89.19
401.286	105.19
401.51	91.19
401.734	89.19
401.958	102.19
402.182	127.19
402.406	141.19
402.63	110.19
402.854	79.19
403.078	92.19
403.302	92.19
403.526	81.19
403.75	88.19
403.974	97.19
404.198	102.19
404.422	95.19
404.645	84.19
404.869	103.19
405.093	95.19
405.317	100.19
405.541	91.19
405.765	101.19
405.988	118.19
406.212	139.19
406.436	191.19
406.66	123.19
406.883	88.19
407.107	102.19
407.331	108.19
407.555	92.19
407.778	97.19
408.002	95.19
408.226	86.19
408.449	96.19
408.673	99.19
408.896	89.19
409.12	89.19
409.344	81.19
409.567	97.19
409.791	93.19
410.014	90.19
410.238	96.19
410.461	87.19
410.685	94.19
410.908	104.19
411.132	89.19
411.355	101.19
411.578	87.19
411.802	96.19
412.025	88.19
412.249	88.19
412.472	102.19
412.695	104.19
412.919	96.19
413.142	89.19
413.365	98.19
413.589	87.19
413.812	92.19
414.035	91.19
414.258	96.19
414.482	97.19
414.705	91.19
414.928	94.19
415.151	96.19
415.374	86.19
415.597	95.19
415.821	95.19
416.044	88.19
416.267	85.19
416.49	101.19
416.713	87.19
416.936	93.19
417.159	91.19
417.382	90.19
417.605	104.19
417.828	96.19
418.051	91.19
418.274	96.19
418.497	89.19
418.72	77.19
418.943	91.19
419.166	88.19
419.389	86.19
419.611	89.19
419.834	101.19
420.057	88.19
420.28	91.19
420.503	88.19
420.726	91.19
420.948	88.19
421.171	96.19
421.394	93.19
421.617	95.19
421.839	95.19
422.062	97.19
422.285	110.19
422.507	108.19
422.73	125.19
422.953	109.19
423.175	83.19
423.398	88.19
423.621	107.19
423.843	106.19
424.066	84.19
424.288	87.19
424.511	91.19
424.733	95.19
424.956	100.19
425.178	87.19
425.401	92.19
425.623	93.19
425.846	88.19
426.068	100.19
426.291	101.19
426.513	104.19
426.735	67.19
426.958	88.19
427.18	108.19
427.402	135.19
427.625	167.19
427.847	122.19
428.069	112.19
428.292	89.19
428.514	85.19
428.736	84.19
428.958	89.19
429.181	87.19
429.403	85.19
429.625	89.19
429.847	89.19
430.069	102.19
430.292	93.19
430.514	89.19
430.736	84.19
430.958	83.19
431.18	84.19
431.402	92.19
431.624	93.19
431.846	92.19
432.068	89.19
432.29	80.19
432.512	84.19
432.734	84.19
432.956	92.19
433.178	99.19
433.4	87.19
433.622	90.19
433.844	100.19
434.066	96.19
434.287	97.19
434.509	85.19
434.731	93.19
434.953	79.19
435.175	94.19
435.397	92.19
435.618	87.19
435.84	117.19
436.062	118.19
436.284	107.19
436.505	85.19
436.727	98.19
436.949	99.19
437.17	81.19
437.392	87.19
437.614	103.19
437.835	103.19
438.057	120.19
438.278	99.19
438.5	104.19
438.721	115.19
438.943	104.19
439.165	87.19
439.386	96.19
439.608	98.19
439.829	98.19
440.05	130.19
440.272	140.19
440.493	97.19
440.715	79.19
440.936	84.19
441.158	96.19
441.379	88.19
441.6	105.19
441.822	93.19
442.043	93.19
442.264	104.19
442.486	99.19
442.707	86.19
442.928	99.19
443.149	113.19
443.371	117.19
443.592	101.19
443.813	105.19
444.034	99.19
444.255	83.19
444.476	80.19
444.698	108.19
444.919	79.19
445.14	131.19
445.361	124.19
445.582	117.19
445.803	137.19
446.024	124.19
446.245	117.19
446.466	108.19
446.687	84.19
446.908	87.19
447.129	90.19
447.35	89.19
447.571	91.19
447.792	84.19
448.013	109.19
448.234	110.19
448.455	103.19
448.675	115.19
448.896	111.19
449.117	115.19
449.338	114.19
449.559	142.19
449.779	120.19
450	95.19
450.221	91.19
450.442	87.19
450.662	88.19
450.883	102.19
451.104	114.19
451.324	89.19
451.545	91.19
451.766	88.19
451.986	72.19
452.207	104.19
452.428	96.19
452.648	104.19
452.869	109.19
453.089	105.19
453.31	116.19
453.53	91.19
453.751	75.19
453.971	80.19
454.192	91.19
454.412	84.19
454.633	80.19
454.853	89.19
455.073	72.19
455.294	102.19
455.514	93.19
455.734	95.19
455.955	88.19
456.175	88.19
456.395	85.19
456.616	112.19
456.836	94.19
457.056	96.19
457.276	93.19
457.497	80.19
457.717	62.19
457.937	94.19
458.157	91.19
458.377	80.19
458.598	96.19
458.818	131.19
459.038	158.19
459.258	99.19
459.478	88.19
459.698	90.19
459.918	90.19
460.138	86.19
460.358	79.19
460.578	96.19
460.798	93.19
461.018	89.19
461.238	76.19
461.458	82.19
461.678	75.19
461.898	81.19
462.118	76.19
462.338	94.19
462.558	87.19
462.777	103.19
462.997	92.19
463.217	101.19
463.437	87.19
463.657	90.19
463.876	101.19
464.096	96.19
464.316	92.19
464.536	86.19
464.755	98.19
464.975	100.19
465.195	142.19
465.414	145.19
465.634	91.19
465.854	95.19
466.073	80.19
466.293	83.19
466.512	85.19
466.732	98.19
466.951	93.19
467.171	93.19
467.391	96.19
467.61	104.19
467.829	99.19
468.049	154.19
468.268	177.19
468.488	98.19
468.707	97.19
468.927	87.19
469.146	98.19
469.365	97.19
469.585	84.19
469.804	91.19
470.023	78.19
470.243	87.19
470.462	100.19
470.681	91.19
470.901	101.19
471.12	83.19
471.339	94.19
471.558	97.19
471.777	92.19
471.997	115.19
472.216	227.19
472.435	412.19
472.654	136.19
472.873	102.19
473.092	84.19
473.311	87.19
473.53	84.19
473.749	85.19
473.968	105.19
474.187	105.19
474.406	87.19
474.625	88.19
474.844	101.19
475.063	88.19
475.282	84.19
475.501	93.19
475.72	91.19
475.939	90.19
476.158	78.19
476.377	87.19
476.596	93.19
476.814	93.19
477.033	85.19
477.252	87.19
477.471	78.19
477.69	95.19
477.908	87.19
478.127	102.19
478.346	79.19
478.564	91.19
478.783	102.19
479.002	89.19
479.22	87.19
479.439	93.19
479.658	91.19
479.876	95.19
480.095	98.19
480.313	103.19
480.532	94.19
480.751	111.19
480.969	237.19
481.188	696.19
481.406	422.19
481.624	127.19
481.843	92.19
482.061	91.19
482.28	81.19
482.498	88.19
482.717	92.19
482.935	95.19
483.153	84.19
483.372	86.19
483.59	96.19
483.808	84.19
484.027	88.19
484.245	88.19
484.463	87.19
484.681	108.19
484.9	101.19
485.118	83.19
485.336	97.19
485.554	87.19
485.772	113.19
485.99	116.19
486.209	104.19
486.427	103.19
486.645	106.19
486.863	105.19
487.081	108.19
487.299	93.19
487.517	98.19
487.735	95.19
487.953	102.19
488.171	112.19
488.389	87.19
488.607	92.19
488.825	82.19
489.043	96.19
489.261	81.19
489.479	80.19
489.696	76.19
489.914	85.19
490.132	84.19
490.35	94.19
490.568	91.19
490.786	85.19
491.003	79.19
491.221	89.19
491.439	97.19
491.657	88.19
491.874	99.19
492.092	91.19
492.31	80.19
492.527	92.19
492.745	99.19
492.963	88.19
493.18	96.19
493.398	79.19
493.615	93.19
493.833	91.19
494.05	82.19
494.268	98.19
494.485	95.19
494.703	90.19
494.92	73.19
495.138	95.19
495.355	81.19
495.573	87.19
495.79	94.19
496.008	97.19
496.225	93.19
496.442	93.19
496.66	93.19
496.877	81.19
497.094	88.19
497.312	103.19
497.529	90.19
497.746	80.19
497.963	87.19
498.181	77.19
498.398	87.19
498.615	117.19
498.832	110.19
499.049	97.19
499.267	99.19
499.484	86.19
499.701	83.19
499.918	81.19
500.135	87.19
500.352	91.19
500.569	83.19
500.786	87.19
501.003	99.19
501.22	98.19
501.437	78.19
501.654	87.19
501.871	98.19
502.088	85.19
502.305	94.19
502.522	92.19
502.739	99.19
502.956	80.19
503.172	81.19
503.389	88.19
503.606	95.19
503.823	97.19
504.04	87.19
504.256	83.19
504.473	83.19
504.69	94.19
504.907	87.19
505.123	90.19
505.34	84.19
505.557	91.19
505.773	81.19
505.99	92.19
506.207	90.19
506.423	77.19
506.64	105.19
506.856	79.19
507.073	92.19
507.289	95.19
507.506	110.19
507.722	96.19
507.939	103.19
508.155	94.19
508.372	103.19
508.588	103.19
508.805	108.19
509.021	102.19
509.238	99.19
509.454	82.19
509.67	104.19
509.887	112.19
510.103	109.19
510.319	177.19
510.536	561.19
510.752	1854.19
510.968	523.19
511.184	130.19
511.401	103.19
511.617	98.19
511.833	86.19
512.049	89.19
512.265	100.19
512.481	90.19
512.698	97.19
512.914	85.19
513.13	95.19
513.346	79.19
513.562	75.19
513.778	87.19
513.994	89.19
514.21	91.19
514.426	110.19
514.642	121.19
514.858	110.19
515.074	136.19
