Data from Circ_1991_H10_HRD10591_00075.txt Node
Date: Wed Jan 03 11:51:56 EST 2024
User: Yrep
Spectrometer: HR+D1059
Trigger mode: 1
Integration Time (sec): 1.000000E-1
Scans to average: 1
Electric dark correction enabled: true
Nonlinearity correction enabled: false
Boxcar width: 0
XAxis mode: Wavelengths
Number of Pixels in Spectrum: 2048
>>>>>Begin Spectral Data<<<<<
223.165	-19.56
223.4	-19.56
223.635	-19.56
223.869	-7.56
224.104	-33.56
224.338	-17.56
224.573	-10.56
224.808	-15.56
225.042	0.44
225.277	-11.56
225.511	-5.56
225.746	-3.56
225.98	7.44
226.215	4.44
226.449	22.44
226.683	33.44
226.918	36.44
227.152	20.44
227.387	32.44
227.621	46.44
227.856	44.44
228.09	35.44
228.324	46.44
228.559	52.44
228.793	60.44
229.027	71.44
229.262	62.44
229.496	75.44
229.73	86.44
229.964	70.44
230.199	83.44
230.433	76.44
230.667	75.44
230.901	95.44
231.136	80.44
231.37	77.44
231.604	60.44
231.838	85.44
232.072	72.44
232.306	72.44
232.541	76.44
232.775	80.44
233.009	69.44
233.243	72.44
233.477	86.44
233.711	74.44
233.945	84.44
234.179	88.44
234.413	73.44
234.647	90.44
234.881	81.44
235.115	72.44
235.349	69.44
235.583	84.44
235.817	80.44
236.051	76.44
236.285	83.44
236.519	87.44
236.753	66.44
236.987	85.44
237.221	76.44
237.455	95.44
237.689	82.44
237.922	88.44
238.156	91.44
238.39	81.44
238.624	71.44
238.858	79.44
239.091	73.44
239.325	79.44
239.559	83.44
239.793	81.44
240.027	87.44
240.26	69.44
240.494	82.44
240.728	77.44
240.961	74.44
241.195	92.44
241.429	80.44
241.662	76.44
241.896	72.44
242.13	83.44
242.363	96.44
242.597	78.44
242.83	78.44
243.064	78.44
243.298	75.44
243.531	86.44
243.765	75.44
243.998	74.44
244.232	81.44
244.465	68.44
244.699	84.44
244.932	72.44
245.166	68.44
245.399	91.44
245.633	84.44
245.866	84.44
246.099	90.44
246.333	86.44
246.566	61.44
246.8	68.44
247.033	75.44
247.266	75.44
247.5	71.44
247.733	75.44
247.966	79.44
248.2	78.44
248.433	59.44
248.666	90.44
248.899	91.44
249.133	90.44
249.366	90.44
249.599	97.44
249.832	88.44
250.066	91.44
250.299	89.44
250.532	78.44
250.765	81.44
250.998	79.44
251.231	81.44
251.465	82.44
251.698	94.44
251.931	78.44
252.164	87.44
252.397	76.44
252.63	76.44
252.863	79.44
253.096	78.44
253.329	82.44
253.562	68.44
253.795	74.44
254.028	91.44
254.261	83.44
254.494	92.44
254.727	83.44
254.96	76.44
255.193	94.44
255.426	82.44
255.659	93.44
255.892	80.44
256.124	96.44
256.357	90.44
256.59	76.44
256.823	80.44
257.056	80.44
257.289	80.44
257.521	82.44
257.754	90.44
257.987	87.44
258.22	82.44
258.452	79.44
258.685	95.44
258.918	80.44
259.151	89.44
259.383	83.44
259.616	82.44
259.849	80.44
260.081	85.44
260.314	89.44
260.547	98.44
260.779	72.44
261.012	85.44
261.244	98.44
261.477	83.44
261.71	95.44
261.942	110.44
262.175	110.44
262.407	104.44
262.64	84.44
262.872	96.44
263.105	80.44
263.337	84.44
263.57	74.44
263.802	85.44
264.035	78.44
264.267	76.44
264.499	82.44
264.732	71.44
264.964	71.44
265.197	86.44
265.429	96.44
265.661	78.44
265.894	84.44
266.126	90.44
266.358	83.44
266.591	81.44
266.823	80.44
267.055	79.44
267.287	78.44
267.52	78.44
267.752	91.44
267.984	87.44
268.216	76.44
268.448	99.44
268.681	85.44
268.913	85.44
269.145	75.44
269.377	89.44
269.609	85.44
269.841	94.44
270.073	74.44
270.306	76.44
270.538	90.44
270.77	91.44
271.002	78.44
271.234	92.44
271.466	91.44
271.698	80.44
271.93	84.44
272.162	96.44
272.394	95.44
272.626	89.44
272.858	82.44
273.09	76.44
273.322	74.44
273.553	76.44
273.785	77.44
274.017	79.44
274.249	86.44
274.481	98.44
274.713	75.44
274.945	85.44
275.176	80.44
275.408	86.44
275.64	99.44
275.872	101.44
276.104	79.44
276.335	86.44
276.567	98.44
276.799	123.44
277.031	132.44
277.262	106.44
277.494	107.44
277.726	104.44
277.957	82.44
278.189	90.44
278.421	95.44
278.652	98.44
278.884	81.44
279.115	93.44
279.347	83.44
279.579	87.44
279.81	96.44
280.042	127.44
280.273	127.44
280.505	114.44
280.736	100.44
280.968	85.44
281.199	85.44
281.431	91.44
281.662	100.44
281.894	91.44
282.125	94.44
282.356	110.44
282.588	131.44
282.819	130.44
283.051	95.44
283.282	91.44
283.513	86.44
283.745	96.44
283.976	82.44
284.207	92.44
284.439	84.44
284.67	87.44
284.901	91.44
285.132	84.44
285.364	84.44
285.595	90.44
285.826	83.44
286.057	92.44
286.288	105.44
286.52	98.44
286.751	102.44
286.982	96.44
287.213	97.44
287.444	74.44
287.675	102.44
287.906	79.44
288.138	86.44
288.369	91.44
288.6	103.44
288.831	99.44
289.062	93.44
289.293	71.44
289.524	80.44
289.755	87.44
289.986	83.44
290.217	84.44
290.448	83.44
290.679	81.44
290.91	83.44
291.141	91.44
291.371	79.44
291.602	72.44
291.833	103.44
292.064	82.44
292.295	86.44
292.526	93.44
292.757	89.44
292.987	90.44
293.218	94.44
293.449	84.44
293.68	87.44
293.91	87.44
294.141	90.44
294.372	93.44
294.603	91.44
294.833	97.44
295.064	92.44
295.295	88.44
295.525	85.44
295.756	97.44
295.987	115.44
296.217	135.44
296.448	124.44
296.679	83.44
296.909	92.44
297.14	78.44
297.37	88.44
297.601	87.44
297.831	91.44
298.062	91.44
298.292	101.44
298.523	90.44
298.753	77.44
298.984	102.44
299.214	79.44
299.445	90.44
299.675	78.44
299.905	92.44
300.136	108.44
300.366	93.44
300.597	93.44
300.827	96.44
301.057	86.44
301.288	101.44
301.518	94.44
301.748	97.44
301.979	87.44
302.209	93.44
302.439	96.44
302.669	88.44
302.9	102.44
303.13	103.44
303.36	95.44
303.59	114.44
303.82	120.44
304.051	99.44
304.281	93.44
304.511	93.44
304.741	91.44
304.971	91.44
305.201	95.44
305.431	90.44
305.661	95.44
305.891	86.44
306.121	86.44
306.352	93.44
306.582	108.44
306.812	98.44
307.042	92.44
307.272	108.44
307.502	123.44
307.731	111.44
307.961	98.44
308.191	92.44
308.421	86.44
308.651	99.44
308.881	85.44
309.111	88.44
309.341	88.44
309.571	95.44
309.8	99.44
310.03	103.44
310.26	90.44
310.49	99.44
310.72	103.44
310.949	114.44
311.179	101.44
311.409	103.44
311.639	101.44
311.868	94.44
312.098	86.44
312.328	92.44
312.557	93.44
312.787	104.44
313.017	93.44
313.246	102.44
313.476	86.44
313.706	82.44
313.935	87.44
314.165	96.44
314.394	89.44
314.624	104.44
314.853	104.44
315.083	96.44
315.312	89.44
315.542	106.44
315.771	93.44
316.001	92.44
316.23	87.44
316.46	99.44
316.689	111.44
316.919	101.44
317.148	86.44
317.377	96.44
317.607	95.44
317.836	93.44
318.065	107.44
318.295	86.44
318.524	92.44
318.753	97.44
318.983	100.44
319.212	98.44
319.441	115.44
319.67	104.44
319.9	83.44
320.129	82.44
320.358	107.44
320.587	111.44
320.816	91.44
321.046	90.44
321.275	90.44
321.504	93.44
321.733	104.44
321.962	101.44
322.191	96.44
322.42	103.44
322.649	110.44
322.878	105.44
323.108	111.44
323.337	109.44
323.566	129.44
323.795	141.44
324.024	196.44
324.253	381.44
324.482	839.44
324.71	1732.44
324.939	2327.44
325.168	850.44
325.397	252.44
325.626	158.44
325.855	124.44
326.084	130.44
326.313	135.44
326.542	156.44
326.77	241.44
326.999	443.44
327.228	943.44
327.457	1798.44
327.686	1413.44
327.914	387.44
328.143	272.44
328.372	289.44
328.6	187.44
328.829	130.44
329.058	144.44
329.287	125.44
329.515	114.44
329.744	145.44
329.972	204.44
330.201	389.44
330.43	499.44
330.658	273.44
330.887	144.44
331.115	116.44
331.344	92.44
331.572	106.44
331.801	107.44
332.03	97.44
332.258	99.44
332.486	104.44
332.715	97.44
332.943	98.44
333.172	108.44
333.4	103.44
333.629	112.44
333.857	132.44
334.085	195.44
334.314	351.44
334.542	641.44
334.771	584.44
334.999	199.44
335.227	120.44
335.455	111.44
335.684	113.44
335.912	96.44
336.14	94.44
336.369	106.44
336.597	106.44
336.825	102.44
337.053	99.44
337.281	107.44
337.51	81.44
337.738	90.44
337.966	98.44
338.194	89.44
338.422	87.44
338.65	79.44
338.878	80.44
339.106	86.44
339.334	88.44
339.562	75.44
339.79	87.44
340.018	87.44
340.246	96.44
340.474	94.44
340.702	95.44
340.93	77.44
341.158	90.44
341.386	100.44
341.614	91.44
341.842	86.44
342.07	87.44
342.298	96.44
342.526	94.44
342.754	91.44
342.981	90.44
343.209	99.44
343.437	93.44
343.665	98.44
343.893	98.44
344.12	103.44
344.348	89.44
344.576	81.44
344.804	80.44
345.031	114.44
345.259	88.44
345.487	97.44
345.714	95.44
345.942	106.44
346.17	89.44
346.397	93.44
346.625	102.44
346.853	80.44
347.08	91.44
347.308	100.44
347.535	86.44
347.763	107.44
347.99	98.44
348.218	100.44
348.445	95.44
348.673	103.44
348.9	80.44
349.128	96.44
349.355	90.44
349.583	83.44
349.81	91.44
350.037	92.44
350.265	93.44
350.492	92.44
350.72	99.44
350.947	102.44
351.174	104.44
351.402	110.44
351.629	94.44
351.856	94.44
352.083	101.44
352.311	101.44
352.538	97.44
352.765	107.44
352.992	118.44
353.22	112.44
353.447	99.44
353.674	102.44
353.901	103.44
354.128	90.44
354.355	100.44
354.583	102.44
354.81	96.44
355.037	91.44
355.264	92.44
355.491	95.44
355.718	105.44
355.945	87.44
356.172	95.44
356.399	94.44
356.626	94.44
356.853	85.44
357.08	96.44
357.307	95.44
357.534	104.44
357.761	91.44
357.988	90.44
358.215	87.44
358.441	94.44
358.668	84.44
358.895	92.44
359.122	87.44
359.349	102.44
359.576	84.44
359.802	95.44
360.029	105.44
360.256	105.44
360.483	98.44
360.709	78.44
360.936	89.44
361.163	79.44
361.39	85.44
361.616	109.44
361.843	88.44
362.07	85.44
362.296	82.44
362.523	80.44
362.749	93.44
362.976	93.44
363.203	99.44
363.429	82.44
363.656	93.44
363.882	78.44
364.109	88.44
364.335	93.44
364.562	89.44
364.788	89.44
365.015	97.44
365.241	95.44
365.468	101.44
365.694	104.44
365.92	87.44
366.147	94.44
366.373	88.44
366.599	90.44
366.826	84.44
367.052	82.44
367.278	99.44
367.505	99.44
367.731	98.44
367.957	81.44
368.184	97.44
368.41	91.44
368.636	115.44
368.862	107.44
369.089	102.44
369.315	93.44
369.541	91.44
369.767	83.44
369.993	94.44
370.219	92.44
370.445	87.44
370.672	86.44
370.898	90.44
371.124	88.44
371.35	85.44
371.576	82.44
371.802	95.44
372.028	77.44
372.254	76.44
372.48	77.44
372.706	98.44
372.932	90.44
373.158	81.44
373.384	100.44
373.61	86.44
373.835	79.44
374.061	94.44
374.287	100.44
374.513	95.44
374.739	86.44
374.965	90.44
375.191	94.44
375.416	88.44
375.642	90.44
375.868	90.44
376.094	95.44
376.319	87.44
376.545	86.44
376.771	72.44
376.997	87.44
377.222	78.44
377.448	100.44
377.674	97.44
377.899	99.44
378.125	87.44
378.35	77.44
378.576	79.44
378.802	100.44
379.027	88.44
379.253	89.44
379.478	83.44
379.704	99.44
379.929	101.44
380.155	101.44
380.38	102.44
380.606	101.44
380.831	82.44
381.057	87.44
381.282	92.44
381.507	81.44
381.733	83.44
381.958	111.44
382.184	103.44
382.409	91.44
382.634	101.44
382.86	109.44
383.085	115.44
383.31	92.44
383.535	103.44
383.761	92.44
383.986	106.44
384.211	92.44
384.436	93.44
384.662	92.44
384.887	103.44
385.112	96.44
385.337	96.44
385.562	102.44
385.787	102.44
386.013	111.44
386.238	99.44
386.463	103.44
386.688	105.44
386.913	105.44
387.138	91.44
387.363	95.44
387.588	103.44
387.813	95.44
388.038	97.44
388.263	100.44
388.488	101.44
388.713	106.44
388.938	96.44
389.163	103.44
389.387	86.44
389.612	99.44
389.837	85.44
390.062	90.44
390.287	90.44
390.512	96.44
390.736	86.44
390.961	103.44
391.186	79.44
391.411	88.44
391.636	92.44
391.86	81.44
392.085	83.44
392.31	104.44
392.534	82.44
392.759	85.44
392.984	93.44
393.208	88.44
393.433	92.44
393.658	90.44
393.882	90.44
394.107	104.44
394.331	87.44
394.556	86.44
394.78	87.44
395.005	88.44
395.229	80.44
395.454	81.44
395.678	99.44
395.903	78.44
396.127	85.44
396.352	83.44
396.576	82.44
396.801	91.44
397.025	108.44
397.249	93.44
397.474	94.44
397.698	81.44
397.922	95.44
398.147	86.44
398.371	95.44
398.595	91.44
398.82	77.44
399.044	95.44
399.268	93.44
399.492	83.44
399.717	97.44
399.941	84.44
400.165	89.44
400.389	96.44
400.613	102.44
400.837	83.44
401.062	86.44
401.286	87.44
401.51	91.44
401.734	90.44
401.958	94.44
402.182	111.44
402.406	140.44
402.63	109.44
402.854	90.44
403.078	87.44
403.302	98.44
403.526	88.44
403.75	83.44
403.974	89.44
404.198	88.44
404.422	89.44
404.645	88.44
404.869	96.44
405.093	101.44
405.317	109.44
405.541	111.44
405.765	91.44
405.988	119.44
406.212	157.44
406.436	218.44
406.66	141.44
406.883	104.44
407.107	95.44
407.331	103.44
407.555	108.44
407.778	106.44
408.002	88.44
408.226	110.44
408.449	92.44
408.673	86.44
408.896	104.44
409.12	101.44
409.344	75.44
409.567	84.44
409.791	101.44
410.014	92.44
410.238	108.44
410.461	94.44
410.685	92.44
410.908	95.44
411.132	86.44
411.355	96.44
411.578	92.44
411.802	89.44
412.025	94.44
412.249	87.44
412.472	92.44
412.695	111.44
412.919	80.44
413.142	89.44
413.365	84.44
413.589	94.44
413.812	84.44
414.035	84.44
414.258	103.44
414.482	100.44
414.705	90.44
414.928	83.44
415.151	85.44
415.374	104.44
415.597	99.44
415.821	101.44
416.044	96.44
416.267	87.44
416.49	94.44
416.713	85.44
416.936	87.44
417.159	93.44
417.382	82.44
417.605	87.44
417.828	112.44
418.051	76.44
418.274	78.44
418.497	94.44
418.72	94.44
418.943	89.44
419.166	95.44
419.389	94.44
419.611	81.44
419.834	85.44
420.057	82.44
420.28	85.44
420.503	80.44
420.726	81.44
420.948	100.44
421.171	93.44
421.394	74.44
421.617	95.44
421.839	87.44
422.062	87.44
422.285	99.44
422.507	92.44
422.73	88.44
422.953	86.44
423.175	99.44
423.398	72.44
423.621	90.44
423.843	80.44
424.066	93.44
424.288	91.44
424.511	81.44
424.733	93.44
424.956	104.44
425.178	109.44
425.401	89.44
425.623	92.44
425.846	90.44
426.068	86.44
426.291	102.44
426.513	87.44
426.735	98.44
426.958	99.44
427.18	111.44
427.402	154.44
427.625	172.44
427.847	150.44
428.069	149.44
428.292	91.44
428.514	96.44
428.736	88.44
428.958	82.44
429.181	88.44
429.403	94.44
429.625	107.44
429.847	101.44
430.069	100.44
430.292	88.44
430.514	88.44
430.736	66.44
430.958	94.44
431.18	86.44
431.402	82.44
431.624	94.44
431.846	93.44
432.068	74.44
432.29	84.44
432.512	107.44
432.734	77.44
432.956	96.44
433.178	103.44
433.4	104.44
433.622	84.44
433.844	87.44
434.066	82.44
434.287	104.44
434.509	91.44
434.731	91.44
434.953	90.44
435.175	90.44
435.397	80.44
435.618	85.44
435.84	91.44
436.062	111.44
436.284	103.44
436.505	103.44
436.727	93.44
436.949	74.44
437.17	92.44
437.392	80.44
437.614	101.44
437.835	120.44
438.057	104.44
438.278	90.44
438.5	96.44
438.721	109.44
438.943	96.44
439.165	97.44
439.386	95.44
439.608	99.44
439.829	96.44
440.05	119.44
440.272	127.44
440.493	102.44
440.715	100.44
440.936	94.44
441.158	92.44
441.379	90.44
441.6	94.44
441.822	103.44
442.043	97.44
442.264	106.44
442.486	106.44
442.707	91.44
442.928	101.44
443.149	114.44
443.371	130.44
443.592	102.44
443.813	126.44
444.034	97.44
444.255	97.44
444.476	88.44
444.698	92.44
444.919	87.44
445.14	113.44
445.361	122.44
445.582	102.44
445.803	141.44
446.024	126.44
446.245	139.44
446.466	107.44
446.687	85.44
446.908	78.44
447.129	95.44
447.35	84.44
447.571	93.44
447.792	101.44
448.013	97.44
448.234	93.44
448.455	100.44
448.675	109.44
448.896	111.44
449.117	94.44
449.338	98.44
449.559	111.44
449.779	121.44
450	97.44
450.221	93.44
450.442	78.44
450.662	89.44
450.883	103.44
451.104	110.44
451.324	91.44
451.545	82.44
451.766	86.44
451.986	97.44
452.207	74.44
452.428	85.44
452.648	99.44
452.869	96.44
453.089	119.44
453.31	106.44
453.53	82.44
453.751	83.44
453.971	96.44
454.192	103.44
454.412	87.44
454.633	92.44
454.853	87.44
455.073	101.44
455.294	91.44
455.514	83.44
455.734	75.44
455.955	70.44
456.175	76.44
456.395	75.44
456.616	85.44
456.836	87.44
457.056	78.44
457.276	91.44
457.497	83.44
457.717	90.44
457.937	74.44
458.157	73.44
458.377	94.44
458.598	108.44
458.818	148.44
459.038	166.44
459.258	121.44
459.478	97.44
459.698	83.44
459.918	84.44
460.138	88.44
460.358	90.44
460.578	87.44
460.798	83.44
461.018	89.44
461.238	86.44
461.458	107.44
461.678	93.44
461.898	89.44
462.118	89.44
462.338	87.44
462.558	88.44
462.777	94.44
462.997	95.44
463.217	99.44
463.437	75.44
463.657	90.44
463.876	81.44
464.096	90.44
464.316	87.44
464.536	78.44
464.755	102.44
464.975	124.44
465.195	157.44
465.414	146.44
465.634	98.44
465.854	97.44
466.073	93.44
466.293	74.44
466.512	91.44
466.732	88.44
466.951	81.44
467.171	96.44
467.391	95.44
467.61	118.44
467.829	139.44
468.049	262.44
468.268	325.44
468.488	135.44
468.707	92.44
468.927	87.44
469.146	98.44
469.365	70.44
469.585	63.44
469.804	94.44
470.023	99.44
470.243	103.44
470.462	96.44
470.681	101.44
470.901	91.44
471.12	93.44
471.339	103.44
471.558	83.44
471.777	93.44
471.997	176.44
472.216	463.44
472.435	912.44
472.654	254.44
472.873	130.44
473.092	85.44
473.311	91.44
473.53	80.44
473.749	82.44
473.968	93.44
474.187	92.44
474.406	101.44
474.625	93.44
474.844	74.44
475.063	92.44
475.282	88.44
475.501	84.44
475.72	86.44
475.939	89.44
476.158	82.44
476.377	85.44
476.596	101.44
476.814	87.44
477.033	96.44
477.252	92.44
477.471	94.44
477.69	76.44
477.908	86.44
478.127	91.44
478.346	88.44
478.564	94.44
478.783	103.44
479.002	94.44
479.22	111.44
479.439	92.44
479.658	101.44
479.876	99.44
480.095	100.44
480.313	108.44
480.532	121.44
480.751	180.44
480.969	413.44
481.188	1609.44
481.406	904.44
481.624	175.44
481.843	103.44
482.061	104.44
482.28	92.44
482.498	105.44
482.717	101.44
482.935	79.44
483.153	85.44
483.372	92.44
483.59	85.44
483.808	89.44
484.027	81.44
484.245	88.44
484.463	102.44
484.681	88.44
484.9	89.44
485.118	97.44
485.336	78.44
485.554	90.44
485.772	96.44
485.99	102.44
486.209	106.44
486.427	96.44
486.645	101.44
486.863	96.44
487.081	104.44
487.299	78.44
487.517	94.44
487.735	101.44
487.953	90.44
488.171	87.44
488.389	106.44
488.607	86.44
488.825	74.44
489.043	86.44
489.261	82.44
489.479	86.44
489.696	87.44
489.914	98.44
490.132	82.44
490.35	96.44
490.568	91.44
490.786	99.44
491.003	85.44
491.221	95.44
491.439	95.44
491.657	85.44
491.874	99.44
492.092	87.44
492.31	93.44
492.527	99.44
492.745	88.44
492.963	87.44
493.18	99.44
493.398	98.44
493.615	98.44
493.833	90.44
494.05	96.44
494.268	90.44
494.485	94.44
494.703	79.44
494.92	86.44
495.138	91.44
495.355	102.44
495.573	101.44
495.79	93.44
496.008	79.44
496.225	90.44
496.442	97.44
496.66	92.44
496.877	95.44
497.094	90.44
497.312	102.44
497.529	96.44
497.746	88.44
497.963	87.44
498.181	96.44
498.398	79.44
498.615	100.44
498.832	94.44
499.049	85.44
499.267	106.44
499.484	85.44
499.701	92.44
499.918	96.44
500.135	81.44
500.352	81.44
500.569	85.44
500.786	89.44
501.003	89.44
501.22	89.44
501.437	91.44
501.654	101.44
501.871	95.44
502.088	97.44
502.305	91.44
502.522	102.44
502.739	95.44
502.956	74.44
503.172	88.44
503.389	96.44
503.606	96.44
503.823	93.44
504.04	80.44
504.256	102.44
504.473	96.44
504.69	87.44
504.907	101.44
505.123	101.44
505.34	85.44
505.557	99.44
505.773	90.44
505.99	77.44
506.207	90.44
506.423	82.44
506.64	85.44
506.856	97.44
507.073	98.44
507.289	83.44
507.506	110.44
507.722	112.44
507.939	107.44
508.155	95.44
508.372	97.44
508.588	82.44
508.805	98.44
509.021	95.44
509.238	89.44
509.454	104.44
509.67	109.44
509.887	103.44
510.103	120.44
510.319	190.44
510.536	679.44
510.752	2150.44
510.968	601.44
511.184	150.44
511.401	114.44
511.617	93.44
511.833	96.44
512.049	100.44
512.265	86.44
512.481	84.44
512.698	90.44
512.914	108.44
513.13	98.44
513.346	102.44
513.562	95.44
513.778	90.44
513.994	97.44
514.21	103.44
514.426	121.44
514.642	133.44
514.858	125.44
515.074	161.44
515.29	455.44
