Data from Circ_1991_H10_HRD10591_00043.txt Node
Date: Wed Jan 03 11:51:49 EST 2024
User: Yrep
Spectrometer: HR+D1059
Trigger mode: 1
Integration Time (sec): 1.000000E-1
Scans to average: 1
Electric dark correction enabled: true
Nonlinearity correction enabled: false
Boxcar width: 0
XAxis mode: Wavelengths
Number of Pixels in Spectrum: 2048
>>>>>Begin Spectral Data<<<<<
223.165	-16.44
223.4	-16.44
223.635	-16.44
223.869	-14.44
224.104	-17.44
224.338	3.56
224.573	-9.44
224.808	-8.44
225.042	-12.44
225.277	-0.44
225.511	-24.44
225.746	5.56
225.98	-2.44
226.215	11.56
226.449	31.56
226.683	4.56
226.918	17.56
227.152	31.56
227.387	45.56
227.621	31.56
227.856	51.56
228.09	59.56
228.324	48.56
228.559	43.56
228.793	59.56
229.027	51.56
229.262	77.56
229.496	64.56
229.73	67.56
229.964	85.56
230.199	81.56
230.433	79.56
230.667	84.56
230.901	88.56
231.136	67.56
231.37	72.56
231.604	71.56
231.838	73.56
232.072	75.56
232.306	82.56
232.541	79.56
232.775	69.56
233.009	91.56
233.243	95.56
233.477	70.56
233.711	81.56
233.945	82.56
234.179	78.56
234.413	96.56
234.647	96.56
234.881	78.56
235.115	85.56
235.349	75.56
235.583	83.56
235.817	82.56
236.051	95.56
236.285	85.56
236.519	81.56
236.753	83.56
236.987	84.56
237.221	73.56
237.455	91.56
237.689	71.56
237.922	76.56
238.156	79.56
238.39	80.56
238.624	73.56
238.858	81.56
239.091	63.56
239.325	71.56
239.559	88.56
239.793	81.56
240.027	83.56
240.26	83.56
240.494	79.56
240.728	80.56
240.961	65.56
241.195	83.56
241.429	79.56
241.662	76.56
241.896	68.56
242.13	78.56
242.363	68.56
242.597	69.56
242.83	65.56
243.064	77.56
243.298	79.56
243.531	83.56
243.765	89.56
243.998	78.56
244.232	79.56
244.465	84.56
244.699	80.56
244.932	88.56
245.166	82.56
245.399	70.56
245.633	63.56
245.866	86.56
246.099	77.56
246.333	79.56
246.566	80.56
246.8	80.56
247.033	72.56
247.266	79.56
247.5	81.56
247.733	83.56
247.966	87.56
248.2	93.56
248.433	90.56
248.666	87.56
248.899	92.56
249.133	95.56
249.366	98.56
249.599	94.56
249.832	75.56
250.066	85.56
250.299	87.56
250.532	92.56
250.765	75.56
250.998	77.56
251.231	68.56
251.465	83.56
251.698	87.56
251.931	79.56
252.164	75.56
252.397	87.56
252.63	83.56
252.863	85.56
253.096	79.56
253.329	99.56
253.562	89.56
253.795	88.56
254.028	68.56
254.261	81.56
254.494	88.56
254.727	82.56
254.96	83.56
255.193	89.56
255.426	84.56
255.659	80.56
255.892	72.56
256.124	87.56
256.357	94.56
256.59	75.56
256.823	101.56
257.056	80.56
257.289	93.56
257.521	97.56
257.754	83.56
257.987	82.56
258.22	84.56
258.452	89.56
258.685	76.56
258.918	83.56
259.151	92.56
259.383	81.56
259.616	82.56
259.849	85.56
260.081	73.56
260.314	82.56
260.547	94.56
260.779	88.56
261.012	96.56
261.244	96.56
261.477	92.56
261.71	81.56
261.942	114.56
262.175	113.56
262.407	89.56
262.64	94.56
262.872	89.56
263.105	92.56
263.337	94.56
263.57	83.56
263.802	83.56
264.035	67.56
264.267	72.56
264.499	84.56
264.732	91.56
264.964	81.56
265.197	84.56
265.429	79.56
265.661	76.56
265.894	95.56
266.126	85.56
266.358	76.56
266.591	82.56
266.823	82.56
267.055	87.56
267.287	98.56
267.52	89.56
267.752	83.56
267.984	83.56
268.216	88.56
268.448	80.56
268.681	84.56
268.913	91.56
269.145	90.56
269.377	92.56
269.609	85.56
269.841	89.56
270.073	84.56
270.306	81.56
270.538	87.56
270.77	102.56
271.002	71.56
271.234	89.56
271.466	84.56
271.698	101.56
271.93	84.56
272.162	80.56
272.394	67.56
272.626	91.56
272.858	72.56
273.09	85.56
273.322	99.56
273.553	89.56
273.785	85.56
274.017	89.56
274.249	79.56
274.481	86.56
274.713	78.56
274.945	86.56
275.176	85.56
275.408	103.56
275.64	100.56
275.872	94.56
276.104	96.56
276.335	102.56
276.567	88.56
276.799	119.56
277.031	114.56
277.262	120.56
277.494	100.56
277.726	95.56
277.957	71.56
278.189	85.56
278.421	93.56
278.652	88.56
278.884	89.56
279.115	103.56
279.347	89.56
279.579	95.56
279.81	101.56
280.042	105.56
280.273	125.56
280.505	104.56
280.736	85.56
280.968	88.56
281.199	92.56
281.431	95.56
281.662	82.56
281.894	83.56
282.125	102.56
282.356	101.56
282.588	172.56
282.819	124.56
283.051	103.56
283.282	101.56
283.513	97.56
283.745	88.56
283.976	78.56
284.207	87.56
284.439	88.56
284.67	87.56
284.901	90.56
285.132	89.56
285.364	80.56
285.595	80.56
285.826	84.56
286.057	88.56
286.288	101.56
286.52	96.56
286.751	98.56
286.982	88.56
287.213	94.56
287.444	91.56
287.675	97.56
287.906	75.56
288.138	91.56
288.369	91.56
288.6	94.56
288.831	84.56
289.062	87.56
289.293	85.56
289.524	95.56
289.755	95.56
289.986	82.56
290.217	86.56
290.448	97.56
290.679	96.56
290.91	91.56
291.141	86.56
291.371	99.56
291.602	99.56
291.833	94.56
292.064	85.56
292.295	86.56
292.526	85.56
292.757	90.56
292.987	88.56
293.218	97.56
293.449	80.56
293.68	87.56
293.91	80.56
294.141	97.56
294.372	81.56
294.603	80.56
294.833	71.56
295.064	91.56
295.295	82.56
295.525	93.56
295.756	115.56
295.987	109.56
296.217	126.56
296.448	132.56
296.679	102.56
296.909	94.56
297.14	100.56
297.37	88.56
297.601	95.56
297.831	100.56
298.062	86.56
298.292	87.56
298.523	100.56
298.753	79.56
298.984	94.56
299.214	102.56
299.445	93.56
299.675	106.56
299.905	87.56
300.136	98.56
300.366	77.56
300.597	89.56
300.827	92.56
301.057	102.56
301.288	87.56
301.518	105.56
301.748	87.56
301.979	102.56
302.209	90.56
302.439	93.56
302.669	98.56
302.9	93.56
303.13	94.56
303.36	96.56
303.59	103.56
303.82	118.56
304.051	93.56
304.281	91.56
304.511	94.56
304.741	97.56
304.971	93.56
305.201	90.56
305.431	80.56
305.661	93.56
305.891	96.56
306.121	91.56
306.352	104.56
306.582	112.56
306.812	104.56
307.042	110.56
307.272	115.56
307.502	123.56
307.731	128.56
307.961	111.56
308.191	88.56
308.421	106.56
308.651	101.56
308.881	85.56
309.111	82.56
309.341	98.56
309.571	107.56
309.8	85.56
310.03	91.56
310.26	92.56
310.49	108.56
310.72	79.56
310.949	105.56
311.179	110.56
311.409	96.56
311.639	101.56
311.868	91.56
312.098	91.56
312.328	102.56
312.557	93.56
312.787	107.56
313.017	87.56
313.246	93.56
313.476	99.56
313.706	109.56
313.935	100.56
314.165	109.56
314.394	109.56
314.624	91.56
314.853	97.56
315.083	87.56
315.312	95.56
315.542	104.56
315.771	91.56
316.001	100.56
316.23	91.56
316.46	86.56
316.689	95.56
316.919	94.56
317.148	85.56
317.377	97.56
317.607	89.56
317.836	111.56
318.065	85.56
318.295	95.56
318.524	89.56
318.753	104.56
318.983	80.56
319.212	100.56
319.441	106.56
319.67	105.56
319.9	101.56
320.129	89.56
320.358	99.56
320.587	104.56
320.816	99.56
321.046	92.56
321.275	91.56
321.504	94.56
321.733	87.56
321.962	99.56
322.191	113.56
322.42	104.56
322.649	115.56
322.878	100.56
323.108	117.56
323.337	121.56
323.566	129.56
323.795	171.56
324.024	220.56
324.253	405.56
324.482	895.56
324.71	1879.56
324.939	2545.56
325.168	909.56
325.397	270.56
325.626	158.56
325.855	146.56
326.084	116.56
326.313	120.56
326.542	152.56
326.77	246.56
326.999	469.56
327.228	1007.56
327.457	1912.56
327.686	1554.56
327.914	430.56
328.143	271.56
328.372	291.56
328.6	195.56
328.829	139.56
329.058	139.56
329.287	130.56
329.515	111.56
329.744	171.56
329.972	214.56
330.201	368.56
330.43	490.56
330.658	251.56
330.887	175.56
331.115	132.56
331.344	111.56
331.572	103.56
331.801	115.56
332.03	107.56
332.258	110.56
332.486	107.56
332.715	108.56
332.943	107.56
333.172	94.56
333.4	119.56
333.629	117.56
333.857	142.56
334.085	219.56
334.314	348.56
334.542	617.56
334.771	563.56
334.999	209.56
335.227	114.56
335.455	104.56
335.684	104.56
335.912	117.56
336.14	91.56
336.369	107.56
336.597	109.56
336.825	92.56
337.053	92.56
337.281	86.56
337.51	92.56
337.738	95.56
337.966	114.56
338.194	99.56
338.422	110.56
338.65	95.56
338.878	98.56
339.106	107.56
339.334	84.56
339.562	96.56
339.79	95.56
340.018	91.56
340.246	82.56
340.474	95.56
340.702	77.56
340.93	83.56
341.158	96.56
341.386	98.56
341.614	112.56
341.842	101.56
342.07	95.56
342.298	93.56
342.526	101.56
342.754	100.56
342.981	89.56
343.209	88.56
343.437	98.56
343.665	99.56
343.893	98.56
344.12	89.56
344.348	99.56
344.576	96.56
344.804	85.56
345.031	84.56
345.259	94.56
345.487	98.56
345.714	98.56
345.942	98.56
346.17	87.56
346.397	91.56
346.625	94.56
346.853	93.56
347.08	81.56
347.308	86.56
347.535	97.56
347.763	96.56
347.99	93.56
348.218	103.56
348.445	112.56
348.673	102.56
348.9	86.56
349.128	88.56
349.355	87.56
349.583	85.56
349.81	96.56
350.037	82.56
350.265	94.56
350.492	88.56
350.72	100.56
350.947	106.56
351.174	108.56
351.402	108.56
351.629	112.56
351.856	94.56
352.083	97.56
352.311	112.56
352.538	119.56
352.765	116.56
352.992	112.56
353.22	104.56
353.447	100.56
353.674	102.56
353.901	92.56
354.128	95.56
354.355	81.56
354.583	90.56
354.81	83.56
355.037	97.56
355.264	94.56
355.491	116.56
355.718	108.56
355.945	103.56
356.172	101.56
356.399	91.56
356.626	104.56
356.853	86.56
357.08	101.56
357.307	100.56
357.534	102.56
357.761	96.56
357.988	96.56
358.215	108.56
358.441	97.56
358.668	104.56
358.895	99.56
359.122	83.56
359.349	80.56
359.576	88.56
359.802	124.56
360.029	121.56
360.256	115.56
360.483	92.56
360.709	87.56
360.936	90.56
361.163	94.56
361.39	103.56
361.616	70.56
361.843	87.56
362.07	99.56
362.296	93.56
362.523	88.56
362.749	88.56
362.976	89.56
363.203	91.56
363.429	104.56
363.656	94.56
363.882	79.56
364.109	101.56
364.335	101.56
364.562	87.56
364.788	94.56
365.015	90.56
365.241	96.56
365.468	112.56
365.694	100.56
365.92	105.56
366.147	95.56
366.373	84.56
366.599	85.56
366.826	91.56
367.052	79.56
367.278	87.56
367.505	80.56
367.731	102.56
367.957	102.56
368.184	90.56
368.41	110.56
368.636	118.56
368.862	110.56
369.089	102.56
369.315	102.56
369.541	98.56
369.767	91.56
369.993	68.56
370.219	91.56
370.445	88.56
370.672	93.56
370.898	93.56
371.124	78.56
371.35	93.56
371.576	89.56
371.802	93.56
372.028	89.56
372.254	83.56
372.48	86.56
372.706	78.56
372.932	92.56
373.158	86.56
373.384	93.56
373.61	91.56
373.835	96.56
374.061	83.56
374.287	93.56
374.513	89.56
374.739	94.56
374.965	81.56
375.191	87.56
375.416	82.56
375.642	83.56
375.868	88.56
376.094	85.56
376.319	97.56
376.545	73.56
376.771	104.56
376.997	103.56
377.222	89.56
377.448	97.56
377.674	102.56
377.899	101.56
378.125	75.56
378.35	93.56
378.576	89.56
378.802	104.56
379.027	92.56
379.253	83.56
379.478	94.56
379.704	104.56
379.929	101.56
380.155	91.56
380.38	104.56
380.606	100.56
380.831	87.56
381.057	91.56
381.282	101.56
381.507	98.56
381.733	94.56
381.958	97.56
382.184	92.56
382.409	107.56
382.634	119.56
382.86	112.56
383.085	100.56
383.31	112.56
383.535	102.56
383.761	100.56
383.986	101.56
384.211	100.56
384.436	100.56
384.662	95.56
384.887	112.56
385.112	104.56
385.337	112.56
385.562	103.56
385.787	120.56
386.013	111.56
386.238	109.56
386.463	122.56
386.688	122.56
386.913	92.56
387.138	108.56
387.363	108.56
387.588	108.56
387.813	98.56
388.038	124.56
388.263	117.56
388.488	108.56
388.713	92.56
388.938	102.56
389.163	100.56
389.387	91.56
389.612	95.56
389.837	89.56
390.062	102.56
390.287	92.56
390.512	88.56
390.736	86.56
390.961	91.56
391.186	88.56
391.411	80.56
391.636	89.56
391.86	92.56
392.085	99.56
392.31	89.56
392.534	87.56
392.759	101.56
392.984	94.56
393.208	98.56
393.433	135.56
393.658	117.56
393.882	104.56
394.107	99.56
394.331	81.56
394.556	88.56
394.78	87.56
395.005	81.56
395.229	83.56
395.454	89.56
395.678	79.56
395.903	76.56
396.127	96.56
396.352	96.56
396.576	101.56
396.801	119.56
397.025	115.56
397.249	81.56
397.474	91.56
397.698	82.56
397.922	81.56
398.147	90.56
398.371	97.56
398.595	85.56
398.82	84.56
399.044	91.56
399.268	95.56
399.492	97.56
399.717	98.56
399.941	99.56
400.165	96.56
400.389	89.56
400.613	102.56
400.837	80.56
401.062	84.56
401.286	75.56
401.51	96.56
401.734	109.56
401.958	101.56
402.182	147.56
402.406	169.56
402.63	111.56
402.854	97.56
403.078	97.56
403.302	83.56
403.526	104.56
403.75	107.56
403.974	81.56
404.198	79.56
404.422	87.56
404.645	77.56
404.869	98.56
405.093	109.56
405.317	104.56
405.541	107.56
405.765	99.56
405.988	118.56
406.212	187.56
406.436	247.56
406.66	143.56
406.883	112.56
407.107	100.56
407.331	100.56
407.555	89.56
407.778	103.56
408.002	93.56
408.226	78.56
408.449	97.56
408.673	89.56
408.896	109.56
409.12	103.56
409.344	96.56
409.567	87.56
409.791	90.56
410.014	102.56
410.238	71.56
410.461	87.56
410.685	91.56
410.908	88.56
411.132	101.56
411.355	93.56
411.578	82.56
411.802	95.56
412.025	87.56
412.249	111.56
412.472	104.56
412.695	107.56
412.919	95.56
413.142	81.56
413.365	92.56
413.589	95.56
413.812	105.56
414.035	92.56
414.258	98.56
414.482	83.56
414.705	86.56
414.928	93.56
415.151	111.56
415.374	109.56
415.597	99.56
415.821	79.56
416.044	87.56
416.267	83.56
416.49	79.56
416.713	88.56
416.936	88.56
417.159	83.56
417.382	92.56
417.605	92.56
417.828	90.56
418.051	100.56
418.274	105.56
418.497	92.56
418.72	90.56
418.943	80.56
419.166	100.56
419.389	100.56
419.611	104.56
419.834	97.56
420.057	87.56
420.28	96.56
420.503	98.56
420.726	100.56
420.948	97.56
421.171	104.56
421.394	102.56
421.617	94.56
421.839	88.56
422.062	93.56
422.285	79.56
422.507	93.56
422.73	101.56
422.953	95.56
423.175	87.56
423.398	87.56
423.621	91.56
423.843	81.56
424.066	82.56
424.288	81.56
424.511	87.56
424.733	93.56
424.956	103.56
425.178	106.56
425.401	100.56
425.623	111.56
425.846	99.56
426.068	100.56
426.291	80.56
426.513	95.56
426.735	90.56
426.958	102.56
427.18	120.56
427.402	140.56
427.625	207.56
427.847	157.56
428.069	159.56
428.292	100.56
428.514	103.56
428.736	95.56
428.958	100.56
429.181	96.56
429.403	77.56
429.625	78.56
429.847	91.56
430.069	97.56
430.292	89.56
430.514	89.56
430.736	78.56
430.958	100.56
431.18	94.56
431.402	91.56
431.624	84.56
431.846	93.56
432.068	96.56
432.29	94.56
432.512	92.56
432.734	83.56
432.956	86.56
433.178	115.56
433.4	93.56
433.622	89.56
433.844	88.56
434.066	92.56
434.287	85.56
434.509	86.56
434.731	85.56
434.953	95.56
435.175	81.56
435.397	89.56
435.618	100.56
435.84	102.56
436.062	112.56
436.284	114.56
436.505	83.56
436.727	118.56
436.949	93.56
437.17	92.56
437.392	70.56
437.614	100.56
437.835	104.56
438.057	125.56
438.278	110.56
438.5	96.56
438.721	126.56
438.943	101.56
439.165	105.56
439.386	94.56
439.608	79.56
439.829	100.56
440.05	123.56
440.272	158.56
440.493	95.56
440.715	82.56
440.936	88.56
441.158	98.56
441.379	96.56
441.6	88.56
441.822	99.56
442.043	101.56
442.264	99.56
442.486	118.56
442.707	91.56
442.928	125.56
443.149	127.56
443.371	149.56
443.592	116.56
443.813	99.56
444.034	104.56
444.255	87.56
444.476	90.56
444.698	83.56
444.919	93.56
445.14	124.56
445.361	124.56
445.582	125.56
445.803	131.56
446.024	129.56
446.245	141.56
446.466	105.56
446.687	101.56
446.908	105.56
447.129	93.56
447.35	85.56
447.571	101.56
447.792	100.56
448.013	103.56
448.234	111.56
448.455	105.56
448.675	99.56
448.896	112.56
449.117	104.56
449.338	103.56
449.559	126.56
449.779	140.56
450	103.56
450.221	87.56
450.442	87.56
450.662	94.56
450.883	125.56
451.104	102.56
451.324	94.56
451.545	84.56
451.766	89.56
451.986	93.56
452.207	94.56
452.428	93.56
452.648	97.56
452.869	109.56
453.089	103.56
453.31	109.56
453.53	93.56
453.751	91.56
453.971	98.56
454.192	114.56
454.412	91.56
454.633	75.56
454.853	78.56
455.073	94.56
455.294	101.56
455.514	86.56
455.734	87.56
455.955	92.56
456.175	79.56
456.395	91.56
456.616	92.56
456.836	100.56
457.056	82.56
457.276	86.56
457.497	89.56
457.717	88.56
457.937	96.56
458.157	87.56
458.377	95.56
458.598	110.56
458.818	159.56
459.038	165.56
459.258	114.56
459.478	93.56
459.698	92.56
459.918	87.56
460.138	86.56
460.358	97.56
460.578	88.56
460.798	92.56
461.018	96.56
461.238	80.56
461.458	93.56
461.678	95.56
461.898	84.56
462.118	73.56
462.338	87.56
462.558	80.56
462.777	83.56
462.997	87.56
463.217	89.56
463.437	92.56
463.657	79.56
463.876	93.56
464.096	93.56
464.316	106.56
464.536	102.56
464.755	102.56
464.975	117.56
465.195	177.56
465.414	169.56
465.634	89.56
465.854	94.56
466.073	93.56
466.293	93.56
466.512	88.56
466.732	69.56
466.951	81.56
467.171	89.56
467.391	108.56
467.61	123.56
467.829	142.56
468.049	269.56
468.268	350.56
468.488	125.56
468.707	102.56
468.927	73.56
469.146	68.56
469.365	88.56
469.585	95.56
469.804	96.56
470.023	87.56
470.243	101.56
470.462	97.56
470.681	118.56
470.901	87.56
471.12	95.56
471.339	88.56
471.558	99.56
471.777	106.56
471.997	161.56
472.216	474.56
472.435	938.56
472.654	252.56
472.873	112.56
473.092	94.56
473.311	90.56
473.53	92.56
473.749	100.56
473.968	80.56
474.187	88.56
474.406	91.56
474.625	85.56
474.844	96.56
475.063	93.56
475.282	84.56
475.501	89.56
475.72	95.56
475.939	86.56
476.158	85.56
476.377	97.56
476.596	89.56
476.814	97.56
477.033	83.56
477.252	94.56
477.471	85.56
477.69	87.56
477.908	84.56
478.127	110.56
478.346	92.56
478.564	89.56
478.783	104.56
479.002	104.56
479.22	87.56
479.439	115.56
479.658	104.56
479.876	103.56
480.095	111.56
480.313	104.56
480.532	112.56
480.751	159.56
480.969	438.56
481.188	1605.56
481.406	945.56
481.624	169.56
481.843	89.56
482.061	92.56
482.28	97.56
482.498	92.56
482.717	93.56
482.935	103.56
483.153	93.56
483.372	99.56
483.59	91.56
483.808	107.56
484.027	92.56
484.245	94.56
484.463	89.56
484.681	112.56
484.9	100.56
485.118	99.56
485.336	88.56
485.554	91.56
485.772	97.56
485.99	117.56
486.209	102.56
486.427	105.56
486.645	122.56
486.863	119.56
487.081	110.56
487.299	97.56
487.517	95.56
487.735	102.56
487.953	88.56
488.171	92.56
488.389	97.56
488.607	104.56
488.825	85.56
489.043	78.56
489.261	91.56
489.479	88.56
489.696	74.56
489.914	71.56
490.132	89.56
490.35	98.56
490.568	95.56
490.786	98.56
491.003	93.56
491.221	85.56
491.439	79.56
491.657	84.56
491.874	82.56
492.092	105.56
492.31	92.56
492.527	96.56
492.745	83.56
492.963	82.56
493.18	100.56
493.398	94.56
493.615	91.56
493.833	92.56
494.05	97.56
494.268	75.56
494.485	98.56
494.703	91.56
494.92	94.56
495.138	86.56
495.355	85.56
495.573	96.56
495.79	99.56
496.008	102.56
496.225	86.56
496.442	101.56
496.66	91.56
496.877	87.56
497.094	95.56
497.312	88.56
497.529	93.56
497.746	89.56
497.963	85.56
498.181	95.56
498.398	104.56
498.615	97.56
498.832	102.56
499.049	101.56
499.267	98.56
499.484	88.56
499.701	96.56
499.918	83.56
500.135	93.56
500.352	75.56
500.569	96.56
500.786	92.56
501.003	110.56
501.22	91.56
501.437	96.56
501.654	103.56
501.871	116.56
502.088	95.56
502.305	105.56
502.522	106.56
502.739	105.56
502.956	104.56
503.172	100.56
503.389	101.56
503.606	107.56
503.823	103.56
504.04	94.56
504.256	89.56
504.473	91.56
504.69	89.56
504.907	103.56
505.123	93.56
505.34	95.56
505.557	84.56
505.773	77.56
505.99	82.56
506.207	83.56
506.423	93.56
506.64	89.56
506.856	98.56
507.073	79.56
507.289	107.56
507.506	93.56
507.722	117.56
507.939	113.56
508.155	92.56
508.372	85.56
508.588	94.56
508.805	91.56
509.021	91.56
509.238	97.56
509.454	110.56
509.67	102.56
509.887	114.56
510.103	146.56
510.319	219.56
510.536	816.56
510.752	2750.56
510.968	724.56
511.184	169.56
511.401	105.56
511.617	94.56
511.833	98.56
512.049	91.56
512.265	96.56
512.481	100.56
512.698	103.56
512.914	90.56
513.13	79.56
513.346	113.56
513.562	104.56
513.778	98.56
513.994	101.56
