Data from Circ_1991_H10_HRD10591_00014.txt Node
Date: Wed Jan 03 11:51:44 EST 2024
User: Yrep
Spectrometer: HR+D1059
Trigger mode: 1
Integration Time (sec): 1.000000E-1
Scans to average: 1
Electric dark correction enabled: true
Nonlinearity correction enabled: false
Boxcar width: 0
XAxis mode: Wavelengths
Number of Pixels in Spectrum: 2048
>>>>>Begin Spectral Data<<<<<
223.165	-29.88
223.4	-29.88
223.635	-29.88
223.869	-22.88
224.104	-19.88
224.338	-6.88
224.573	-3.88
224.808	-19.88
225.042	-9.88
225.277	-2.88
225.511	-12.88
225.746	-6.88
225.98	13.12
226.215	15.12
226.449	27.12
226.683	17.12
226.918	27.12
227.152	36.12
227.387	37.12
227.621	39.12
227.856	40.12
228.09	44.12
228.324	56.12
228.559	60.12
228.793	57.12
229.027	65.12
229.262	67.12
229.496	72.12
229.73	81.12
229.964	87.12
230.199	69.12
230.433	75.12
230.667	88.12
230.901	76.12
231.136	71.12
231.37	78.12
231.604	72.12
231.838	92.12
232.072	78.12
232.306	83.12
232.541	76.12
232.775	91.12
233.009	86.12
233.243	86.12
233.477	86.12
233.711	87.12
233.945	86.12
234.179	86.12
234.413	71.12
234.647	92.12
234.881	78.12
235.115	85.12
235.349	78.12
235.583	71.12
235.817	80.12
236.051	83.12
236.285	82.12
236.519	86.12
236.753	79.12
236.987	69.12
237.221	80.12
237.455	95.12
237.689	79.12
237.922	81.12
238.156	81.12
238.39	95.12
238.624	81.12
238.858	86.12
239.091	78.12
239.325	78.12
239.559	70.12
239.793	66.12
240.027	83.12
240.26	79.12
240.494	81.12
240.728	71.12
240.961	80.12
241.195	77.12
241.429	68.12
241.662	68.12
241.896	88.12
242.13	78.12
242.363	70.12
242.597	84.12
242.83	82.12
243.064	102.12
243.298	76.12
243.531	80.12
243.765	72.12
243.998	88.12
244.232	87.12
244.465	77.12
244.699	79.12
244.932	70.12
245.166	80.12
245.399	86.12
245.633	76.12
245.866	71.12
246.099	72.12
246.333	85.12
246.566	80.12
246.8	80.12
247.033	77.12
247.266	92.12
247.5	87.12
247.733	68.12
247.966	76.12
248.2	76.12
248.433	79.12
248.666	68.12
248.899	81.12
249.133	81.12
249.366	98.12
249.599	90.12
249.832	87.12
250.066	90.12
250.299	91.12
250.532	88.12
250.765	93.12
250.998	79.12
251.231	90.12
251.465	86.12
251.698	80.12
251.931	78.12
252.164	80.12
252.397	88.12
252.63	94.12
252.863	87.12
253.096	96.12
253.329	76.12
253.562	92.12
253.795	87.12
254.028	91.12
254.261	87.12
254.494	71.12
254.727	90.12
254.96	79.12
255.193	77.12
255.426	88.12
255.659	70.12
255.892	93.12
256.124	78.12
256.357	88.12
256.59	69.12
256.823	70.12
257.056	97.12
257.289	73.12
257.521	78.12
257.754	85.12
257.987	95.12
258.22	73.12
258.452	103.12
258.685	92.12
258.918	80.12
259.151	81.12
259.383	105.12
259.616	94.12
259.849	82.12
260.081	76.12
260.314	76.12
260.547	100.12
260.779	78.12
261.012	70.12
261.244	70.12
261.477	103.12
261.71	98.12
261.942	109.12
262.175	98.12
262.407	69.12
262.64	87.12
262.872	80.12
263.105	79.12
263.337	87.12
263.57	97.12
263.802	87.12
264.035	86.12
264.267	82.12
264.499	94.12
264.732	87.12
264.964	85.12
265.197	98.12
265.429	80.12
265.661	86.12
265.894	89.12
266.126	82.12
266.358	87.12
266.591	77.12
266.823	79.12
267.055	73.12
267.287	95.12
267.52	74.12
267.752	96.12
267.984	92.12
268.216	93.12
268.448	80.12
268.681	80.12
268.913	87.12
269.145	92.12
269.377	84.12
269.609	84.12
269.841	81.12
270.073	86.12
270.306	95.12
270.538	97.12
270.77	85.12
271.002	79.12
271.234	79.12
271.466	94.12
271.698	97.12
271.93	92.12
272.162	83.12
272.394	93.12
272.626	82.12
272.858	90.12
273.09	89.12
273.322	85.12
273.553	99.12
273.785	76.12
274.017	94.12
274.249	88.12
274.481	81.12
274.713	86.12
274.945	96.12
275.176	71.12
275.408	97.12
275.64	98.12
275.872	90.12
276.104	94.12
276.335	89.12
276.567	100.12
276.799	107.12
277.031	101.12
277.262	105.12
277.494	103.12
277.726	94.12
277.957	78.12
278.189	105.12
278.421	89.12
278.652	87.12
278.884	101.12
279.115	93.12
279.347	89.12
279.579	89.12
279.81	98.12
280.042	106.12
280.273	109.12
280.505	90.12
280.736	82.12
280.968	96.12
281.199	82.12
281.431	104.12
281.662	71.12
281.894	99.12
282.125	94.12
282.356	109.12
282.588	139.12
282.819	104.12
283.051	97.12
283.282	84.12
283.513	103.12
283.745	88.12
283.976	108.12
284.207	104.12
284.439	99.12
284.67	92.12
284.901	94.12
285.132	95.12
285.364	84.12
285.595	83.12
285.826	85.12
286.057	99.12
286.288	88.12
286.52	77.12
286.751	95.12
286.982	85.12
287.213	88.12
287.444	96.12
287.675	89.12
287.906	77.12
288.138	100.12
288.369	80.12
288.6	88.12
288.831	96.12
289.062	75.12
289.293	90.12
289.524	85.12
289.755	72.12
289.986	87.12
290.217	78.12
290.448	91.12
290.679	80.12
290.91	79.12
291.141	92.12
291.371	85.12
291.602	95.12
291.833	99.12
292.064	81.12
292.295	90.12
292.526	99.12
292.757	97.12
292.987	98.12
293.218	96.12
293.449	84.12
293.68	90.12
293.91	93.12
294.141	84.12
294.372	96.12
294.603	97.12
294.833	84.12
295.064	89.12
295.295	86.12
295.525	92.12
295.756	94.12
295.987	101.12
296.217	115.12
296.448	120.12
296.679	89.12
296.909	86.12
297.14	108.12
297.37	92.12
297.601	90.12
297.831	95.12
298.062	86.12
298.292	90.12
298.523	99.12
298.753	84.12
298.984	95.12
299.214	94.12
299.445	92.12
299.675	91.12
299.905	89.12
300.136	90.12
300.366	88.12
300.597	85.12
300.827	87.12
301.057	98.12
301.288	89.12
301.518	93.12
301.748	92.12
301.979	88.12
302.209	97.12
302.439	84.12
302.669	100.12
302.9	79.12
303.13	84.12
303.36	100.12
303.59	108.12
303.82	112.12
304.051	98.12
304.281	90.12
304.511	88.12
304.741	95.12
304.971	82.12
305.201	82.12
305.431	85.12
305.661	99.12
305.891	97.12
306.121	92.12
306.352	106.12
306.582	89.12
306.812	94.12
307.042	116.12
307.272	107.12
307.502	104.12
307.731	105.12
307.961	127.12
308.191	93.12
308.421	97.12
308.651	101.12
308.881	82.12
309.111	100.12
309.341	94.12
309.571	95.12
309.8	95.12
310.03	95.12
310.26	103.12
310.49	90.12
310.72	108.12
310.949	111.12
311.179	96.12
311.409	102.12
311.639	96.12
311.868	93.12
312.098	92.12
312.328	108.12
312.557	109.12
312.787	100.12
313.017	86.12
313.246	100.12
313.476	88.12
313.706	96.12
313.935	105.12
314.165	110.12
314.394	93.12
314.624	109.12
314.853	93.12
315.083	92.12
315.312	96.12
315.542	105.12
315.771	89.12
316.001	96.12
316.23	103.12
316.46	97.12
316.689	94.12
316.919	92.12
317.148	101.12
317.377	107.12
317.607	87.12
317.836	98.12
318.065	86.12
318.295	91.12
318.524	91.12
318.753	93.12
318.983	102.12
319.212	108.12
319.441	110.12
319.67	108.12
319.9	105.12
320.129	90.12
320.358	97.12
320.587	103.12
320.816	111.12
321.046	117.12
321.275	96.12
321.504	93.12
321.733	92.12
321.962	95.12
322.191	110.12
322.42	109.12
322.649	108.12
322.878	120.12
323.108	114.12
323.337	111.12
323.566	124.12
323.795	154.12
324.024	190.12
324.253	362.12
324.482	750.12
324.71	1552.12
324.939	2074.12
325.168	759.12
325.397	236.12
325.626	150.12
325.855	128.12
326.084	122.12
326.313	141.12
326.542	153.12
326.77	213.12
326.999	432.12
327.228	868.12
327.457	1620.12
327.686	1278.12
327.914	358.12
328.143	221.12
328.372	200.12
328.6	145.12
328.829	118.12
329.058	120.12
329.287	129.12
329.515	120.12
329.744	114.12
329.972	169.12
330.201	211.12
330.43	280.12
330.658	170.12
330.887	146.12
331.115	127.12
331.344	110.12
331.572	95.12
331.801	103.12
332.03	97.12
332.258	98.12
332.486	98.12
332.715	109.12
332.943	92.12
333.172	103.12
333.4	104.12
333.629	100.12
333.857	128.12
334.085	160.12
334.314	209.12
334.542	351.12
334.771	319.12
334.999	146.12
335.227	100.12
335.455	109.12
335.684	85.12
335.912	109.12
336.14	103.12
336.369	102.12
336.597	120.12
336.825	95.12
337.053	100.12
337.281	92.12
337.51	92.12
337.738	93.12
337.966	91.12
338.194	99.12
338.422	102.12
338.65	100.12
338.878	96.12
339.106	93.12
339.334	96.12
339.562	102.12
339.79	89.12
340.018	96.12
340.246	83.12
340.474	88.12
340.702	92.12
340.93	93.12
341.158	106.12
341.386	96.12
341.614	100.12
341.842	90.12
342.07	108.12
342.298	92.12
342.526	89.12
342.754	91.12
342.981	89.12
343.209	97.12
343.437	101.12
343.665	92.12
343.893	87.12
344.12	95.12
344.348	76.12
344.576	86.12
344.804	97.12
345.031	94.12
345.259	88.12
345.487	96.12
345.714	108.12
345.942	106.12
346.17	88.12
346.397	82.12
346.625	86.12
346.853	88.12
347.08	92.12
347.308	96.12
347.535	97.12
347.763	90.12
347.99	111.12
348.218	108.12
348.445	93.12
348.673	111.12
348.9	106.12
349.128	98.12
349.355	86.12
349.583	93.12
349.81	92.12
350.037	88.12
350.265	94.12
350.492	92.12
350.72	104.12
350.947	102.12
351.174	113.12
351.402	110.12
351.629	93.12
351.856	100.12
352.083	97.12
352.311	102.12
352.538	104.12
352.765	94.12
352.992	107.12
353.22	103.12
353.447	89.12
353.674	105.12
353.901	108.12
354.128	110.12
354.355	92.12
354.583	92.12
354.81	106.12
355.037	104.12
355.264	97.12
355.491	88.12
355.718	102.12
355.945	96.12
356.172	100.12
356.399	117.12
356.626	104.12
356.853	101.12
357.08	102.12
357.307	96.12
357.534	101.12
357.761	110.12
357.988	102.12
358.215	102.12
358.441	106.12
358.668	98.12
358.895	93.12
359.122	96.12
359.349	86.12
359.576	96.12
359.802	102.12
360.029	112.12
360.256	94.12
360.483	112.12
360.709	84.12
360.936	90.12
361.163	100.12
361.39	85.12
361.616	89.12
361.843	100.12
362.07	93.12
362.296	103.12
362.523	95.12
362.749	83.12
362.976	85.12
363.203	84.12
363.429	82.12
363.656	95.12
363.882	101.12
364.109	76.12
364.335	98.12
364.562	91.12
364.788	100.12
365.015	86.12
365.241	94.12
365.468	102.12
365.694	106.12
365.92	94.12
366.147	87.12
366.373	111.12
366.599	98.12
366.826	89.12
367.052	78.12
367.278	88.12
367.505	92.12
367.731	84.12
367.957	100.12
368.184	96.12
368.41	98.12
368.636	98.12
368.862	109.12
369.089	98.12
369.315	100.12
369.541	85.12
369.767	99.12
369.993	100.12
370.219	85.12
370.445	96.12
370.672	76.12
370.898	90.12
371.124	95.12
371.35	94.12
371.576	76.12
371.802	95.12
372.028	97.12
372.254	97.12
372.48	95.12
372.706	92.12
372.932	100.12
373.158	90.12
373.384	87.12
373.61	87.12
373.835	94.12
374.061	99.12
374.287	92.12
374.513	100.12
374.739	95.12
374.965	93.12
375.191	86.12
375.416	85.12
375.642	93.12
375.868	89.12
376.094	81.12
376.319	96.12
376.545	83.12
376.771	69.12
376.997	92.12
377.222	96.12
377.448	80.12
377.674	79.12
377.899	95.12
378.125	87.12
378.35	97.12
378.576	87.12
378.802	100.12
379.027	119.12
379.253	93.12
379.478	99.12
379.704	94.12
379.929	77.12
380.155	98.12
380.38	96.12
380.606	106.12
380.831	108.12
381.057	99.12
381.282	96.12
381.507	110.12
381.733	118.12
381.958	98.12
382.184	102.12
382.409	105.12
382.634	101.12
382.86	114.12
383.085	112.12
383.31	100.12
383.535	96.12
383.761	106.12
383.986	120.12
384.211	103.12
384.436	114.12
384.662	139.12
384.887	111.12
385.112	134.12
385.337	108.12
385.562	118.12
385.787	129.12
386.013	132.12
386.238	136.12
386.463	122.12
386.688	116.12
386.913	119.12
387.138	129.12
387.363	135.12
387.588	123.12
387.813	103.12
388.038	108.12
388.263	144.12
388.488	125.12
388.713	110.12
388.938	101.12
389.163	108.12
389.387	93.12
389.612	105.12
389.837	83.12
390.062	102.12
390.287	88.12
390.512	92.12
390.736	107.12
390.961	84.12
391.186	97.12
391.411	101.12
391.636	96.12
391.86	82.12
392.085	79.12
392.31	97.12
392.534	100.12
392.759	96.12
392.984	109.12
393.208	118.12
393.433	191.12
393.658	137.12
393.882	88.12
394.107	112.12
394.331	85.12
394.556	87.12
394.78	94.12
395.005	87.12
395.229	90.12
395.454	83.12
395.678	85.12
395.903	87.12
396.127	93.12
396.352	92.12
396.576	91.12
396.801	131.12
397.025	136.12
397.249	94.12
397.474	78.12
397.698	80.12
397.922	103.12
398.147	95.12
398.371	76.12
398.595	93.12
398.82	92.12
399.044	96.12
399.268	89.12
399.492	89.12
399.717	97.12
399.941	92.12
400.165	101.12
400.389	94.12
400.613	81.12
400.837	100.12
401.062	93.12
401.286	88.12
401.51	95.12
401.734	112.12
401.958	103.12
402.182	121.12
402.406	135.12
402.63	96.12
402.854	98.12
403.078	85.12
403.302	87.12
403.526	94.12
403.75	97.12
403.974	101.12
404.198	85.12
404.422	92.12
404.645	94.12
404.869	77.12
405.093	107.12
405.317	116.12
405.541	98.12
405.765	103.12
405.988	112.12
406.212	162.12
406.436	201.12
406.66	130.12
406.883	105.12
407.107	100.12
407.331	89.12
407.555	90.12
407.778	85.12
408.002	68.12
408.226	85.12
408.449	96.12
408.673	94.12
408.896	111.12
409.12	90.12
409.344	93.12
409.567	86.12
409.791	95.12
410.014	100.12
410.238	89.12
410.461	108.12
410.685	101.12
410.908	81.12
411.132	105.12
411.355	100.12
411.578	105.12
411.802	85.12
412.025	87.12
412.249	74.12
412.472	89.12
412.695	102.12
412.919	91.12
413.142	86.12
413.365	93.12
413.589	104.12
413.812	74.12
414.035	109.12
414.258	99.12
414.482	100.12
414.705	97.12
414.928	98.12
415.151	94.12
415.374	89.12
415.597	87.12
415.821	89.12
416.044	83.12
416.267	93.12
416.49	94.12
416.713	79.12
416.936	80.12
417.159	77.12
417.382	88.12
417.605	98.12
417.828	102.12
418.051	88.12
418.274	100.12
418.497	96.12
418.72	86.12
418.943	89.12
419.166	96.12
419.389	94.12
419.611	90.12
419.834	92.12
420.057	102.12
420.28	76.12
420.503	81.12
420.726	101.12
420.948	96.12
421.171	87.12
421.394	95.12
421.617	100.12
421.839	78.12
422.062	90.12
422.285	95.12
422.507	100.12
422.73	122.12
422.953	106.12
423.175	99.12
423.398	94.12
423.621	91.12
423.843	111.12
424.066	94.12
424.288	89.12
424.511	88.12
424.733	94.12
424.956	113.12
425.178	98.12
425.401	94.12
425.623	91.12
425.846	88.12
426.068	96.12
426.291	86.12
426.513	103.12
426.735	97.12
426.958	83.12
427.18	107.12
427.402	138.12
427.625	168.12
427.847	137.12
428.069	126.12
428.292	81.12
428.514	88.12
428.736	77.12
428.958	99.12
429.181	82.12
429.403	88.12
429.625	89.12
429.847	89.12
430.069	103.12
430.292	70.12
430.514	75.12
430.736	70.12
430.958	87.12
431.18	77.12
431.402	87.12
431.624	82.12
431.846	84.12
432.068	86.12
432.29	94.12
432.512	87.12
432.734	91.12
432.956	89.12
433.178	115.12
433.4	96.12
433.622	84.12
433.844	85.12
434.066	97.12
434.287	86.12
434.509	94.12
434.731	102.12
434.953	73.12
435.175	92.12
435.397	81.12
435.618	80.12
435.84	82.12
436.062	125.12
436.284	105.12
436.505	109.12
436.727	93.12
436.949	109.12
437.17	98.12
437.392	82.12
437.614	94.12
437.835	102.12
438.057	117.12
438.278	115.12
438.5	109.12
438.721	118.12
438.943	97.12
439.165	72.12
439.386	96.12
439.608	76.12
439.829	94.12
440.05	116.12
440.272	134.12
440.493	103.12
440.715	93.12
440.936	88.12
441.158	83.12
441.379	84.12
441.6	103.12
441.822	86.12
442.043	89.12
442.264	91.12
442.486	100.12
442.707	108.12
442.928	108.12
443.149	109.12
443.371	115.12
443.592	105.12
443.813	100.12
444.034	112.12
444.255	80.12
444.476	96.12
444.698	100.12
444.919	82.12
445.14	135.12
445.361	131.12
445.582	118.12
445.803	124.12
446.024	120.12
446.245	123.12
446.466	113.12
446.687	85.12
446.908	93.12
447.129	96.12
447.35	84.12
447.571	95.12
447.792	89.12
448.013	94.12
448.234	97.12
448.455	92.12
448.675	100.12
448.896	121.12
449.117	102.12
449.338	105.12
449.559	111.12
449.779	145.12
450	85.12
450.221	90.12
450.442	87.12
450.662	99.12
450.883	107.12
451.104	109.12
451.324	82.12
451.545	102.12
451.766	85.12
451.986	92.12
452.207	94.12
452.428	89.12
452.648	96.12
452.869	103.12
453.089	104.12
453.31	110.12
453.53	112.12
453.751	96.12
453.971	94.12
454.192	113.12
454.412	92.12
454.633	87.12
454.853	97.12
455.073	90.12
455.294	95.12
455.514	104.12
455.734	84.12
455.955	68.12
456.175	100.12
456.395	78.12
456.616	89.12
456.836	81.12
457.056	88.12
457.276	89.12
457.497	96.12
457.717	88.12
457.937	104.12
458.157	86.12
458.377	95.12
458.598	114.12
458.818	148.12
459.038	138.12
459.258	110.12
459.478	76.12
459.698	83.12
459.918	91.12
460.138	90.12
460.358	77.12
460.578	90.12
460.798	92.12
461.018	85.12
461.238	84.12
461.458	81.12
461.678	84.12
461.898	85.12
462.118	88.12
462.338	83.12
462.558	72.12
462.777	86.12
462.997	96.12
463.217	83.12
463.437	83.12
463.657	81.12
463.876	102.12
464.096	104.12
464.316	82.12
464.536	95.12
464.755	100.12
464.975	96.12
465.195	154.12
465.414	158.12
465.634	96.12
465.854	87.12
466.073	88.12
466.293	99.12
466.512	88.12
466.732	102.12
466.951	99.12
467.171	90.12
467.391	100.12
467.61	103.12
467.829	118.12
468.049	174.12
468.268	197.12
468.488	89.12
468.707	84.12
468.927	85.12
469.146	78.12
469.365	90.12
469.585	82.12
469.804	98.12
470.023	101.12
470.243	105.12
470.462	82.12
470.681	84.12
470.901	94.12
471.12	103.12
471.339	86.12
471.558	74.12
471.777	92.12
471.997	135.12
472.216	282.12
472.435	471.12
472.654	164.12
472.873	108.12
473.092	83.12
473.311	92.12
473.53	103.12
473.749	86.12
473.968	97.12
474.187	98.12
474.406	97.12
474.625	82.12
474.844	92.12
475.063	95.12
475.282	95.12
475.501	90.12
475.72	89.12
475.939	88.12
476.158	98.12
476.377	77.12
476.596	82.12
476.814	102.12
477.033	94.12
477.252	82.12
477.471	92.12
477.69	100.12
477.908	98.12
478.127	90.12
478.346	99.12
478.564	86.12
478.783	102.12
479.002	106.12
479.22	90.12
479.439	101.12
479.658	101.12
479.876	93.12
480.095	102.12
480.313	97.12
480.532	112.12
480.751	120.12
480.969	260.12
481.188	832.12
481.406	489.12
481.624	126.12
481.843	100.12
482.061	90.12
482.28	95.12
482.498	84.12
482.717	92.12
482.935	102.12
483.153	86.12
483.372	86.12
483.59	90.12
483.808	92.12
484.027	88.12
484.245	72.12
484.463	96.12
484.681	106.12
484.9	98.12
485.118	86.12
485.336	88.12
485.554	93.12
485.772	100.12
485.99	100.12
486.209	102.12
486.427	108.12
486.645	111.12
486.863	111.12
487.081	97.12
487.299	98.12
487.517	102.12
487.735	97.12
487.953	98.12
488.171	84.12
488.389	84.12
488.607	94.12
488.825	96.12
489.043	97.12
489.261	91.12
489.479	96.12
489.696	92.12
489.914	78.12
490.132	92.12
490.35	98.12
490.568	88.12
490.786	90.12
491.003	91.12
491.221	79.12
491.439	83.12
491.657	92.12
491.874	86.12
492.092	81.12
492.31	88.12
492.527	81.12
492.745	84.12
492.963	96.12
493.18	92.12
493.398	101.12
493.615	107.12
493.833	82.12
494.05	92.12
494.268	98.12
494.485	98.12
494.703	87.12
494.92	90.12
495.138	77.12
495.355	89.12
495.573	94.12
495.79	88.12
496.008	89.12
496.225	83.12
496.442	83.12
496.66	97.12
496.877	98.12
497.094	92.12
497.312	97.12
497.529	95.12
497.746	89.12
497.963	100.12
498.181	95.12
498.398	101.12
498.615	111.12
498.832	97.12
499.049	95.12
499.267	100.12
499.484	99.12
499.701	100.12
499.918	82.12
500.135	83.12
500.352	92.12
500.569	92.12
500.786	91.12
501.003	90.12
501.22	87.12
501.437	81.12
501.654	101.12
501.871	102.12
502.088	91.12
502.305	95.12
502.522	97.12
502.739	97.12
502.956	85.12
503.172	88.12
503.389	76.12
503.606	96.12
503.823	90.12
504.04	80.12
504.256	89.12
504.473	84.12
504.69	95.12
504.907	88.12
505.123	82.12
505.34	99.12
505.557	74.12
505.773	76.12
505.99	102.12
506.207	100.12
506.423	97.12
506.64	88.12
506.856	87.12
507.073	89.12
507.289	96.12
507.506	91.12
507.722	121.12
507.939	98.12
508.155	82.12
508.372	93.12
508.588	96.12
508.805	103.12
509.021	98.12
509.238	101.12
509.454	93.12
509.67	101.12
509.887	96.12
510.103	118.12
510.319	195.12
510.536	670.12
510.752	2176.12
510.968	590.12
511.184	150.12
511.401	95.12
511.617	97.12
511.833	110.12
512.049	103.12
512.265	88.12
512.481	96.12
512.698	78.12
512.914	100.12
513.13	100.12
513.346	93.12
513.562	80.12
513.778	91.12
513.994	110.12
514.21	101.12
514.426	119.12
