Data from Circ_1991_H10_HRD10591_00030.txt Node
Date: Wed Jan 03 11:51:47 EST 2024
User: Yrep
Spectrometer: HR+D1059
Trigger mode: 1
Integration Time (sec): 1.000000E-1
Scans to average: 1
Electric dark correction enabled: true
Nonlinearity correction enabled: false
Boxcar width: 0
XAxis mode: Wavelengths
Number of Pixels in Spectrum: 2048
>>>>>Begin Spectral Data<<<<<
223.165	-8.25
223.4	-8.25
223.635	-8.25
223.869	-15.25
224.104	-5.25
224.338	-25.25
224.573	-8.25
224.808	-14.25
225.042	-15.25
225.277	-10.25
225.511	2.75
225.746	8.75
225.98	3.75
226.215	9.75
226.449	21.75
226.683	20.75
226.918	8.75
227.152	25.75
227.387	32.75
227.621	42.75
227.856	52.75
228.09	48.75
228.324	60.75
228.559	69.75
228.793	66.75
229.027	72.75
229.262	70.75
229.496	82.75
229.73	80.75
229.964	87.75
230.199	76.75
230.433	83.75
230.667	71.75
230.901	72.75
231.136	105.75
231.37	100.75
231.604	89.75
231.838	75.75
232.072	80.75
232.306	86.75
232.541	84.75
232.775	86.75
233.009	88.75
233.243	78.75
233.477	81.75
233.711	69.75
233.945	96.75
234.179	80.75
234.413	87.75
234.647	82.75
234.881	99.75
235.115	89.75
235.349	68.75
235.583	92.75
235.817	93.75
236.051	71.75
236.285	94.75
236.519	93.75
236.753	87.75
236.987	87.75
237.221	100.75
237.455	86.75
237.689	61.75
237.922	87.75
238.156	69.75
238.39	72.75
238.624	72.75
238.858	102.75
239.091	68.75
239.325	82.75
239.559	80.75
239.793	81.75
240.027	83.75
240.26	89.75
240.494	82.75
240.728	62.75
240.961	82.75
241.195	70.75
241.429	80.75
241.662	84.75
241.896	80.75
242.13	80.75
242.363	74.75
242.597	80.75
242.83	80.75
243.064	85.75
243.298	81.75
243.531	74.75
243.765	78.75
243.998	73.75
244.232	82.75
244.465	90.75
244.699	87.75
244.932	72.75
245.166	79.75
245.399	79.75
245.633	88.75
245.866	78.75
246.099	68.75
246.333	71.75
246.566	84.75
246.8	71.75
247.033	88.75
247.266	83.75
247.5	86.75
247.733	85.75
247.966	89.75
248.2	78.75
248.433	84.75
248.666	90.75
248.899	95.75
249.133	84.75
249.366	90.75
249.599	100.75
249.832	87.75
250.066	82.75
250.299	89.75
250.532	80.75
250.765	84.75
250.998	84.75
251.231	93.75
251.465	83.75
251.698	76.75
251.931	83.75
252.164	86.75
252.397	83.75
252.63	78.75
252.863	92.75
253.096	100.75
253.329	77.75
253.562	86.75
253.795	80.75
254.028	96.75
254.261	86.75
254.494	85.75
254.727	84.75
254.96	91.75
255.193	87.75
255.426	89.75
255.659	84.75
255.892	88.75
256.124	81.75
256.357	94.75
256.59	78.75
256.823	69.75
257.056	87.75
257.289	86.75
257.521	88.75
257.754	82.75
257.987	84.75
258.22	80.75
258.452	85.75
258.685	74.75
258.918	98.75
259.151	88.75
259.383	87.75
259.616	86.75
259.849	84.75
260.081	86.75
260.314	78.75
260.547	77.75
260.779	85.75
261.012	90.75
261.244	97.75
261.477	100.75
261.71	94.75
261.942	119.75
262.175	115.75
262.407	88.75
262.64	88.75
262.872	84.75
263.105	87.75
263.337	104.75
263.57	90.75
263.802	92.75
264.035	79.75
264.267	81.75
264.499	88.75
264.732	92.75
264.964	84.75
265.197	80.75
265.429	89.75
265.661	91.75
265.894	88.75
266.126	96.75
266.358	83.75
266.591	67.75
266.823	85.75
267.055	82.75
267.287	78.75
267.52	85.75
267.752	86.75
267.984	67.75
268.216	66.75
268.448	88.75
268.681	83.75
268.913	99.75
269.145	93.75
269.377	91.75
269.609	90.75
269.841	88.75
270.073	89.75
270.306	74.75
270.538	71.75
270.77	83.75
271.002	87.75
271.234	99.75
271.466	93.75
271.698	92.75
271.93	79.75
272.162	93.75
272.394	90.75
272.626	85.75
272.858	77.75
273.09	93.75
273.322	77.75
273.553	88.75
273.785	95.75
274.017	92.75
274.249	88.75
274.481	80.75
274.713	82.75
274.945	95.75
275.176	72.75
275.408	88.75
275.64	99.75
275.872	81.75
276.104	97.75
276.335	87.75
276.567	103.75
276.799	106.75
277.031	127.75
277.262	110.75
277.494	98.75
277.726	99.75
277.957	83.75
278.189	80.75
278.421	82.75
278.652	90.75
278.884	87.75
279.115	100.75
279.347	84.75
279.579	77.75
279.81	101.75
280.042	108.75
280.273	114.75
280.505	104.75
280.736	97.75
280.968	80.75
281.199	79.75
281.431	83.75
281.662	96.75
281.894	87.75
282.125	93.75
282.356	112.75
282.588	156.75
282.819	116.75
283.051	80.75
283.282	92.75
283.513	96.75
283.745	93.75
283.976	82.75
284.207	95.75
284.439	85.75
284.67	91.75
284.901	80.75
285.132	91.75
285.364	94.75
285.595	91.75
285.826	78.75
286.057	101.75
286.288	94.75
286.52	88.75
286.751	86.75
286.982	104.75
287.213	88.75
287.444	92.75
287.675	86.75
287.906	100.75
288.138	101.75
288.369	93.75
288.6	96.75
288.831	99.75
289.062	87.75
289.293	101.75
289.524	88.75
289.755	101.75
289.986	88.75
290.217	92.75
290.448	78.75
290.679	84.75
290.91	87.75
291.141	80.75
291.371	89.75
291.602	90.75
291.833	93.75
292.064	89.75
292.295	93.75
292.526	90.75
292.757	86.75
292.987	89.75
293.218	92.75
293.449	95.75
293.68	85.75
293.91	98.75
294.141	88.75
294.372	91.75
294.603	94.75
294.833	89.75
295.064	88.75
295.295	94.75
295.525	104.75
295.756	104.75
295.987	121.75
296.217	134.75
296.448	116.75
296.679	96.75
296.909	83.75
297.14	90.75
297.37	102.75
297.601	91.75
297.831	93.75
298.062	105.75
298.292	87.75
298.523	82.75
298.753	105.75
298.984	86.75
299.214	97.75
299.445	81.75
299.675	98.75
299.905	104.75
300.136	88.75
300.366	89.75
300.597	88.75
300.827	99.75
301.057	94.75
301.288	100.75
301.518	89.75
301.748	101.75
301.979	105.75
302.209	100.75
302.439	89.75
302.669	94.75
302.9	102.75
303.13	100.75
303.36	86.75
303.59	103.75
303.82	116.75
304.051	109.75
304.281	90.75
304.511	93.75
304.741	94.75
304.971	101.75
305.201	89.75
305.431	88.75
305.661	101.75
305.891	93.75
306.121	94.75
306.352	112.75
306.582	99.75
306.812	104.75
307.042	105.75
307.272	111.75
307.502	104.75
307.731	105.75
307.961	114.75
308.191	94.75
308.421	104.75
308.651	85.75
308.881	107.75
309.111	98.75
309.341	92.75
309.571	112.75
309.8	84.75
310.03	88.75
310.26	102.75
310.49	98.75
310.72	99.75
310.949	86.75
311.179	100.75
311.409	98.75
311.639	100.75
311.868	97.75
312.098	110.75
312.328	90.75
312.557	97.75
312.787	103.75
313.017	103.75
313.246	100.75
313.476	103.75
313.706	87.75
313.935	93.75
314.165	100.75
314.394	106.75
314.624	100.75
314.853	97.75
315.083	105.75
315.312	93.75
315.542	90.75
315.771	101.75
316.001	94.75
316.23	92.75
316.46	85.75
316.689	79.75
316.919	101.75
317.148	100.75
317.377	88.75
317.607	90.75
317.836	95.75
318.065	86.75
318.295	92.75
318.524	99.75
318.753	94.75
318.983	108.75
319.212	109.75
319.441	112.75
319.67	112.75
319.9	91.75
320.129	105.75
320.358	103.75
320.587	98.75
320.816	87.75
321.046	94.75
321.275	105.75
321.504	105.75
321.733	101.75
321.962	106.75
322.191	90.75
322.42	116.75
322.649	109.75
322.878	105.75
323.108	111.75
323.337	138.75
323.566	125.75
323.795	155.75
324.024	211.75
324.253	416.75
324.482	848.75
324.71	1756.75
324.939	2286.75
325.168	848.75
325.397	254.75
325.626	147.75
325.855	137.75
326.084	134.75
326.313	135.75
326.542	146.75
326.77	214.75
326.999	436.75
327.228	967.75
327.457	1757.75
327.686	1413.75
327.914	408.75
328.143	269.75
328.372	248.75
328.6	189.75
328.829	128.75
329.058	144.75
329.287	147.75
329.515	131.75
329.744	145.75
329.972	181.75
330.201	298.75
330.43	342.75
330.658	218.75
330.887	172.75
331.115	118.75
331.344	111.75
331.572	115.75
331.801	101.75
332.03	103.75
332.258	113.75
332.486	105.75
332.715	98.75
332.943	102.75
333.172	104.75
333.4	96.75
333.629	115.75
333.857	135.75
334.085	183.75
334.314	289.75
334.542	452.75
334.771	437.75
334.999	179.75
335.227	116.75
335.455	99.75
335.684	100.75
335.912	103.75
336.14	113.75
336.369	102.75
336.597	105.75
336.825	104.75
337.053	90.75
337.281	101.75
337.51	82.75
337.738	99.75
337.966	105.75
338.194	94.75
338.422	94.75
338.65	104.75
338.878	85.75
339.106	99.75
339.334	95.75
339.562	100.75
339.79	115.75
340.018	98.75
340.246	98.75
340.474	107.75
340.702	105.75
340.93	97.75
341.158	103.75
341.386	106.75
341.614	105.75
341.842	116.75
342.07	99.75
342.298	106.75
342.526	98.75
342.754	101.75
342.981	80.75
343.209	96.75
343.437	98.75
343.665	98.75
343.893	93.75
344.12	92.75
344.348	84.75
344.576	113.75
344.804	98.75
345.031	92.75
345.259	105.75
345.487	103.75
345.714	106.75
345.942	96.75
346.17	93.75
346.397	89.75
346.625	105.75
346.853	96.75
347.08	86.75
347.308	103.75
347.535	85.75
347.763	98.75
347.99	103.75
348.218	95.75
348.445	110.75
348.673	98.75
348.9	89.75
349.128	104.75
349.355	94.75
349.583	103.75
349.81	89.75
350.037	101.75
350.265	100.75
350.492	103.75
350.72	83.75
350.947	105.75
351.174	123.75
351.402	114.75
351.629	109.75
351.856	111.75
352.083	120.75
352.311	102.75
352.538	110.75
352.765	116.75
352.992	118.75
353.22	120.75
353.447	110.75
353.674	99.75
353.901	98.75
354.128	97.75
354.355	99.75
354.583	96.75
354.81	105.75
355.037	92.75
355.264	100.75
355.491	90.75
355.718	103.75
355.945	101.75
356.172	102.75
356.399	94.75
356.626	100.75
356.853	82.75
357.08	76.75
357.307	95.75
357.534	87.75
357.761	96.75
357.988	85.75
358.215	101.75
358.441	94.75
358.668	95.75
358.895	102.75
359.122	81.75
359.349	78.75
359.576	91.75
359.802	112.75
360.029	115.75
360.256	114.75
360.483	114.75
360.709	88.75
360.936	92.75
361.163	101.75
361.39	102.75
361.616	101.75
361.843	101.75
362.07	98.75
362.296	110.75
362.523	93.75
362.749	101.75
362.976	98.75
363.203	88.75
363.429	100.75
363.656	97.75
363.882	93.75
364.109	98.75
364.335	91.75
364.562	103.75
364.788	91.75
365.015	88.75
365.241	106.75
365.468	104.75
365.694	95.75
365.92	93.75
366.147	99.75
366.373	89.75
366.599	92.75
366.826	86.75
367.052	81.75
367.278	83.75
367.505	92.75
367.731	101.75
367.957	96.75
368.184	96.75
368.41	116.75
368.636	115.75
368.862	107.75
369.089	99.75
369.315	99.75
369.541	94.75
369.767	103.75
369.993	84.75
370.219	96.75
370.445	83.75
370.672	100.75
370.898	92.75
371.124	78.75
371.35	85.75
371.576	87.75
371.802	98.75
372.028	99.75
372.254	94.75
372.48	86.75
372.706	93.75
372.932	90.75
373.158	77.75
373.384	93.75
373.61	91.75
373.835	89.75
374.061	91.75
374.287	96.75
374.513	96.75
374.739	89.75
374.965	88.75
375.191	95.75
375.416	83.75
375.642	82.75
375.868	103.75
376.094	80.75
376.319	98.75
376.545	93.75
376.771	102.75
376.997	96.75
377.222	89.75
377.448	93.75
377.674	95.75
377.899	98.75
378.125	100.75
378.35	96.75
378.576	95.75
378.802	99.75
379.027	102.75
379.253	100.75
379.478	79.75
379.704	101.75
379.929	108.75
380.155	90.75
380.38	93.75
380.606	99.75
380.831	105.75
381.057	88.75
381.282	86.75
381.507	106.75
381.733	77.75
381.958	109.75
382.184	119.75
382.409	99.75
382.634	100.75
382.86	95.75
383.085	100.75
383.31	103.75
383.535	90.75
383.761	110.75
383.986	110.75
384.211	108.75
384.436	98.75
384.662	109.75
384.887	100.75
385.112	114.75
385.337	114.75
385.562	114.75
385.787	112.75
386.013	123.75
386.238	117.75
386.463	112.75
386.688	135.75
386.913	124.75
387.138	116.75
387.363	105.75
387.588	101.75
387.813	110.75
388.038	120.75
388.263	133.75
388.488	117.75
388.713	98.75
388.938	91.75
389.163	97.75
389.387	87.75
389.612	110.75
389.837	90.75
390.062	90.75
390.287	96.75
390.512	90.75
390.736	98.75
390.961	88.75
391.186	96.75
391.411	84.75
391.636	82.75
391.86	88.75
392.085	90.75
392.31	82.75
392.534	84.75
392.759	102.75
392.984	102.75
393.208	138.75
393.433	185.75
393.658	160.75
393.882	106.75
394.107	106.75
394.331	87.75
394.556	88.75
394.78	79.75
395.005	89.75
395.229	91.75
395.454	86.75
395.678	80.75
395.903	96.75
396.127	88.75
396.352	69.75
396.576	95.75
396.801	118.75
397.025	144.75
397.249	102.75
397.474	87.75
397.698	91.75
397.922	89.75
398.147	91.75
398.371	82.75
398.595	86.75
398.82	96.75
399.044	84.75
399.268	94.75
399.492	80.75
399.717	97.75
399.941	98.75
400.165	105.75
400.389	101.75
400.613	88.75
400.837	97.75
401.062	99.75
401.286	87.75
401.51	95.75
401.734	89.75
401.958	114.75
402.182	126.75
402.406	171.75
402.63	120.75
402.854	94.75
403.078	94.75
403.302	85.75
403.526	80.75
403.75	74.75
403.974	101.75
404.198	86.75
404.422	100.75
404.645	88.75
404.869	100.75
405.093	92.75
405.317	112.75
405.541	110.75
405.765	106.75
405.988	107.75
406.212	164.75
406.436	225.75
406.66	150.75
406.883	110.75
407.107	109.75
407.331	98.75
407.555	89.75
407.778	94.75
408.002	101.75
408.226	96.75
408.449	87.75
408.673	92.75
408.896	89.75
409.12	96.75
409.344	95.75
409.567	85.75
409.791	102.75
410.014	94.75
410.238	96.75
410.461	103.75
410.685	85.75
410.908	98.75
411.132	101.75
411.355	117.75
411.578	93.75
411.802	99.75
412.025	96.75
412.249	94.75
412.472	105.75
412.695	112.75
412.919	96.75
413.142	90.75
413.365	90.75
413.589	98.75
413.812	93.75
414.035	90.75
414.258	84.75
414.482	86.75
414.705	82.75
414.928	93.75
415.151	95.75
415.374	106.75
415.597	90.75
415.821	89.75
416.044	101.75
416.267	93.75
416.49	102.75
416.713	99.75
416.936	90.75
417.159	101.75
417.382	73.75
417.605	100.75
417.828	93.75
418.051	101.75
418.274	85.75
418.497	97.75
418.72	86.75
418.943	85.75
419.166	85.75
419.389	84.75
419.611	104.75
419.834	94.75
420.057	91.75
420.28	84.75
420.503	89.75
420.726	92.75
420.948	90.75
421.171	101.75
421.394	105.75
421.617	98.75
421.839	86.75
422.062	101.75
422.285	92.75
422.507	100.75
422.73	122.75
422.953	102.75
423.175	96.75
423.398	92.75
423.621	88.75
423.843	82.75
424.066	89.75
424.288	86.75
424.511	94.75
424.733	94.75
424.956	96.75
425.178	98.75
425.401	107.75
425.623	99.75
425.846	79.75
426.068	86.75
426.291	84.75
426.513	110.75
426.735	84.75
426.958	107.75
427.18	101.75
427.402	148.75
427.625	180.75
427.847	160.75
428.069	138.75
428.292	101.75
428.514	99.75
428.736	90.75
428.958	79.75
429.181	94.75
429.403	84.75
429.625	84.75
429.847	80.75
430.069	102.75
430.292	98.75
430.514	79.75
430.736	86.75
430.958	99.75
431.18	96.75
431.402	83.75
431.624	87.75
431.846	88.75
432.068	101.75
432.29	93.75
432.512	88.75
432.734	104.75
432.956	89.75
433.178	110.75
433.4	103.75
433.622	80.75
433.844	84.75
434.066	84.75
434.287	87.75
434.509	85.75
434.731	87.75
434.953	102.75
435.175	93.75
435.397	93.75
435.618	104.75
435.84	96.75
436.062	120.75
436.284	112.75
436.505	98.75
436.727	112.75
436.949	89.75
437.17	71.75
437.392	88.75
437.614	93.75
437.835	101.75
438.057	113.75
438.278	107.75
438.5	107.75
438.721	119.75
438.943	106.75
439.165	83.75
439.386	88.75
439.608	86.75
439.829	108.75
440.05	117.75
440.272	145.75
440.493	86.75
440.715	95.75
440.936	98.75
441.158	95.75
441.379	97.75
441.6	87.75
441.822	84.75
442.043	96.75
442.264	116.75
442.486	94.75
442.707	93.75
442.928	120.75
443.149	135.75
443.371	123.75
443.592	116.75
443.813	120.75
444.034	104.75
444.255	104.75
444.476	101.75
444.698	95.75
444.919	94.75
445.14	119.75
445.361	115.75
445.582	116.75
445.803	144.75
446.024	148.75
446.245	134.75
446.466	121.75
446.687	99.75
446.908	98.75
447.129	97.75
447.35	81.75
447.571	85.75
447.792	89.75
448.013	117.75
448.234	117.75
448.455	100.75
448.675	110.75
448.896	130.75
449.117	113.75
449.338	97.75
449.559	136.75
449.779	137.75
450	102.75
450.221	97.75
450.442	89.75
450.662	88.75
450.883	110.75
451.104	110.75
451.324	88.75
451.545	95.75
451.766	84.75
451.986	88.75
452.207	94.75
452.428	88.75
452.648	119.75
452.869	101.75
453.089	118.75
453.31	100.75
453.53	93.75
453.751	103.75
453.971	111.75
454.192	120.75
454.412	98.75
454.633	92.75
454.853	100.75
455.073	91.75
455.294	90.75
455.514	82.75
455.734	98.75
455.955	71.75
456.175	84.75
456.395	80.75
456.616	83.75
456.836	86.75
457.056	100.75
457.276	86.75
457.497	86.75
457.717	90.75
457.937	93.75
458.157	94.75
458.377	89.75
458.598	108.75
458.818	149.75
459.038	160.75
459.258	104.75
459.478	88.75
459.698	94.75
459.918	96.75
460.138	94.75
460.358	81.75
460.578	82.75
460.798	89.75
461.018	103.75
461.238	84.75
461.458	68.75
461.678	87.75
461.898	83.75
462.118	101.75
462.338	96.75
462.558	82.75
462.777	96.75
462.997	78.75
463.217	91.75
463.437	75.75
463.657	95.75
463.876	88.75
464.096	100.75
464.316	95.75
464.536	94.75
464.755	98.75
464.975	110.75
465.195	168.75
465.414	162.75
465.634	101.75
465.854	94.75
466.073	86.75
466.293	84.75
466.512	88.75
466.732	99.75
466.951	87.75
467.171	94.75
467.391	98.75
467.61	113.75
467.829	127.75
468.049	202.75
468.268	251.75
468.488	118.75
468.707	94.75
468.927	88.75
469.146	82.75
469.365	91.75
469.585	99.75
469.804	87.75
470.023	103.75
470.243	106.75
470.462	101.75
470.681	109.75
470.901	90.75
471.12	101.75
471.339	97.75
471.558	90.75
471.777	110.75
471.997	127.75
472.216	358.75
472.435	686.75
472.654	206.75
472.873	98.75
473.092	106.75
473.311	84.75
473.53	88.75
473.749	98.75
473.968	93.75
474.187	110.75
474.406	88.75
474.625	76.75
474.844	100.75
475.063	89.75
475.282	98.75
475.501	103.75
475.72	86.75
475.939	80.75
476.158	91.75
476.377	97.75
476.596	72.75
476.814	97.75
477.033	104.75
477.252	104.75
477.471	88.75
477.69	93.75
477.908	94.75
478.127	97.75
478.346	83.75
478.564	78.75
478.783	95.75
479.002	90.75
479.22	108.75
479.439	109.75
479.658	105.75
479.876	100.75
480.095	97.75
480.313	105.75
480.532	110.75
480.751	136.75
480.969	357.75
481.188	1148.75
481.406	656.75
481.624	160.75
481.843	112.75
482.061	93.75
482.28	102.75
482.498	100.75
482.717	101.75
482.935	114.75
483.153	104.75
483.372	92.75
483.59	101.75
483.808	91.75
484.027	86.75
484.245	89.75
484.463	106.75
484.681	99.75
484.9	91.75
485.118	94.75
485.336	80.75
485.554	90.75
485.772	96.75
485.99	100.75
486.209	102.75
486.427	107.75
486.645	104.75
486.863	114.75
487.081	106.75
487.299	112.75
487.517	93.75
487.735	88.75
487.953	100.75
488.171	103.75
488.389	106.75
488.607	93.75
488.825	96.75
489.043	92.75
489.261	97.75
489.479	78.75
489.696	97.75
489.914	82.75
490.132	94.75
490.35	97.75
490.568	81.75
490.786	90.75
491.003	90.75
491.221	98.75
491.439	98.75
491.657	115.75
491.874	94.75
492.092	87.75
492.31	87.75
492.527	88.75
492.745	102.75
492.963	93.75
493.18	90.75
493.398	90.75
493.615	95.75
493.833	92.75
494.05	94.75
494.268	100.75
494.485	96.75
494.703	88.75
494.92	97.75
495.138	94.75
495.355	104.75
495.573	104.75
495.79	96.75
496.008	82.75
496.225	96.75
496.442	104.75
496.66	98.75
496.877	92.75
497.094	82.75
497.312	87.75
497.529	93.75
497.746	96.75
497.963	82.75
498.181	90.75
498.398	101.75
498.615	96.75
498.832	117.75
499.049	76.75
499.267	102.75
499.484	98.75
499.701	84.75
499.918	100.75
500.135	98.75
500.352	92.75
500.569	88.75
500.786	81.75
501.003	98.75
501.22	82.75
501.437	94.75
501.654	83.75
501.871	101.75
502.088	93.75
502.305	101.75
502.522	94.75
502.739	84.75
502.956	88.75
503.172	96.75
503.389	90.75
503.606	121.75
503.823	100.75
504.04	96.75
504.256	97.75
504.473	99.75
504.69	100.75
504.907	94.75
505.123	87.75
505.34	96.75
505.557	95.75
505.773	93.75
505.99	89.75
506.207	95.75
506.423	89.75
506.64	99.75
506.856	94.75
507.073	94.75
507.289	88.75
507.506	101.75
507.722	105.75
507.939	112.75
508.155	104.75
508.372	97.75
508.588	104.75
508.805	93.75
509.021	103.75
509.238	105.75
509.454	104.75
509.67	103.75
509.887	111.75
510.103	126.75
510.319	229.75
510.536	769.75
510.752	2492.75
510.968	677.75
511.184	162.75
511.401	106.75
511.617	116.75
511.833	93.75
512.049	106.75
512.265	110.75
512.481	96.75
512.698	91.75
512.914	101.75
513.13	80.75
513.346	95.75
513.562	113.75
