Data from Circ_1991_H10_HRD10591_00048.txt Node
Date: Wed Jan 03 11:51:50 EST 2024
User: Yrep
Spectrometer: HR+D1059
Trigger mode: 1
Integration Time (sec): 1.000000E-1
Scans to average: 1
Electric dark correction enabled: true
Nonlinearity correction enabled: false
Boxcar width: 0
XAxis mode: Wavelengths
Number of Pixels in Spectrum: 2048
>>>>>Begin Spectral Data<<<<<
223.165	-19.12
223.4	-19.12
223.635	-19.12
223.869	-22.12
224.104	-15.12
224.338	-17.12
224.573	-17.12
224.808	-12.12
225.042	-11.12
225.277	-13.12
225.511	-5.12
225.746	12.88
225.98	19.88
226.215	10.88
226.449	25.88
226.683	6.88
226.918	26.88
227.152	28.88
227.387	22.88
227.621	30.88
227.856	44.88
228.09	25.88
228.324	44.88
228.559	44.88
228.793	65.88
229.027	57.88
229.262	76.88
229.496	76.88
229.73	79.88
229.964	85.88
230.199	70.88
230.433	65.88
230.667	67.88
230.901	74.88
231.136	62.88
231.37	77.88
231.604	76.88
231.838	75.88
232.072	84.88
232.306	83.88
232.541	76.88
232.775	85.88
233.009	70.88
233.243	91.88
233.477	77.88
233.711	71.88
233.945	79.88
234.179	65.88
234.413	88.88
234.647	75.88
234.881	82.88
235.115	77.88
235.349	66.88
235.583	62.88
235.817	75.88
236.051	72.88
236.285	91.88
236.519	81.88
236.753	81.88
236.987	82.88
237.221	82.88
237.455	81.88
237.689	83.88
237.922	75.88
238.156	74.88
238.39	81.88
238.624	82.88
238.858	81.88
239.091	82.88
239.325	78.88
239.559	77.88
239.793	51.88
240.027	70.88
240.26	90.88
240.494	88.88
240.728	64.88
240.961	63.88
241.195	64.88
241.429	77.88
241.662	74.88
241.896	67.88
242.13	73.88
242.363	66.88
242.597	82.88
242.83	68.88
243.064	73.88
243.298	74.88
243.531	73.88
243.765	78.88
243.998	75.88
244.232	90.88
244.465	72.88
244.699	76.88
244.932	69.88
245.166	73.88
245.399	68.88
245.633	63.88
245.866	74.88
246.099	89.88
246.333	80.88
246.566	71.88
246.8	74.88
247.033	70.88
247.266	70.88
247.5	74.88
247.733	84.88
247.966	73.88
248.2	80.88
248.433	78.88
248.666	70.88
248.899	81.88
249.133	78.88
249.366	100.88
249.599	105.88
249.832	84.88
250.066	82.88
250.299	84.88
250.532	90.88
250.765	81.88
250.998	65.88
251.231	80.88
251.465	88.88
251.698	66.88
251.931	78.88
252.164	52.88
252.397	73.88
252.63	69.88
252.863	89.88
253.096	74.88
253.329	83.88
253.562	83.88
253.795	82.88
254.028	75.88
254.261	82.88
254.494	67.88
254.727	88.88
254.96	78.88
255.193	82.88
255.426	77.88
255.659	82.88
255.892	90.88
256.124	79.88
256.357	68.88
256.59	82.88
256.823	82.88
257.056	76.88
257.289	87.88
257.521	67.88
257.754	76.88
257.987	72.88
258.22	88.88
258.452	93.88
258.685	88.88
258.918	107.88
259.151	92.88
259.383	89.88
259.616	75.88
259.849	76.88
260.081	86.88
260.314	82.88
260.547	68.88
260.779	79.88
261.012	93.88
261.244	90.88
261.477	81.88
261.71	90.88
261.942	121.88
262.175	108.88
262.407	78.88
262.64	85.88
262.872	78.88
263.105	95.88
263.337	83.88
263.57	77.88
263.802	81.88
264.035	77.88
264.267	82.88
264.499	63.88
264.732	88.88
264.964	82.88
265.197	76.88
265.429	78.88
265.661	70.88
265.894	96.88
266.126	84.88
266.358	75.88
266.591	83.88
266.823	86.88
267.055	64.88
267.287	80.88
267.52	78.88
267.752	70.88
267.984	69.88
268.216	82.88
268.448	81.88
268.681	98.88
268.913	76.88
269.145	91.88
269.377	77.88
269.609	81.88
269.841	67.88
270.073	82.88
270.306	95.88
270.538	80.88
270.77	75.88
271.002	83.88
271.234	76.88
271.466	88.88
271.698	71.88
271.93	64.88
272.162	96.88
272.394	94.88
272.626	76.88
272.858	83.88
273.09	84.88
273.322	74.88
273.553	74.88
273.785	70.88
274.017	82.88
274.249	88.88
274.481	84.88
274.713	94.88
274.945	90.88
275.176	96.88
275.408	86.88
275.64	95.88
275.872	98.88
276.104	87.88
276.335	75.88
276.567	110.88
276.799	101.88
277.031	109.88
277.262	107.88
277.494	90.88
277.726	96.88
277.957	72.88
278.189	85.88
278.421	82.88
278.652	96.88
278.884	85.88
279.115	92.88
279.347	88.88
279.579	94.88
279.81	94.88
280.042	124.88
280.273	132.88
280.505	109.88
280.736	88.88
280.968	86.88
281.199	87.88
281.431	92.88
281.662	90.88
281.894	72.88
282.125	100.88
282.356	117.88
282.588	138.88
282.819	113.88
283.051	86.88
283.282	78.88
283.513	88.88
283.745	82.88
283.976	66.88
284.207	92.88
284.439	80.88
284.67	84.88
284.901	73.88
285.132	98.88
285.364	81.88
285.595	82.88
285.826	68.88
286.057	86.88
286.288	91.88
286.52	94.88
286.751	92.88
286.982	77.88
287.213	82.88
287.444	79.88
287.675	88.88
287.906	85.88
288.138	99.88
288.369	87.88
288.6	88.88
288.831	91.88
289.062	88.88
289.293	96.88
289.524	80.88
289.755	86.88
289.986	86.88
290.217	78.88
290.448	80.88
290.679	72.88
290.91	94.88
291.141	90.88
291.371	85.88
291.602	92.88
291.833	66.88
292.064	92.88
292.295	80.88
292.526	91.88
292.757	84.88
292.987	96.88
293.218	74.88
293.449	99.88
293.68	93.88
293.91	88.88
294.141	96.88
294.372	93.88
294.603	74.88
294.833	74.88
295.064	88.88
295.295	99.88
295.525	90.88
295.756	87.88
295.987	112.88
296.217	131.88
296.448	122.88
296.679	99.88
296.909	89.88
297.14	95.88
297.37	81.88
297.601	90.88
297.831	82.88
298.062	94.88
298.292	81.88
298.523	86.88
298.753	90.88
298.984	84.88
299.214	89.88
299.445	98.88
299.675	101.88
299.905	101.88
300.136	81.88
300.366	70.88
300.597	78.88
300.827	85.88
301.057	87.88
301.288	101.88
301.518	95.88
301.748	101.88
301.979	113.88
302.209	78.88
302.439	99.88
302.669	108.88
302.9	99.88
303.13	88.88
303.36	104.88
303.59	113.88
303.82	99.88
304.051	85.88
304.281	94.88
304.511	85.88
304.741	87.88
304.971	69.88
305.201	88.88
305.431	92.88
305.661	82.88
305.891	97.88
306.121	106.88
306.352	89.88
306.582	113.88
306.812	89.88
307.042	103.88
307.272	125.88
307.502	117.88
307.731	118.88
307.961	90.88
308.191	84.88
308.421	87.88
308.651	77.88
308.881	85.88
309.111	83.88
309.341	91.88
309.571	84.88
309.8	89.88
310.03	97.88
310.26	94.88
310.49	84.88
310.72	100.88
310.949	109.88
311.179	109.88
311.409	99.88
311.639	79.88
311.868	100.88
312.098	101.88
312.328	93.88
312.557	92.88
312.787	103.88
313.017	115.88
313.246	87.88
313.476	94.88
313.706	93.88
313.935	95.88
314.165	96.88
314.394	97.88
314.624	85.88
314.853	88.88
315.083	88.88
315.312	101.88
315.542	92.88
315.771	89.88
316.001	91.88
316.23	90.88
316.46	86.88
316.689	84.88
316.919	90.88
317.148	91.88
317.377	88.88
317.607	91.88
317.836	100.88
318.065	99.88
318.295	84.88
318.524	92.88
318.753	89.88
318.983	91.88
319.212	101.88
319.441	100.88
319.67	92.88
319.9	93.88
320.129	86.88
320.358	84.88
320.587	89.88
320.816	90.88
321.046	109.88
321.275	107.88
321.504	115.88
321.733	83.88
321.962	93.88
322.191	98.88
322.42	100.88
322.649	103.88
322.878	101.88
323.108	126.88
323.337	137.88
323.566	133.88
323.795	152.88
324.024	217.88
324.253	420.88
324.482	953.88
324.71	2045.88
324.939	2744.88
325.168	963.88
325.397	286.88
325.626	166.88
325.855	139.88
326.084	136.88
326.313	135.88
326.542	148.88
326.77	254.88
326.999	492.88
327.228	1080.88
327.457	2080.88
327.686	1619.88
327.914	481.88
328.143	298.88
328.372	301.88
328.6	188.88
328.829	127.88
329.058	139.88
329.287	154.88
329.515	126.88
329.744	150.88
329.972	221.88
330.201	388.88
330.43	544.88
330.658	272.88
330.887	170.88
331.115	149.88
331.344	116.88
331.572	108.88
331.801	97.88
332.03	106.88
332.258	98.88
332.486	97.88
332.715	90.88
332.943	106.88
333.172	99.88
333.4	106.88
333.629	110.88
333.857	160.88
334.085	196.88
334.314	372.88
334.542	661.88
334.771	633.88
334.999	205.88
335.227	116.88
335.455	93.88
335.684	98.88
335.912	94.88
336.14	99.88
336.369	97.88
336.597	93.88
336.825	108.88
337.053	107.88
337.281	95.88
337.51	92.88
337.738	84.88
337.966	97.88
338.194	99.88
338.422	80.88
338.65	103.88
338.878	84.88
339.106	76.88
339.334	90.88
339.562	93.88
339.79	100.88
340.018	90.88
340.246	99.88
340.474	84.88
340.702	87.88
340.93	88.88
341.158	94.88
341.386	104.88
341.614	111.88
341.842	92.88
342.07	101.88
342.298	97.88
342.526	81.88
342.754	88.88
342.981	82.88
343.209	76.88
343.437	100.88
343.665	107.88
343.893	92.88
344.12	104.88
344.348	84.88
344.576	83.88
344.804	93.88
345.031	97.88
345.259	99.88
345.487	102.88
345.714	88.88
345.942	88.88
346.17	64.88
346.397	90.88
346.625	92.88
346.853	96.88
347.08	94.88
347.308	92.88
347.535	101.88
347.763	106.88
347.99	104.88
348.218	112.88
348.445	106.88
348.673	94.88
348.9	98.88
349.128	81.88
349.355	92.88
349.583	90.88
349.81	100.88
350.037	90.88
350.265	94.88
350.492	80.88
350.72	79.88
350.947	93.88
351.174	100.88
351.402	109.88
351.629	106.88
351.856	91.88
352.083	101.88
352.311	96.88
352.538	106.88
352.765	105.88
352.992	116.88
353.22	113.88
353.447	115.88
353.674	96.88
353.901	95.88
354.128	109.88
354.355	106.88
354.583	95.88
354.81	84.88
355.037	95.88
355.264	98.88
355.491	76.88
355.718	91.88
355.945	87.88
356.172	100.88
356.399	92.88
356.626	99.88
356.853	78.88
357.08	88.88
357.307	104.88
357.534	89.88
357.761	90.88
357.988	94.88
358.215	81.88
358.441	92.88
358.668	88.88
358.895	92.88
359.122	89.88
359.349	91.88
359.576	84.88
359.802	90.88
360.029	93.88
360.256	122.88
360.483	90.88
360.709	88.88
360.936	93.88
361.163	80.88
361.39	102.88
361.616	107.88
361.843	93.88
362.07	82.88
362.296	95.88
362.523	94.88
362.749	92.88
362.976	82.88
363.203	84.88
363.429	93.88
363.656	96.88
363.882	92.88
364.109	92.88
364.335	104.88
364.562	88.88
364.788	83.88
365.015	92.88
365.241	106.88
365.468	91.88
365.694	98.88
365.92	96.88
366.147	97.88
366.373	84.88
366.599	68.88
366.826	81.88
367.052	86.88
367.278	73.88
367.505	110.88
367.731	97.88
367.957	88.88
368.184	93.88
368.41	95.88
368.636	109.88
368.862	120.88
369.089	112.88
369.315	83.88
369.541	88.88
369.767	104.88
369.993	99.88
370.219	92.88
370.445	69.88
370.672	92.88
370.898	88.88
371.124	79.88
371.35	98.88
371.576	76.88
371.802	92.88
372.028	99.88
372.254	76.88
372.48	73.88
372.706	84.88
372.932	77.88
373.158	95.88
373.384	85.88
373.61	87.88
373.835	96.88
374.061	91.88
374.287	93.88
374.513	77.88
374.739	88.88
374.965	86.88
375.191	82.88
375.416	99.88
375.642	97.88
375.868	78.88
376.094	86.88
376.319	85.88
376.545	83.88
376.771	81.88
376.997	91.88
377.222	90.88
377.448	92.88
377.674	76.88
377.899	94.88
378.125	101.88
378.35	82.88
378.576	97.88
378.802	89.88
379.027	81.88
379.253	78.88
379.478	95.88
379.704	94.88
379.929	100.88
380.155	105.88
380.38	87.88
380.606	93.88
380.831	84.88
381.057	111.88
381.282	100.88
381.507	90.88
381.733	96.88
381.958	93.88
382.184	95.88
382.409	104.88
382.634	105.88
382.86	101.88
383.085	85.88
383.31	107.88
383.535	112.88
383.761	95.88
383.986	89.88
384.211	99.88
384.436	110.88
384.662	86.88
384.887	100.88
385.112	93.88
385.337	105.88
385.562	91.88
385.787	99.88
386.013	101.88
386.238	116.88
386.463	100.88
386.688	98.88
386.913	102.88
387.138	106.88
387.363	87.88
387.588	95.88
387.813	115.88
388.038	97.88
388.263	117.88
388.488	105.88
388.713	90.88
388.938	83.88
389.163	99.88
389.387	97.88
389.612	101.88
389.837	84.88
390.062	74.88
390.287	73.88
390.512	69.88
390.736	113.88
390.961	91.88
391.186	106.88
391.411	79.88
391.636	92.88
391.86	84.88
392.085	89.88
392.31	80.88
392.534	88.88
392.759	89.88
392.984	83.88
393.208	104.88
393.433	106.88
393.658	112.88
393.882	93.88
394.107	75.88
394.331	95.88
394.556	90.88
394.78	95.88
395.005	88.88
395.229	98.88
395.454	93.88
395.678	73.88
395.903	80.88
396.127	89.88
396.352	72.88
396.576	104.88
396.801	106.88
397.025	107.88
397.249	102.88
397.474	110.88
397.698	81.88
397.922	80.88
398.147	90.88
398.371	84.88
398.595	79.88
398.82	81.88
399.044	92.88
399.268	89.88
399.492	84.88
399.717	92.88
399.941	94.88
400.165	97.88
400.389	97.88
400.613	100.88
400.837	108.88
401.062	98.88
401.286	88.88
401.51	88.88
401.734	88.88
401.958	89.88
402.182	118.88
402.406	161.88
402.63	129.88
402.854	97.88
403.078	93.88
403.302	66.88
403.526	83.88
403.75	88.88
403.974	91.88
404.198	77.88
404.422	88.88
404.645	82.88
404.869	93.88
405.093	93.88
405.317	130.88
405.541	119.88
405.765	91.88
405.988	108.88
406.212	175.88
406.436	217.88
406.66	146.88
406.883	112.88
407.107	105.88
407.331	89.88
407.555	92.88
407.778	84.88
408.002	111.88
408.226	90.88
408.449	90.88
408.673	94.88
408.896	93.88
409.12	89.88
409.344	94.88
409.567	87.88
409.791	84.88
410.014	84.88
410.238	85.88
410.461	88.88
410.685	79.88
410.908	93.88
411.132	101.88
411.355	107.88
411.578	106.88
411.802	89.88
412.025	77.88
412.249	90.88
412.472	106.88
412.695	122.88
412.919	93.88
413.142	90.88
413.365	84.88
413.589	85.88
413.812	94.88
414.035	84.88
414.258	73.88
414.482	85.88
414.705	86.88
414.928	96.88
415.151	89.88
415.374	83.88
415.597	77.88
415.821	102.88
416.044	98.88
416.267	83.88
416.49	82.88
416.713	83.88
416.936	89.88
417.159	81.88
417.382	96.88
417.605	76.88
417.828	98.88
418.051	88.88
418.274	90.88
418.497	96.88
418.72	92.88
418.943	99.88
419.166	82.88
419.389	86.88
419.611	88.88
419.834	73.88
420.057	83.88
420.28	100.88
420.503	90.88
420.726	84.88
420.948	96.88
421.171	100.88
421.394	89.88
421.617	97.88
421.839	87.88
422.062	79.88
422.285	79.88
422.507	95.88
422.73	91.88
422.953	90.88
423.175	93.88
423.398	83.88
423.621	77.88
423.843	91.88
424.066	94.88
424.288	79.88
424.511	93.88
424.733	88.88
424.956	115.88
425.178	116.88
425.401	101.88
425.623	90.88
425.846	102.88
426.068	98.88
426.291	95.88
426.513	109.88
426.735	95.88
426.958	95.88
427.18	102.88
427.402	148.88
427.625	189.88
427.847	168.88
428.069	160.88
428.292	98.88
428.514	81.88
428.736	70.88
428.958	84.88
429.181	82.88
429.403	79.88
429.625	80.88
429.847	98.88
430.069	109.88
430.292	99.88
430.514	95.88
430.736	73.88
430.958	76.88
431.18	96.88
431.402	78.88
431.624	92.88
431.846	87.88
432.068	84.88
432.29	85.88
432.512	93.88
432.734	95.88
432.956	76.88
433.178	82.88
433.4	102.88
433.622	91.88
433.844	94.88
434.066	90.88
434.287	89.88
434.509	93.88
434.731	107.88
434.953	76.88
435.175	89.88
435.397	86.88
435.618	94.88
435.84	97.88
436.062	123.88
436.284	122.88
436.505	94.88
436.727	88.88
436.949	99.88
437.17	96.88
437.392	76.88
437.614	91.88
437.835	107.88
438.057	114.88
438.278	124.88
438.5	113.88
438.721	127.88
438.943	84.88
439.165	76.88
439.386	91.88
439.608	85.88
439.829	109.88
440.05	127.88
440.272	141.88
440.493	96.88
440.715	92.88
440.936	83.88
441.158	79.88
441.379	96.88
441.6	105.88
441.822	88.88
442.043	93.88
442.264	125.88
442.486	108.88
442.707	95.88
442.928	114.88
443.149	145.88
443.371	144.88
443.592	116.88
443.813	126.88
444.034	110.88
444.255	90.88
444.476	68.88
444.698	96.88
444.919	89.88
445.14	115.88
445.361	116.88
445.582	122.88
445.803	145.88
446.024	152.88
446.245	148.88
446.466	125.88
446.687	97.88
446.908	82.88
447.129	94.88
447.35	88.88
447.571	97.88
447.792	96.88
448.013	103.88
448.234	116.88
448.455	101.88
448.675	118.88
448.896	116.88
449.117	89.88
449.338	108.88
449.559	123.88
449.779	139.88
450	118.88
450.221	88.88
450.442	94.88
450.662	101.88
450.883	95.88
451.104	106.88
451.324	92.88
451.545	94.88
451.766	93.88
451.986	86.88
452.207	84.88
452.428	83.88
452.648	100.88
452.869	117.88
453.089	93.88
453.31	119.88
453.53	93.88
453.751	96.88
453.971	106.88
454.192	114.88
454.412	90.88
454.633	87.88
454.853	72.88
455.073	98.88
455.294	86.88
455.514	97.88
455.734	99.88
455.955	71.88
456.175	84.88
456.395	74.88
456.616	91.88
456.836	72.88
457.056	76.88
457.276	96.88
457.497	88.88
457.717	92.88
457.937	75.88
458.157	80.88
458.377	99.88
458.598	115.88
458.818	156.88
459.038	176.88
459.258	115.88
459.478	79.88
459.698	77.88
459.918	82.88
460.138	84.88
460.358	82.88
460.578	80.88
460.798	79.88
461.018	93.88
461.238	82.88
461.458	79.88
461.678	96.88
461.898	84.88
462.118	64.88
462.338	82.88
462.558	93.88
462.777	88.88
462.997	97.88
463.217	72.88
463.437	88.88
463.657	76.88
463.876	81.88
464.096	84.88
464.316	91.88
464.536	92.88
464.755	89.88
464.975	123.88
465.195	194.88
465.414	178.88
465.634	99.88
465.854	85.88
466.073	74.88
466.293	96.88
466.512	91.88
466.732	102.88
466.951	93.88
467.171	84.88
467.391	105.88
467.61	107.88
467.829	149.88
468.049	270.88
468.268	339.88
468.488	131.88
468.707	95.88
468.927	82.88
469.146	99.88
469.365	95.88
469.585	94.88
469.804	93.88
470.023	98.88
470.243	86.88
470.462	104.88
470.681	123.88
470.901	100.88
471.12	78.88
471.339	107.88
471.558	105.88
471.777	104.88
471.997	165.88
472.216	485.88
472.435	957.88
472.654	264.88
472.873	115.88
473.092	90.88
473.311	99.88
473.53	78.88
473.749	77.88
473.968	86.88
474.187	98.88
474.406	90.88
474.625	88.88
474.844	83.88
475.063	84.88
475.282	88.88
475.501	84.88
475.72	79.88
475.939	88.88
476.158	86.88
476.377	80.88
476.596	88.88
476.814	105.88
477.033	97.88
477.252	107.88
477.471	85.88
477.69	72.88
477.908	103.88
478.127	92.88
478.346	93.88
478.564	96.88
478.783	109.88
479.002	82.88
479.22	88.88
479.439	109.88
479.658	102.88
479.876	104.88
480.095	101.88
480.313	110.88
480.532	114.88
480.751	165.88
480.969	460.88
481.188	1718.88
481.406	988.88
481.624	200.88
481.843	99.88
482.061	84.88
482.28	82.88
482.498	101.88
482.717	72.88
482.935	88.88
483.153	79.88
483.372	93.88
483.59	84.88
483.808	90.88
484.027	82.88
484.245	80.88
484.463	81.88
484.681	82.88
484.9	101.88
485.118	89.88
485.336	89.88
485.554	91.88
485.772	84.88
485.99	94.88
486.209	99.88
486.427	110.88
486.645	110.88
486.863	120.88
487.081	98.88
487.299	90.88
487.517	85.88
487.735	87.88
487.953	108.88
488.171	92.88
488.389	95.88
488.607	110.88
488.825	79.88
489.043	79.88
489.261	81.88
489.479	85.88
489.696	88.88
489.914	90.88
490.132	87.88
490.35	93.88
490.568	97.88
490.786	80.88
491.003	92.88
491.221	90.88
491.439	75.88
491.657	81.88
491.874	105.88
492.092	79.88
492.31	94.88
492.527	66.88
492.745	95.88
492.963	87.88
493.18	87.88
493.398	97.88
493.615	88.88
493.833	90.88
494.05	92.88
494.268	94.88
494.485	67.88
494.703	95.88
494.92	79.88
495.138	98.88
495.355	97.88
495.573	93.88
495.79	85.88
496.008	92.88
496.225	85.88
496.442	77.88
496.66	92.88
496.877	100.88
497.094	107.88
497.312	92.88
497.529	74.88
497.746	88.88
497.963	84.88
498.181	94.88
498.398	101.88
498.615	114.88
498.832	111.88
499.049	65.88
499.267	101.88
499.484	89.88
499.701	110.88
499.918	97.88
500.135	84.88
500.352	78.88
500.569	85.88
500.786	70.88
501.003	81.88
501.22	84.88
501.437	77.88
501.654	94.88
501.871	110.88
502.088	90.88
502.305	86.88
502.522	81.88
502.739	100.88
502.956	86.88
503.172	86.88
503.389	93.88
503.606	101.88
503.823	96.88
504.04	103.88
504.256	107.88
504.473	81.88
504.69	80.88
504.907	101.88
505.123	95.88
505.34	92.88
505.557	88.88
505.773	91.88
505.99	98.88
506.207	85.88
506.423	90.88
506.64	118.88
506.856	94.88
507.073	91.88
507.289	76.88
507.506	79.88
507.722	102.88
507.939	94.88
508.155	74.88
508.372	91.88
508.588	91.88
508.805	91.88
509.021	97.88
509.238	82.88
509.454	92.88
509.67	89.88
509.887	115.88
510.103	125.88
510.319	234.88
510.536	768.88
510.752	2558.88
510.968	696.88
511.184	160.88
511.401	105.88
511.617	98.88
511.833	95.88
512.049	93.88
512.265	84.88
512.481	87.88
512.698	94.88
512.914	94.88
513.13	94.88
513.346	93.88
513.562	100.88
513.778	93.88
513.994	88.88
514.21	104.88
514.426	124.88
514.642	141.88
514.858	132.88
515.074	170.88
515.29	500.88
