Data from Circ_1992_H10_HRD10591_00066.txt Node
Date: Wed Jan 03 11:47:58 EST 2024
User: Yrep
Spectrometer: HR+D1059
Trigger mode: 1
Integration Time (sec): 1.000000E-1
Scans to average: 1
Electric dark correction enabled: true
Nonlinearity correction enabled: false
Boxcar width: 0
XAxis mode: Wavelengths
Number of Pixels in Spectrum: 2048
>>>>>Begin Spectral Data<<<<<
223.165	-7.31
223.4	-7.31
223.635	-7.31
223.869	-17.31
224.104	-25.31
224.338	-25.31
224.573	-5.31
224.808	-23.31
225.042	-8.31
225.277	-5.31
225.511	5.69
225.746	6.69
225.98	-1.31
226.215	18.69
226.449	13.69
226.683	19.69
226.918	31.69
227.152	22.69
227.387	39.69
227.621	49.69
227.856	41.69
228.09	44.69
228.324	60.69
228.559	52.69
228.793	70.69
229.027	61.69
229.262	67.69
229.496	80.69
229.73	85.69
229.964	77.69
230.199	69.69
230.433	79.69
230.667	75.69
230.901	80.69
231.136	71.69
231.37	86.69
231.604	84.69
231.838	76.69
232.072	90.69
232.306	93.69
232.541	85.69
232.775	92.69
233.009	85.69
233.243	63.69
233.477	79.69
233.711	88.69
233.945	89.69
234.179	73.69
234.413	74.69
234.647	84.69
234.881	88.69
235.115	85.69
235.349	94.69
235.583	76.69
235.817	84.69
236.051	77.69
236.285	61.69
236.519	102.69
236.753	86.69
236.987	91.69
237.221	82.69
237.455	96.69
237.689	84.69
237.922	78.69
238.156	80.69
238.39	75.69
238.624	79.69
238.858	85.69
239.091	77.69
239.325	89.69
239.559	81.69
239.793	65.69
240.027	91.69
240.26	71.69
240.494	78.69
240.728	80.69
240.961	84.69
241.195	91.69
241.429	89.69
241.662	80.69
241.896	87.69
242.13	75.69
242.363	77.69
242.597	68.69
242.83	53.69
243.064	80.69
243.298	95.69
243.531	77.69
243.765	83.69
243.998	80.69
244.232	86.69
244.465	78.69
244.699	92.69
244.932	71.69
245.166	75.69
245.399	80.69
245.633	79.69
245.866	79.69
246.099	83.69
246.333	76.69
246.566	85.69
246.8	78.69
247.033	82.69
247.266	75.69
247.5	83.69
247.733	87.69
247.966	89.69
248.2	75.69
248.433	82.69
248.666	88.69
248.899	83.69
249.133	85.69
249.366	84.69
249.599	105.69
249.832	73.69
250.066	83.69
250.299	70.69
250.532	71.69
250.765	83.69
250.998	85.69
251.231	72.69
251.465	92.69
251.698	81.69
251.931	83.69
252.164	86.69
252.397	83.69
252.63	86.69
252.863	73.69
253.096	83.69
253.329	87.69
253.562	81.69
253.795	93.69
254.028	94.69
254.261	87.69
254.494	84.69
254.727	86.69
254.96	85.69
255.193	88.69
255.426	84.69
255.659	71.69
255.892	106.69
256.124	96.69
256.357	85.69
256.59	94.69
256.823	78.69
257.056	77.69
257.289	81.69
257.521	76.69
257.754	71.69
257.987	87.69
258.22	78.69
258.452	89.69
258.685	87.69
258.918	84.69
259.151	83.69
259.383	96.69
259.616	87.69
259.849	92.69
260.081	93.69
260.314	93.69
260.547	92.69
260.779	76.69
261.012	86.69
261.244	69.69
261.477	97.69
261.71	91.69
261.942	96.69
262.175	118.69
262.407	95.69
262.64	72.69
262.872	79.69
263.105	88.69
263.337	83.69
263.57	78.69
263.802	86.69
264.035	105.69
264.267	101.69
264.499	83.69
264.732	95.69
264.964	80.69
265.197	91.69
265.429	83.69
265.661	104.69
265.894	97.69
266.126	99.69
266.358	77.69
266.591	89.69
266.823	78.69
267.055	88.69
267.287	96.69
267.52	91.69
267.752	94.69
267.984	86.69
268.216	94.69
268.448	77.69
268.681	88.69
268.913	96.69
269.145	89.69
269.377	85.69
269.609	89.69
269.841	90.69
270.073	83.69
270.306	86.69
270.538	78.69
270.77	79.69
271.002	85.69
271.234	83.69
271.466	87.69
271.698	87.69
271.93	86.69
272.162	78.69
272.394	97.69
272.626	72.69
272.858	86.69
273.09	87.69
273.322	88.69
273.553	101.69
273.785	81.69
274.017	79.69
274.249	95.69
274.481	77.69
274.713	90.69
274.945	92.69
275.176	85.69
275.408	86.69
275.64	91.69
275.872	95.69
276.104	101.69
276.335	92.69
276.567	104.69
276.799	113.69
277.031	109.69
277.262	113.69
277.494	111.69
277.726	91.69
277.957	79.69
278.189	86.69
278.421	77.69
278.652	94.69
278.884	82.69
279.115	98.69
279.347	97.69
279.579	76.69
279.81	92.69
280.042	121.69
280.273	145.69
280.505	115.69
280.736	103.69
280.968	95.69
281.199	90.69
281.431	81.69
281.662	87.69
281.894	88.69
282.125	105.69
282.356	122.69
282.588	126.69
282.819	116.69
283.051	99.69
283.282	83.69
283.513	91.69
283.745	87.69
283.976	86.69
284.207	98.69
284.439	80.69
284.67	102.69
284.901	85.69
285.132	79.69
285.364	84.69
285.595	81.69
285.826	77.69
286.057	88.69
286.288	94.69
286.52	90.69
286.751	87.69
286.982	83.69
287.213	97.69
287.444	85.69
287.675	97.69
287.906	100.69
288.138	92.69
288.369	113.69
288.6	90.69
288.831	93.69
289.062	84.69
289.293	89.69
289.524	83.69
289.755	82.69
289.986	75.69
290.217	89.69
290.448	82.69
290.679	80.69
290.91	91.69
291.141	89.69
291.371	81.69
291.602	96.69
291.833	100.69
292.064	92.69
292.295	85.69
292.526	96.69
292.757	83.69
292.987	83.69
293.218	99.69
293.449	90.69
293.68	91.69
293.91	96.69
294.141	77.69
294.372	84.69
294.603	87.69
294.833	81.69
295.064	112.69
295.295	72.69
295.525	93.69
295.756	92.69
295.987	101.69
296.217	141.69
296.448	123.69
296.679	112.69
296.909	108.69
297.14	88.69
297.37	82.69
297.601	84.69
297.831	84.69
298.062	103.69
298.292	85.69
298.523	89.69
298.753	79.69
298.984	91.69
299.214	89.69
299.445	104.69
299.675	90.69
299.905	84.69
300.136	99.69
300.366	87.69
300.597	83.69
300.827	80.69
301.057	91.69
301.288	91.69
301.518	94.69
301.748	87.69
301.979	110.69
302.209	89.69
302.439	89.69
302.669	82.69
302.9	105.69
303.13	102.69
303.36	88.69
303.59	97.69
303.82	113.69
304.051	102.69
304.281	83.69
304.511	105.69
304.741	79.69
304.971	91.69
305.201	93.69
305.431	107.69
305.661	81.69
305.891	97.69
306.121	97.69
306.352	87.69
306.582	108.69
306.812	115.69
307.042	102.69
307.272	121.69
307.502	126.69
307.731	126.69
307.961	107.69
308.191	87.69
308.421	99.69
308.651	102.69
308.881	103.69
309.111	105.69
309.341	110.69
309.571	104.69
309.8	104.69
310.03	108.69
310.26	87.69
310.49	101.69
310.72	92.69
310.949	116.69
311.179	93.69
311.409	92.69
311.639	101.69
311.868	95.69
312.098	110.69
312.328	93.69
312.557	108.69
312.787	123.69
313.017	111.69
313.246	76.69
313.476	89.69
313.706	103.69
313.935	83.69
314.165	114.69
314.394	111.69
314.624	100.69
314.853	103.69
315.083	96.69
315.312	92.69
315.542	94.69
315.771	92.69
316.001	91.69
316.23	89.69
316.46	93.69
316.689	81.69
316.919	98.69
317.148	97.69
317.377	89.69
317.607	96.69
317.836	87.69
318.065	93.69
318.295	95.69
318.524	95.69
318.753	92.69
318.983	96.69
319.212	101.69
319.441	97.69
319.67	133.69
319.9	93.69
320.129	85.69
320.358	111.69
320.587	97.69
320.816	112.69
321.046	105.69
321.275	95.69
321.504	86.69
321.733	91.69
321.962	92.69
322.191	104.69
322.42	105.69
322.649	109.69
322.878	118.69
323.108	114.69
323.337	137.69
323.566	135.69
323.795	156.69
324.024	217.69
324.253	434.69
324.482	952.69
324.71	2000.69
324.939	2663.69
325.168	973.69
325.397	286.69
325.626	148.69
325.855	144.69
326.084	137.69
326.313	151.69
326.542	162.69
326.77	253.69
326.999	532.69
327.228	1081.69
327.457	2063.69
327.686	1644.69
327.914	465.69
328.143	326.69
328.372	365.69
328.6	228.69
328.829	139.69
329.058	127.69
329.287	154.69
329.515	139.69
329.744	174.69
329.972	266.69
330.201	480.69
330.43	679.69
330.658	335.69
330.887	187.69
331.115	148.69
331.344	105.69
331.572	107.69
331.801	120.69
332.03	100.69
332.258	105.69
332.486	102.69
332.715	102.69
332.943	94.69
333.172	114.69
333.4	119.69
333.629	130.69
333.857	169.69
334.085	253.69
334.314	456.69
334.542	853.69
334.771	818.69
334.999	254.69
335.227	132.69
335.455	111.69
335.684	103.69
335.912	97.69
336.14	90.69
336.369	109.69
336.597	96.69
336.825	104.69
337.053	87.69
337.281	99.69
337.51	84.69
337.738	88.69
337.966	102.69
338.194	100.69
338.422	95.69
338.65	81.69
338.878	102.69
339.106	103.69
339.334	85.69
339.562	103.69
339.79	94.69
340.018	90.69
340.246	90.69
340.474	90.69
340.702	103.69
340.93	107.69
341.158	93.69
341.386	86.69
341.614	83.69
341.842	109.69
342.07	93.69
342.298	98.69
342.526	92.69
342.754	85.69
342.981	88.69
343.209	84.69
343.437	112.69
343.665	91.69
343.893	107.69
344.12	89.69
344.348	91.69
344.576	100.69
344.804	97.69
345.031	105.69
345.259	114.69
345.487	111.69
345.714	99.69
345.942	99.69
346.17	91.69
346.397	86.69
346.625	105.69
346.853	96.69
347.08	101.69
347.308	94.69
347.535	102.69
347.763	106.69
347.99	97.69
348.218	132.69
348.445	101.69
348.673	99.69
348.9	103.69
349.128	95.69
349.355	92.69
349.583	102.69
349.81	97.69
350.037	95.69
350.265	93.69
350.492	89.69
350.72	97.69
350.947	102.69
351.174	99.69
351.402	118.69
351.629	101.69
351.856	102.69
352.083	109.69
352.311	101.69
352.538	95.69
352.765	111.69
352.992	120.69
353.22	109.69
353.447	120.69
353.674	108.69
353.901	92.69
354.128	96.69
354.355	100.69
354.583	109.69
354.81	100.69
355.037	82.69
355.264	101.69
355.491	87.69
355.718	89.69
355.945	91.69
356.172	97.69
356.399	93.69
356.626	97.69
356.853	96.69
357.08	88.69
357.307	94.69
357.534	81.69
357.761	91.69
357.988	83.69
358.215	90.69
358.441	100.69
358.668	92.69
358.895	94.69
359.122	89.69
359.349	91.69
359.576	103.69
359.802	101.69
360.029	109.69
360.256	109.69
360.483	95.69
360.709	106.69
360.936	101.69
361.163	96.69
361.39	99.69
361.616	101.69
361.843	85.69
362.07	88.69
362.296	107.69
362.523	100.69
362.749	99.69
362.976	90.69
363.203	85.69
363.429	81.69
363.656	91.69
363.882	92.69
364.109	100.69
364.335	104.69
364.562	96.69
364.788	102.69
365.015	97.69
365.241	104.69
365.468	104.69
365.694	109.69
365.92	84.69
366.147	79.69
366.373	81.69
366.599	97.69
366.826	96.69
367.052	100.69
367.278	100.69
367.505	100.69
367.731	101.69
367.957	103.69
368.184	92.69
368.41	98.69
368.636	111.69
368.862	112.69
369.089	105.69
369.315	99.69
369.541	101.69
369.767	103.69
369.993	102.69
370.219	101.69
370.445	92.69
370.672	92.69
370.898	107.69
371.124	82.69
371.35	90.69
371.576	79.69
371.802	91.69
372.028	90.69
372.254	112.69
372.48	95.69
372.706	84.69
372.932	85.69
373.158	79.69
373.384	88.69
373.61	101.69
373.835	100.69
374.061	104.69
374.287	98.69
374.513	92.69
374.739	84.69
374.965	83.69
375.191	94.69
375.416	83.69
375.642	81.69
375.868	91.69
376.094	96.69
376.319	83.69
376.545	94.69
376.771	84.69
376.997	82.69
377.222	95.69
377.448	87.69
377.674	83.69
377.899	101.69
378.125	97.69
378.35	100.69
378.576	100.69
378.802	95.69
379.027	103.69
379.253	92.69
379.478	99.69
379.704	92.69
379.929	93.69
380.155	93.69
380.38	99.69
380.606	88.69
380.831	100.69
381.057	101.69
381.282	91.69
381.507	99.69
381.733	93.69
381.958	111.69
382.184	109.69
382.409	95.69
382.634	96.69
382.86	105.69
383.085	96.69
383.31	105.69
383.535	94.69
383.761	79.69
383.986	99.69
384.211	101.69
384.436	93.69
384.662	85.69
384.887	100.69
385.112	106.69
385.337	101.69
385.562	103.69
385.787	105.69
386.013	108.69
386.238	111.69
386.463	117.69
386.688	107.69
386.913	103.69
387.138	110.69
387.363	108.69
387.588	111.69
387.813	97.69
388.038	99.69
388.263	121.69
388.488	109.69
388.713	96.69
388.938	95.69
389.163	91.69
389.387	95.69
389.612	89.69
389.837	88.69
390.062	89.69
390.287	102.69
390.512	87.69
390.736	90.69
390.961	87.69
391.186	81.69
391.411	92.69
391.636	91.69
391.86	85.69
392.085	105.69
392.31	91.69
392.534	87.69
392.759	94.69
392.984	81.69
393.208	92.69
393.433	94.69
393.658	103.69
393.882	100.69
394.107	83.69
394.331	85.69
394.556	96.69
394.78	95.69
395.005	72.69
395.229	93.69
395.454	95.69
395.678	84.69
395.903	85.69
396.127	84.69
396.352	106.69
396.576	84.69
396.801	97.69
397.025	103.69
397.249	72.69
397.474	99.69
397.698	75.69
397.922	91.69
398.147	100.69
398.371	87.69
398.595	87.69
398.82	86.69
399.044	93.69
399.268	84.69
399.492	84.69
399.717	85.69
399.941	116.69
400.165	93.69
400.389	90.69
400.613	87.69
400.837	79.69
401.062	88.69
401.286	102.69
401.51	95.69
401.734	95.69
401.958	95.69
402.182	127.69
402.406	152.69
402.63	127.69
402.854	96.69
403.078	91.69
403.302	72.69
403.526	100.69
403.75	83.69
403.974	96.69
404.198	80.69
404.422	80.69
404.645	114.69
404.869	97.69
405.093	103.69
405.317	115.69
405.541	119.69
405.765	102.69
405.988	119.69
406.212	163.69
406.436	236.69
406.66	142.69
406.883	105.69
407.107	85.69
407.331	95.69
407.555	100.69
407.778	104.69
408.002	101.69
408.226	97.69
408.449	81.69
408.673	98.69
408.896	102.69
409.12	103.69
409.344	104.69
409.567	93.69
409.791	93.69
410.014	96.69
410.238	95.69
410.461	95.69
410.685	107.69
410.908	110.69
411.132	99.69
411.355	107.69
411.578	98.69
411.802	94.69
412.025	87.69
412.249	87.69
412.472	108.69
412.695	112.69
412.919	93.69
413.142	95.69
413.365	85.69
413.589	109.69
413.812	100.69
414.035	92.69
414.258	88.69
414.482	96.69
414.705	101.69
414.928	99.69
415.151	96.69
415.374	95.69
415.597	100.69
415.821	88.69
416.044	115.69
416.267	91.69
416.49	96.69
416.713	95.69
416.936	92.69
417.159	94.69
417.382	76.69
417.605	99.69
417.828	102.69
418.051	99.69
418.274	95.69
418.497	77.69
418.72	89.69
418.943	87.69
419.166	79.69
419.389	89.69
419.611	91.69
419.834	77.69
420.057	94.69
420.28	78.69
420.503	89.69
420.726	83.69
420.948	83.69
421.171	104.69
421.394	87.69
421.617	80.69
421.839	89.69
422.062	95.69
422.285	84.69
422.507	101.69
422.73	93.69
422.953	98.69
423.175	92.69
423.398	81.69
423.621	75.69
423.843	88.69
424.066	87.69
424.288	94.69
424.511	96.69
424.733	107.69
424.956	107.69
425.178	101.69
425.401	95.69
425.623	114.69
425.846	83.69
426.068	93.69
426.291	115.69
426.513	91.69
426.735	98.69
426.958	102.69
427.18	117.69
427.402	148.69
427.625	199.69
427.847	191.69
428.069	195.69
428.292	122.69
428.514	87.69
428.736	91.69
428.958	84.69
429.181	87.69
429.403	86.69
429.625	94.69
429.847	95.69
430.069	112.69
430.292	91.69
430.514	85.69
430.736	83.69
430.958	82.69
431.18	98.69
431.402	75.69
431.624	90.69
431.846	87.69
432.068	93.69
432.29	86.69
432.512	93.69
432.734	98.69
432.956	93.69
433.178	98.69
433.4	102.69
433.622	93.69
433.844	93.69
434.066	108.69
434.287	93.69
434.509	83.69
434.731	88.69
434.953	91.69
435.175	91.69
435.397	105.69
435.618	94.69
435.84	97.69
436.062	134.69
436.284	125.69
436.505	102.69
436.727	108.69
436.949	99.69
437.17	91.69
437.392	84.69
437.614	95.69
437.835	121.69
438.057	126.69
438.278	112.69
438.5	107.69
438.721	132.69
438.943	107.69
439.165	104.69
439.386	92.69
439.608	100.69
439.829	115.69
440.05	124.69
440.272	172.69
440.493	102.69
440.715	85.69
440.936	101.69
441.158	78.69
441.379	98.69
441.6	97.69
441.822	108.69
442.043	100.69
442.264	115.69
442.486	115.69
442.707	91.69
442.928	101.69
443.149	167.69
443.371	130.69
443.592	124.69
443.813	117.69
444.034	110.69
444.255	79.69
444.476	99.69
444.698	88.69
444.919	82.69
445.14	129.69
445.361	107.69
445.582	125.69
445.803	157.69
446.024	138.69
446.245	136.69
446.466	118.69
446.687	87.69
446.908	78.69
447.129	87.69
447.35	93.69
447.571	86.69
447.792	104.69
448.013	104.69
448.234	111.69
448.455	99.69
448.675	125.69
448.896	137.69
449.117	109.69
449.338	104.69
449.559	147.69
449.779	145.69
450	101.69
450.221	79.69
450.442	82.69
450.662	91.69
450.883	101.69
451.104	119.69
451.324	105.69
451.545	100.69
451.766	99.69
451.986	97.69
452.207	99.69
452.428	94.69
452.648	100.69
452.869	108.69
453.089	118.69
453.31	125.69
453.53	99.69
453.751	97.69
453.971	111.69
454.192	100.69
454.412	83.69
454.633	93.69
454.853	100.69
455.073	97.69
455.294	100.69
455.514	105.69
455.734	105.69
455.955	82.69
456.175	104.69
456.395	79.69
456.616	86.69
456.836	89.69
457.056	88.69
457.276	95.69
457.497	82.69
457.717	88.69
457.937	95.69
458.157	84.69
458.377	100.69
458.598	113.69
458.818	166.69
459.038	158.69
459.258	125.69
459.478	91.69
459.698	85.69
459.918	81.69
460.138	96.69
460.358	86.69
460.578	83.69
460.798	85.69
461.018	88.69
461.238	88.69
461.458	88.69
461.678	92.69
461.898	96.69
462.118	84.69
462.338	87.69
462.558	91.69
462.777	91.69
462.997	97.69
463.217	105.69
463.437	81.69
463.657	77.69
463.876	86.69
464.096	92.69
464.316	93.69
464.536	103.69
464.755	89.69
464.975	94.69
465.195	171.69
465.414	171.69
465.634	91.69
465.854	102.69
466.073	92.69
466.293	87.69
466.512	90.69
466.732	94.69
466.951	100.69
467.171	103.69
467.391	89.69
467.61	115.69
467.829	131.69
468.049	292.69
468.268	410.69
468.488	139.69
468.707	84.69
468.927	94.69
469.146	88.69
469.365	91.69
469.585	88.69
469.804	99.69
470.023	101.69
470.243	100.69
470.462	103.69
470.681	118.69
470.901	103.69
471.12	86.69
471.339	79.69
471.558	103.69
471.777	126.69
471.997	175.69
472.216	561.69
472.435	1197.69
472.654	324.69
472.873	127.69
473.092	97.69
473.311	91.69
473.53	89.69
473.749	93.69
473.968	109.69
474.187	100.69
474.406	100.69
474.625	91.69
474.844	100.69
475.063	83.69
475.282	100.69
475.501	102.69
475.72	89.69
475.939	96.69
476.158	95.69
476.377	102.69
476.596	104.69
476.814	86.69
477.033	103.69
477.252	95.69
477.471	92.69
477.69	79.69
477.908	87.69
478.127	105.69
478.346	86.69
478.564	91.69
478.783	111.69
479.002	94.69
479.22	93.69
479.439	109.69
479.658	113.69
479.876	108.69
480.095	97.69
480.313	109.69
480.532	125.69
480.751	193.69
480.969	530.69
481.188	2101.69
481.406	1226.69
481.624	223.69
481.843	103.69
482.061	90.69
482.28	95.69
482.498	99.69
482.717	97.69
482.935	84.69
483.153	95.69
483.372	98.69
483.59	102.69
483.808	93.69
484.027	92.69
484.245	99.69
484.463	101.69
484.681	106.69
484.9	81.69
485.118	108.69
485.336	89.69
485.554	100.69
485.772	110.69
485.99	105.69
486.209	102.69
486.427	115.69
486.645	116.69
486.863	106.69
487.081	108.69
487.299	90.69
487.517	86.69
487.735	89.69
487.953	87.69
488.171	103.69
488.389	100.69
488.607	110.69
488.825	83.69
489.043	92.69
489.261	104.69
489.479	87.69
489.696	87.69
489.914	91.69
490.132	84.69
490.35	93.69
490.568	87.69
490.786	109.69
491.003	103.69
491.221	91.69
491.439	92.69
491.657	101.69
491.874	91.69
492.092	97.69
492.31	103.69
492.527	84.69
492.745	85.69
492.963	101.69
493.18	84.69
493.398	90.69
493.615	93.69
493.833	107.69
494.05	96.69
494.268	91.69
494.485	84.69
494.703	83.69
494.92	98.69
495.138	91.69
495.355	93.69
495.573	86.69
495.79	101.69
496.008	99.69
496.225	88.69
496.442	97.69
496.66	96.69
496.877	97.69
497.094	100.69
497.312	88.69
497.529	108.69
497.746	98.69
497.963	103.69
498.181	87.69
498.398	91.69
498.615	102.69
498.832	105.69
499.049	92.69
499.267	91.69
499.484	95.69
499.701	104.69
499.918	82.69
500.135	95.69
500.352	110.69
500.569	99.69
500.786	88.69
501.003	85.69
501.22	89.69
501.437	95.69
501.654	91.69
501.871	109.69
502.088	85.69
502.305	99.69
502.522	86.69
502.739	79.69
502.956	86.69
503.172	107.69
503.389	97.69
503.606	113.69
503.823	81.69
504.04	92.69
504.256	107.69
504.473	109.69
504.69	97.69
504.907	75.69
505.123	84.69
505.34	101.69
505.557	98.69
505.773	87.69
505.99	95.69
506.207	93.69
506.423	80.69
506.64	82.69
506.856	86.69
507.073	98.69
507.289	103.69
507.506	82.69
507.722	122.69
507.939	97.69
508.155	94.69
508.372	97.69
508.588	94.69
508.805	85.69
509.021	92.69
509.238	90.69
509.454	102.69
509.67	94.69
509.887	97.69
510.103	129.69
510.319	206.69
510.536	661.69
510.752	2190.69
510.968	601.69
511.184	165.69
511.401	105.69
511.617	101.69
511.833	112.69
512.049	99.69
512.265	98.69
512.481	108.69
512.698	102.69
512.914	100.69
513.13	89.69
513.346	93.69
513.562	91.69
