Data from Circ_1992_H10_HRD10591_00034.txt Node
Date: Wed Jan 03 11:47:51 EST 2024
User: Yrep
Spectrometer: HR+D1059
Trigger mode: 1
Integration Time (sec): 1.000000E-1
Scans to average: 1
Electric dark correction enabled: true
Nonlinearity correction enabled: false
Boxcar width: 0
XAxis mode: Wavelengths
Number of Pixels in Spectrum: 2048
>>>>>Begin Spectral Data<<<<<
223.165	-14
223.4	-14
223.635	-14
223.869	-34
224.104	-19
224.338	-8
224.573	-11
224.808	-12
225.042	-15
225.277	-23
225.511	-3
225.746	6
225.98	-5
226.215	4
226.449	34
226.683	35
226.918	26
227.152	39
227.387	32
227.621	33
227.856	34
228.09	37
228.324	39
228.559	69
228.793	48
229.027	67
229.262	66
229.496	75
229.73	92
229.964	96
230.199	72
230.433	81
230.667	70
230.901	63
231.136	77
231.37	65
231.604	65
231.838	92
232.072	90
232.306	73
232.541	71
232.775	93
233.009	67
233.243	86
233.477	76
233.711	87
233.945	87
234.179	76
234.413	78
234.647	90
234.881	77
235.115	79
235.349	66
235.583	82
235.817	73
236.051	69
236.285	74
236.519	80
236.753	89
236.987	78
237.221	82
237.455	89
237.689	73
237.922	92
238.156	83
238.39	68
238.624	76
238.858	76
239.091	86
239.325	83
239.559	77
239.793	93
240.027	91
240.26	93
240.494	70
240.728	65
240.961	81
241.195	74
241.429	91
241.662	75
241.896	79
242.13	78
242.363	82
242.597	66
242.83	77
243.064	84
243.298	74
243.531	83
243.765	80
243.998	78
244.232	70
244.465	92
244.699	66
244.932	76
245.166	85
245.399	81
245.633	90
245.866	81
246.099	74
246.333	79
246.566	89
246.8	80
247.033	93
247.266	91
247.5	85
247.733	76
247.966	74
248.2	70
248.433	73
248.666	77
248.899	67
249.133	89
249.366	85
249.599	103
249.832	85
250.066	82
250.299	82
250.532	65
250.765	76
250.998	78
251.231	89
251.465	75
251.698	75
251.931	77
252.164	79
252.397	70
252.63	83
252.863	77
253.096	73
253.329	88
253.562	75
253.795	93
254.028	89
254.261	93
254.494	88
254.727	78
254.96	87
255.193	93
255.426	70
255.659	80
255.892	73
256.124	81
256.357	93
256.59	89
256.823	83
257.056	97
257.289	91
257.521	73
257.754	73
257.987	83
258.22	84
258.452	97
258.685	85
258.918	97
259.151	69
259.383	83
259.616	90
259.849	84
260.081	91
260.314	98
260.547	91
260.779	83
261.012	95
261.244	94
261.477	86
261.71	101
261.942	123
262.175	130
262.407	84
262.64	86
262.872	91
263.105	87
263.337	86
263.57	83
263.802	84
264.035	75
264.267	77
264.499	70
264.732	79
264.964	79
265.197	78
265.429	85
265.661	96
265.894	84
266.126	96
266.358	73
266.591	81
266.823	88
267.055	85
267.287	81
267.52	84
267.752	94
267.984	89
268.216	91
268.448	90
268.681	78
268.913	82
269.145	95
269.377	84
269.609	81
269.841	94
270.073	90
270.306	89
270.538	79
270.77	87
271.002	95
271.234	86
271.466	83
271.698	77
271.93	74
272.162	79
272.394	83
272.626	85
272.858	86
273.09	89
273.322	91
273.553	76
273.785	83
274.017	98
274.249	68
274.481	99
274.713	86
274.945	73
275.176	82
275.408	94
275.64	110
275.872	99
276.104	84
276.335	89
276.567	100
276.799	107
277.031	118
277.262	119
277.494	105
277.726	98
277.957	94
278.189	86
278.421	93
278.652	81
278.884	101
279.115	82
279.347	85
279.579	95
279.81	99
280.042	119
280.273	141
280.505	127
280.736	93
280.968	97
281.199	75
281.431	100
281.662	79
281.894	98
282.125	113
282.356	129
282.588	147
282.819	121
283.051	94
283.282	89
283.513	94
283.745	95
283.976	98
284.207	85
284.439	70
284.67	78
284.901	85
285.132	84
285.364	84
285.595	94
285.826	90
286.057	86
286.288	83
286.52	81
286.751	98
286.982	84
287.213	87
287.444	84
287.675	75
287.906	92
288.138	93
288.369	95
288.6	98
288.831	83
289.062	100
289.293	94
289.524	97
289.755	105
289.986	79
290.217	94
290.448	97
290.679	92
290.91	89
291.141	89
291.371	92
291.602	99
291.833	88
292.064	101
292.295	88
292.526	90
292.757	88
292.987	80
293.218	103
293.449	105
293.68	86
293.91	93
294.141	69
294.372	85
294.603	82
294.833	83
295.064	94
295.295	101
295.525	83
295.756	94
295.987	117
296.217	134
296.448	123
296.679	97
296.909	108
297.14	79
297.37	97
297.601	81
297.831	83
298.062	85
298.292	86
298.523	92
298.753	103
298.984	85
299.214	94
299.445	87
299.675	83
299.905	97
300.136	100
300.366	86
300.597	80
300.827	99
301.057	105
301.288	117
301.518	85
301.748	86
301.979	119
302.209	94
302.439	91
302.669	67
302.9	79
303.13	98
303.36	95
303.59	101
303.82	128
304.051	101
304.281	104
304.511	93
304.741	81
304.971	85
305.201	100
305.431	96
305.661	92
305.891	94
306.121	93
306.352	101
306.582	81
306.812	87
307.042	99
307.272	113
307.502	125
307.731	122
307.961	118
308.191	95
308.421	84
308.651	94
308.881	104
309.111	90
309.341	85
309.571	97
309.8	82
310.03	96
310.26	100
310.49	100
310.72	100
310.949	103
311.179	107
311.409	95
311.639	92
311.868	94
312.098	92
312.328	105
312.557	102
312.787	111
313.017	108
313.246	102
313.476	95
313.706	92
313.935	86
314.165	99
314.394	103
314.624	97
314.853	101
315.083	107
315.312	80
315.542	100
315.771	102
316.001	77
316.23	105
316.46	78
316.689	97
316.919	103
317.148	98
317.377	84
317.607	106
317.836	108
318.065	90
318.295	90
318.524	85
318.753	93
318.983	92
319.212	102
319.441	110
319.67	117
319.9	87
320.129	96
320.358	94
320.587	85
320.816	110
321.046	103
321.275	102
321.504	107
321.733	102
321.962	109
322.191	103
322.42	101
322.649	115
322.878	110
323.108	119
323.337	119
323.566	142
323.795	156
324.024	208
324.253	401
324.482	828
324.71	1677
324.939	2185
325.168	806
325.397	239
325.626	154
325.855	111
326.084	125
326.313	126
326.542	139
326.77	228
326.999	438
327.228	911
327.457	1652
327.686	1309
327.914	395
328.143	301
328.372	320
328.6	205
328.829	134
329.058	137
329.287	166
329.515	130
329.744	155
329.972	236
330.201	405
330.43	583
330.658	297
330.887	179
331.115	131
331.344	108
331.572	111
331.801	99
332.03	102
332.258	111
332.486	97
332.715	93
332.943	92
333.172	98
333.4	96
333.629	121
333.857	155
334.085	241
334.314	378
334.542	721
334.771	683
334.999	228
335.227	124
335.455	104
335.684	108
335.912	98
336.14	98
336.369	111
336.597	101
336.825	100
337.053	88
337.281	101
337.51	79
337.738	92
337.966	89
338.194	97
338.422	100
338.65	98
338.878	105
339.106	94
339.334	92
339.562	89
339.79	104
340.018	84
340.246	87
340.474	92
340.702	98
340.93	102
341.158	86
341.386	98
341.614	98
341.842	92
342.07	86
342.298	104
342.526	89
342.754	102
342.981	90
343.209	90
343.437	116
343.665	94
343.893	79
344.12	77
344.348	99
344.576	108
344.804	85
345.031	88
345.259	96
345.487	108
345.714	106
345.942	100
346.17	90
346.397	94
346.625	96
346.853	94
347.08	93
347.308	95
347.535	125
347.763	117
347.99	105
348.218	106
348.445	113
348.673	100
348.9	94
349.128	89
349.355	92
349.583	68
349.81	93
350.037	103
350.265	100
350.492	106
350.72	93
350.947	101
351.174	117
351.402	109
351.629	99
351.856	101
352.083	118
352.311	118
352.538	112
352.765	109
352.992	102
353.22	118
353.447	104
353.674	106
353.901	88
354.128	113
354.355	97
354.583	83
354.81	98
355.037	106
355.264	92
355.491	98
355.718	93
355.945	105
356.172	94
356.399	94
356.626	105
356.853	109
357.08	99
357.307	92
357.534	77
357.761	77
357.988	97
358.215	115
358.441	100
358.668	85
358.895	90
359.122	85
359.349	103
359.576	97
359.802	111
360.029	126
360.256	129
360.483	117
360.709	77
360.936	100
361.163	94
361.39	94
361.616	92
361.843	109
362.07	106
362.296	103
362.523	79
362.749	102
362.976	101
363.203	108
363.429	89
363.656	85
363.882	86
364.109	86
364.335	85
364.562	84
364.788	93
365.015	94
365.241	114
365.468	107
365.694	110
365.92	111
366.147	82
366.373	93
366.599	76
366.826	94
367.052	89
367.278	90
367.505	95
367.731	102
367.957	100
368.184	85
368.41	107
368.636	122
368.862	107
369.089	113
369.315	88
369.541	89
369.767	90
369.993	100
370.219	106
370.445	82
370.672	83
370.898	82
371.124	86
371.35	91
371.576	99
371.802	91
372.028	97
372.254	98
372.48	88
372.706	78
372.932	92
373.158	83
373.384	99
373.61	92
373.835	96
374.061	86
374.287	89
374.513	88
374.739	74
374.965	91
375.191	86
375.416	98
375.642	93
375.868	102
376.094	90
376.319	94
376.545	90
376.771	83
376.997	96
377.222	92
377.448	93
377.674	85
377.899	97
378.125	92
378.35	90
378.576	98
378.802	91
379.027	99
379.253	100
379.478	102
379.704	87
379.929	106
380.155	94
380.38	103
380.606	92
380.831	112
381.057	102
381.282	107
381.507	95
381.733	102
381.958	95
382.184	111
382.409	108
382.634	114
382.86	112
383.085	107
383.31	115
383.535	111
383.761	120
383.986	110
384.211	109
384.436	77
384.662	93
384.887	118
385.112	113
385.337	105
385.562	113
385.787	110
386.013	125
386.238	126
386.463	121
386.688	126
386.913	119
387.138	107
387.363	107
387.588	109
387.813	101
388.038	120
388.263	126
388.488	118
388.713	107
388.938	103
389.163	101
389.387	83
389.612	83
389.837	74
390.062	91
390.287	94
390.512	89
390.736	96
390.961	87
391.186	87
391.411	87
391.636	94
391.86	89
392.085	73
392.31	81
392.534	96
392.759	84
392.984	90
393.208	93
393.433	97
393.658	97
393.882	80
394.107	90
394.331	99
394.556	92
394.78	91
395.005	95
395.229	83
395.454	89
395.678	105
395.903	94
396.127	102
396.352	86
396.576	85
396.801	77
397.025	84
397.249	100
397.474	87
397.698	96
397.922	94
398.147	91
398.371	80
398.595	96
398.82	99
399.044	98
399.268	79
399.492	87
399.717	87
399.941	99
400.165	77
400.389	83
400.613	93
400.837	94
401.062	96
401.286	93
401.51	84
401.734	91
401.958	97
402.182	118
402.406	166
402.63	139
402.854	104
403.078	74
403.302	77
403.526	89
403.75	93
403.974	90
404.198	95
404.422	94
404.645	81
404.869	96
405.093	112
405.317	117
405.541	114
405.765	109
405.988	108
406.212	191
406.436	259
406.66	174
406.883	91
407.107	90
407.331	95
407.555	100
407.778	97
408.002	97
408.226	86
408.449	95
408.673	95
408.896	108
409.12	97
409.344	100
409.567	84
409.791	92
410.014	94
410.238	97
410.461	87
410.685	89
410.908	95
411.132	115
411.355	94
411.578	91
411.802	95
412.025	86
412.249	94
412.472	107
412.695	108
412.919	89
413.142	97
413.365	96
413.589	99
413.812	94
414.035	90
414.258	99
414.482	99
414.705	103
414.928	99
415.151	93
415.374	87
415.597	93
415.821	98
416.044	93
416.267	99
416.49	100
416.713	82
416.936	92
417.159	89
417.382	98
417.605	92
417.828	86
418.051	101
418.274	66
418.497	84
418.72	83
418.943	91
419.166	97
419.389	85
419.611	86
419.834	82
420.057	92
420.28	84
420.503	82
420.726	81
420.948	91
421.171	100
421.394	92
421.617	95
421.839	82
422.062	86
422.285	96
422.507	98
422.73	107
422.953	94
423.175	101
423.398	78
423.621	97
423.843	96
424.066	76
424.288	87
424.511	98
424.733	104
424.956	108
425.178	101
425.401	93
425.623	102
425.846	95
426.068	101
426.291	86
426.513	98
426.735	95
426.958	100
427.18	109
427.402	144
427.625	192
427.847	175
428.069	163
428.292	118
428.514	101
428.736	92
428.958	98
429.181	80
429.403	76
429.625	90
429.847	97
430.069	103
430.292	96
430.514	87
430.736	85
430.958	80
431.18	83
431.402	94
431.624	77
431.846	93
432.068	97
432.29	89
432.512	92
432.734	92
432.956	98
433.178	87
433.4	88
433.622	93
433.844	97
434.066	90
434.287	88
434.509	96
434.731	87
434.953	83
435.175	90
435.397	100
435.618	107
435.84	99
436.062	124
436.284	127
436.505	109
436.727	105
436.949	95
437.17	93
437.392	91
437.614	89
437.835	117
438.057	132
438.278	123
438.5	110
438.721	119
438.943	103
439.165	93
439.386	96
439.608	89
439.829	95
440.05	117
440.272	159
440.493	96
440.715	90
440.936	85
441.158	96
441.379	92
441.6	71
441.822	102
442.043	91
442.264	102
442.486	90
442.707	101
442.928	107
443.149	141
443.371	150
443.592	124
443.813	114
444.034	98
444.255	93
444.476	92
444.698	99
444.919	86
445.14	139
445.361	117
445.582	105
445.803	139
446.024	151
446.245	140
446.466	130
446.687	95
446.908	109
447.129	89
447.35	91
447.571	102
447.792	101
448.013	110
448.234	119
448.455	106
448.675	105
448.896	124
449.117	109
449.338	112
449.559	132
449.779	131
450	99
450.221	98
450.442	107
450.662	98
450.883	96
451.104	106
451.324	95
451.545	93
451.766	91
451.986	84
452.207	92
452.428	86
452.648	98
452.869	129
453.089	113
453.31	106
453.53	87
453.751	93
453.971	108
454.192	121
454.412	90
454.633	95
454.853	88
455.073	103
455.294	83
455.514	101
455.734	91
455.955	88
456.175	92
456.395	96
456.616	77
456.836	93
457.056	82
457.276	72
457.497	78
457.717	81
457.937	82
458.157	101
458.377	97
458.598	108
458.818	155
459.038	190
459.258	120
459.478	79
459.698	85
459.918	83
460.138	90
460.358	81
460.578	90
460.798	99
461.018	101
461.238	84
461.458	91
461.678	79
461.898	85
462.118	79
462.338	93
462.558	90
462.777	95
462.997	90
463.217	87
463.437	85
463.657	97
463.876	101
464.096	99
464.316	94
464.536	100
464.755	83
464.975	101
465.195	190
465.414	179
465.634	105
465.854	84
466.073	94
466.293	87
466.512	80
466.732	87
466.951	71
467.171	79
467.391	93
467.61	127
467.829	141
468.049	262
468.268	352
468.488	128
468.707	97
468.927	95
469.146	84
469.365	82
469.585	91
469.804	112
470.023	101
470.243	94
470.462	103
470.681	107
470.901	85
471.12	93
471.339	97
471.558	98
471.777	117
471.997	173
472.216	474
472.435	1016
472.654	270
472.873	118
473.092	95
473.311	102
473.53	88
473.749	81
473.968	99
474.187	111
474.406	96
474.625	98
474.844	95
475.063	84
475.282	105
475.501	87
475.72	86
475.939	91
476.158	91
476.377	86
476.596	74
476.814	101
477.033	97
477.252	101
477.471	85
477.69	82
477.908	94
478.127	92
478.346	84
478.564	99
478.783	93
479.002	109
479.22	101
479.439	118
479.658	121
479.876	109
480.095	100
480.313	115
480.532	136
480.751	170
480.969	437
481.188	1722
481.406	1061
481.624	197
481.843	108
482.061	87
482.28	93
482.498	100
482.717	109
482.935	75
483.153	81
483.372	93
483.59	81
483.808	92
484.027	97
484.245	93
484.463	94
484.681	98
484.9	103
485.118	104
485.336	99
485.554	103
485.772	102
485.99	108
486.209	111
486.427	112
486.645	124
486.863	116
487.081	115
487.299	100
487.517	91
487.735	82
487.953	94
488.171	99
488.389	82
488.607	91
488.825	86
489.043	90
489.261	82
489.479	95
489.696	84
489.914	98
490.132	99
490.35	103
490.568	95
490.786	101
491.003	75
491.221	83
491.439	91
491.657	96
491.874	81
492.092	79
492.31	90
492.527	97
492.745	81
492.963	79
493.18	92
493.398	101
493.615	93
493.833	97
494.05	108
494.268	88
494.485	96
494.703	86
494.92	91
495.138	84
495.355	93
495.573	113
495.79	88
496.008	95
496.225	97
496.442	84
496.66	97
496.877	84
497.094	100
497.312	97
497.529	98
497.746	93
497.963	90
498.181	97
498.398	92
498.615	114
498.832	102
499.049	89
499.267	89
499.484	87
499.701	100
499.918	76
500.135	80
500.352	84
500.569	99
500.786	97
501.003	93
501.22	87
501.437	97
501.654	101
501.871	124
502.088	101
502.305	84
502.522	91
502.739	85
502.956	87
503.172	92
503.389	86
503.606	101
503.823	104
504.04	105
504.256	86
504.473	102
504.69	90
504.907	98
505.123	97
505.34	88
505.557	84
505.773	75
505.99	92
506.207	90
506.423	89
506.64	82
506.856	87
507.073	92
507.289	85
507.506	85
507.722	115
507.939	107
508.155	91
508.372	94
508.588	90
508.805	95
509.021	100
509.238	92
509.454	93
509.67	103
509.887	123
510.103	139
510.319	230
510.536	810
510.752	2673
510.968	722
511.184	164
511.401	112
511.617	114
511.833	92
512.049	91
512.265	105
512.481	96
512.698	87
512.914	105
513.13	86
513.346	101
513.562	103
513.778	94
513.994	89
514.21	99
514.426	147
514.642	151
514.858	138
515.074	170
515.29	510
515.506	1805
515.721	663
515.937	174
516.153	138
516.369	107
516.585	93
516.801	94
517.016	105
517.232	94
517.448	97
517.664	103
517.879	94
518.095	85
518.311	108
518.527	107
518.742	90
518.958	100
519.173	114
519.389	89
519.605	85
519.82	91
520.036	107
520.251	142
520.467	122
520.682	102
520.898	115
521.113	113
521.329	144
521.544	231
521.76	651
521.975	3060
522.19	1896
522.406	379
522.621	139
522.836	104
523.052	80
523.267	92
523.482	98
523.698	93
523.913	120
524.128	121
524.343	85
524.559	107
524.774	107
524.989	96
525.204	132
525.419	103
525.634	96
525.849	77
526.064	85
526.28	92
526.495	84
526.71	81
526.925	86
527.14	85
527.355	94
527.57	107
527.785	84
527.999	94
528.214	97
528.429	89
528.644	92
528.859	95
529.074	93
529.289	130
529.503	217
529.718	114
529.933	102
530.148	97
530.363	94
530.577	84
530.792	86
531.007	106
531.221	93
531.436	95
531.651	99
531.865	96
532.08	81
532.295	86
532.509	96
532.724	91
532.938	88
533.153	92
533.367	100
533.582	93
533.796	86
534.011	95
534.225	89
534.44	95
534.654	91
534.868	92
535.083	112
535.297	97
535.511	99
535.726	95
535.94	99
536.154	102
536.369	77
536.583	83
536.797	98
537.011	85
537.225	85
537.44	114
537.654	90
537.868	81
538.082	90
538.296	98
538.51	90
538.724	92
538.938	94
539.153	108
539.367	106
539.581	88
539.795	101
540.009	99
540.222	101
540.436	92
540.65	77
540.864	84
541.078	95
541.292	97
541.506	102
541.72	92
541.934	89
542.147	92
542.361	91
542.575	87
542.789	109
543.002	89
543.216	94
543.43	103
543.644	86
543.857	87
544.071	82
544.285	97
544.498	84
544.712	81
544.925	97
545.139	87
545.352	83
545.566	78
545.779	98
545.993	77
546.206	91
546.42	88
546.633	93
546.847	101
547.06	96
547.274	83
547.487	94
547.7	84
547.914	94
548.127	91
548.34	91
548.554	94
548.767	90
548.98	98
549.193	81
549.407	89
549.62	94
549.833	92
550.046	83
550.259	78
550.473	90
550.686	94
550.899	84
551.112	84
551.325	78
551.538	98
551.751	90
551.964	95
552.177	76
552.39	89
552.603	86
552.816	97
553.029	103
553.242	93
553.455	91
553.667	108
553.88	94
554.093	92
554.306	98
554.519	110
554.732	101
554.944	89
555.157	81
555.37	83
555.583	89
555.795	102
556.008	81
556.221	89
556.433	97
556.646	92
556.859	90
557.071	78
557.284	97
557.496	83
557.709	84
557.921	95
558.134	86
558.346	89
558.559	82
558.771	89
558.984	81
559.196	83
559.409	73
559.621	82
559.833	84
560.046	89
560.258	99
560.47	112
560.683	81
560.895	83
561.107	81
561.32	88
561.532	78
561.744	93
561.956	97
562.168	82
562.381	83
562.593	92
562.805	75
563.017	86
563.229	86
563.441	87
563.653	81
563.865	80
564.077	87
564.289	76
564.501	80
564.713	92
564.925	96
565.137	108
565.349	87
565.561	79
565.773	101
565.985	100
566.197	91
566.408	78
566.62	107
566.832	90
567.044	78
567.255	78
567.467	85
567.679	95
567.891	108
568.102	98
568.314	67
568.526	93
568.737	80
568.949	76
569.161	113
569.372	82
569.584	96
569.795	96
570.007	124
570.218	238
570.43	131
570.641	87
570.853	79
571.064	79
571.276	89
571.487	97
571.698	97
571.91	80
572.121	84
572.333	73
572.544	85
572.755	80
572.966	87
573.178	79
573.389	107
573.6	91
573.811	82
574.023	89
574.234	99
574.445	93
574.656	100
574.867	90
575.078	87
575.289	99
575.501	89
575.712	87
575.923	108
576.134	80
576.345	78
576.556	93
576.767	83
576.978	106
577.188	86
577.399	97
577.61	97
577.821	114
578.032	126
578.243	282
578.454	828
578.665	226
578.875	100
579.086	98
579.297	93
579.508	88
579.718	94
579.929	87
580.14	90
580.35	97
580.561	90
580.772	62
580.982	83
581.193	97
581.403	87
581.614	79
581.825	91
582.035	78
