Data from Circ_1992_H10_HRD10591_00079.txt Node
Date: Wed Jan 03 11:48:00 EST 2024
User: Yrep
Spectrometer: HR+D1059
Trigger mode: 1
Integration Time (sec): 1.000000E-1
Scans to average: 1
Electric dark correction enabled: true
Nonlinearity correction enabled: false
Boxcar width: 0
XAxis mode: Wavelengths
Number of Pixels in Spectrum: 2048
>>>>>Begin Spectral Data<<<<<
223.165	-25.31
223.4	-25.31
223.635	-25.31
223.869	-18.31
224.104	-17.31
224.338	-12.31
224.573	-27.31
224.808	-14.31
225.042	-6.31
225.277	-6.31
225.511	10.69
225.746	7.69
225.98	9.69
226.215	10.69
226.449	13.69
226.683	19.69
226.918	32.69
227.152	22.69
227.387	25.69
227.621	39.69
227.856	42.69
228.09	49.69
228.324	54.69
228.559	54.69
228.793	63.69
229.027	54.69
229.262	64.69
229.496	87.69
229.73	82.69
229.964	76.69
230.199	75.69
230.433	58.69
230.667	63.69
230.901	78.69
231.136	76.69
231.37	84.69
231.604	79.69
231.838	76.69
232.072	83.69
232.306	79.69
232.541	72.69
232.775	79.69
233.009	86.69
233.243	71.69
233.477	89.69
233.711	86.69
233.945	77.69
234.179	88.69
234.413	78.69
234.647	81.69
234.881	81.69
235.115	58.69
235.349	62.69
235.583	76.69
235.817	62.69
236.051	80.69
236.285	80.69
236.519	80.69
236.753	75.69
236.987	82.69
237.221	92.69
237.455	75.69
237.689	90.69
237.922	77.69
238.156	53.69
238.39	70.69
238.624	68.69
238.858	68.69
239.091	78.69
239.325	67.69
239.559	80.69
239.793	82.69
240.027	64.69
240.26	67.69
240.494	75.69
240.728	81.69
240.961	87.69
241.195	80.69
241.429	76.69
241.662	72.69
241.896	66.69
242.13	72.69
242.363	84.69
242.597	70.69
242.83	92.69
243.064	76.69
243.298	76.69
243.531	72.69
243.765	80.69
243.998	83.69
244.232	83.69
244.465	92.69
244.699	82.69
244.932	75.69
245.166	67.69
245.399	74.69
245.633	74.69
245.866	80.69
246.099	88.69
246.333	72.69
246.566	81.69
246.8	79.69
247.033	87.69
247.266	86.69
247.5	76.69
247.733	63.69
247.966	70.69
248.2	93.69
248.433	91.69
248.666	81.69
248.899	76.69
249.133	78.69
249.366	88.69
249.599	102.69
249.832	87.69
250.066	81.69
250.299	82.69
250.532	81.69
250.765	67.69
250.998	73.69
251.231	85.69
251.465	71.69
251.698	81.69
251.931	84.69
252.164	94.69
252.397	84.69
252.63	86.69
252.863	73.69
253.096	82.69
253.329	80.69
253.562	66.69
253.795	87.69
254.028	93.69
254.261	85.69
254.494	75.69
254.727	78.69
254.96	71.69
255.193	79.69
255.426	79.69
255.659	87.69
255.892	90.69
256.124	78.69
256.357	91.69
256.59	91.69
256.823	77.69
257.056	71.69
257.289	89.69
257.521	81.69
257.754	75.69
257.987	90.69
258.22	89.69
258.452	74.69
258.685	80.69
258.918	82.69
259.151	87.69
259.383	88.69
259.616	80.69
259.849	86.69
260.081	75.69
260.314	77.69
260.547	71.69
260.779	89.69
261.012	93.69
261.244	92.69
261.477	106.69
261.71	92.69
261.942	123.69
262.175	138.69
262.407	82.69
262.64	91.69
262.872	84.69
263.105	91.69
263.337	60.69
263.57	88.69
263.802	88.69
264.035	79.69
264.267	97.69
264.499	90.69
264.732	88.69
264.964	64.69
265.197	80.69
265.429	87.69
265.661	80.69
265.894	86.69
266.126	75.69
266.358	67.69
266.591	87.69
266.823	82.69
267.055	77.69
267.287	94.69
267.52	62.69
267.752	96.69
267.984	84.69
268.216	85.69
268.448	87.69
268.681	68.69
268.913	74.69
269.145	88.69
269.377	89.69
269.609	77.69
269.841	86.69
270.073	83.69
270.306	94.69
270.538	86.69
270.77	82.69
271.002	81.69
271.234	74.69
271.466	82.69
271.698	74.69
271.93	85.69
272.162	92.69
272.394	84.69
272.626	94.69
272.858	86.69
273.09	81.69
273.322	76.69
273.553	84.69
273.785	83.69
274.017	78.69
274.249	93.69
274.481	88.69
274.713	89.69
274.945	72.69
275.176	70.69
275.408	91.69
275.64	91.69
275.872	118.69
276.104	100.69
276.335	105.69
276.567	116.69
276.799	136.69
277.031	131.69
277.262	146.69
277.494	112.69
277.726	96.69
277.957	102.69
278.189	83.69
278.421	86.69
278.652	89.69
278.884	83.69
279.115	80.69
279.347	78.69
279.579	91.69
279.81	115.69
280.042	138.69
280.273	184.69
280.505	138.69
280.736	106.69
280.968	86.69
281.199	82.69
281.431	88.69
281.662	78.69
281.894	107.69
282.125	98.69
282.356	115.69
282.588	166.69
282.819	136.69
283.051	98.69
283.282	76.69
283.513	78.69
283.745	87.69
283.976	86.69
284.207	88.69
284.439	91.69
284.67	105.69
284.901	96.69
285.132	76.69
285.364	75.69
285.595	91.69
285.826	81.69
286.057	92.69
286.288	99.69
286.52	86.69
286.751	80.69
286.982	72.69
287.213	88.69
287.444	95.69
287.675	83.69
287.906	78.69
288.138	95.69
288.369	106.69
288.6	98.69
288.831	87.69
289.062	90.69
289.293	83.69
289.524	70.69
289.755	81.69
289.986	91.69
290.217	98.69
290.448	73.69
290.679	97.69
290.91	88.69
291.141	82.69
291.371	78.69
291.602	82.69
291.833	86.69
292.064	76.69
292.295	84.69
292.526	90.69
292.757	106.69
292.987	100.69
293.218	90.69
293.449	98.69
293.68	93.69
293.91	89.69
294.141	80.69
294.372	89.69
294.603	94.69
294.833	89.69
295.064	87.69
295.295	92.69
295.525	78.69
295.756	91.69
295.987	118.69
296.217	161.69
296.448	156.69
296.679	94.69
296.909	89.69
297.14	87.69
297.37	87.69
297.601	97.69
297.831	88.69
298.062	83.69
298.292	89.69
298.523	87.69
298.753	91.69
298.984	87.69
299.214	90.69
299.445	81.69
299.675	81.69
299.905	92.69
300.136	94.69
300.366	77.69
300.597	97.69
300.827	100.69
301.057	110.69
301.288	93.69
301.518	104.69
301.748	101.69
301.979	107.69
302.209	84.69
302.439	104.69
302.669	95.69
302.9	88.69
303.13	89.69
303.36	104.69
303.59	106.69
303.82	124.69
304.051	96.69
304.281	92.69
304.511	100.69
304.741	97.69
304.971	86.69
305.201	81.69
305.431	83.69
305.661	80.69
305.891	95.69
306.121	87.69
306.352	113.69
306.582	112.69
306.812	94.69
307.042	96.69
307.272	130.69
307.502	140.69
307.731	135.69
307.961	105.69
308.191	104.69
308.421	93.69
308.651	99.69
308.881	108.69
309.111	86.69
309.341	95.69
309.571	110.69
309.8	85.69
310.03	114.69
310.26	101.69
310.49	96.69
310.72	94.69
310.949	112.69
311.179	125.69
311.409	98.69
311.639	95.69
311.868	90.69
312.098	96.69
312.328	98.69
312.557	104.69
312.787	108.69
313.017	103.69
313.246	90.69
313.476	92.69
313.706	100.69
313.935	112.69
314.165	114.69
314.394	114.69
314.624	99.69
314.853	102.69
315.083	94.69
315.312	89.69
315.542	108.69
315.771	101.69
316.001	86.69
316.23	82.69
316.46	73.69
316.689	95.69
316.919	86.69
317.148	102.69
317.377	98.69
317.607	102.69
317.836	102.69
318.065	84.69
318.295	92.69
318.524	82.69
318.753	96.69
318.983	87.69
319.212	92.69
319.441	92.69
319.67	114.69
319.9	89.69
320.129	84.69
320.358	88.69
320.587	107.69
320.816	100.69
321.046	116.69
321.275	103.69
321.504	100.69
321.733	116.69
321.962	96.69
322.191	97.69
322.42	118.69
322.649	113.69
322.878	122.69
323.108	115.69
323.337	131.69
323.566	142.69
323.795	156.69
324.024	236.69
324.253	462.69
324.482	980.69
324.71	2056.69
324.939	2754.69
325.168	974.69
325.397	281.69
325.626	172.69
325.855	120.69
326.084	126.69
326.313	143.69
326.542	170.69
326.77	251.69
326.999	523.69
327.228	1086.69
327.457	1986.69
327.686	1605.69
327.914	515.69
328.143	384.69
328.372	468.69
328.6	279.69
328.829	159.69
329.058	185.69
329.287	171.69
329.515	166.69
329.744	205.69
329.972	316.69
330.201	660.69
330.43	974.69
330.658	475.69
330.887	238.69
331.115	182.69
331.344	127.69
331.572	120.69
331.801	112.69
332.03	111.69
332.258	105.69
332.486	103.69
332.715	102.69
332.943	105.69
333.172	102.69
333.4	111.69
333.629	139.69
333.857	182.69
334.085	298.69
334.314	634.69
334.542	1172.69
334.771	1178.69
334.999	309.69
335.227	155.69
335.455	116.69
335.684	111.69
335.912	104.69
336.14	110.69
336.369	109.69
336.597	113.69
336.825	106.69
337.053	93.69
337.281	88.69
337.51	100.69
337.738	93.69
337.966	95.69
338.194	98.69
338.422	98.69
338.65	93.69
338.878	89.69
339.106	89.69
339.334	97.69
339.562	96.69
339.79	86.69
340.018	98.69
340.246	90.69
340.474	98.69
340.702	100.69
340.93	95.69
341.158	91.69
341.386	94.69
341.614	93.69
341.842	99.69
342.07	115.69
342.298	88.69
342.526	84.69
342.754	84.69
342.981	88.69
343.209	84.69
343.437	97.69
343.665	90.69
343.893	62.69
344.12	92.69
344.348	89.69
344.576	89.69
344.804	67.69
345.031	102.69
345.259	98.69
345.487	102.69
345.714	99.69
345.942	88.69
346.17	94.69
346.397	80.69
346.625	83.69
346.853	93.69
347.08	97.69
347.308	96.69
347.535	85.69
347.763	107.69
347.99	89.69
348.218	98.69
348.445	99.69
348.673	99.69
348.9	84.69
349.128	76.69
349.355	86.69
349.583	92.69
349.81	93.69
350.037	98.69
350.265	100.69
350.492	82.69
350.72	100.69
350.947	79.69
351.174	104.69
351.402	104.69
351.629	118.69
351.856	103.69
352.083	105.69
352.311	115.69
352.538	123.69
352.765	114.69
352.992	110.69
353.22	118.69
353.447	116.69
353.674	86.69
353.901	86.69
354.128	99.69
354.355	95.69
354.583	100.69
354.81	88.69
355.037	95.69
355.264	83.69
355.491	112.69
355.718	94.69
355.945	97.69
356.172	99.69
356.399	98.69
356.626	98.69
356.853	86.69
357.08	99.69
357.307	87.69
357.534	82.69
357.761	104.69
357.988	92.69
358.215	88.69
358.441	84.69
358.668	80.69
358.895	79.69
359.122	95.69
359.349	94.69
359.576	88.69
359.802	118.69
360.029	124.69
360.256	136.69
360.483	108.69
360.709	77.69
360.936	90.69
361.163	96.69
361.39	93.69
361.616	102.69
361.843	75.69
362.07	117.69
362.296	102.69
362.523	93.69
362.749	93.69
362.976	102.69
363.203	81.69
363.429	83.69
363.656	96.69
363.882	85.69
364.109	90.69
364.335	103.69
364.562	95.69
364.788	103.69
365.015	111.69
365.241	84.69
365.468	105.69
365.694	97.69
365.92	111.69
366.147	85.69
366.373	96.69
366.599	96.69
366.826	89.69
367.052	89.69
367.278	84.69
367.505	87.69
367.731	87.69
367.957	82.69
368.184	96.69
368.41	109.69
368.636	103.69
368.862	113.69
369.089	112.69
369.315	83.69
369.541	94.69
369.767	86.69
369.993	87.69
370.219	107.69
370.445	98.69
370.672	86.69
370.898	97.69
371.124	86.69
371.35	82.69
371.576	76.69
371.802	94.69
372.028	78.69
372.254	91.69
372.48	77.69
372.706	71.69
372.932	75.69
373.158	75.69
373.384	91.69
373.61	100.69
373.835	92.69
374.061	93.69
374.287	80.69
374.513	92.69
374.739	90.69
374.965	80.69
375.191	83.69
375.416	81.69
375.642	65.69
375.868	90.69
376.094	73.69
376.319	80.69
376.545	96.69
376.771	95.69
376.997	92.69
377.222	81.69
377.448	95.69
377.674	106.69
377.899	79.69
378.125	86.69
378.35	88.69
378.576	88.69
378.802	91.69
379.027	101.69
379.253	89.69
379.478	89.69
379.704	77.69
379.929	85.69
380.155	103.69
380.38	96.69
380.606	97.69
380.831	89.69
381.057	79.69
381.282	92.69
381.507	74.69
381.733	88.69
381.958	84.69
382.184	100.69
382.409	91.69
382.634	108.69
382.86	92.69
383.085	78.69
383.31	95.69
383.535	103.69
383.761	86.69
383.986	83.69
384.211	84.69
384.436	96.69
384.662	98.69
384.887	93.69
385.112	103.69
385.337	86.69
385.562	108.69
385.787	96.69
386.013	125.69
386.238	114.69
386.463	113.69
386.688	107.69
386.913	95.69
387.138	100.69
387.363	100.69
387.588	90.69
387.813	99.69
388.038	104.69
388.263	120.69
388.488	103.69
388.713	98.69
388.938	90.69
389.163	96.69
389.387	102.69
389.612	95.69
389.837	85.69
390.062	79.69
390.287	84.69
390.512	80.69
390.736	83.69
390.961	87.69
391.186	92.69
391.411	82.69
391.636	87.69
391.86	86.69
392.085	82.69
392.31	79.69
392.534	76.69
392.759	79.69
392.984	91.69
393.208	82.69
393.433	87.69
393.658	77.69
393.882	85.69
394.107	80.69
394.331	68.69
394.556	79.69
394.78	93.69
395.005	93.69
395.229	88.69
395.454	86.69
395.678	98.69
395.903	83.69
396.127	79.69
396.352	82.69
396.576	82.69
396.801	79.69
397.025	75.69
397.249	90.69
397.474	87.69
397.698	84.69
397.922	77.69
398.147	83.69
398.371	81.69
398.595	87.69
398.82	87.69
399.044	78.69
399.268	91.69
399.492	89.69
399.717	76.69
399.941	86.69
400.165	96.69
400.389	94.69
400.613	100.69
400.837	75.69
401.062	88.69
401.286	89.69
401.51	92.69
401.734	104.69
401.958	105.69
402.182	136.69
402.406	185.69
402.63	150.69
402.854	110.69
403.078	92.69
403.302	85.69
403.526	91.69
403.75	102.69
403.974	91.69
404.198	81.69
404.422	96.69
404.645	91.69
404.869	93.69
405.093	108.69
405.317	130.69
405.541	126.69
405.765	110.69
405.988	122.69
406.212	196.69
406.436	305.69
406.66	192.69
406.883	122.69
407.107	102.69
407.331	105.69
407.555	99.69
407.778	102.69
408.002	86.69
408.226	84.69
408.449	92.69
408.673	85.69
408.896	92.69
409.12	98.69
409.344	76.69
409.567	95.69
409.791	83.69
410.014	86.69
410.238	102.69
410.461	89.69
410.685	92.69
410.908	86.69
411.132	94.69
411.355	90.69
411.578	77.69
411.802	72.69
412.025	81.69
412.249	111.69
412.472	110.69
412.695	110.69
412.919	100.69
413.142	98.69
413.365	90.69
413.589	86.69
413.812	86.69
414.035	94.69
414.258	95.69
414.482	95.69
414.705	92.69
414.928	87.69
415.151	99.69
415.374	94.69
415.597	86.69
415.821	94.69
416.044	97.69
416.267	83.69
416.49	89.69
416.713	83.69
416.936	78.69
417.159	68.69
417.382	100.69
417.605	103.69
417.828	102.69
418.051	92.69
418.274	91.69
418.497	80.69
418.72	70.69
418.943	94.69
419.166	81.69
419.389	78.69
419.611	82.69
419.834	95.69
420.057	86.69
420.28	79.69
420.503	99.69
420.726	95.69
420.948	94.69
421.171	96.69
421.394	94.69
421.617	97.69
421.839	81.69
422.062	94.69
422.285	105.69
422.507	90.69
422.73	101.69
422.953	97.69
423.175	100.69
423.398	84.69
423.621	99.69
423.843	91.69
424.066	72.69
424.288	78.69
424.511	75.69
424.733	75.69
424.956	111.69
425.178	106.69
425.401	110.69
425.623	105.69
425.846	89.69
426.068	104.69
426.291	95.69
426.513	104.69
426.735	92.69
426.958	103.69
427.18	115.69
427.402	156.69
427.625	246.69
427.847	202.69
428.069	184.69
428.292	114.69
428.514	84.69
428.736	91.69
428.958	87.69
429.181	76.69
429.403	95.69
429.625	82.69
429.847	99.69
430.069	107.69
430.292	94.69
430.514	70.69
430.736	77.69
430.958	89.69
431.18	93.69
431.402	83.69
431.624	78.69
431.846	88.69
432.068	82.69
432.29	90.69
432.512	81.69
432.734	75.69
432.956	87.69
433.178	100.69
433.4	88.69
433.622	90.69
433.844	82.69
434.066	97.69
434.287	90.69
434.509	82.69
434.731	81.69
434.953	82.69
435.175	86.69
435.397	88.69
435.618	99.69
435.84	104.69
436.062	129.69
436.284	115.69
436.505	97.69
436.727	100.69
436.949	100.69
437.17	91.69
437.392	82.69
437.614	96.69
437.835	112.69
438.057	149.69
438.278	120.69
438.5	119.69
438.721	131.69
438.943	99.69
439.165	89.69
439.386	83.69
439.608	80.69
439.829	99.69
440.05	153.69
440.272	175.69
440.493	106.69
440.715	68.69
440.936	89.69
441.158	100.69
441.379	97.69
441.6	96.69
441.822	102.69
442.043	93.69
442.264	99.69
442.486	106.69
442.707	99.69
442.928	122.69
443.149	138.69
443.371	148.69
443.592	118.69
443.813	107.69
444.034	128.69
444.255	96.69
444.476	91.69
444.698	88.69
444.919	100.69
445.14	135.69
445.361	112.69
445.582	137.69
445.803	160.69
446.024	159.69
446.245	138.69
446.466	107.69
446.687	86.69
446.908	91.69
447.129	92.69
447.35	77.69
447.571	98.69
447.792	102.69
448.013	106.69
448.234	117.69
448.455	110.69
448.675	115.69
448.896	136.69
449.117	115.69
449.338	105.69
449.559	145.69
449.779	150.69
450	95.69
450.221	97.69
450.442	89.69
450.662	99.69
450.883	123.69
451.104	126.69
451.324	100.69
451.545	92.69
451.766	84.69
451.986	80.69
452.207	90.69
452.428	94.69
452.648	97.69
452.869	129.69
453.089	121.69
453.31	138.69
453.53	91.69
453.751	94.69
453.971	110.69
454.192	128.69
454.412	93.69
454.633	79.69
454.853	90.69
455.073	87.69
455.294	82.69
455.514	87.69
455.734	97.69
455.955	71.69
456.175	80.69
456.395	79.69
456.616	84.69
456.836	86.69
457.056	78.69
457.276	81.69
457.497	91.69
457.717	87.69
457.937	89.69
458.157	84.69
458.377	84.69
458.598	113.69
458.818	185.69
459.038	203.69
459.258	148.69
459.478	108.69
459.698	94.69
459.918	75.69
460.138	95.69
460.358	98.69
460.578	96.69
460.798	88.69
461.018	81.69
461.238	77.69
461.458	92.69
461.678	68.69
461.898	87.69
462.118	85.69
462.338	75.69
462.558	81.69
462.777	92.69
462.997	90.69
463.217	92.69
463.437	92.69
463.657	77.69
463.876	68.69
464.096	82.69
464.316	86.69
464.536	116.69
464.755	97.69
464.975	130.69
465.195	210.69
465.414	237.69
465.634	104.69
465.854	98.69
466.073	93.69
466.293	80.69
466.512	89.69
466.732	92.69
466.951	96.69
467.171	88.69
467.391	111.69
467.61	122.69
467.829	168.69
468.049	408.69
468.268	590.69
468.488	168.69
468.707	94.69
468.927	92.69
469.146	84.69
469.365	84.69
469.585	99.69
469.804	89.69
470.023	106.69
470.243	110.69
470.462	110.69
470.681	133.69
470.901	102.69
471.12	95.69
471.339	97.69
471.558	112.69
471.777	134.69
471.997	212.69
472.216	757.69
472.435	1748.69
472.654	426.69
472.873	138.69
473.092	100.69
473.311	89.69
473.53	74.69
473.749	90.69
473.968	94.69
474.187	100.69
474.406	92.69
474.625	88.69
474.844	88.69
475.063	92.69
475.282	76.69
475.501	87.69
475.72	72.69
475.939	89.69
476.158	94.69
476.377	82.69
476.596	93.69
476.814	95.69
477.033	87.69
477.252	94.69
477.471	78.69
477.69	100.69
477.908	98.69
478.127	98.69
478.346	89.69
478.564	92.69
478.783	93.69
479.002	110.69
479.22	86.69
479.439	111.69
479.658	127.69
479.876	101.69
480.095	115.69
480.313	110.69
480.532	125.69
480.751	227.69
480.969	738.69
481.188	2990.69
481.406	1746.69
481.624	291.69
481.843	121.69
482.061	98.69
482.28	97.69
482.498	103.69
482.717	88.69
482.935	75.69
483.153	94.69
483.372	93.69
483.59	89.69
483.808	84.69
484.027	96.69
484.245	89.69
484.463	78.69
484.681	97.69
484.9	83.69
485.118	99.69
485.336	89.69
485.554	92.69
485.772	100.69
485.99	118.69
486.209	104.69
486.427	108.69
486.645	113.69
486.863	119.69
487.081	106.69
487.299	100.69
487.517	80.69
487.735	88.69
487.953	85.69
488.171	104.69
488.389	104.69
488.607	92.69
488.825	82.69
489.043	95.69
489.261	90.69
489.479	80.69
489.696	91.69
489.914	91.69
490.132	66.69
490.35	81.69
490.568	110.69
490.786	85.69
491.003	111.69
491.221	95.69
491.439	103.69
491.657	101.69
491.874	89.69
492.092	87.69
492.31	89.69
492.527	108.69
492.745	88.69
492.963	94.69
493.18	94.69
493.398	95.69
493.615	88.69
493.833	94.69
494.05	76.69
494.268	83.69
494.485	88.69
494.703	94.69
494.92	75.69
495.138	91.69
495.355	91.69
495.573	78.69
495.79	86.69
496.008	87.69
496.225	85.69
496.442	94.69
496.66	96.69
496.877	90.69
497.094	92.69
497.312	86.69
497.529	101.69
497.746	94.69
497.963	83.69
498.181	90.69
498.398	102.69
498.615	115.69
498.832	108.69
499.049	97.69
499.267	86.69
499.484	100.69
499.701	82.69
499.918	100.69
500.135	84.69
500.352	94.69
500.569	74.69
500.786	106.69
501.003	84.69
501.22	99.69
501.437	85.69
501.654	99.69
501.871	122.69
502.088	99.69
502.305	78.69
502.522	91.69
502.739	102.69
502.956	78.69
503.172	100.69
503.389	119.69
503.606	123.69
503.823	111.69
504.04	103.69
504.256	87.69
504.473	82.69
504.69	96.69
504.907	89.69
505.123	98.69
505.34	83.69
505.557	106.69
505.773	76.69
505.99	80.69
506.207	94.69
506.423	95.69
506.64	78.69
506.856	84.69
507.073	94.69
507.289	88.69
507.506	90.69
507.722	140.69
507.939	122.69
508.155	102.69
508.372	93.69
508.588	92.69
508.805	78.69
509.021	92.69
509.238	90.69
509.454	101.69
509.67	106.69
509.887	104.69
510.103	134.69
510.319	242.69
510.536	880.69
510.752	3006.69
510.968	822.69
511.184	177.69
511.401	112.69
511.617	101.69
511.833	101.69
512.049	100.69
512.265	102.69
512.481	99.69
512.698	84.69
512.914	99.69
513.13	100.69
513.346	108.69
513.562	107.69
513.778	104.69
513.994	96.69
514.21	105.69
514.426	148.69
