Data from Circ_1992_H10_HRD10591_00017.txt Node
Date: Wed Jan 03 11:47:48 EST 2024
User: Yrep
Spectrometer: HR+D1059
Trigger mode: 1
Integration Time (sec): 1.000000E-1
Scans to average: 1
Electric dark correction enabled: true
Nonlinearity correction enabled: false
Boxcar width: 0
XAxis mode: Wavelengths
Number of Pixels in Spectrum: 2048
>>>>>Begin Spectral Data<<<<<
223.165	-7
223.4	-7
223.635	-7
223.869	-15
224.104	-8
224.338	-21
224.573	-19
224.808	-14
225.042	-10
225.277	6
225.511	-16
225.746	-16
225.98	18
226.215	9
226.449	14
226.683	26
226.918	26
227.152	27
227.387	30
227.621	59
227.856	44
228.09	50
228.324	56
228.559	53
228.793	46
229.027	63
229.262	68
229.496	70
229.73	71
229.964	83
230.199	70
230.433	76
230.667	87
230.901	89
231.136	81
231.37	89
231.604	85
231.838	82
232.072	86
232.306	83
232.541	86
232.775	87
233.009	98
233.243	73
233.477	91
233.711	86
233.945	80
234.179	85
234.413	80
234.647	87
234.881	92
235.115	75
235.349	88
235.583	86
235.817	69
236.051	86
236.285	72
236.519	71
236.753	83
236.987	80
237.221	84
237.455	85
237.689	76
237.922	75
238.156	61
238.39	72
238.624	83
238.858	82
239.091	92
239.325	84
239.559	91
239.793	87
240.027	84
240.26	84
240.494	76
240.728	82
240.961	83
241.195	86
241.429	78
241.662	88
241.896	80
242.13	87
242.363	94
242.597	75
242.83	80
243.064	84
243.298	87
243.531	63
243.765	78
243.998	75
244.232	84
244.465	92
244.699	100
244.932	84
245.166	89
245.399	79
245.633	86
245.866	91
246.099	91
246.333	68
246.566	88
246.8	91
247.033	79
247.266	85
247.5	95
247.733	81
247.966	85
248.2	82
248.433	99
248.666	81
248.899	77
249.133	87
249.366	102
249.599	93
249.832	77
250.066	83
250.299	75
250.532	80
250.765	104
250.998	91
251.231	87
251.465	81
251.698	85
251.931	83
252.164	93
252.397	89
252.63	68
252.863	88
253.096	100
253.329	84
253.562	94
253.795	83
254.028	75
254.261	80
254.494	89
254.727	89
254.96	87
255.193	79
255.426	81
255.659	81
255.892	82
256.124	78
256.357	71
256.59	87
256.823	93
257.056	97
257.289	97
257.521	88
257.754	78
257.987	93
258.22	79
258.452	95
258.685	92
258.918	102
259.151	98
259.383	84
259.616	86
259.849	84
260.081	92
260.314	87
260.547	92
260.779	94
261.012	115
261.244	93
261.477	101
261.71	84
261.942	115
262.175	113
262.407	93
262.64	85
262.872	106
263.105	85
263.337	89
263.57	85
263.802	75
264.035	84
264.267	86
264.499	74
264.732	84
264.964	91
265.197	84
265.429	75
265.661	87
265.894	87
266.126	75
266.358	91
266.591	90
266.823	84
267.055	88
267.287	96
267.52	96
267.752	88
267.984	75
268.216	81
268.448	82
268.681	85
268.913	84
269.145	92
269.377	91
269.609	88
269.841	96
270.073	94
270.306	99
270.538	75
270.77	78
271.002	85
271.234	84
271.466	97
271.698	91
271.93	81
272.162	89
272.394	100
272.626	80
272.858	93
273.09	79
273.322	91
273.553	80
273.785	89
274.017	97
274.249	86
274.481	86
274.713	84
274.945	81
275.176	83
275.408	107
275.64	96
275.872	94
276.104	76
276.335	118
276.567	102
276.799	99
277.031	114
277.262	114
277.494	97
277.726	103
277.957	89
278.189	84
278.421	95
278.652	92
278.884	91
279.115	82
279.347	86
279.579	88
279.81	92
280.042	111
280.273	123
280.505	100
280.736	101
280.968	86
281.199	91
281.431	85
281.662	103
281.894	101
282.125	107
282.356	96
282.588	126
282.819	112
283.051	99
283.282	85
283.513	92
283.745	86
283.976	100
284.207	81
284.439	84
284.67	94
284.901	83
285.132	80
285.364	97
285.595	101
285.826	75
286.057	84
286.288	87
286.52	89
286.751	97
286.982	87
287.213	82
287.444	89
287.675	97
287.906	85
288.138	86
288.369	94
288.6	90
288.831	91
289.062	92
289.293	85
289.524	102
289.755	86
289.986	96
290.217	72
290.448	87
290.679	82
290.91	82
291.141	98
291.371	95
291.602	91
291.833	77
292.064	91
292.295	84
292.526	89
292.757	95
292.987	90
293.218	88
293.449	93
293.68	82
293.91	80
294.141	101
294.372	99
294.603	95
294.833	97
295.064	86
295.295	101
295.525	86
295.756	95
295.987	114
296.217	134
296.448	140
296.679	109
296.909	98
297.14	87
297.37	88
297.601	91
297.831	103
298.062	101
298.292	87
298.523	81
298.753	96
298.984	101
299.214	87
299.445	105
299.675	101
299.905	92
300.136	94
300.366	91
300.597	87
300.827	92
301.057	97
301.288	114
301.518	89
301.748	92
301.979	94
302.209	97
302.439	107
302.669	87
302.9	93
303.13	86
303.36	103
303.59	104
303.82	118
304.051	100
304.281	101
304.511	102
304.741	103
304.971	79
305.201	103
305.431	91
305.661	105
305.891	90
306.121	93
306.352	93
306.582	108
306.812	81
307.042	107
307.272	111
307.502	125
307.731	108
307.961	94
308.191	83
308.421	87
308.651	77
308.881	100
309.111	98
309.341	104
309.571	104
309.8	109
310.03	105
310.26	99
310.49	97
310.72	100
310.949	104
311.179	102
311.409	94
311.639	101
311.868	104
312.098	106
312.328	93
312.557	104
312.787	110
313.017	104
313.246	94
313.476	99
313.706	101
313.935	99
314.165	103
314.394	113
314.624	93
314.853	103
315.083	114
315.312	102
315.542	89
315.771	103
316.001	95
316.23	87
316.46	82
316.689	101
316.919	88
317.148	85
317.377	95
317.607	91
317.836	94
318.065	88
318.295	109
318.524	80
318.753	72
318.983	104
319.212	99
319.441	105
319.67	101
319.9	102
320.129	96
320.358	89
320.587	98
320.816	103
321.046	95
321.275	91
321.504	104
321.733	95
321.962	97
322.191	107
322.42	101
322.649	114
322.878	98
323.108	110
323.337	144
323.566	130
323.795	173
324.024	191
324.253	357
324.482	756
324.71	1563
324.939	1999
325.168	759
325.397	241
325.626	153
325.855	126
326.084	124
326.313	136
326.542	158
326.77	232
326.999	431
327.228	883
327.457	1586
327.686	1194
327.914	369
328.143	247
328.372	266
328.6	171
328.829	130
329.058	132
329.287	144
329.515	132
329.744	119
329.972	182
330.201	309
330.43	407
330.658	226
330.887	163
331.115	136
331.344	115
331.572	109
331.801	111
332.03	104
332.258	97
332.486	99
332.715	101
332.943	103
333.172	105
333.4	96
333.629	126
333.857	147
334.085	169
334.314	300
334.542	486
334.771	514
334.999	191
335.227	123
335.455	109
335.684	107
335.912	97
336.14	108
336.369	105
336.597	111
336.825	104
337.053	92
337.281	85
337.51	91
337.738	112
337.966	88
338.194	106
338.422	103
338.65	94
338.878	101
339.106	104
339.334	108
339.562	94
339.79	93
340.018	93
340.246	91
340.474	96
340.702	95
340.93	89
341.158	91
341.386	99
341.614	98
341.842	108
342.07	93
342.298	93
342.526	97
342.754	91
342.981	100
343.209	92
343.437	107
343.665	86
343.893	96
344.12	91
344.348	85
344.576	87
344.804	101
345.031	99
345.259	98
345.487	109
345.714	98
345.942	111
346.17	102
346.397	93
346.625	76
346.853	83
347.08	87
347.308	96
347.535	102
347.763	95
347.99	94
348.218	105
348.445	95
348.673	110
348.9	115
349.128	102
349.355	110
349.583	94
349.81	83
350.037	90
350.265	91
350.492	102
350.72	110
350.947	111
351.174	115
351.402	126
351.629	121
351.856	110
352.083	106
352.311	117
352.538	105
352.765	125
352.992	109
353.22	113
353.447	114
353.674	109
353.901	112
354.128	112
354.355	100
354.583	105
354.81	91
355.037	100
355.264	109
355.491	101
355.718	89
355.945	93
356.172	95
356.399	100
356.626	88
356.853	95
357.08	95
357.307	94
357.534	91
357.761	116
357.988	108
358.215	104
358.441	118
358.668	95
358.895	95
359.122	116
359.349	97
359.576	105
359.802	112
360.029	111
360.256	98
360.483	119
360.709	103
360.936	106
361.163	101
361.39	104
361.616	101
361.843	91
362.07	101
362.296	102
362.523	87
362.749	97
362.976	87
363.203	97
363.429	79
363.656	103
363.882	103
364.109	105
364.335	95
364.562	85
364.788	83
365.015	99
365.241	97
365.468	105
365.694	101
365.92	95
366.147	99
366.373	102
366.599	95
366.826	98
367.052	86
367.278	100
367.505	94
367.731	104
367.957	89
368.184	84
368.41	93
368.636	103
368.862	115
369.089	103
369.315	83
369.541	99
369.767	107
369.993	87
370.219	109
370.445	83
370.672	88
370.898	101
371.124	101
371.35	75
371.576	86
371.802	81
372.028	97
372.254	83
372.48	84
372.706	78
372.932	85
373.158	83
373.384	97
373.61	99
373.835	92
374.061	77
374.287	98
374.513	88
374.739	94
374.965	104
375.191	88
375.416	97
375.642	92
375.868	96
376.094	104
376.319	88
376.545	101
376.771	97
376.997	105
377.222	93
377.448	97
377.674	98
377.899	91
378.125	102
378.35	96
378.576	108
378.802	95
379.027	96
379.253	99
379.478	102
379.704	84
379.929	108
380.155	91
380.38	107
380.606	106
380.831	110
381.057	108
381.282	110
381.507	112
381.733	104
381.958	99
382.184	105
382.409	103
382.634	121
382.86	105
383.085	131
383.31	128
383.535	114
383.761	117
383.986	113
384.211	115
384.436	115
384.662	126
384.887	136
385.112	109
385.337	130
385.562	136
385.787	121
386.013	130
386.238	120
386.463	102
386.688	123
386.913	125
387.138	130
387.363	129
387.588	116
387.813	117
388.038	128
388.263	136
388.488	145
388.713	99
388.938	95
389.163	92
389.387	100
389.612	81
389.837	82
390.062	96
390.287	101
390.512	91
390.736	98
390.961	104
391.186	96
391.411	100
391.636	92
391.86	79
392.085	73
392.31	81
392.534	96
392.759	100
392.984	93
393.208	83
393.433	87
393.658	100
393.882	92
394.107	82
394.331	84
394.556	79
394.78	102
395.005	88
395.229	100
395.454	91
395.678	86
395.903	89
396.127	103
396.352	89
396.576	92
396.801	88
397.025	93
397.249	89
397.474	83
397.698	97
397.922	102
398.147	80
398.371	81
398.595	102
398.82	95
399.044	87
399.268	105
399.492	94
399.717	91
399.941	92
400.165	87
400.389	80
400.613	84
400.837	81
401.062	73
401.286	103
401.51	89
401.734	92
401.958	96
402.182	108
402.406	155
402.63	120
402.854	88
403.078	111
403.302	93
403.526	88
403.75	101
403.974	89
404.198	84
404.422	91
404.645	102
404.869	90
405.093	105
405.317	115
405.541	93
405.765	111
405.988	115
406.212	181
406.436	200
406.66	149
406.883	95
407.107	99
407.331	106
407.555	112
407.778	102
408.002	88
408.226	101
408.449	98
408.673	99
408.896	96
409.12	96
409.344	91
409.567	98
409.791	87
410.014	87
410.238	99
410.461	79
410.685	93
410.908	92
411.132	103
411.355	109
411.578	93
411.802	103
412.025	99
412.249	95
412.472	105
412.695	118
412.919	111
413.142	93
413.365	99
413.589	85
413.812	87
414.035	103
414.258	94
414.482	89
414.705	101
414.928	91
415.151	96
415.374	94
415.597	95
415.821	95
416.044	97
416.267	87
416.49	106
416.713	92
416.936	115
417.159	88
417.382	88
417.605	106
417.828	98
418.051	79
418.274	87
418.497	90
418.72	91
418.943	97
419.166	89
419.389	96
419.611	87
419.834	83
420.057	100
420.28	90
420.503	90
420.726	84
420.948	105
421.171	97
421.394	94
421.617	79
421.839	87
422.062	87
422.285	97
422.507	95
422.73	94
422.953	93
423.175	83
423.398	91
423.621	91
423.843	81
424.066	83
424.288	85
424.511	97
424.733	111
424.956	118
425.178	106
425.401	96
425.623	108
425.846	95
426.068	95
426.291	97
426.513	88
426.735	105
426.958	94
427.18	109
427.402	144
427.625	170
427.847	160
428.069	135
428.292	95
428.514	89
428.736	90
428.958	81
429.181	85
429.403	65
429.625	87
429.847	88
430.069	106
430.292	89
430.514	95
430.736	84
430.958	107
431.18	101
431.402	91
431.624	76
431.846	83
432.068	89
432.29	101
432.512	93
432.734	88
432.956	79
433.178	104
433.4	85
433.622	108
433.844	94
434.066	85
434.287	94
434.509	99
434.731	87
434.953	84
435.175	107
435.397	87
435.618	94
435.84	88
436.062	121
436.284	122
436.505	98
436.727	98
436.949	99
437.17	89
437.392	86
437.614	85
437.835	102
438.057	109
438.278	116
438.5	113
438.721	127
438.943	115
439.165	92
439.386	93
439.608	102
439.829	99
440.05	117
440.272	133
440.493	104
440.715	79
440.936	95
441.158	96
441.379	86
441.6	93
441.822	96
442.043	89
442.264	110
442.486	107
442.707	88
442.928	115
443.149	137
443.371	137
443.592	116
443.813	119
444.034	113
444.255	96
444.476	101
444.698	102
444.919	95
445.14	127
445.361	116
445.582	122
445.803	140
446.024	147
446.245	131
446.466	101
446.687	101
446.908	96
447.129	84
447.35	81
447.571	94
447.792	101
448.013	102
448.234	96
448.455	103
448.675	112
448.896	119
449.117	107
449.338	99
449.559	139
449.779	127
450	89
450.221	101
450.442	93
450.662	81
450.883	104
451.104	116
451.324	87
451.545	100
451.766	84
451.986	98
452.207	103
452.428	83
452.648	100
452.869	99
453.089	119
453.31	103
453.53	95
453.751	95
453.971	103
454.192	111
454.412	97
454.633	87
454.853	85
455.073	86
455.294	100
455.514	95
455.734	87
455.955	87
456.175	89
456.395	88
456.616	87
456.836	80
457.056	76
457.276	86
457.497	90
457.717	83
457.937	89
458.157	81
458.377	96
458.598	99
458.818	150
459.038	173
459.258	121
459.478	103
459.698	88
459.918	87
460.138	95
460.358	83
460.578	88
460.798	85
461.018	101
461.238	80
461.458	83
461.678	88
461.898	83
462.118	83
462.338	89
462.558	94
462.777	75
462.997	77
463.217	95
463.437	91
463.657	84
463.876	74
464.096	102
464.316	83
464.536	93
464.755	102
464.975	103
465.195	165
465.414	158
465.634	94
465.854	88
466.073	72
466.293	89
466.512	91
466.732	85
466.951	92
467.171	85
467.391	95
467.61	115
467.829	105
468.049	193
468.268	263
468.488	120
468.707	97
468.927	97
469.146	102
469.365	110
469.585	105
469.804	101
470.023	97
470.243	86
470.462	99
470.681	116
470.901	87
471.12	96
471.339	91
471.558	95
471.777	102
471.997	138
472.216	343
472.435	687
472.654	211
472.873	99
473.092	89
473.311	99
473.53	99
473.749	87
473.968	105
474.187	103
474.406	105
474.625	103
474.844	88
475.063	97
475.282	97
475.501	78
475.72	88
475.939	87
476.158	87
476.377	77
476.596	97
476.814	100
477.033	81
477.252	99
477.471	103
477.69	83
477.908	84
478.127	84
478.346	87
478.564	93
478.783	98
479.002	100
479.22	101
479.439	99
479.658	102
479.876	95
480.095	98
480.313	98
480.532	111
480.751	148
480.969	344
481.188	1164
481.406	704
481.624	164
481.843	107
482.061	94
482.28	92
482.498	82
482.717	86
482.935	95
483.153	91
483.372	76
483.59	101
483.808	100
484.027	99
484.245	84
484.463	92
484.681	107
484.9	80
485.118	103
485.336	107
485.554	99
485.772	103
485.99	110
486.209	88
486.427	94
486.645	104
486.863	113
487.081	99
487.299	102
487.517	85
487.735	102
487.953	94
488.171	103
488.389	86
488.607	91
488.825	96
489.043	99
489.261	99
489.479	105
489.696	99
489.914	105
490.132	79
490.35	102
490.568	99
490.786	99
491.003	102
491.221	104
491.439	102
491.657	94
491.874	93
492.092	90
492.31	94
492.527	100
492.745	95
492.963	107
493.18	85
493.398	89
493.615	101
493.833	105
494.05	103
494.268	90
494.485	104
494.703	92
494.92	100
495.138	87
495.355	81
495.573	101
495.79	92
496.008	94
496.225	95
496.442	108
496.66	105
496.877	83
497.094	90
497.312	91
497.529	92
497.746	95
497.963	94
498.181	92
498.398	85
498.615	108
498.832	93
499.049	91
499.267	87
499.484	95
499.701	86
499.918	95
500.135	93
500.352	88
500.569	86
500.786	89
501.003	89
501.22	93
501.437	96
501.654	94
501.871	111
502.088	83
502.305	92
502.522	91
502.739	95
502.956	93
503.172	96
503.389	90
503.606	106
503.823	114
504.04	105
504.256	91
504.473	89
504.69	85
504.907	101
505.123	79
505.34	102
505.557	83
505.773	106
505.99	95
506.207	94
506.423	99
506.64	93
506.856	71
507.073	72
507.289	92
507.506	91
507.722	113
507.939	112
508.155	108
508.372	82
508.588	93
508.805	99
509.021	92
509.238	91
509.454	95
509.67	109
509.887	103
510.103	135
510.319	203
510.536	702
510.752	2183
510.968	591
511.184	153
511.401	118
511.617	89
511.833	104
512.049	110
512.265	93
512.481	103
512.698	76
512.914	88
513.13	98
513.346	97
513.562	93
513.778	93
513.994	84
514.21	99
514.426	114
514.642	145
514.858	123
515.074	170
515.29	429
515.506	1366
515.721	513
515.937	147
516.153	117
516.369	102
516.585	100
516.801	97
517.016	98
517.232	101
517.448	100
517.664	93
517.879	102
518.095	95
518.311	100
518.527	100
518.742	91
518.958	87
519.173	99
519.389	117
519.605	95
519.82	95
520.036	103
520.251	120
520.467	98
520.682	118
520.898	108
521.113	116
521.329	134
521.544	195
521.76	534
521.975	2344
522.19	1415
522.406	313
522.621	130
522.836	100
523.052	85
523.267	97
523.482	95
523.698	95
523.913	116
524.128	109
524.343	96
524.559	80
524.774	85
524.989	112
525.204	106
525.419	96
525.634	85
525.849	96
526.064	104
526.28	100
526.495	87
526.71	100
526.925	95
527.14	100
527.355	94
527.57	82
527.785	87
527.999	81
528.214	98
528.429	103
528.644	95
528.859	95
529.074	103
529.289	125
529.503	183
529.718	102
529.933	91
530.148	91
530.363	97
530.577	98
530.792	89
531.007	97
531.221	91
531.436	80
531.651	92
531.865	88
532.08	88
532.295	87
532.509	87
532.724	96
532.938	97
533.153	104
533.367	94
533.582	94
533.796	100
534.011	94
534.225	87
534.44	93
534.654	86
534.868	97
535.083	106
535.297	93
535.511	96
535.726	106
535.94	102
536.154	101
536.369	96
536.583	90
536.797	96
537.011	85
537.225	98
537.44	91
537.654	112
537.868	89
538.082	93
538.296	90
538.51	97
538.724	71
538.938	83
539.153	98
539.367	106
539.581	107
539.795	99
540.009	80
540.222	95
540.436	82
540.65	94
540.864	94
541.078	99
541.292	95
541.506	92
541.72	115
541.934	75
542.147	76
542.361	91
542.575	88
542.789	91
543.002	83
543.216	100
543.43	91
543.644	96
543.857	98
544.071	76
544.285	97
544.498	78
544.712	97
544.925	96
545.139	101
545.352	101
545.566	108
545.779	100
545.993	99
546.206	102
546.42	91
546.633	107
546.847	109
547.06	93
547.274	99
547.487	90
547.7	96
547.914	91
548.127	92
548.34	92
548.554	88
548.767	99
548.98	92
549.193	92
549.407	90
549.62	100
549.833	97
550.046	85
550.259	91
550.473	94
550.686	101
550.899	87
551.112	83
551.325	100
551.538	89
551.751	88
551.964	103
552.177	81
552.39	100
552.603	92
552.816	89
553.029	107
553.242	91
553.455	109
553.667	111
553.88	104
554.093	99
554.306	98
554.519	99
554.732	83
554.944	93
555.157	105
555.37	98
555.583	84
555.795	93
556.008	81
556.221	99
556.433	101
556.646	100
556.859	91
557.071	93
557.284	95
557.496	99
557.709	85
557.921	80
558.134	87
558.346	78
558.559	99
558.771	91
558.984	88
559.196	104
559.409	85
559.621	86
559.833	93
560.046	108
560.258	89
560.47	99
560.683	93
560.895	86
561.107	82
561.32	81
561.532	95
561.744	100
561.956	101
562.168	86
562.381	85
562.593	100
562.805	94
563.017	88
563.229	88
563.441	96
563.653	107
563.865	96
564.077	95
564.289	101
564.501	105
564.713	110
564.925	108
565.137	96
565.349	96
565.561	94
565.773	104
565.985	94
566.197	96
566.408	95
566.62	85
566.832	98
567.044	107
567.255	99
567.467	94
567.679	97
567.891	88
568.102	80
568.314	98
568.526	86
568.737	94
568.949	94
569.161	92
569.372	91
569.584	111
569.795	110
570.007	110
570.218	236
570.43	127
570.641	105
570.853	92
571.064	70
571.276	71
571.487	100
571.698	95
571.91	102
572.121	104
572.333	81
572.544	104
572.755	89
572.966	80
573.178	86
573.389	95
573.6	91
573.811	77
574.023	87
574.234	71
574.445	86
574.656	96
574.867	89
575.078	97
575.289	88
575.501	87
575.712	111
575.923	83
576.134	92
576.345	97
576.556	103
576.767	100
576.978	94
577.188	93
577.399	90
577.61	91
577.821	96
578.032	113
578.243	239
578.454	688
578.665	205
578.875	97
579.086	103
579.297	82
579.508	87
579.718	93
579.929	84
580.14	92
580.35	96
580.561	90
580.772	85
