Data from Circ_1992_H10_HRD10591_00062.txt Node
Date: Wed Jan 03 11:47:57 EST 2024
User: Yrep
Spectrometer: HR+D1059
Trigger mode: 1
Integration Time (sec): 1.000000E-1
Scans to average: 1
Electric dark correction enabled: true
Nonlinearity correction enabled: false
Boxcar width: 0
XAxis mode: Wavelengths
Number of Pixels in Spectrum: 2048
>>>>>Begin Spectral Data<<<<<
223.165	-12.44
223.4	-12.44
223.635	-12.44
223.869	-15.44
224.104	-27.44
224.338	-17.44
224.573	-11.44
224.808	-4.44
225.042	-7.44
225.277	-5.44
225.511	-1.44
225.746	13.56
225.98	11.56
226.215	17.56
226.449	11.56
226.683	18.56
226.918	14.56
227.152	15.56
227.387	49.56
227.621	37.56
227.856	40.56
228.09	46.56
228.324	51.56
228.559	57.56
228.793	69.56
229.027	72.56
229.262	62.56
229.496	72.56
229.73	67.56
229.964	77.56
230.199	68.56
230.433	72.56
230.667	80.56
230.901	82.56
231.136	84.56
231.37	84.56
231.604	83.56
231.838	76.56
232.072	72.56
232.306	91.56
232.541	81.56
232.775	83.56
233.009	81.56
233.243	71.56
233.477	83.56
233.711	69.56
233.945	84.56
234.179	86.56
234.413	84.56
234.647	82.56
234.881	74.56
235.115	74.56
235.349	85.56
235.583	74.56
235.817	92.56
236.051	85.56
236.285	79.56
236.519	78.56
236.753	90.56
236.987	73.56
237.221	88.56
237.455	84.56
237.689	83.56
237.922	65.56
238.156	74.56
238.39	73.56
238.624	75.56
238.858	78.56
239.091	64.56
239.325	79.56
239.559	80.56
239.793	79.56
240.027	73.56
240.26	77.56
240.494	80.56
240.728	70.56
240.961	67.56
241.195	75.56
241.429	85.56
241.662	79.56
241.896	76.56
242.13	57.56
242.363	74.56
242.597	78.56
242.83	78.56
243.064	67.56
243.298	81.56
243.531	69.56
243.765	79.56
243.998	80.56
244.232	73.56
244.465	67.56
244.699	63.56
244.932	78.56
245.166	74.56
245.399	83.56
245.633	71.56
245.866	83.56
246.099	85.56
246.333	70.56
246.566	89.56
246.8	89.56
247.033	89.56
247.266	62.56
247.5	82.56
247.733	80.56
247.966	84.56
248.2	78.56
248.433	74.56
248.666	75.56
248.899	67.56
249.133	77.56
249.366	100.56
249.599	84.56
249.832	89.56
250.066	88.56
250.299	83.56
250.532	85.56
250.765	68.56
250.998	86.56
251.231	79.56
251.465	84.56
251.698	70.56
251.931	67.56
252.164	80.56
252.397	71.56
252.63	78.56
252.863	74.56
253.096	85.56
253.329	74.56
253.562	84.56
253.795	78.56
254.028	85.56
254.261	90.56
254.494	84.56
254.727	77.56
254.96	82.56
255.193	80.56
255.426	70.56
255.659	66.56
255.892	91.56
256.124	78.56
256.357	81.56
256.59	85.56
256.823	83.56
257.056	96.56
257.289	76.56
257.521	76.56
257.754	77.56
257.987	82.56
258.22	91.56
258.452	74.56
258.685	86.56
258.918	94.56
259.151	83.56
259.383	85.56
259.616	88.56
259.849	79.56
260.081	74.56
260.314	95.56
260.547	94.56
260.779	77.56
261.012	97.56
261.244	84.56
261.477	86.56
261.71	87.56
261.942	107.56
262.175	109.56
262.407	89.56
262.64	77.56
262.872	77.56
263.105	78.56
263.337	88.56
263.57	82.56
263.802	78.56
264.035	90.56
264.267	77.56
264.499	79.56
264.732	73.56
264.964	89.56
265.197	78.56
265.429	92.56
265.661	82.56
265.894	87.56
266.126	78.56
266.358	98.56
266.591	73.56
266.823	96.56
267.055	77.56
267.287	82.56
267.52	82.56
267.752	84.56
267.984	91.56
268.216	78.56
268.448	88.56
268.681	101.56
268.913	75.56
269.145	66.56
269.377	86.56
269.609	86.56
269.841	83.56
270.073	100.56
270.306	86.56
270.538	85.56
270.77	77.56
271.002	88.56
271.234	78.56
271.466	83.56
271.698	81.56
271.93	82.56
272.162	72.56
272.394	77.56
272.626	85.56
272.858	82.56
273.09	85.56
273.322	83.56
273.553	84.56
273.785	76.56
274.017	87.56
274.249	82.56
274.481	92.56
274.713	65.56
274.945	80.56
275.176	94.56
275.408	93.56
275.64	100.56
275.872	88.56
276.104	95.56
276.335	81.56
276.567	90.56
276.799	101.56
277.031	113.56
277.262	98.56
277.494	91.56
277.726	84.56
277.957	83.56
278.189	82.56
278.421	92.56
278.652	82.56
278.884	77.56
279.115	87.56
279.347	89.56
279.579	87.56
279.81	86.56
280.042	101.56
280.273	119.56
280.505	102.56
280.736	91.56
280.968	80.56
281.199	89.56
281.431	83.56
281.662	91.56
281.894	85.56
282.125	88.56
282.356	94.56
282.588	116.56
282.819	98.56
283.051	90.56
283.282	83.56
283.513	81.56
283.745	70.56
283.976	90.56
284.207	91.56
284.439	89.56
284.67	83.56
284.901	78.56
285.132	93.56
285.364	89.56
285.595	88.56
285.826	85.56
286.057	85.56
286.288	81.56
286.52	90.56
286.751	85.56
286.982	92.56
287.213	84.56
287.444	77.56
287.675	99.56
287.906	82.56
288.138	92.56
288.369	94.56
288.6	93.56
288.831	86.56
289.062	85.56
289.293	89.56
289.524	72.56
289.755	90.56
289.986	74.56
290.217	90.56
290.448	96.56
290.679	90.56
290.91	96.56
291.141	108.56
291.371	93.56
291.602	86.56
291.833	87.56
292.064	78.56
292.295	85.56
292.526	67.56
292.757	106.56
292.987	86.56
293.218	107.56
293.449	88.56
293.68	79.56
293.91	78.56
294.141	89.56
294.372	88.56
294.603	88.56
294.833	77.56
295.064	81.56
295.295	76.56
295.525	90.56
295.756	107.56
295.987	98.56
296.217	120.56
296.448	103.56
296.679	89.56
296.909	95.56
297.14	83.56
297.37	79.56
297.601	100.56
297.831	81.56
298.062	94.56
298.292	101.56
298.523	88.56
298.753	79.56
298.984	86.56
299.214	77.56
299.445	82.56
299.675	86.56
299.905	100.56
300.136	76.56
300.366	93.56
300.597	88.56
300.827	89.56
301.057	88.56
301.288	100.56
301.518	98.56
301.748	96.56
301.979	94.56
302.209	90.56
302.439	95.56
302.669	78.56
302.9	81.56
303.13	91.56
303.36	95.56
303.59	105.56
303.82	105.56
304.051	106.56
304.281	99.56
304.511	95.56
304.741	89.56
304.971	76.56
305.201	83.56
305.431	95.56
305.661	82.56
305.891	95.56
306.121	92.56
306.352	93.56
306.582	94.56
306.812	96.56
307.042	84.56
307.272	117.56
307.502	126.56
307.731	101.56
307.961	101.56
308.191	93.56
308.421	102.56
308.651	100.56
308.881	102.56
309.111	98.56
309.341	96.56
309.571	100.56
309.8	88.56
310.03	86.56
310.26	91.56
310.49	98.56
310.72	104.56
310.949	101.56
311.179	88.56
311.409	90.56
311.639	99.56
311.868	86.56
312.098	86.56
312.328	107.56
312.557	90.56
312.787	90.56
313.017	108.56
313.246	84.56
313.476	107.56
313.706	110.56
313.935	97.56
314.165	105.56
314.394	98.56
314.624	88.56
314.853	90.56
315.083	96.56
315.312	80.56
315.542	92.56
315.771	91.56
316.001	93.56
316.23	100.56
316.46	88.56
316.689	82.56
316.919	94.56
317.148	97.56
317.377	85.56
317.607	81.56
317.836	80.56
318.065	93.56
318.295	91.56
318.524	97.56
318.753	87.56
318.983	83.56
319.212	98.56
319.441	102.56
319.67	109.56
319.9	91.56
320.129	91.56
320.358	77.56
320.587	92.56
320.816	92.56
321.046	74.56
321.275	108.56
321.504	81.56
321.733	89.56
321.962	83.56
322.191	98.56
322.42	92.56
322.649	100.56
322.878	91.56
323.108	108.56
323.337	122.56
323.566	129.56
323.795	140.56
324.024	196.56
324.253	360.56
324.482	767.56
324.71	1555.56
324.939	2044.56
325.168	728.56
325.397	224.56
325.626	131.56
325.855	132.56
326.084	123.56
326.313	143.56
326.542	158.56
326.77	216.56
326.999	413.56
327.228	870.56
327.457	1554.56
327.686	1266.56
327.914	376.56
328.143	241.56
328.372	256.56
328.6	160.56
328.829	118.56
329.058	111.56
329.287	114.56
329.515	124.56
329.744	143.56
329.972	196.56
330.201	335.56
330.43	432.56
330.658	238.56
330.887	127.56
331.115	106.56
331.344	93.56
331.572	102.56
331.801	108.56
332.03	103.56
332.258	95.56
332.486	100.56
332.715	97.56
332.943	89.56
333.172	107.56
333.4	101.56
333.629	110.56
333.857	152.56
334.085	215.56
334.314	307.56
334.542	572.56
334.771	486.56
334.999	166.56
335.227	123.56
335.455	96.56
335.684	91.56
335.912	90.56
336.14	106.56
336.369	72.56
336.597	95.56
336.825	96.56
337.053	98.56
337.281	87.56
337.51	99.56
337.738	97.56
337.966	100.56
338.194	97.56
338.422	89.56
338.65	103.56
338.878	88.56
339.106	85.56
339.334	96.56
339.562	101.56
339.79	92.56
340.018	87.56
340.246	91.56
340.474	78.56
340.702	91.56
340.93	94.56
341.158	91.56
341.386	91.56
341.614	101.56
341.842	89.56
342.07	88.56
342.298	93.56
342.526	87.56
342.754	88.56
342.981	92.56
343.209	81.56
343.437	108.56
343.665	89.56
343.893	92.56
344.12	86.56
344.348	81.56
344.576	97.56
344.804	92.56
345.031	93.56
345.259	94.56
345.487	81.56
345.714	109.56
345.942	92.56
346.17	94.56
346.397	92.56
346.625	99.56
346.853	93.56
347.08	85.56
347.308	108.56
347.535	83.56
347.763	83.56
347.99	96.56
348.218	96.56
348.445	103.56
348.673	88.56
348.9	85.56
349.128	82.56
349.355	96.56
349.583	97.56
349.81	81.56
350.037	98.56
350.265	82.56
350.492	104.56
350.72	93.56
350.947	99.56
351.174	109.56
351.402	96.56
351.629	100.56
351.856	98.56
352.083	93.56
352.311	102.56
352.538	97.56
352.765	88.56
352.992	108.56
353.22	110.56
353.447	111.56
353.674	101.56
353.901	87.56
354.128	80.56
354.355	98.56
354.583	106.56
354.81	89.56
355.037	93.56
355.264	83.56
355.491	95.56
355.718	80.56
355.945	86.56
356.172	107.56
356.399	94.56
356.626	98.56
356.853	91.56
357.08	75.56
357.307	94.56
357.534	92.56
357.761	84.56
357.988	104.56
358.215	89.56
358.441	88.56
358.668	88.56
358.895	94.56
359.122	88.56
359.349	83.56
359.576	66.56
359.802	89.56
360.029	113.56
360.256	104.56
360.483	92.56
360.709	84.56
360.936	97.56
361.163	88.56
361.39	90.56
361.616	89.56
361.843	93.56
362.07	100.56
362.296	98.56
362.523	94.56
362.749	82.56
362.976	93.56
363.203	80.56
363.429	96.56
363.656	96.56
363.882	84.56
364.109	93.56
364.335	84.56
364.562	79.56
364.788	88.56
365.015	98.56
365.241	88.56
365.468	95.56
365.694	89.56
365.92	96.56
366.147	112.56
366.373	89.56
366.599	82.56
366.826	83.56
367.052	88.56
367.278	79.56
367.505	95.56
367.731	95.56
367.957	96.56
368.184	85.56
368.41	93.56
368.636	104.56
368.862	112.56
369.089	94.56
369.315	88.56
369.541	79.56
369.767	89.56
369.993	102.56
370.219	92.56
370.445	73.56
370.672	85.56
370.898	85.56
371.124	85.56
371.35	83.56
371.576	81.56
371.802	90.56
372.028	76.56
372.254	81.56
372.48	92.56
372.706	90.56
372.932	84.56
373.158	79.56
373.384	87.56
373.61	79.56
373.835	75.56
374.061	92.56
374.287	92.56
374.513	84.56
374.739	89.56
374.965	85.56
375.191	93.56
375.416	91.56
375.642	98.56
375.868	100.56
376.094	89.56
376.319	93.56
376.545	90.56
376.771	93.56
376.997	73.56
377.222	82.56
377.448	95.56
377.674	98.56
377.899	93.56
378.125	91.56
378.35	88.56
378.576	78.56
378.802	101.56
379.027	105.56
379.253	92.56
379.478	92.56
379.704	84.56
379.929	85.56
380.155	96.56
380.38	100.56
380.606	89.56
380.831	92.56
381.057	90.56
381.282	92.56
381.507	94.56
381.733	98.56
381.958	82.56
382.184	97.56
382.409	98.56
382.634	106.56
382.86	93.56
383.085	99.56
383.31	101.56
383.535	111.56
383.761	102.56
383.986	98.56
384.211	98.56
384.436	99.56
384.662	94.56
384.887	96.56
385.112	106.56
385.337	112.56
385.562	100.56
385.787	104.56
386.013	101.56
386.238	104.56
386.463	100.56
386.688	103.56
386.913	103.56
387.138	114.56
387.363	106.56
387.588	114.56
387.813	92.56
388.038	110.56
388.263	106.56
388.488	108.56
388.713	89.56
388.938	92.56
389.163	86.56
389.387	98.56
389.612	82.56
389.837	70.56
390.062	101.56
390.287	104.56
390.512	103.56
390.736	77.56
390.961	93.56
391.186	102.56
391.411	99.56
391.636	82.56
391.86	87.56
392.085	99.56
392.31	76.56
392.534	89.56
392.759	74.56
392.984	84.56
393.208	94.56
393.433	82.56
393.658	76.56
393.882	82.56
394.107	74.56
394.331	73.56
394.556	70.56
394.78	91.56
395.005	101.56
395.229	96.56
395.454	94.56
395.678	95.56
395.903	82.56
396.127	77.56
396.352	106.56
396.576	83.56
396.801	86.56
397.025	88.56
397.249	91.56
397.474	88.56
397.698	85.56
397.922	93.56
398.147	84.56
398.371	94.56
398.595	92.56
398.82	87.56
399.044	94.56
399.268	80.56
399.492	97.56
399.717	96.56
399.941	91.56
400.165	104.56
400.389	82.56
400.613	106.56
400.837	106.56
401.062	81.56
401.286	72.56
401.51	88.56
401.734	88.56
401.958	95.56
402.182	98.56
402.406	125.56
402.63	87.56
402.854	92.56
403.078	87.56
403.302	91.56
403.526	94.56
403.75	91.56
403.974	80.56
404.198	96.56
404.422	83.56
404.645	76.56
404.869	89.56
405.093	90.56
405.317	100.56
405.541	84.56
405.765	98.56
405.988	101.56
406.212	144.56
406.436	163.56
406.66	120.56
406.883	89.56
407.107	96.56
407.331	104.56
407.555	106.56
407.778	86.56
408.002	100.56
408.226	95.56
408.449	91.56
408.673	88.56
408.896	75.56
409.12	81.56
409.344	99.56
409.567	95.56
409.791	84.56
410.014	104.56
410.238	92.56
410.461	83.56
410.685	84.56
410.908	76.56
411.132	103.56
411.355	88.56
411.578	95.56
411.802	96.56
412.025	87.56
412.249	88.56
412.472	93.56
412.695	102.56
412.919	95.56
413.142	76.56
413.365	101.56
413.589	91.56
413.812	88.56
414.035	101.56
414.258	81.56
414.482	92.56
414.705	83.56
414.928	93.56
415.151	80.56
415.374	81.56
415.597	93.56
415.821	94.56
416.044	78.56
416.267	99.56
416.49	93.56
416.713	77.56
416.936	79.56
417.159	85.56
417.382	84.56
417.605	101.56
417.828	92.56
418.051	88.56
418.274	85.56
418.497	82.56
418.72	78.56
418.943	88.56
419.166	97.56
419.389	78.56
419.611	97.56
419.834	94.56
420.057	100.56
420.28	88.56
420.503	78.56
420.726	92.56
420.948	91.56
421.171	89.56
421.394	92.56
421.617	92.56
421.839	85.56
422.062	74.56
422.285	97.56
422.507	88.56
422.73	81.56
422.953	81.56
423.175	86.56
423.398	77.56
423.621	92.56
423.843	80.56
424.066	64.56
424.288	76.56
424.511	77.56
424.733	99.56
424.956	102.56
425.178	90.56
425.401	97.56
425.623	96.56
425.846	89.56
426.068	101.56
426.291	83.56
426.513	85.56
426.735	92.56
426.958	75.56
427.18	91.56
427.402	129.56
427.625	148.56
427.847	138.56
428.069	141.56
428.292	104.56
428.514	68.56
428.736	83.56
428.958	93.56
429.181	85.56
429.403	85.56
429.625	85.56
429.847	83.56
430.069	94.56
430.292	103.56
430.514	88.56
430.736	89.56
430.958	71.56
431.18	88.56
431.402	77.56
431.624	79.56
431.846	83.56
432.068	105.56
432.29	80.56
432.512	86.56
432.734	83.56
432.956	91.56
433.178	102.56
433.4	95.56
433.622	86.56
433.844	102.56
434.066	98.56
434.287	102.56
434.509	90.56
434.731	93.56
434.953	98.56
435.175	77.56
435.397	92.56
435.618	96.56
435.84	83.56
436.062	100.56
436.284	99.56
436.505	102.56
436.727	106.56
436.949	95.56
437.17	93.56
437.392	85.56
437.614	73.56
437.835	98.56
438.057	108.56
438.278	114.56
438.5	117.56
438.721	119.56
438.943	97.56
439.165	79.56
439.386	77.56
439.608	88.56
439.829	98.56
440.05	105.56
440.272	110.56
440.493	105.56
440.715	88.56
440.936	89.56
441.158	103.56
441.379	88.56
441.6	76.56
441.822	99.56
442.043	86.56
442.264	102.56
442.486	97.56
442.707	97.56
442.928	100.56
443.149	119.56
443.371	123.56
443.592	101.56
443.813	113.56
444.034	98.56
444.255	91.56
444.476	82.56
444.698	95.56
444.919	83.56
445.14	118.56
445.361	109.56
445.582	95.56
445.803	116.56
446.024	120.56
446.245	109.56
446.466	100.56
446.687	88.56
446.908	73.56
447.129	93.56
447.35	90.56
447.571	86.56
447.792	93.56
448.013	99.56
448.234	87.56
448.455	82.56
448.675	103.56
448.896	93.56
449.117	85.56
449.338	99.56
449.559	113.56
449.779	99.56
450	99.56
450.221	91.56
450.442	89.56
450.662	96.56
450.883	102.56
451.104	96.56
451.324	95.56
451.545	99.56
451.766	91.56
451.986	85.56
452.207	79.56
452.428	86.56
452.648	107.56
452.869	94.56
453.089	104.56
453.31	94.56
453.53	87.56
453.751	72.56
453.971	92.56
454.192	100.56
454.412	81.56
454.633	90.56
454.853	74.56
455.073	98.56
455.294	93.56
455.514	104.56
455.734	76.56
455.955	90.56
456.175	84.56
456.395	88.56
456.616	77.56
456.836	86.56
457.056	69.56
457.276	81.56
457.497	90.56
457.717	88.56
457.937	95.56
458.157	97.56
458.377	93.56
458.598	110.56
458.818	144.56
459.038	125.56
459.258	103.56
459.478	83.56
459.698	82.56
459.918	86.56
460.138	80.56
460.358	82.56
460.578	81.56
460.798	88.56
461.018	82.56
461.238	81.56
461.458	85.56
461.678	84.56
461.898	77.56
462.118	96.56
462.338	79.56
462.558	77.56
462.777	91.56
462.997	68.56
463.217	99.56
463.437	83.56
463.657	69.56
463.876	90.56
464.096	83.56
464.316	82.56
464.536	91.56
464.755	104.56
464.975	94.56
465.195	141.56
465.414	147.56
465.634	106.56
465.854	89.56
466.073	93.56
466.293	84.56
466.512	88.56
466.732	86.56
466.951	80.56
467.171	86.56
467.391	98.56
467.61	105.56
467.829	112.56
468.049	214.56
468.268	298.56
468.488	130.56
468.707	106.56
468.927	84.56
469.146	83.56
469.365	87.56
469.585	97.56
469.804	84.56
470.023	97.56
470.243	81.56
470.462	86.56
470.681	108.56
470.901	92.56
471.12	76.56
471.339	96.56
471.558	105.56
471.777	96.56
471.997	164.56
472.216	408.56
472.435	773.56
472.654	235.56
472.873	105.56
473.092	83.56
473.311	80.56
473.53	70.56
473.749	88.56
473.968	88.56
474.187	90.56
474.406	90.56
474.625	86.56
474.844	83.56
475.063	90.56
475.282	90.56
475.501	96.56
475.72	90.56
475.939	77.56
476.158	95.56
476.377	73.56
476.596	86.56
476.814	94.56
477.033	92.56
477.252	86.56
477.471	91.56
477.69	76.56
477.908	95.56
478.127	88.56
478.346	93.56
478.564	93.56
478.783	103.56
479.002	85.56
479.22	100.56
479.439	101.56
479.658	112.56
479.876	95.56
480.095	94.56
480.313	91.56
480.532	110.56
480.751	152.56
480.969	408.56
481.188	1340.56
481.406	784.56
481.624	156.56
481.843	103.56
482.061	75.56
482.28	92.56
482.498	87.56
482.717	86.56
482.935	85.56
483.153	85.56
483.372	83.56
483.59	88.56
483.808	90.56
484.027	85.56
484.245	86.56
484.463	96.56
484.681	93.56
484.9	90.56
485.118	90.56
485.336	85.56
485.554	99.56
485.772	89.56
485.99	116.56
486.209	110.56
486.427	112.56
486.645	112.56
486.863	115.56
487.081	96.56
487.299	94.56
487.517	101.56
487.735	84.56
487.953	100.56
488.171	100.56
488.389	89.56
488.607	107.56
488.825	100.56
489.043	86.56
489.261	93.56
489.479	85.56
489.696	70.56
489.914	100.56
490.132	83.56
490.35	90.56
490.568	80.56
490.786	80.56
491.003	89.56
491.221	85.56
491.439	92.56
491.657	72.56
491.874	98.56
492.092	94.56
492.31	89.56
492.527	73.56
492.745	82.56
492.963	95.56
493.18	89.56
493.398	97.56
493.615	85.56
493.833	84.56
494.05	95.56
494.268	97.56
494.485	96.56
494.703	83.56
494.92	82.56
495.138	80.56
495.355	77.56
495.573	79.56
495.79	93.56
496.008	100.56
496.225	90.56
496.442	73.56
496.66	102.56
496.877	96.56
497.094	85.56
497.312	86.56
497.529	85.56
497.746	84.56
497.963	79.56
498.181	67.56
498.398	110.56
498.615	102.56
498.832	96.56
499.049	89.56
499.267	101.56
499.484	81.56
499.701	97.56
499.918	79.56
500.135	88.56
500.352	83.56
500.569	85.56
500.786	84.56
501.003	78.56
501.22	93.56
501.437	88.56
501.654	86.56
501.871	96.56
502.088	79.56
502.305	95.56
502.522	92.56
502.739	78.56
502.956	84.56
503.172	95.56
503.389	102.56
503.606	104.56
503.823	103.56
504.04	90.56
504.256	86.56
504.473	87.56
504.69	84.56
504.907	98.56
505.123	98.56
505.34	94.56
505.557	90.56
505.773	90.56
505.99	106.56
506.207	90.56
506.423	90.56
506.64	89.56
506.856	80.56
507.073	83.56
507.289	84.56
507.506	79.56
507.722	96.56
507.939	100.56
508.155	101.56
508.372	94.56
508.588	97.56
508.805	92.56
509.021	104.56
509.238	101.56
509.454	97.56
509.67	92.56
509.887	104.56
510.103	113.56
510.319	189.56
510.536	596.56
510.752	1766.56
510.968	506.56
511.184	131.56
511.401	104.56
511.617	102.56
511.833	84.56
512.049	94.56
512.265	96.56
512.481	103.56
512.698	70.56
512.914	108.56
513.13	96.56
513.346	96.56
513.562	92.56
513.778	84.56
513.994	82.56
514.21	76.56
514.426	102.56
514.642	126.56
514.858	103.56
515.074	128.56
515.29	348.56
515.506	1092.56
515.721	404.56
515.937	125.56
