Data from Circ_1992_H10_HRD10591_00085.txt Node
Date: Wed Jan 03 11:48:01 EST 2024
User: Yrep
Spectrometer: HR+D1059
Trigger mode: 1
Integration Time (sec): 1.000000E-1
Scans to average: 1
Electric dark correction enabled: true
Nonlinearity correction enabled: false
Boxcar width: 0
XAxis mode: Wavelengths
Number of Pixels in Spectrum: 2048
>>>>>Begin Spectral Data<<<<<
223.165	-14.69
223.4	-14.69
223.635	-14.69
223.869	-15.69
224.104	-16.69
224.338	-25.69
224.573	-17.69
224.808	-15.69
225.042	-14.69
225.277	7.31
225.511	-4.69
225.746	12.31
225.98	5.31
226.215	6.31
226.449	15.31
226.683	22.31
226.918	27.31
227.152	29.31
227.387	32.31
227.621	34.31
227.856	44.31
228.09	49.31
228.324	52.31
228.559	52.31
228.793	68.31
229.027	76.31
229.262	58.31
229.496	79.31
229.73	91.31
229.964	77.31
230.199	70.31
230.433	75.31
230.667	72.31
230.901	63.31
231.136	73.31
231.37	83.31
231.604	78.31
231.838	73.31
232.072	71.31
232.306	61.31
232.541	87.31
232.775	83.31
233.009	83.31
233.243	51.31
233.477	81.31
233.711	72.31
233.945	79.31
234.179	73.31
234.413	78.31
234.647	89.31
234.881	72.31
235.115	83.31
235.349	85.31
235.583	91.31
235.817	81.31
236.051	73.31
236.285	76.31
236.519	86.31
236.753	64.31
236.987	77.31
237.221	89.31
237.455	114.31
237.689	78.31
237.922	86.31
238.156	88.31
238.39	72.31
238.624	65.31
238.858	71.31
239.091	87.31
239.325	78.31
239.559	85.31
239.793	95.31
240.027	61.31
240.26	73.31
240.494	82.31
240.728	73.31
240.961	73.31
241.195	82.31
241.429	74.31
241.662	64.31
241.896	80.31
242.13	81.31
242.363	79.31
242.597	70.31
242.83	83.31
243.064	81.31
243.298	89.31
243.531	68.31
243.765	78.31
243.998	75.31
244.232	81.31
244.465	86.31
244.699	62.31
244.932	80.31
245.166	72.31
245.399	75.31
245.633	69.31
245.866	60.31
246.099	80.31
246.333	77.31
246.566	81.31
246.8	57.31
247.033	73.31
247.266	79.31
247.5	83.31
247.733	75.31
247.966	79.31
248.2	79.31
248.433	60.31
248.666	68.31
248.899	78.31
249.133	97.31
249.366	95.31
249.599	90.31
249.832	79.31
250.066	81.31
250.299	77.31
250.532	89.31
250.765	87.31
250.998	73.31
251.231	84.31
251.465	87.31
251.698	77.31
251.931	87.31
252.164	87.31
252.397	78.31
252.63	76.31
252.863	85.31
253.096	67.31
253.329	95.31
253.562	74.31
253.795	92.31
254.028	86.31
254.261	73.31
254.494	81.31
254.727	93.31
254.96	82.31
255.193	73.31
255.426	87.31
255.659	79.31
255.892	95.31
256.124	96.31
256.357	94.31
256.59	77.31
256.823	81.31
257.056	79.31
257.289	83.31
257.521	91.31
257.754	86.31
257.987	84.31
258.22	74.31
258.452	87.31
258.685	91.31
258.918	87.31
259.151	79.31
259.383	76.31
259.616	79.31
259.849	81.31
260.081	95.31
260.314	76.31
260.547	95.31
260.779	87.31
261.012	87.31
261.244	96.31
261.477	88.31
261.71	78.31
261.942	123.31
262.175	127.31
262.407	90.31
262.64	86.31
262.872	72.31
263.105	75.31
263.337	78.31
263.57	76.31
263.802	88.31
264.035	96.31
264.267	78.31
264.499	80.31
264.732	74.31
264.964	80.31
265.197	84.31
265.429	88.31
265.661	86.31
265.894	79.31
266.126	95.31
266.358	83.31
266.591	83.31
266.823	85.31
267.055	71.31
267.287	91.31
267.52	86.31
267.752	89.31
267.984	85.31
268.216	91.31
268.448	86.31
268.681	88.31
268.913	83.31
269.145	81.31
269.377	100.31
269.609	91.31
269.841	86.31
270.073	76.31
270.306	92.31
270.538	72.31
270.77	79.31
271.002	88.31
271.234	88.31
271.466	87.31
271.698	95.31
271.93	83.31
272.162	87.31
272.394	89.31
272.626	85.31
272.858	97.31
273.09	92.31
273.322	82.31
273.553	91.31
273.785	75.31
274.017	99.31
274.249	81.31
274.481	65.31
274.713	88.31
274.945	79.31
275.176	93.31
275.408	77.31
275.64	92.31
275.872	102.31
276.104	98.31
276.335	99.31
276.567	97.31
276.799	98.31
277.031	117.31
277.262	123.31
277.494	116.31
277.726	91.31
277.957	84.31
278.189	82.31
278.421	83.31
278.652	86.31
278.884	88.31
279.115	73.31
279.347	92.31
279.579	91.31
279.81	112.31
280.042	127.31
280.273	162.31
280.505	130.31
280.736	98.31
280.968	83.31
281.199	94.31
281.431	95.31
281.662	90.31
281.894	91.31
282.125	94.31
282.356	123.31
282.588	138.31
282.819	100.31
283.051	100.31
283.282	82.31
283.513	100.31
283.745	82.31
283.976	78.31
284.207	93.31
284.439	74.31
284.67	82.31
284.901	82.31
285.132	77.31
285.364	85.31
285.595	80.31
285.826	64.31
286.057	74.31
286.288	82.31
286.52	93.31
286.751	71.31
286.982	83.31
287.213	80.31
287.444	84.31
287.675	100.31
287.906	97.31
288.138	93.31
288.369	92.31
288.6	82.31
288.831	79.31
289.062	93.31
289.293	91.31
289.524	79.31
289.755	79.31
289.986	78.31
290.217	95.31
290.448	87.31
290.679	92.31
290.91	92.31
291.141	84.31
291.371	82.31
291.602	82.31
291.833	93.31
292.064	92.31
292.295	80.31
292.526	98.31
292.757	98.31
292.987	89.31
293.218	77.31
293.449	75.31
293.68	81.31
293.91	91.31
294.141	93.31
294.372	86.31
294.603	89.31
294.833	95.31
295.064	76.31
295.295	87.31
295.525	96.31
295.756	94.31
295.987	120.31
296.217	125.31
296.448	124.31
296.679	92.31
296.909	98.31
297.14	89.31
297.37	94.31
297.601	78.31
297.831	101.31
298.062	93.31
298.292	73.31
298.523	98.31
298.753	86.31
298.984	81.31
299.214	88.31
299.445	89.31
299.675	90.31
299.905	98.31
300.136	85.31
300.366	82.31
300.597	99.31
300.827	91.31
301.057	91.31
301.288	94.31
301.518	97.31
301.748	87.31
301.979	91.31
302.209	100.31
302.439	90.31
302.669	80.31
302.9	90.31
303.13	93.31
303.36	83.31
303.59	116.31
303.82	131.31
304.051	102.31
304.281	100.31
304.511	88.31
304.741	91.31
304.971	75.31
305.201	98.31
305.431	104.31
305.661	87.31
305.891	94.31
306.121	98.31
306.352	89.31
306.582	100.31
306.812	79.31
307.042	93.31
307.272	119.31
307.502	135.31
307.731	123.31
307.961	119.31
308.191	92.31
308.421	100.31
308.651	79.31
308.881	73.31
309.111	88.31
309.341	89.31
309.571	90.31
309.8	96.31
310.03	97.31
310.26	105.31
310.49	87.31
310.72	106.31
310.949	89.31
311.179	104.31
311.409	88.31
311.639	91.31
311.868	96.31
312.098	82.31
312.328	96.31
312.557	107.31
312.787	124.31
313.017	107.31
313.246	96.31
313.476	90.31
313.706	99.31
313.935	85.31
314.165	100.31
314.394	97.31
314.624	93.31
314.853	93.31
315.083	100.31
315.312	94.31
315.542	94.31
315.771	90.31
316.001	98.31
316.23	83.31
316.46	84.31
316.689	84.31
316.919	101.31
317.148	107.31
317.377	80.31
317.607	98.31
317.836	106.31
318.065	97.31
318.295	88.31
318.524	83.31
318.753	83.31
318.983	85.31
319.212	90.31
319.441	111.31
319.67	104.31
319.9	96.31
320.129	98.31
320.358	96.31
320.587	87.31
320.816	85.31
321.046	88.31
321.275	79.31
321.504	91.31
321.733	90.31
321.962	87.31
322.191	91.31
322.42	106.31
322.649	116.31
322.878	113.31
323.108	111.31
323.337	129.31
323.566	140.31
323.795	157.31
324.024	211.31
324.253	379.31
324.482	788.31
324.71	1615.31
324.939	2139.31
325.168	784.31
325.397	232.31
325.626	145.31
325.855	116.31
326.084	128.31
326.313	123.31
326.542	163.31
326.77	227.31
326.999	431.31
327.228	898.31
327.457	1627.31
327.686	1283.31
327.914	415.31
328.143	327.31
328.372	405.31
328.6	234.31
328.829	157.31
329.058	162.31
329.287	157.31
329.515	140.31
329.744	157.31
329.972	302.31
330.201	541.31
330.43	796.31
330.658	372.31
330.887	196.31
331.115	151.31
331.344	118.31
331.572	109.31
331.801	109.31
332.03	112.31
332.258	104.31
332.486	97.31
332.715	102.31
332.943	91.31
333.172	105.31
333.4	107.31
333.629	128.31
333.857	162.31
334.085	265.31
334.314	514.31
334.542	993.31
334.771	903.31
334.999	279.31
335.227	139.31
335.455	94.31
335.684	92.31
335.912	103.31
336.14	99.31
336.369	103.31
336.597	100.31
336.825	99.31
337.053	82.31
337.281	99.31
337.51	95.31
337.738	96.31
337.966	87.31
338.194	93.31
338.422	95.31
338.65	99.31
338.878	99.31
339.106	88.31
339.334	78.31
339.562	77.31
339.79	93.31
340.018	99.31
340.246	99.31
340.474	90.31
340.702	108.31
340.93	85.31
341.158	91.31
341.386	104.31
341.614	99.31
341.842	89.31
342.07	83.31
342.298	100.31
342.526	91.31
342.754	103.31
342.981	89.31
343.209	96.31
343.437	92.31
343.665	91.31
343.893	90.31
344.12	96.31
344.348	85.31
344.576	83.31
344.804	107.31
345.031	105.31
345.259	99.31
345.487	93.31
345.714	94.31
345.942	95.31
346.17	86.31
346.397	76.31
346.625	87.31
346.853	90.31
347.08	99.31
347.308	99.31
347.535	94.31
347.763	95.31
347.99	84.31
348.218	105.31
348.445	108.31
348.673	104.31
348.9	83.31
349.128	87.31
349.355	96.31
349.583	95.31
349.81	99.31
350.037	95.31
350.265	91.31
350.492	92.31
350.72	99.31
350.947	87.31
351.174	98.31
351.402	108.31
351.629	87.31
351.856	99.31
352.083	100.31
352.311	101.31
352.538	109.31
352.765	122.31
352.992	98.31
353.22	117.31
353.447	98.31
353.674	102.31
353.901	95.31
354.128	87.31
354.355	89.31
354.583	85.31
354.81	97.31
355.037	93.31
355.264	99.31
355.491	109.31
355.718	87.31
355.945	75.31
356.172	81.31
356.399	94.31
356.626	83.31
356.853	85.31
357.08	87.31
357.307	95.31
357.534	96.31
357.761	82.31
357.988	87.31
358.215	95.31
358.441	88.31
358.668	92.31
358.895	82.31
359.122	81.31
359.349	97.31
359.576	85.31
359.802	98.31
360.029	123.31
360.256	115.31
360.483	107.31
360.709	80.31
360.936	100.31
361.163	95.31
361.39	97.31
361.616	99.31
361.843	95.31
362.07	83.31
362.296	93.31
362.523	95.31
362.749	88.31
362.976	103.31
363.203	91.31
363.429	89.31
363.656	92.31
363.882	81.31
364.109	88.31
364.335	86.31
364.562	96.31
364.788	96.31
365.015	92.31
365.241	92.31
365.468	98.31
365.694	88.31
365.92	82.31
366.147	64.31
366.373	103.31
366.599	86.31
366.826	94.31
367.052	81.31
367.278	98.31
367.505	99.31
367.731	94.31
367.957	96.31
368.184	98.31
368.41	91.31
368.636	120.31
368.862	109.31
369.089	107.31
369.315	87.31
369.541	86.31
369.767	91.31
369.993	104.31
370.219	87.31
370.445	80.31
370.672	82.31
370.898	98.31
371.124	85.31
371.35	86.31
371.576	83.31
371.802	87.31
372.028	98.31
372.254	92.31
372.48	91.31
372.706	88.31
372.932	95.31
373.158	97.31
373.384	89.31
373.61	94.31
373.835	88.31
374.061	95.31
374.287	81.31
374.513	91.31
374.739	81.31
374.965	99.31
375.191	85.31
375.416	93.31
375.642	83.31
375.868	89.31
376.094	89.31
376.319	74.31
376.545	101.31
376.771	89.31
376.997	83.31
377.222	91.31
377.448	87.31
377.674	97.31
377.899	94.31
378.125	95.31
378.35	84.31
378.576	96.31
378.802	95.31
379.027	84.31
379.253	100.31
379.478	87.31
379.704	83.31
379.929	91.31
380.155	84.31
380.38	87.31
380.606	90.31
380.831	92.31
381.057	103.31
381.282	104.31
381.507	86.31
381.733	95.31
381.958	96.31
382.184	100.31
382.409	112.31
382.634	111.31
382.86	106.31
383.085	100.31
383.31	109.31
383.535	90.31
383.761	89.31
383.986	102.31
384.211	91.31
384.436	95.31
384.662	96.31
384.887	109.31
385.112	99.31
385.337	106.31
385.562	108.31
385.787	103.31
386.013	107.31
386.238	118.31
386.463	93.31
386.688	101.31
386.913	113.31
387.138	104.31
387.363	104.31
387.588	98.31
387.813	98.31
388.038	95.31
388.263	103.31
388.488	96.31
388.713	90.31
388.938	92.31
389.163	90.31
389.387	94.31
389.612	87.31
389.837	82.31
390.062	101.31
390.287	88.31
390.512	93.31
390.736	87.31
390.961	98.31
391.186	96.31
391.411	99.31
391.636	79.31
391.86	77.31
392.085	84.31
392.31	92.31
392.534	84.31
392.759	85.31
392.984	72.31
393.208	77.31
393.433	68.31
393.658	87.31
393.882	89.31
394.107	75.31
394.331	94.31
394.556	83.31
394.78	90.31
395.005	84.31
395.229	89.31
395.454	81.31
395.678	81.31
395.903	88.31
396.127	90.31
396.352	96.31
396.576	97.31
396.801	91.31
397.025	81.31
397.249	81.31
397.474	80.31
397.698	85.31
397.922	85.31
398.147	87.31
398.371	90.31
398.595	87.31
398.82	83.31
399.044	96.31
399.268	87.31
399.492	103.31
399.717	87.31
399.941	90.31
400.165	89.31
400.389	88.31
400.613	90.31
400.837	97.31
401.062	87.31
401.286	85.31
401.51	74.31
401.734	103.31
401.958	92.31
402.182	119.31
402.406	169.31
402.63	126.31
402.854	92.31
403.078	90.31
403.302	83.31
403.526	93.31
403.75	90.31
403.974	95.31
404.198	67.31
404.422	104.31
404.645	86.31
404.869	90.31
405.093	105.31
405.317	126.31
405.541	116.31
405.765	120.31
405.988	122.31
406.212	144.31
406.436	216.31
406.66	160.31
406.883	120.31
407.107	87.31
407.331	91.31
407.555	117.31
407.778	99.31
408.002	91.31
408.226	98.31
408.449	93.31
408.673	94.31
408.896	84.31
409.12	88.31
409.344	87.31
409.567	84.31
409.791	83.31
410.014	97.31
410.238	84.31
410.461	114.31
410.685	95.31
410.908	89.31
411.132	88.31
411.355	93.31
411.578	98.31
411.802	87.31
412.025	88.31
412.249	92.31
412.472	109.31
412.695	117.31
412.919	104.31
413.142	88.31
413.365	89.31
413.589	103.31
413.812	81.31
414.035	91.31
414.258	89.31
414.482	84.31
414.705	78.31
414.928	81.31
415.151	75.31
415.374	79.31
415.597	72.31
415.821	84.31
416.044	97.31
416.267	76.31
416.49	81.31
416.713	87.31
416.936	77.31
417.159	82.31
417.382	83.31
417.605	87.31
417.828	87.31
418.051	84.31
418.274	83.31
418.497	80.31
418.72	79.31
418.943	85.31
419.166	84.31
419.389	92.31
419.611	97.31
419.834	83.31
420.057	82.31
420.28	82.31
420.503	96.31
420.726	95.31
420.948	80.31
421.171	91.31
421.394	101.31
421.617	86.31
421.839	87.31
422.062	90.31
422.285	91.31
422.507	92.31
422.73	113.31
422.953	93.31
423.175	80.31
423.398	96.31
423.621	97.31
423.843	83.31
424.066	79.31
424.288	84.31
424.511	90.31
424.733	98.31
424.956	128.31
425.178	103.31
425.401	104.31
425.623	119.31
425.846	96.31
426.068	109.31
426.291	81.31
426.513	90.31
426.735	88.31
426.958	89.31
427.18	108.31
427.402	155.31
427.625	188.31
427.847	178.31
428.069	173.31
428.292	105.31
428.514	91.31
428.736	81.31
428.958	76.31
429.181	80.31
429.403	87.31
429.625	100.31
429.847	100.31
430.069	105.31
430.292	81.31
430.514	79.31
430.736	92.31
430.958	89.31
431.18	94.31
431.402	87.31
431.624	93.31
431.846	96.31
432.068	82.31
432.29	83.31
432.512	90.31
432.734	83.31
432.956	90.31
433.178	99.31
433.4	103.31
433.622	101.31
433.844	81.31
434.066	101.31
434.287	98.31
434.509	80.31
434.731	79.31
434.953	84.31
435.175	88.31
435.397	79.31
435.618	89.31
435.84	105.31
436.062	131.31
436.284	115.31
436.505	105.31
436.727	99.31
436.949	89.31
437.17	94.31
437.392	78.31
437.614	92.31
437.835	99.31
438.057	114.31
438.278	121.31
438.5	108.31
438.721	132.31
438.943	111.31
439.165	98.31
439.386	101.31
439.608	87.31
439.829	107.31
440.05	145.31
440.272	171.31
440.493	102.31
440.715	82.31
440.936	86.31
441.158	91.31
441.379	82.31
441.6	89.31
441.822	99.31
442.043	87.31
442.264	102.31
442.486	86.31
442.707	91.31
442.928	100.31
443.149	149.31
443.371	132.31
443.592	107.31
443.813	127.31
444.034	135.31
444.255	100.31
444.476	77.31
444.698	85.31
444.919	80.31
445.14	132.31
445.361	126.31
445.582	121.31
445.803	161.31
446.024	150.31
446.245	152.31
446.466	119.31
446.687	93.31
446.908	88.31
447.129	90.31
447.35	79.31
447.571	83.31
447.792	97.31
448.013	103.31
448.234	100.31
448.455	103.31
448.675	127.31
448.896	117.31
449.117	96.31
449.338	117.31
449.559	131.31
449.779	111.31
450	91.31
450.221	76.31
450.442	86.31
450.662	93.31
450.883	110.31
451.104	102.31
451.324	101.31
451.545	94.31
451.766	96.31
451.986	106.31
452.207	94.31
452.428	93.31
452.648	101.31
452.869	125.31
453.089	114.31
453.31	128.31
453.53	101.31
453.751	96.31
453.971	106.31
454.192	117.31
454.412	109.31
454.633	94.31
454.853	88.31
455.073	94.31
455.294	102.31
455.514	100.31
455.734	89.31
455.955	98.31
456.175	90.31
456.395	92.31
456.616	81.31
456.836	83.31
457.056	85.31
457.276	87.31
457.497	89.31
457.717	86.31
457.937	92.31
458.157	85.31
458.377	105.31
458.598	111.31
458.818	154.31
459.038	177.31
459.258	131.31
459.478	89.31
459.698	85.31
459.918	91.31
460.138	92.31
460.358	85.31
460.578	77.31
460.798	79.31
461.018	82.31
461.238	79.31
461.458	80.31
461.678	80.31
461.898	80.31
462.118	94.31
462.338	87.31
462.558	85.31
462.777	92.31
462.997	95.31
463.217	100.31
463.437	92.31
463.657	78.31
463.876	83.31
464.096	89.31
464.316	91.31
464.536	99.31
464.755	87.31
464.975	104.31
465.195	172.31
465.414	163.31
465.634	101.31
465.854	93.31
466.073	101.31
466.293	88.31
466.512	97.31
466.732	84.31
466.951	85.31
467.171	93.31
467.391	99.31
467.61	104.31
467.829	154.31
468.049	311.31
468.268	455.31
468.488	151.31
468.707	101.31
468.927	90.31
469.146	99.31
469.365	88.31
469.585	114.31
469.804	114.31
470.023	95.31
470.243	94.31
470.462	96.31
470.681	120.31
470.901	106.31
471.12	98.31
471.339	93.31
471.558	99.31
471.777	122.31
471.997	197.31
472.216	611.31
472.435	1337.31
472.654	338.31
472.873	120.31
473.092	94.31
473.311	89.31
473.53	80.31
473.749	86.31
473.968	87.31
474.187	107.31
474.406	103.31
474.625	100.31
474.844	105.31
475.063	97.31
475.282	100.31
475.501	108.31
475.72	84.31
475.939	69.31
476.158	91.31
476.377	94.31
476.596	81.31
476.814	79.31
477.033	93.31
477.252	108.31
477.471	83.31
477.69	91.31
477.908	80.31
478.127	84.31
478.346	88.31
478.564	95.31
478.783	109.31
479.002	98.31
479.22	101.31
479.439	116.31
479.658	113.31
479.876	108.31
480.095	100.31
480.313	117.31
480.532	136.31
480.751	193.31
480.969	561.31
481.188	2346.31
481.406	1396.31
481.624	245.31
481.843	108.31
482.061	108.31
482.28	80.31
482.498	81.31
482.717	94.31
482.935	88.31
483.153	103.31
483.372	96.31
483.59	89.31
483.808	95.31
484.027	83.31
484.245	101.31
484.463	94.31
484.681	83.31
484.9	83.31
485.118	104.31
485.336	90.31
485.554	89.31
485.772	91.31
485.99	104.31
486.209	111.31
486.427	104.31
486.645	109.31
486.863	114.31
487.081	109.31
487.299	91.31
487.517	93.31
487.735	97.31
487.953	92.31
488.171	92.31
488.389	100.31
488.607	96.31
488.825	81.31
489.043	90.31
489.261	81.31
489.479	90.31
489.696	94.31
489.914	83.31
490.132	89.31
490.35	96.31
490.568	96.31
490.786	88.31
491.003	85.31
491.221	85.31
491.439	93.31
491.657	81.31
491.874	83.31
492.092	91.31
492.31	65.31
492.527	113.31
492.745	97.31
492.963	89.31
493.18	88.31
493.398	81.31
493.615	103.31
493.833	75.31
494.05	92.31
494.268	75.31
494.485	81.31
494.703	86.31
494.92	88.31
495.138	96.31
495.355	99.31
495.573	91.31
495.79	100.31
496.008	99.31
496.225	84.31
496.442	88.31
496.66	94.31
496.877	101.31
497.094	106.31
497.312	85.31
497.529	94.31
497.746	81.31
497.963	82.31
498.181	75.31
498.398	84.31
498.615	118.31
498.832	107.31
499.049	89.31
499.267	102.31
499.484	92.31
499.701	90.31
499.918	96.31
500.135	100.31
500.352	88.31
500.569	84.31
500.786	90.31
501.003	85.31
501.22	89.31
501.437	87.31
501.654	87.31
501.871	99.31
502.088	78.31
502.305	89.31
502.522	84.31
502.739	86.31
502.956	85.31
503.172	84.31
503.389	103.31
503.606	101.31
503.823	107.31
504.04	98.31
504.256	93.31
504.473	80.31
504.69	96.31
504.907	91.31
505.123	85.31
505.34	85.31
505.557	87.31
505.773	97.31
505.99	90.31
506.207	94.31
506.423	90.31
506.64	92.31
506.856	85.31
507.073	79.31
507.289	87.31
507.506	101.31
507.722	106.31
507.939	111.31
508.155	83.31
508.372	96.31
508.588	92.31
508.805	84.31
509.021	88.31
509.238	107.31
509.454	80.31
509.67	94.31
509.887	99.31
510.103	123.31
510.319	176.31
510.536	667.31
510.752	2197.31
510.968	619.31
511.184	155.31
511.401	114.31
511.617	105.31
511.833	100.31
512.049	98.31
512.265	96.31
512.481	90.31
512.698	81.31
512.914	88.31
513.13	95.31
513.346	92.31
513.562	90.31
513.778	107.31
513.994	108.31
514.21	121.31
514.426	123.31
514.642	137.31
514.858	121.31
515.074	160.31
515.29	451.31
