Data from Circ_1992_H10_HRD10591_00020.txt Node
Date: Wed Jan 03 11:47:48 EST 2024
User: Yrep
Spectrometer: HR+D1059
Trigger mode: 1
Integration Time (sec): 1.000000E-1
Scans to average: 1
Electric dark correction enabled: true
Nonlinearity correction enabled: false
Boxcar width: 0
XAxis mode: Wavelengths
Number of Pixels in Spectrum: 2048
>>>>>Begin Spectral Data<<<<<
223.165	-22.56
223.4	-22.56
223.635	-22.56
223.869	-24.56
224.104	-21.56
224.338	-15.56
224.573	-10.56
224.808	-14.56
225.042	-11.56
225.277	-1.56
225.511	2.44
225.746	2.44
225.98	15.44
226.215	17.44
226.449	11.44
226.683	12.44
226.918	29.44
227.152	31.44
227.387	27.44
227.621	37.44
227.856	46.44
228.09	45.44
228.324	52.44
228.559	51.44
228.793	48.44
229.027	64.44
229.262	59.44
229.496	88.44
229.73	75.44
229.964	81.44
230.199	75.44
230.433	52.44
230.667	83.44
230.901	78.44
231.136	66.44
231.37	89.44
231.604	75.44
231.838	77.44
232.072	90.44
232.306	88.44
232.541	83.44
232.775	83.44
233.009	82.44
233.243	78.44
233.477	72.44
233.711	75.44
233.945	81.44
234.179	80.44
234.413	82.44
234.647	82.44
234.881	76.44
235.115	75.44
235.349	72.44
235.583	81.44
235.817	84.44
236.051	82.44
236.285	67.44
236.519	85.44
236.753	78.44
236.987	83.44
237.221	76.44
237.455	75.44
237.689	77.44
237.922	104.44
238.156	76.44
238.39	72.44
238.624	71.44
238.858	74.44
239.091	69.44
239.325	94.44
239.559	72.44
239.793	80.44
240.027	81.44
240.26	72.44
240.494	86.44
240.728	67.44
240.961	62.44
241.195	81.44
241.429	82.44
241.662	68.44
241.896	55.44
242.13	80.44
242.363	72.44
242.597	53.44
242.83	61.44
243.064	74.44
243.298	70.44
243.531	81.44
243.765	79.44
243.998	78.44
244.232	82.44
244.465	91.44
244.699	80.44
244.932	78.44
245.166	81.44
245.399	61.44
245.633	77.44
245.866	66.44
246.099	67.44
246.333	64.44
246.566	72.44
246.8	77.44
247.033	80.44
247.266	70.44
247.5	81.44
247.733	66.44
247.966	77.44
248.2	67.44
248.433	77.44
248.666	76.44
248.899	79.44
249.133	84.44
249.366	85.44
249.599	110.44
249.832	72.44
250.066	78.44
250.299	70.44
250.532	79.44
250.765	89.44
250.998	73.44
251.231	81.44
251.465	75.44
251.698	76.44
251.931	86.44
252.164	82.44
252.397	74.44
252.63	79.44
252.863	74.44
253.096	73.44
253.329	83.44
253.562	82.44
253.795	80.44
254.028	82.44
254.261	80.44
254.494	89.44
254.727	90.44
254.96	78.44
255.193	78.44
255.426	86.44
255.659	84.44
255.892	86.44
256.124	78.44
256.357	70.44
256.59	87.44
256.823	76.44
257.056	78.44
257.289	94.44
257.521	88.44
257.754	76.44
257.987	86.44
258.22	85.44
258.452	86.44
258.685	88.44
258.918	84.44
259.151	67.44
259.383	80.44
259.616	78.44
259.849	70.44
260.081	78.44
260.314	78.44
260.547	75.44
260.779	82.44
261.012	91.44
261.244	72.44
261.477	86.44
261.71	91.44
261.942	110.44
262.175	115.44
262.407	91.44
262.64	75.44
262.872	75.44
263.105	81.44
263.337	73.44
263.57	79.44
263.802	73.44
264.035	83.44
264.267	69.44
264.499	86.44
264.732	85.44
264.964	74.44
265.197	75.44
265.429	76.44
265.661	72.44
265.894	92.44
266.126	97.44
266.358	67.44
266.591	77.44
266.823	83.44
267.055	68.44
267.287	91.44
267.52	76.44
267.752	93.44
267.984	76.44
268.216	90.44
268.448	82.44
268.681	59.44
268.913	92.44
269.145	82.44
269.377	83.44
269.609	75.44
269.841	76.44
270.073	76.44
270.306	78.44
270.538	81.44
270.77	72.44
271.002	95.44
271.234	91.44
271.466	88.44
271.698	81.44
271.93	86.44
272.162	75.44
272.394	86.44
272.626	73.44
272.858	85.44
273.09	75.44
273.322	77.44
273.553	75.44
273.785	78.44
274.017	79.44
274.249	95.44
274.481	94.44
274.713	79.44
274.945	65.44
275.176	92.44
275.408	76.44
275.64	97.44
275.872	88.44
276.104	77.44
276.335	98.44
276.567	115.44
276.799	111.44
277.031	123.44
277.262	108.44
277.494	103.44
277.726	86.44
277.957	91.44
278.189	82.44
278.421	87.44
278.652	94.44
278.884	87.44
279.115	86.44
279.347	77.44
279.579	80.44
279.81	105.44
280.042	105.44
280.273	135.44
280.505	109.44
280.736	100.44
280.968	74.44
281.199	81.44
281.431	95.44
281.662	87.44
281.894	81.44
282.125	99.44
282.356	127.44
282.588	134.44
282.819	120.44
283.051	105.44
283.282	97.44
283.513	99.44
283.745	91.44
283.976	90.44
284.207	105.44
284.439	88.44
284.67	76.44
284.901	74.44
285.132	75.44
285.364	92.44
285.595	91.44
285.826	79.44
286.057	91.44
286.288	87.44
286.52	84.44
286.751	79.44
286.982	88.44
287.213	89.44
287.444	70.44
287.675	86.44
287.906	88.44
288.138	76.44
288.369	91.44
288.6	104.44
288.831	94.44
289.062	80.44
289.293	82.44
289.524	66.44
289.755	83.44
289.986	85.44
290.217	91.44
290.448	88.44
290.679	93.44
290.91	97.44
291.141	65.44
291.371	81.44
291.602	89.44
291.833	78.44
292.064	90.44
292.295	87.44
292.526	91.44
292.757	94.44
292.987	92.44
293.218	99.44
293.449	80.44
293.68	88.44
293.91	86.44
294.141	86.44
294.372	78.44
294.603	79.44
294.833	78.44
295.064	90.44
295.295	96.44
295.525	93.44
295.756	96.44
295.987	120.44
296.217	143.44
296.448	127.44
296.679	107.44
296.909	88.44
297.14	88.44
297.37	78.44
297.601	83.44
297.831	86.44
298.062	96.44
298.292	88.44
298.523	84.44
298.753	90.44
298.984	86.44
299.214	83.44
299.445	86.44
299.675	93.44
299.905	82.44
300.136	91.44
300.366	68.44
300.597	76.44
300.827	94.44
301.057	97.44
301.288	99.44
301.518	102.44
301.748	102.44
301.979	104.44
302.209	95.44
302.439	98.44
302.669	83.44
302.9	107.44
303.13	88.44
303.36	93.44
303.59	84.44
303.82	127.44
304.051	89.44
304.281	72.44
304.511	84.44
304.741	102.44
304.971	80.44
305.201	82.44
305.431	80.44
305.661	87.44
305.891	89.44
306.121	100.44
306.352	96.44
306.582	102.44
306.812	89.44
307.042	84.44
307.272	107.44
307.502	117.44
307.731	121.44
307.961	105.44
308.191	81.44
308.421	78.44
308.651	97.44
308.881	105.44
309.111	85.44
309.341	99.44
309.571	103.44
309.8	96.44
310.03	99.44
310.26	108.44
310.49	96.44
310.72	112.44
310.949	106.44
311.179	108.44
311.409	89.44
311.639	96.44
311.868	104.44
312.098	97.44
312.328	89.44
312.557	104.44
312.787	127.44
313.017	98.44
313.246	100.44
313.476	96.44
313.706	87.44
313.935	90.44
314.165	103.44
314.394	104.44
314.624	92.44
314.853	111.44
315.083	98.44
315.312	105.44
315.542	82.44
315.771	85.44
316.001	83.44
316.23	81.44
316.46	92.44
316.689	87.44
316.919	91.44
317.148	91.44
317.377	96.44
317.607	90.44
317.836	97.44
318.065	87.44
318.295	100.44
318.524	86.44
318.753	91.44
318.983	92.44
319.212	93.44
319.441	107.44
319.67	108.44
319.9	91.44
320.129	91.44
320.358	91.44
320.587	92.44
320.816	90.44
321.046	83.44
321.275	78.44
321.504	99.44
321.733	74.44
321.962	89.44
322.191	97.44
322.42	107.44
322.649	113.44
322.878	123.44
323.108	108.44
323.337	118.44
323.566	144.44
323.795	168.44
324.024	201.44
324.253	392.44
324.482	835.44
324.71	1651.44
324.939	2226.44
325.168	822.44
325.397	259.44
325.626	145.44
325.855	115.44
326.084	125.44
326.313	148.44
326.542	144.44
326.77	228.44
326.999	447.44
327.228	879.44
327.457	1653.44
327.686	1313.44
327.914	395.44
328.143	273.44
328.372	313.44
328.6	191.44
328.829	150.44
329.058	148.44
329.287	155.44
329.515	122.44
329.744	150.44
329.972	211.44
330.201	380.44
330.43	538.44
330.658	285.44
330.887	171.44
331.115	132.44
331.344	93.44
331.572	98.44
331.801	104.44
332.03	108.44
332.258	118.44
332.486	104.44
332.715	104.44
332.943	87.44
333.172	105.44
333.4	97.44
333.629	119.44
333.857	150.44
334.085	217.44
334.314	351.44
334.542	666.44
334.771	655.44
334.999	208.44
335.227	130.44
335.455	105.44
335.684	100.44
335.912	101.44
336.14	100.44
336.369	107.44
336.597	107.44
336.825	93.44
337.053	86.44
337.281	88.44
337.51	94.44
337.738	90.44
337.966	103.44
338.194	107.44
338.422	80.44
338.65	95.44
338.878	91.44
339.106	75.44
339.334	88.44
339.562	85.44
339.79	105.44
340.018	93.44
340.246	97.44
340.474	94.44
340.702	89.44
340.93	93.44
341.158	91.44
341.386	87.44
341.614	90.44
341.842	112.44
342.07	91.44
342.298	85.44
342.526	88.44
342.754	78.44
342.981	100.44
343.209	86.44
343.437	97.44
343.665	94.44
343.893	93.44
344.12	93.44
344.348	83.44
344.576	91.44
344.804	100.44
345.031	97.44
345.259	108.44
345.487	83.44
345.714	83.44
345.942	71.44
346.17	90.44
346.397	117.44
346.625	89.44
346.853	90.44
347.08	106.44
347.308	97.44
347.535	96.44
347.763	108.44
347.99	97.44
348.218	85.44
348.445	111.44
348.673	113.44
348.9	92.44
349.128	97.44
349.355	80.44
349.583	74.44
349.81	90.44
350.037	80.44
350.265	91.44
350.492	101.44
350.72	84.44
350.947	90.44
351.174	111.44
351.402	125.44
351.629	112.44
351.856	114.44
352.083	113.44
352.311	114.44
352.538	114.44
352.765	116.44
352.992	105.44
353.22	104.44
353.447	97.44
353.674	87.44
353.901	97.44
354.128	94.44
354.355	88.44
354.583	109.44
354.81	90.44
355.037	94.44
355.264	94.44
355.491	102.44
355.718	84.44
355.945	113.44
356.172	81.44
356.399	72.44
356.626	85.44
356.853	83.44
357.08	74.44
357.307	80.44
357.534	94.44
357.761	75.44
357.988	98.44
358.215	99.44
358.441	110.44
358.668	96.44
358.895	105.44
359.122	85.44
359.349	98.44
359.576	103.44
359.802	98.44
360.029	121.44
360.256	112.44
360.483	94.44
360.709	104.44
360.936	99.44
361.163	103.44
361.39	97.44
361.616	89.44
361.843	85.44
362.07	92.44
362.296	99.44
362.523	87.44
362.749	80.44
362.976	94.44
363.203	96.44
363.429	88.44
363.656	77.44
363.882	100.44
364.109	97.44
364.335	96.44
364.562	90.44
364.788	91.44
365.015	100.44
365.241	99.44
365.468	113.44
365.694	100.44
365.92	103.44
366.147	94.44
366.373	99.44
366.599	93.44
366.826	74.44
367.052	94.44
367.278	78.44
367.505	98.44
367.731	99.44
367.957	99.44
368.184	74.44
368.41	99.44
368.636	106.44
368.862	106.44
369.089	99.44
369.315	92.44
369.541	83.44
369.767	83.44
369.993	85.44
370.219	88.44
370.445	88.44
370.672	82.44
370.898	78.44
371.124	83.44
371.35	103.44
371.576	59.44
371.802	88.44
372.028	91.44
372.254	83.44
372.48	95.44
372.706	90.44
372.932	86.44
373.158	84.44
373.384	92.44
373.61	86.44
373.835	100.44
374.061	78.44
374.287	80.44
374.513	85.44
374.739	79.44
374.965	92.44
375.191	86.44
375.416	87.44
375.642	88.44
375.868	93.44
376.094	78.44
376.319	83.44
376.545	87.44
376.771	92.44
376.997	91.44
377.222	94.44
377.448	104.44
377.674	87.44
377.899	91.44
378.125	86.44
378.35	85.44
378.576	83.44
378.802	88.44
379.027	96.44
379.253	93.44
379.478	108.44
379.704	101.44
379.929	81.44
380.155	103.44
380.38	107.44
380.606	99.44
380.831	114.44
381.057	90.44
381.282	110.44
381.507	107.44
381.733	91.44
381.958	92.44
382.184	118.44
382.409	96.44
382.634	93.44
382.86	93.44
383.085	100.44
383.31	101.44
383.535	107.44
383.761	98.44
383.986	99.44
384.211	100.44
384.436	119.44
384.662	116.44
384.887	122.44
385.112	111.44
385.337	115.44
385.562	104.44
385.787	115.44
386.013	122.44
386.238	131.44
386.463	126.44
386.688	114.44
386.913	124.44
387.138	105.44
387.363	108.44
387.588	113.44
387.813	96.44
388.038	121.44
388.263	125.44
388.488	134.44
388.713	102.44
388.938	93.44
389.163	83.44
389.387	87.44
389.612	91.44
389.837	107.44
390.062	104.44
390.287	89.44
390.512	90.44
390.736	89.44
390.961	90.44
391.186	81.44
391.411	86.44
391.636	93.44
391.86	97.44
392.085	94.44
392.31	99.44
392.534	78.44
392.759	82.44
392.984	85.44
393.208	90.44
393.433	78.44
393.658	92.44
393.882	90.44
394.107	87.44
394.331	79.44
394.556	82.44
394.78	85.44
395.005	99.44
395.229	88.44
395.454	80.44
395.678	82.44
395.903	103.44
396.127	98.44
396.352	74.44
396.576	79.44
396.801	71.44
397.025	82.44
397.249	83.44
397.474	82.44
397.698	90.44
397.922	81.44
398.147	89.44
398.371	73.44
398.595	84.44
398.82	89.44
399.044	75.44
399.268	85.44
399.492	71.44
399.717	87.44
399.941	95.44
400.165	87.44
400.389	76.44
400.613	85.44
400.837	74.44
401.062	85.44
401.286	87.44
401.51	105.44
401.734	95.44
401.958	99.44
402.182	124.44
402.406	172.44
402.63	146.44
402.854	96.44
403.078	86.44
403.302	89.44
403.526	86.44
403.75	84.44
403.974	77.44
404.198	83.44
404.422	91.44
404.645	81.44
404.869	100.44
405.093	107.44
405.317	115.44
405.541	109.44
405.765	106.44
405.988	119.44
406.212	189.44
406.436	228.44
406.66	162.44
406.883	120.44
407.107	77.44
407.331	95.44
407.555	104.44
407.778	95.44
408.002	94.44
408.226	104.44
408.449	83.44
408.673	87.44
408.896	104.44
409.12	98.44
409.344	97.44
409.567	89.44
409.791	78.44
410.014	90.44
410.238	94.44
410.461	80.44
410.685	88.44
410.908	103.44
411.132	104.44
411.355	92.44
411.578	74.44
411.802	99.44
412.025	85.44
412.249	96.44
412.472	108.44
412.695	111.44
412.919	103.44
413.142	97.44
413.365	86.44
413.589	82.44
413.812	93.44
414.035	73.44
414.258	82.44
414.482	92.44
414.705	93.44
414.928	95.44
415.151	94.44
415.374	88.44
415.597	95.44
415.821	93.44
416.044	80.44
416.267	94.44
416.49	87.44
416.713	95.44
416.936	75.44
417.159	99.44
417.382	104.44
417.605	81.44
417.828	90.44
418.051	88.44
418.274	76.44
418.497	100.44
418.72	84.44
418.943	94.44
419.166	88.44
419.389	97.44
419.611	98.44
419.834	91.44
420.057	88.44
420.28	105.44
420.503	83.44
420.726	74.44
420.948	79.44
421.171	90.44
421.394	88.44
421.617	87.44
421.839	74.44
422.062	78.44
422.285	80.44
422.507	95.44
422.73	108.44
422.953	92.44
423.175	84.44
423.398	100.44
423.621	84.44
423.843	89.44
424.066	92.44
424.288	88.44
424.511	97.44
424.733	74.44
424.956	106.44
425.178	94.44
425.401	111.44
425.623	108.44
425.846	101.44
426.068	92.44
426.291	93.44
426.513	84.44
426.735	92.44
426.958	93.44
427.18	99.44
427.402	136.44
427.625	198.44
427.847	175.44
428.069	156.44
428.292	97.44
428.514	96.44
428.736	59.44
428.958	84.44
429.181	84.44
429.403	74.44
429.625	91.44
429.847	91.44
430.069	97.44
430.292	92.44
430.514	94.44
430.736	81.44
430.958	87.44
431.18	89.44
431.402	78.44
431.624	61.44
431.846	84.44
432.068	92.44
432.29	77.44
432.512	81.44
432.734	92.44
432.956	81.44
433.178	95.44
433.4	87.44
433.622	89.44
433.844	82.44
434.066	94.44
434.287	80.44
434.509	86.44
434.731	80.44
434.953	88.44
435.175	86.44
435.397	88.44
435.618	83.44
435.84	107.44
436.062	124.44
436.284	107.44
436.505	86.44
436.727	87.44
436.949	88.44
437.17	91.44
437.392	74.44
437.614	96.44
437.835	110.44
438.057	122.44
438.278	99.44
438.5	100.44
438.721	129.44
438.943	92.44
439.165	91.44
439.386	90.44
439.608	86.44
439.829	94.44
440.05	120.44
440.272	137.44
440.493	101.44
440.715	88.44
440.936	78.44
441.158	86.44
441.379	95.44
441.6	87.44
441.822	94.44
442.043	100.44
442.264	93.44
442.486	108.44
442.707	70.44
442.928	109.44
443.149	142.44
443.371	139.44
443.592	115.44
443.813	114.44
444.034	111.44
444.255	78.44
444.476	82.44
444.698	81.44
444.919	86.44
445.14	123.44
445.361	106.44
445.582	118.44
445.803	152.44
446.024	147.44
446.245	147.44
446.466	104.44
446.687	84.44
446.908	94.44
447.129	81.44
447.35	83.44
447.571	93.44
447.792	82.44
448.013	98.44
448.234	100.44
448.455	106.44
448.675	110.44
448.896	123.44
449.117	101.44
449.338	110.44
449.559	149.44
449.779	134.44
450	98.44
450.221	95.44
450.442	80.44
450.662	91.44
450.883	108.44
451.104	108.44
451.324	100.44
451.545	78.44
451.766	91.44
451.986	83.44
452.207	94.44
452.428	92.44
452.648	100.44
452.869	112.44
453.089	111.44
453.31	124.44
453.53	89.44
453.751	87.44
453.971	97.44
454.192	98.44
454.412	81.44
454.633	101.44
454.853	95.44
455.073	93.44
455.294	94.44
455.514	95.44
455.734	78.44
455.955	97.44
456.175	80.44
456.395	81.44
456.616	77.44
456.836	81.44
457.056	85.44
457.276	81.44
457.497	77.44
457.717	72.44
457.937	76.44
458.157	86.44
458.377	86.44
458.598	103.44
458.818	154.44
459.038	176.44
459.258	125.44
459.478	95.44
459.698	89.44
459.918	94.44
460.138	77.44
460.358	81.44
460.578	89.44
460.798	87.44
461.018	75.44
461.238	81.44
461.458	85.44
461.678	76.44
461.898	78.44
462.118	92.44
462.338	90.44
462.558	79.44
462.777	69.44
462.997	79.44
463.217	87.44
463.437	92.44
463.657	83.44
463.876	88.44
464.096	86.44
464.316	92.44
464.536	101.44
464.755	97.44
464.975	107.44
465.195	169.44
465.414	188.44
465.634	102.44
465.854	91.44
466.073	90.44
466.293	81.44
466.512	81.44
466.732	80.44
466.951	79.44
467.171	80.44
467.391	97.44
467.61	97.44
467.829	131.44
468.049	232.44
468.268	336.44
468.488	123.44
468.707	103.44
468.927	79.44
469.146	76.44
469.365	76.44
469.585	70.44
469.804	86.44
470.023	92.44
470.243	91.44
470.462	99.44
470.681	131.44
470.901	90.44
471.12	78.44
471.339	90.44
471.558	88.44
471.777	104.44
471.997	141.44
472.216	419.44
472.435	906.44
472.654	271.44
472.873	115.44
473.092	74.44
473.311	77.44
473.53	88.44
473.749	89.44
473.968	99.44
474.187	120.44
474.406	100.44
474.625	85.44
474.844	88.44
475.063	72.44
475.282	95.44
475.501	81.44
475.72	87.44
475.939	73.44
476.158	82.44
476.377	82.44
476.596	62.44
476.814	90.44
477.033	99.44
477.252	92.44
477.471	99.44
477.69	91.44
477.908	73.44
478.127	91.44
478.346	79.44
478.564	94.44
478.783	97.44
479.002	90.44
479.22	88.44
479.439	115.44
479.658	103.44
479.876	101.44
480.095	100.44
480.313	110.44
480.532	122.44
480.751	163.44
480.969	402.44
481.188	1522.44
481.406	938.44
481.624	186.44
481.843	100.44
482.061	97.44
482.28	72.44
482.498	88.44
482.717	84.44
482.935	81.44
483.153	81.44
483.372	82.44
483.59	103.44
483.808	88.44
484.027	87.44
484.245	74.44
484.463	87.44
484.681	98.44
484.9	105.44
485.118	94.44
485.336	113.44
485.554	98.44
485.772	92.44
485.99	101.44
486.209	94.44
486.427	98.44
486.645	97.44
486.863	98.44
487.081	102.44
487.299	90.44
487.517	95.44
487.735	98.44
487.953	87.44
488.171	83.44
488.389	94.44
488.607	92.44
488.825	89.44
489.043	74.44
489.261	91.44
489.479	98.44
489.696	96.44
489.914	72.44
490.132	83.44
490.35	61.44
490.568	92.44
490.786	79.44
491.003	84.44
491.221	84.44
491.439	98.44
491.657	91.44
491.874	78.44
492.092	75.44
492.31	82.44
492.527	91.44
492.745	94.44
492.963	92.44
493.18	98.44
493.398	99.44
493.615	100.44
493.833	97.44
494.05	75.44
494.268	92.44
494.485	86.44
494.703	90.44
494.92	90.44
495.138	84.44
495.355	85.44
495.573	90.44
495.79	91.44
496.008	88.44
496.225	95.44
496.442	87.44
496.66	84.44
496.877	90.44
497.094	90.44
497.312	84.44
497.529	95.44
497.746	99.44
497.963	80.44
498.181	92.44
498.398	83.44
498.615	120.44
498.832	100.44
499.049	89.44
499.267	97.44
499.484	93.44
499.701	67.44
499.918	95.44
500.135	97.44
500.352	92.44
500.569	92.44
500.786	86.44
501.003	97.44
501.22	84.44
501.437	84.44
501.654	86.44
501.871	120.44
502.088	94.44
502.305	87.44
502.522	93.44
502.739	74.44
502.956	84.44
503.172	88.44
503.389	88.44
503.606	94.44
503.823	88.44
504.04	94.44
504.256	87.44
504.473	87.44
504.69	89.44
504.907	87.44
505.123	98.44
505.34	99.44
505.557	85.44
505.773	96.44
505.99	89.44
506.207	91.44
506.423	86.44
506.64	72.44
506.856	91.44
507.073	88.44
507.289	81.44
507.506	99.44
507.722	109.44
507.939	111.44
508.155	92.44
508.372	100.44
508.588	95.44
508.805	89.44
509.021	91.44
509.238	90.44
509.454	103.44
509.67	85.44
509.887	104.44
510.103	110.44
510.319	179.44
510.536	726.44
510.752	2494.44
510.968	697.44
511.184	160.44
511.401	117.44
511.617	90.44
511.833	102.44
512.049	92.44
512.265	97.44
512.481	104.44
512.698	97.44
512.914	86.44
513.13	88.44
513.346	75.44
513.562	93.44
513.778	89.44
513.994	88.44
514.21	107.44
514.426	135.44
514.642	144.44
514.858	124.44
515.074	178.44
515.29	461.44
