Data from Circ_1992_H10_HRD10591_00047.txt Node
Date: Wed Jan 03 11:47:54 EST 2024
User: Yrep
Spectrometer: HR+D1059
Trigger mode: 1
Integration Time (sec): 1.000000E-1
Scans to average: 1
Electric dark correction enabled: true
Nonlinearity correction enabled: false
Boxcar width: 0
XAxis mode: Wavelengths
Number of Pixels in Spectrum: 2048
>>>>>Begin Spectral Data<<<<<
223.165	-19.56
223.4	-19.56
223.635	-19.56
223.869	-14.56
224.104	-27.56
224.338	-27.56
224.573	-23.56
224.808	-6.56
225.042	1.44
225.277	-11.56
225.511	-5.56
225.746	7.44
225.98	9.44
226.215	-3.56
226.449	20.44
226.683	37.44
226.918	39.44
227.152	24.44
227.387	25.44
227.621	41.44
227.856	46.44
228.09	34.44
228.324	43.44
228.559	42.44
228.793	61.44
229.027	71.44
229.262	67.44
229.496	78.44
229.73	88.44
229.964	86.44
230.199	71.44
230.433	88.44
230.667	84.44
230.901	78.44
231.136	78.44
231.37	68.44
231.604	90.44
231.838	87.44
232.072	84.44
232.306	91.44
232.541	90.44
232.775	81.44
233.009	75.44
233.243	84.44
233.477	82.44
233.711	74.44
233.945	75.44
234.179	75.44
234.413	78.44
234.647	67.44
234.881	78.44
235.115	79.44
235.349	67.44
235.583	63.44
235.817	80.44
236.051	78.44
236.285	72.44
236.519	79.44
236.753	63.44
236.987	69.44
237.221	80.44
237.455	81.44
237.689	72.44
237.922	66.44
238.156	81.44
238.39	71.44
238.624	54.44
238.858	68.44
239.091	81.44
239.325	73.44
239.559	82.44
239.793	70.44
240.027	72.44
240.26	82.44
240.494	77.44
240.728	73.44
240.961	86.44
241.195	59.44
241.429	79.44
241.662	62.44
241.896	75.44
242.13	82.44
242.363	79.44
242.597	68.44
242.83	63.44
243.064	74.44
243.298	70.44
243.531	78.44
243.765	74.44
243.998	98.44
244.232	84.44
244.465	77.44
244.699	87.44
244.932	88.44
245.166	66.44
245.399	63.44
245.633	82.44
245.866	82.44
246.099	82.44
246.333	75.44
246.566	75.44
246.8	68.44
247.033	58.44
247.266	65.44
247.5	85.44
247.733	72.44
247.966	67.44
248.2	88.44
248.433	78.44
248.666	82.44
248.899	77.44
249.133	83.44
249.366	107.44
249.599	108.44
249.832	96.44
250.066	94.44
250.299	78.44
250.532	73.44
250.765	74.44
250.998	76.44
251.231	77.44
251.465	84.44
251.698	78.44
251.931	80.44
252.164	80.44
252.397	80.44
252.63	71.44
252.863	85.44
253.096	86.44
253.329	67.44
253.562	64.44
253.795	89.44
254.028	68.44
254.261	82.44
254.494	86.44
254.727	88.44
254.96	92.44
255.193	90.44
255.426	68.44
255.659	83.44
255.892	80.44
256.124	87.44
256.357	87.44
256.59	86.44
256.823	81.44
257.056	81.44
257.289	71.44
257.521	93.44
257.754	79.44
257.987	81.44
258.22	89.44
258.452	90.44
258.685	87.44
258.918	79.44
259.151	80.44
259.383	67.44
259.616	71.44
259.849	83.44
260.081	81.44
260.314	72.44
260.547	87.44
260.779	88.44
261.012	98.44
261.244	96.44
261.477	92.44
261.71	90.44
261.942	114.44
262.175	110.44
262.407	90.44
262.64	74.44
262.872	89.44
263.105	80.44
263.337	86.44
263.57	76.44
263.802	81.44
264.035	70.44
264.267	84.44
264.499	75.44
264.732	91.44
264.964	86.44
265.197	76.44
265.429	81.44
265.661	75.44
265.894	70.44
266.126	86.44
266.358	74.44
266.591	88.44
266.823	90.44
267.055	84.44
267.287	67.44
267.52	87.44
267.752	79.44
267.984	78.44
268.216	73.44
268.448	76.44
268.681	104.44
268.913	84.44
269.145	69.44
269.377	76.44
269.609	82.44
269.841	70.44
270.073	74.44
270.306	79.44
270.538	85.44
270.77	89.44
271.002	91.44
271.234	87.44
271.466	96.44
271.698	77.44
271.93	82.44
272.162	88.44
272.394	90.44
272.626	97.44
272.858	91.44
273.09	89.44
273.322	79.44
273.553	82.44
273.785	87.44
274.017	74.44
274.249	76.44
274.481	92.44
274.713	84.44
274.945	100.44
275.176	99.44
275.408	96.44
275.64	94.44
275.872	97.44
276.104	97.44
276.335	91.44
276.567	101.44
276.799	122.44
277.031	114.44
277.262	138.44
277.494	115.44
277.726	91.44
277.957	86.44
278.189	77.44
278.421	93.44
278.652	90.44
278.884	92.44
279.115	68.44
279.347	84.44
279.579	79.44
279.81	96.44
280.042	120.44
280.273	168.44
280.505	119.44
280.736	98.44
280.968	88.44
281.199	100.44
281.431	88.44
281.662	87.44
281.894	90.44
282.125	98.44
282.356	126.44
282.588	160.44
282.819	146.44
283.051	86.44
283.282	86.44
283.513	88.44
283.745	84.44
283.976	76.44
284.207	71.44
284.439	98.44
284.67	88.44
284.901	90.44
285.132	83.44
285.364	74.44
285.595	81.44
285.826	89.44
286.057	87.44
286.288	81.44
286.52	89.44
286.751	83.44
286.982	92.44
287.213	85.44
287.444	78.44
287.675	81.44
287.906	85.44
288.138	83.44
288.369	81.44
288.6	85.44
288.831	88.44
289.062	92.44
289.293	102.44
289.524	102.44
289.755	89.44
289.986	79.44
290.217	89.44
290.448	89.44
290.679	93.44
290.91	93.44
291.141	88.44
291.371	98.44
291.602	93.44
291.833	90.44
292.064	68.44
292.295	89.44
292.526	83.44
292.757	82.44
292.987	90.44
293.218	89.44
293.449	75.44
293.68	90.44
293.91	70.44
294.141	106.44
294.372	68.44
294.603	73.44
294.833	82.44
295.064	87.44
295.295	89.44
295.525	101.44
295.756	95.44
295.987	128.44
296.217	155.44
296.448	137.44
296.679	97.44
296.909	97.44
297.14	86.44
297.37	83.44
297.601	100.44
297.831	70.44
298.062	102.44
298.292	92.44
298.523	88.44
298.753	93.44
298.984	89.44
299.214	91.44
299.445	89.44
299.675	95.44
299.905	99.44
300.136	96.44
300.366	94.44
300.597	98.44
300.827	90.44
301.057	92.44
301.288	122.44
301.518	103.44
301.748	101.44
301.979	81.44
302.209	98.44
302.439	96.44
302.669	96.44
302.9	82.44
303.13	88.44
303.36	110.44
303.59	100.44
303.82	97.44
304.051	100.44
304.281	88.44
304.511	83.44
304.741	76.44
304.971	90.44
305.201	107.44
305.431	90.44
305.661	76.44
305.891	78.44
306.121	106.44
306.352	98.44
306.582	123.44
306.812	94.44
307.042	108.44
307.272	129.44
307.502	121.44
307.731	132.44
307.961	105.44
308.191	95.44
308.421	92.44
308.651	90.44
308.881	105.44
309.111	93.44
309.341	103.44
309.571	100.44
309.8	119.44
310.03	97.44
310.26	100.44
310.49	88.44
310.72	98.44
310.949	97.44
311.179	100.44
311.409	86.44
311.639	87.44
311.868	76.44
312.098	93.44
312.328	104.44
312.557	97.44
312.787	104.44
313.017	90.44
313.246	91.44
313.476	92.44
313.706	97.44
313.935	93.44
314.165	106.44
314.394	96.44
314.624	97.44
314.853	97.44
315.083	99.44
315.312	88.44
315.542	82.44
315.771	98.44
316.001	83.44
316.23	95.44
316.46	87.44
316.689	91.44
316.919	100.44
317.148	111.44
317.377	103.44
317.607	100.44
317.836	103.44
318.065	103.44
318.295	91.44
318.524	79.44
318.753	93.44
318.983	103.44
319.212	101.44
319.441	116.44
319.67	110.44
319.9	97.44
320.129	78.44
320.358	93.44
320.587	93.44
320.816	109.44
321.046	101.44
321.275	96.44
321.504	91.44
321.733	95.44
321.962	112.44
322.191	89.44
322.42	98.44
322.649	122.44
322.878	120.44
323.108	115.44
323.337	138.44
323.566	146.44
323.795	162.44
324.024	241.44
324.253	464.44
324.482	967.44
324.71	2122.44
324.939	2801.44
325.168	1014.44
325.397	283.44
325.626	169.44
325.855	133.44
326.084	127.44
326.313	146.44
326.542	182.44
326.77	255.44
326.999	511.44
327.228	1100.44
327.457	2068.44
327.686	1652.44
327.914	502.44
328.143	357.44
328.372	382.44
328.6	244.44
328.829	141.44
329.058	154.44
329.287	173.44
329.515	129.44
329.744	170.44
329.972	281.44
330.201	501.44
330.43	746.44
330.658	344.44
330.887	221.44
331.115	142.44
331.344	106.44
331.572	107.44
331.801	115.44
332.03	101.44
332.258	98.44
332.486	90.44
332.715	104.44
332.943	112.44
333.172	103.44
333.4	123.44
333.629	139.44
333.857	167.44
334.085	267.44
334.314	489.44
334.542	936.44
334.771	881.44
334.999	274.44
335.227	137.44
335.455	98.44
335.684	93.44
335.912	94.44
336.14	100.44
336.369	103.44
336.597	102.44
336.825	101.44
337.053	89.44
337.281	109.44
337.51	96.44
337.738	103.44
337.966	97.44
338.194	93.44
338.422	99.44
338.65	83.44
338.878	90.44
339.106	95.44
339.334	90.44
339.562	90.44
339.79	97.44
340.018	94.44
340.246	81.44
340.474	84.44
340.702	86.44
340.93	99.44
341.158	94.44
341.386	83.44
341.614	97.44
341.842	84.44
342.07	97.44
342.298	92.44
342.526	89.44
342.754	80.44
342.981	77.44
343.209	82.44
343.437	101.44
343.665	83.44
343.893	86.44
344.12	90.44
344.348	84.44
344.576	96.44
344.804	106.44
345.031	107.44
345.259	95.44
345.487	94.44
345.714	98.44
345.942	85.44
346.17	84.44
346.397	82.44
346.625	93.44
346.853	88.44
347.08	76.44
347.308	95.44
347.535	106.44
347.763	95.44
347.99	102.44
348.218	107.44
348.445	103.44
348.673	100.44
348.9	111.44
349.128	102.44
349.355	76.44
349.583	88.44
349.81	116.44
350.037	109.44
350.265	101.44
350.492	96.44
350.72	98.44
350.947	108.44
351.174	110.44
351.402	119.44
351.629	99.44
351.856	90.44
352.083	87.44
352.311	102.44
352.538	112.44
352.765	108.44
352.992	121.44
353.22	107.44
353.447	118.44
353.674	95.44
353.901	83.44
354.128	94.44
354.355	89.44
354.583	86.44
354.81	93.44
355.037	93.44
355.264	91.44
355.491	95.44
355.718	92.44
355.945	100.44
356.172	86.44
356.399	96.44
356.626	100.44
356.853	86.44
357.08	96.44
357.307	85.44
357.534	97.44
357.761	84.44
357.988	96.44
358.215	76.44
358.441	95.44
358.668	84.44
358.895	98.44
359.122	80.44
359.349	79.44
359.576	94.44
359.802	84.44
360.029	126.44
360.256	103.44
360.483	90.44
360.709	86.44
360.936	94.44
361.163	99.44
361.39	91.44
361.616	97.44
361.843	84.44
362.07	114.44
362.296	103.44
362.523	91.44
362.749	88.44
362.976	98.44
363.203	91.44
363.429	110.44
363.656	100.44
363.882	83.44
364.109	86.44
364.335	92.44
364.562	109.44
364.788	98.44
365.015	97.44
365.241	95.44
365.468	118.44
365.694	115.44
365.92	91.44
366.147	92.44
366.373	88.44
366.599	89.44
366.826	76.44
367.052	93.44
367.278	84.44
367.505	85.44
367.731	80.44
367.957	94.44
368.184	88.44
368.41	114.44
368.636	113.44
368.862	125.44
369.089	99.44
369.315	101.44
369.541	83.44
369.767	89.44
369.993	100.44
370.219	104.44
370.445	85.44
370.672	90.44
370.898	76.44
371.124	79.44
371.35	86.44
371.576	89.44
371.802	88.44
372.028	84.44
372.254	92.44
372.48	89.44
372.706	72.44
372.932	86.44
373.158	92.44
373.384	88.44
373.61	88.44
373.835	91.44
374.061	76.44
374.287	76.44
374.513	78.44
374.739	92.44
374.965	97.44
375.191	98.44
375.416	85.44
375.642	85.44
375.868	86.44
376.094	95.44
376.319	83.44
376.545	86.44
376.771	84.44
376.997	94.44
377.222	83.44
377.448	82.44
377.674	79.44
377.899	89.44
378.125	73.44
378.35	88.44
378.576	91.44
378.802	82.44
379.027	86.44
379.253	103.44
379.478	99.44
379.704	93.44
379.929	86.44
380.155	86.44
380.38	95.44
380.606	103.44
380.831	98.44
381.057	87.44
381.282	94.44
381.507	99.44
381.733	82.44
381.958	106.44
382.184	100.44
382.409	97.44
382.634	108.44
382.86	98.44
383.085	102.44
383.31	106.44
383.535	89.44
383.761	92.44
383.986	100.44
384.211	91.44
384.436	102.44
384.662	102.44
384.887	94.44
385.112	104.44
385.337	95.44
385.562	111.44
385.787	113.44
386.013	122.44
386.238	121.44
386.463	103.44
386.688	114.44
386.913	103.44
387.138	116.44
387.363	102.44
387.588	94.44
387.813	82.44
388.038	121.44
388.263	131.44
388.488	103.44
388.713	94.44
388.938	97.44
389.163	89.44
389.387	100.44
389.612	76.44
389.837	83.44
390.062	82.44
390.287	87.44
390.512	91.44
390.736	92.44
390.961	86.44
391.186	110.44
391.411	86.44
391.636	84.44
391.86	75.44
392.085	93.44
392.31	99.44
392.534	74.44
392.759	91.44
392.984	87.44
393.208	80.44
393.433	90.44
393.658	99.44
393.882	74.44
394.107	86.44
394.331	76.44
394.556	86.44
394.78	79.44
395.005	84.44
395.229	76.44
395.454	80.44
395.678	82.44
395.903	74.44
396.127	83.44
396.352	91.44
396.576	83.44
396.801	88.44
397.025	91.44
397.249	78.44
397.474	86.44
397.698	84.44
397.922	88.44
398.147	79.44
398.371	77.44
398.595	86.44
398.82	91.44
399.044	83.44
399.268	84.44
399.492	91.44
399.717	95.44
399.941	93.44
400.165	99.44
400.389	90.44
400.613	95.44
400.837	91.44
401.062	76.44
401.286	98.44
401.51	84.44
401.734	86.44
401.958	96.44
402.182	120.44
402.406	164.44
402.63	123.44
402.854	118.44
403.078	88.44
403.302	73.44
403.526	94.44
403.75	82.44
403.974	77.44
404.198	88.44
404.422	75.44
404.645	80.44
404.869	89.44
405.093	108.44
405.317	121.44
405.541	117.44
405.765	102.44
405.988	121.44
406.212	182.44
406.436	263.44
406.66	181.44
406.883	96.44
407.107	97.44
407.331	95.44
407.555	99.44
407.778	100.44
408.002	102.44
408.226	92.44
408.449	84.44
408.673	86.44
408.896	93.44
409.12	75.44
409.344	74.44
409.567	72.44
409.791	95.44
410.014	79.44
410.238	99.44
410.461	91.44
410.685	97.44
410.908	95.44
411.132	103.44
411.355	104.44
411.578	94.44
411.802	72.44
412.025	77.44
412.249	88.44
412.472	98.44
412.695	109.44
412.919	103.44
413.142	89.44
413.365	99.44
413.589	88.44
413.812	84.44
414.035	77.44
414.258	86.44
414.482	87.44
414.705	85.44
414.928	83.44
415.151	98.44
415.374	91.44
415.597	87.44
415.821	82.44
416.044	99.44
416.267	89.44
416.49	88.44
416.713	83.44
416.936	99.44
417.159	90.44
417.382	90.44
417.605	99.44
417.828	100.44
418.051	95.44
418.274	102.44
418.497	86.44
418.72	86.44
418.943	93.44
419.166	87.44
419.389	84.44
419.611	100.44
419.834	73.44
420.057	90.44
420.28	92.44
420.503	97.44
420.726	75.44
420.948	95.44
421.171	86.44
421.394	95.44
421.617	87.44
421.839	82.44
422.062	93.44
422.285	96.44
422.507	98.44
422.73	122.44
422.953	96.44
423.175	81.44
423.398	72.44
423.621	83.44
423.843	90.44
424.066	80.44
424.288	82.44
424.511	94.44
424.733	110.44
424.956	112.44
425.178	120.44
425.401	92.44
425.623	93.44
425.846	78.44
426.068	99.44
426.291	88.44
426.513	90.44
426.735	77.44
426.958	83.44
427.18	112.44
427.402	146.44
427.625	215.44
427.847	202.44
428.069	190.44
428.292	115.44
428.514	89.44
428.736	82.44
428.958	67.44
429.181	76.44
429.403	88.44
429.625	92.44
429.847	99.44
430.069	97.44
430.292	101.44
430.514	84.44
430.736	83.44
430.958	91.44
431.18	73.44
431.402	74.44
431.624	98.44
431.846	75.44
432.068	76.44
432.29	81.44
432.512	81.44
432.734	79.44
432.956	85.44
433.178	97.44
433.4	86.44
433.622	106.44
433.844	87.44
434.066	80.44
434.287	83.44
434.509	77.44
434.731	92.44
434.953	90.44
435.175	91.44
435.397	88.44
435.618	99.44
435.84	104.44
436.062	131.44
436.284	131.44
436.505	106.44
436.727	83.44
436.949	79.44
437.17	64.44
437.392	82.44
437.614	94.44
437.835	120.44
438.057	120.44
438.278	122.44
438.5	116.44
438.721	130.44
438.943	121.44
439.165	90.44
439.386	92.44
439.608	104.44
439.829	108.44
440.05	132.44
440.272	159.44
440.493	104.44
440.715	79.44
440.936	87.44
441.158	84.44
441.379	78.44
441.6	96.44
441.822	98.44
442.043	87.44
442.264	107.44
442.486	105.44
442.707	96.44
442.928	110.44
443.149	156.44
443.371	154.44
443.592	125.44
443.813	118.44
444.034	120.44
444.255	109.44
444.476	83.44
444.698	87.44
444.919	92.44
445.14	126.44
445.361	120.44
445.582	107.44
445.803	155.44
446.024	150.44
446.245	150.44
446.466	110.44
446.687	88.44
446.908	92.44
447.129	82.44
447.35	99.44
447.571	88.44
447.792	91.44
448.013	97.44
448.234	118.44
448.455	96.44
448.675	127.44
448.896	148.44
449.117	108.44
449.338	108.44
449.559	136.44
449.779	152.44
450	86.44
450.221	86.44
450.442	94.44
450.662	87.44
450.883	108.44
451.104	109.44
451.324	94.44
451.545	77.44
451.766	72.44
451.986	72.44
452.207	90.44
452.428	95.44
452.648	94.44
452.869	112.44
453.089	130.44
453.31	121.44
453.53	104.44
453.751	84.44
453.971	102.44
454.192	98.44
454.412	89.44
454.633	95.44
454.853	79.44
455.073	76.44
455.294	94.44
455.514	86.44
455.734	81.44
455.955	80.44
456.175	82.44
456.395	88.44
456.616	98.44
456.836	61.44
457.056	95.44
457.276	71.44
457.497	91.44
457.717	81.44
457.937	82.44
458.157	83.44
458.377	97.44
458.598	118.44
458.818	166.44
459.038	192.44
459.258	142.44
459.478	82.44
459.698	83.44
459.918	89.44
460.138	95.44
460.358	92.44
460.578	74.44
460.798	88.44
461.018	80.44
461.238	102.44
461.458	87.44
461.678	76.44
461.898	86.44
462.118	88.44
462.338	78.44
462.558	86.44
462.777	84.44
462.997	96.44
463.217	84.44
463.437	65.44
463.657	83.44
463.876	92.44
464.096	86.44
464.316	103.44
464.536	98.44
464.755	94.44
464.975	95.44
465.195	197.44
465.414	206.44
465.634	95.44
465.854	80.44
466.073	78.44
466.293	87.44
466.512	104.44
466.732	95.44
466.951	86.44
467.171	98.44
467.391	95.44
467.61	106.44
467.829	148.44
468.049	314.44
468.268	431.44
468.488	147.44
468.707	93.44
468.927	67.44
469.146	79.44
469.365	80.44
469.585	95.44
469.804	96.44
470.023	110.44
470.243	102.44
470.462	104.44
470.681	126.44
470.901	90.44
471.12	90.44
471.339	105.44
471.558	90.44
471.777	116.44
471.997	183.44
472.216	621.44
472.435	1278.44
472.654	338.44
472.873	123.44
473.092	77.44
473.311	101.44
473.53	67.44
473.749	86.44
473.968	104.44
474.187	106.44
474.406	95.44
474.625	92.44
474.844	82.44
475.063	93.44
475.282	87.44
475.501	79.44
475.72	88.44
475.939	88.44
476.158	87.44
476.377	73.44
476.596	108.44
476.814	88.44
477.033	104.44
477.252	94.44
477.471	86.44
477.69	81.44
477.908	93.44
478.127	93.44
478.346	85.44
478.564	93.44
478.783	95.44
479.002	86.44
479.22	106.44
479.439	121.44
479.658	102.44
479.876	110.44
480.095	85.44
480.313	124.44
480.532	129.44
480.751	183.44
480.969	542.44
481.188	2221.44
481.406	1322.44
481.624	234.44
481.843	104.44
482.061	100.44
482.28	92.44
482.498	82.44
482.717	77.44
482.935	67.44
483.153	93.44
483.372	85.44
483.59	74.44
483.808	88.44
484.027	109.44
484.245	86.44
484.463	92.44
484.681	87.44
484.9	65.44
485.118	97.44
485.336	85.44
485.554	92.44
485.772	86.44
485.99	84.44
486.209	103.44
486.427	105.44
486.645	117.44
486.863	121.44
487.081	104.44
487.299	97.44
487.517	95.44
487.735	98.44
487.953	98.44
488.171	90.44
488.389	99.44
488.607	96.44
488.825	96.44
489.043	87.44
489.261	89.44
489.479	90.44
489.696	86.44
489.914	87.44
490.132	84.44
490.35	89.44
490.568	81.44
490.786	78.44
491.003	92.44
491.221	90.44
491.439	90.44
491.657	108.44
491.874	91.44
492.092	92.44
492.31	82.44
492.527	77.44
492.745	86.44
492.963	100.44
493.18	97.44
493.398	96.44
493.615	94.44
493.833	104.44
494.05	93.44
494.268	92.44
494.485	70.44
494.703	97.44
494.92	83.44
495.138	82.44
495.355	88.44
495.573	80.44
495.79	95.44
496.008	100.44
496.225	89.44
496.442	95.44
496.66	79.44
496.877	83.44
497.094	82.44
497.312	100.44
497.529	105.44
497.746	105.44
497.963	88.44
498.181	81.44
498.398	90.44
498.615	106.44
498.832	108.44
499.049	87.44
499.267	79.44
499.484	93.44
499.701	100.44
499.918	81.44
500.135	82.44
500.352	75.44
500.569	75.44
500.786	99.44
501.003	91.44
501.22	101.44
501.437	97.44
501.654	85.44
501.871	111.44
502.088	73.44
502.305	90.44
502.522	97.44
502.739	96.44
502.956	76.44
503.172	95.44
503.389	90.44
503.606	104.44
503.823	95.44
504.04	92.44
504.256	83.44
504.473	82.44
504.69	99.44
504.907	97.44
505.123	90.44
505.34	96.44
505.557	109.44
505.773	88.44
505.99	87.44
506.207	88.44
506.423	98.44
506.64	104.44
506.856	94.44
507.073	88.44
507.289	89.44
507.506	89.44
507.722	130.44
507.939	123.44
508.155	102.44
508.372	84.44
508.588	76.44
508.805	85.44
509.021	94.44
509.238	102.44
509.454	103.44
509.67	112.44
509.887	109.44
510.103	134.44
510.319	239.44
510.536	882.44
510.752	2908.44
510.968	767.44
511.184	156.44
511.401	118.44
511.617	99.44
511.833	104.44
512.049	103.44
512.265	99.44
512.481	91.44
512.698	81.44
512.914	96.44
513.13	90.44
513.346	95.44
513.562	93.44
513.778	84.44
513.994	96.44
514.21	116.44
514.426	122.44
514.642	152.44
514.858	142.44
515.074	191.44
