Data from Circ_1992_H10_HRD10591_00027.txt Node
Date: Wed Jan 03 11:47:50 EST 2024
User: Yrep
Spectrometer: HR+D1059
Trigger mode: 1
Integration Time (sec): 1.000000E-1
Scans to average: 1
Electric dark correction enabled: true
Nonlinearity correction enabled: false
Boxcar width: 0
XAxis mode: Wavelengths
Number of Pixels in Spectrum: 2048
>>>>>Begin Spectral Data<<<<<
223.165	-25.94
223.4	-25.94
223.635	-25.94
223.869	-23.94
224.104	-34.94
224.338	-20.94
224.573	-6.94
224.808	-10.94
225.042	6.06
225.277	3.06
225.511	5.06
225.746	7.06
225.98	19.06
226.215	12.06
226.449	8.06
226.683	11.06
226.918	25.06
227.152	27.06
227.387	23.06
227.621	42.06
227.856	36.06
228.09	41.06
228.324	47.06
228.559	40.06
228.793	53.06
229.027	67.06
229.262	61.06
229.496	80.06
229.73	86.06
229.964	79.06
230.199	63.06
230.433	69.06
230.667	68.06
230.901	88.06
231.136	73.06
231.37	77.06
231.604	70.06
231.838	85.06
232.072	88.06
232.306	79.06
232.541	88.06
232.775	83.06
233.009	92.06
233.243	69.06
233.477	84.06
233.711	77.06
233.945	68.06
234.179	72.06
234.413	69.06
234.647	75.06
234.881	68.06
235.115	77.06
235.349	67.06
235.583	83.06
235.817	58.06
236.051	72.06
236.285	74.06
236.519	65.06
236.753	71.06
236.987	76.06
237.221	86.06
237.455	100.06
237.689	61.06
237.922	82.06
238.156	79.06
238.39	75.06
238.624	66.06
238.858	84.06
239.091	67.06
239.325	82.06
239.559	87.06
239.793	68.06
240.027	68.06
240.26	70.06
240.494	81.06
240.728	78.06
240.961	76.06
241.195	74.06
241.429	73.06
241.662	71.06
241.896	76.06
242.13	70.06
242.363	67.06
242.597	80.06
242.83	59.06
243.064	61.06
243.298	84.06
243.531	73.06
243.765	77.06
243.998	69.06
244.232	96.06
244.465	79.06
244.699	81.06
244.932	80.06
245.166	66.06
245.399	66.06
245.633	56.06
245.866	81.06
246.099	77.06
246.333	77.06
246.566	72.06
246.8	73.06
247.033	88.06
247.266	77.06
247.5	72.06
247.733	80.06
247.966	69.06
248.2	87.06
248.433	83.06
248.666	65.06
248.899	82.06
249.133	88.06
249.366	103.06
249.599	92.06
249.832	78.06
250.066	80.06
250.299	82.06
250.532	72.06
250.765	76.06
250.998	71.06
251.231	81.06
251.465	75.06
251.698	68.06
251.931	87.06
252.164	85.06
252.397	83.06
252.63	78.06
252.863	80.06
253.096	82.06
253.329	100.06
253.562	82.06
253.795	83.06
254.028	85.06
254.261	80.06
254.494	81.06
254.727	89.06
254.96	80.06
255.193	69.06
255.426	72.06
255.659	79.06
255.892	68.06
256.124	73.06
256.357	87.06
256.59	96.06
256.823	81.06
257.056	90.06
257.289	73.06
257.521	79.06
257.754	95.06
257.987	83.06
258.22	86.06
258.452	84.06
258.685	91.06
258.918	79.06
259.151	68.06
259.383	77.06
259.616	84.06
259.849	89.06
260.081	89.06
260.314	94.06
260.547	77.06
260.779	81.06
261.012	86.06
261.244	77.06
261.477	99.06
261.71	87.06
261.942	104.06
262.175	128.06
262.407	94.06
262.64	72.06
262.872	76.06
263.105	74.06
263.337	79.06
263.57	89.06
263.802	90.06
264.035	61.06
264.267	79.06
264.499	77.06
264.732	83.06
264.964	81.06
265.197	79.06
265.429	84.06
265.661	79.06
265.894	82.06
266.126	91.06
266.358	68.06
266.591	93.06
266.823	93.06
267.055	77.06
267.287	84.06
267.52	81.06
267.752	80.06
267.984	91.06
268.216	78.06
268.448	66.06
268.681	86.06
268.913	87.06
269.145	85.06
269.377	96.06
269.609	90.06
269.841	77.06
270.073	90.06
270.306	91.06
270.538	91.06
270.77	67.06
271.002	82.06
271.234	86.06
271.466	73.06
271.698	87.06
271.93	80.06
272.162	83.06
272.394	87.06
272.626	80.06
272.858	89.06
273.09	75.06
273.322	77.06
273.553	99.06
273.785	74.06
274.017	79.06
274.249	71.06
274.481	83.06
274.713	79.06
274.945	91.06
275.176	83.06
275.408	91.06
275.64	104.06
275.872	99.06
276.104	91.06
276.335	78.06
276.567	105.06
276.799	123.06
277.031	128.06
277.262	130.06
277.494	122.06
277.726	88.06
277.957	82.06
278.189	82.06
278.421	106.06
278.652	88.06
278.884	93.06
279.115	96.06
279.347	89.06
279.579	92.06
279.81	105.06
280.042	132.06
280.273	153.06
280.505	128.06
280.736	100.06
280.968	76.06
281.199	77.06
281.431	87.06
281.662	91.06
281.894	89.06
282.125	110.06
282.356	132.06
282.588	161.06
282.819	129.06
283.051	81.06
283.282	90.06
283.513	100.06
283.745	83.06
283.976	72.06
284.207	82.06
284.439	91.06
284.67	78.06
284.901	89.06
285.132	63.06
285.364	77.06
285.595	94.06
285.826	76.06
286.057	89.06
286.288	87.06
286.52	67.06
286.751	71.06
286.982	81.06
287.213	85.06
287.444	91.06
287.675	92.06
287.906	87.06
288.138	91.06
288.369	90.06
288.6	87.06
288.831	75.06
289.062	84.06
289.293	77.06
289.524	86.06
289.755	83.06
289.986	87.06
290.217	75.06
290.448	90.06
290.679	91.06
290.91	88.06
291.141	84.06
291.371	83.06
291.602	77.06
291.833	81.06
292.064	87.06
292.295	76.06
292.526	89.06
292.757	84.06
292.987	73.06
293.218	84.06
293.449	92.06
293.68	79.06
293.91	92.06
294.141	87.06
294.372	112.06
294.603	81.06
294.833	87.06
295.064	95.06
295.295	83.06
295.525	87.06
295.756	97.06
295.987	102.06
296.217	156.06
296.448	132.06
296.679	97.06
296.909	82.06
297.14	83.06
297.37	89.06
297.601	104.06
297.831	87.06
298.062	97.06
298.292	106.06
298.523	73.06
298.753	88.06
298.984	87.06
299.214	78.06
299.445	86.06
299.675	95.06
299.905	104.06
300.136	93.06
300.366	105.06
300.597	95.06
300.827	91.06
301.057	111.06
301.288	109.06
301.518	111.06
301.748	86.06
301.979	103.06
302.209	92.06
302.439	97.06
302.669	72.06
302.9	83.06
303.13	90.06
303.36	92.06
303.59	106.06
303.82	116.06
304.051	97.06
304.281	86.06
304.511	78.06
304.741	89.06
304.971	84.06
305.201	83.06
305.431	93.06
305.661	82.06
305.891	81.06
306.121	92.06
306.352	105.06
306.582	98.06
306.812	99.06
307.042	106.06
307.272	106.06
307.502	128.06
307.731	119.06
307.961	95.06
308.191	99.06
308.421	99.06
308.651	97.06
308.881	98.06
309.111	109.06
309.341	98.06
309.571	95.06
309.8	79.06
310.03	101.06
310.26	100.06
310.49	84.06
310.72	94.06
310.949	123.06
311.179	103.06
311.409	100.06
311.639	94.06
311.868	110.06
312.098	100.06
312.328	101.06
312.557	112.06
312.787	116.06
313.017	99.06
313.246	98.06
313.476	90.06
313.706	96.06
313.935	94.06
314.165	107.06
314.394	116.06
314.624	97.06
314.853	88.06
315.083	88.06
315.312	82.06
315.542	86.06
315.771	99.06
316.001	84.06
316.23	88.06
316.46	79.06
316.689	77.06
316.919	80.06
317.148	101.06
317.377	116.06
317.607	100.06
317.836	97.06
318.065	100.06
318.295	85.06
318.524	96.06
318.753	95.06
318.983	99.06
319.212	103.06
319.441	115.06
319.67	107.06
319.9	85.06
320.129	97.06
320.358	96.06
320.587	108.06
320.816	104.06
321.046	107.06
321.275	103.06
321.504	96.06
321.733	109.06
321.962	98.06
322.191	105.06
322.42	109.06
322.649	123.06
322.878	119.06
323.108	116.06
323.337	120.06
323.566	149.06
323.795	172.06
324.024	209.06
324.253	463.06
324.482	930.06
324.71	1951.06
324.939	2605.06
325.168	927.06
325.397	281.06
325.626	157.06
325.855	135.06
326.084	137.06
326.313	143.06
326.542	157.06
326.77	243.06
326.999	508.06
327.228	1024.06
327.457	1888.06
327.686	1537.06
327.914	466.06
328.143	314.06
328.372	376.06
328.6	231.06
328.829	145.06
329.058	164.06
329.287	157.06
329.515	132.06
329.744	175.06
329.972	267.06
330.201	469.06
330.43	706.06
330.658	351.06
330.887	222.06
331.115	155.06
331.344	103.06
331.572	100.06
331.801	120.06
332.03	111.06
332.258	110.06
332.486	97.06
332.715	108.06
332.943	102.06
333.172	100.06
333.4	107.06
333.629	127.06
333.857	155.06
334.085	255.06
334.314	471.06
334.542	848.06
334.771	847.06
334.999	250.06
335.227	129.06
335.455	98.06
335.684	107.06
335.912	109.06
336.14	97.06
336.369	99.06
336.597	103.06
336.825	109.06
337.053	92.06
337.281	100.06
337.51	88.06
337.738	87.06
337.966	98.06
338.194	93.06
338.422	94.06
338.65	104.06
338.878	106.06
339.106	108.06
339.334	103.06
339.562	91.06
339.79	96.06
340.018	84.06
340.246	98.06
340.474	99.06
340.702	99.06
340.93	92.06
341.158	77.06
341.386	99.06
341.614	103.06
341.842	89.06
342.07	88.06
342.298	90.06
342.526	99.06
342.754	82.06
342.981	96.06
343.209	82.06
343.437	97.06
343.665	93.06
343.893	87.06
344.12	94.06
344.348	93.06
344.576	88.06
344.804	95.06
345.031	101.06
345.259	108.06
345.487	87.06
345.714	95.06
345.942	92.06
346.17	90.06
346.397	97.06
346.625	93.06
346.853	93.06
347.08	77.06
347.308	103.06
347.535	112.06
347.763	106.06
347.99	113.06
348.218	100.06
348.445	110.06
348.673	112.06
348.9	81.06
349.128	80.06
349.355	81.06
349.583	77.06
349.81	99.06
350.037	103.06
350.265	107.06
350.492	96.06
350.72	86.06
350.947	112.06
351.174	106.06
351.402	94.06
351.629	97.06
351.856	95.06
352.083	109.06
352.311	109.06
352.538	113.06
352.765	114.06
352.992	130.06
353.22	116.06
353.447	115.06
353.674	100.06
353.901	92.06
354.128	101.06
354.355	99.06
354.583	101.06
354.81	84.06
355.037	99.06
355.264	90.06
355.491	92.06
355.718	81.06
355.945	93.06
356.172	99.06
356.399	95.06
356.626	90.06
356.853	105.06
357.08	88.06
357.307	83.06
357.534	98.06
357.761	86.06
357.988	94.06
358.215	93.06
358.441	106.06
358.668	84.06
358.895	105.06
359.122	99.06
359.349	97.06
359.576	94.06
359.802	99.06
360.029	116.06
360.256	120.06
360.483	109.06
360.709	100.06
360.936	97.06
361.163	85.06
361.39	91.06
361.616	98.06
361.843	91.06
362.07	83.06
362.296	96.06
362.523	92.06
362.749	100.06
362.976	99.06
363.203	92.06
363.429	86.06
363.656	89.06
363.882	97.06
364.109	87.06
364.335	85.06
364.562	85.06
364.788	89.06
365.015	91.06
365.241	89.06
365.468	107.06
365.694	106.06
365.92	109.06
366.147	99.06
366.373	84.06
366.599	82.06
366.826	74.06
367.052	88.06
367.278	95.06
367.505	83.06
367.731	106.06
367.957	105.06
368.184	95.06
368.41	91.06
368.636	120.06
368.862	107.06
369.089	104.06
369.315	86.06
369.541	96.06
369.767	93.06
369.993	100.06
370.219	87.06
370.445	84.06
370.672	97.06
370.898	92.06
371.124	99.06
371.35	87.06
371.576	77.06
371.802	79.06
372.028	88.06
372.254	87.06
372.48	85.06
372.706	85.06
372.932	76.06
373.158	82.06
373.384	87.06
373.61	92.06
373.835	103.06
374.061	90.06
374.287	92.06
374.513	88.06
374.739	96.06
374.965	90.06
375.191	98.06
375.416	89.06
375.642	92.06
375.868	95.06
376.094	84.06
376.319	85.06
376.545	90.06
376.771	87.06
376.997	101.06
377.222	99.06
377.448	86.06
377.674	95.06
377.899	91.06
378.125	90.06
378.35	97.06
378.576	92.06
378.802	95.06
379.027	111.06
379.253	105.06
379.478	93.06
379.704	93.06
379.929	107.06
380.155	91.06
380.38	95.06
380.606	104.06
380.831	99.06
381.057	100.06
381.282	100.06
381.507	96.06
381.733	97.06
381.958	103.06
382.184	84.06
382.409	104.06
382.634	109.06
382.86	101.06
383.085	106.06
383.31	100.06
383.535	97.06
383.761	114.06
383.986	102.06
384.211	101.06
384.436	105.06
384.662	100.06
384.887	116.06
385.112	107.06
385.337	118.06
385.562	117.06
385.787	117.06
386.013	112.06
386.238	127.06
386.463	116.06
386.688	104.06
386.913	108.06
387.138	111.06
387.363	114.06
387.588	109.06
387.813	105.06
388.038	96.06
388.263	113.06
388.488	125.06
388.713	101.06
388.938	84.06
389.163	90.06
389.387	84.06
389.612	87.06
389.837	84.06
390.062	96.06
390.287	95.06
390.512	89.06
390.736	93.06
390.961	77.06
391.186	81.06
391.411	84.06
391.636	83.06
391.86	81.06
392.085	87.06
392.31	83.06
392.534	81.06
392.759	83.06
392.984	88.06
393.208	77.06
393.433	91.06
393.658	79.06
393.882	94.06
394.107	83.06
394.331	81.06
394.556	82.06
394.78	84.06
395.005	87.06
395.229	94.06
395.454	81.06
395.678	84.06
395.903	77.06
396.127	86.06
396.352	84.06
396.576	79.06
396.801	82.06
397.025	79.06
397.249	89.06
397.474	92.06
397.698	66.06
397.922	99.06
398.147	77.06
398.371	86.06
398.595	99.06
398.82	87.06
399.044	94.06
399.268	108.06
399.492	87.06
399.717	100.06
399.941	87.06
400.165	84.06
400.389	90.06
400.613	89.06
400.837	80.06
401.062	77.06
401.286	80.06
401.51	82.06
401.734	104.06
401.958	115.06
402.182	139.06
402.406	165.06
402.63	124.06
402.854	89.06
403.078	78.06
403.302	90.06
403.526	82.06
403.75	92.06
403.974	91.06
404.198	90.06
404.422	80.06
404.645	97.06
404.869	89.06
405.093	107.06
405.317	121.06
405.541	108.06
405.765	99.06
405.988	123.06
406.212	191.06
406.436	248.06
406.66	179.06
406.883	111.06
407.107	96.06
407.331	106.06
407.555	91.06
407.778	88.06
408.002	88.06
408.226	91.06
408.449	85.06
408.673	84.06
408.896	95.06
409.12	100.06
409.344	95.06
409.567	100.06
409.791	93.06
410.014	91.06
410.238	92.06
410.461	93.06
410.685	88.06
410.908	91.06
411.132	104.06
411.355	106.06
411.578	93.06
411.802	92.06
412.025	97.06
412.249	100.06
412.472	112.06
412.695	135.06
412.919	94.06
413.142	93.06
413.365	101.06
413.589	84.06
413.812	79.06
414.035	104.06
414.258	87.06
414.482	88.06
414.705	85.06
414.928	83.06
415.151	83.06
415.374	89.06
415.597	99.06
415.821	90.06
416.044	100.06
416.267	104.06
416.49	86.06
416.713	75.06
416.936	93.06
417.159	91.06
417.382	107.06
417.605	103.06
417.828	107.06
418.051	81.06
418.274	81.06
418.497	84.06
418.72	83.06
418.943	92.06
419.166	91.06
419.389	89.06
419.611	99.06
419.834	93.06
420.057	105.06
420.28	98.06
420.503	92.06
420.726	82.06
420.948	77.06
421.171	89.06
421.394	90.06
421.617	92.06
421.839	91.06
422.062	64.06
422.285	87.06
422.507	103.06
422.73	109.06
422.953	97.06
423.175	96.06
423.398	83.06
423.621	86.06
423.843	93.06
424.066	92.06
424.288	102.06
424.511	84.06
424.733	96.06
424.956	108.06
425.178	106.06
425.401	96.06
425.623	118.06
425.846	92.06
426.068	79.06
426.291	74.06
426.513	85.06
426.735	95.06
426.958	112.06
427.18	115.06
427.402	139.06
427.625	213.06
427.847	185.06
428.069	167.06
428.292	108.06
428.514	93.06
428.736	79.06
428.958	85.06
429.181	85.06
429.403	79.06
429.625	79.06
429.847	96.06
430.069	112.06
430.292	91.06
430.514	87.06
430.736	79.06
430.958	89.06
431.18	87.06
431.402	91.06
431.624	96.06
431.846	87.06
432.068	101.06
432.29	77.06
432.512	76.06
432.734	90.06
432.956	86.06
433.178	100.06
433.4	96.06
433.622	94.06
433.844	76.06
434.066	85.06
434.287	81.06
434.509	102.06
434.731	97.06
434.953	96.06
435.175	91.06
435.397	89.06
435.618	86.06
435.84	113.06
436.062	139.06
436.284	105.06
436.505	95.06
436.727	98.06
436.949	94.06
437.17	96.06
437.392	87.06
437.614	95.06
437.835	110.06
438.057	129.06
438.278	120.06
438.5	125.06
438.721	133.06
438.943	126.06
439.165	90.06
439.386	88.06
439.608	93.06
439.829	105.06
440.05	123.06
440.272	159.06
440.493	104.06
440.715	93.06
440.936	82.06
441.158	96.06
441.379	80.06
441.6	97.06
441.822	101.06
442.043	93.06
442.264	103.06
442.486	113.06
442.707	94.06
442.928	107.06
443.149	157.06
443.371	168.06
443.592	114.06
443.813	127.06
444.034	102.06
444.255	95.06
444.476	97.06
444.698	81.06
444.919	88.06
445.14	140.06
445.361	125.06
445.582	117.06
445.803	160.06
446.024	154.06
446.245	156.06
446.466	124.06
446.687	93.06
446.908	97.06
447.129	89.06
447.35	91.06
447.571	91.06
447.792	91.06
448.013	112.06
448.234	128.06
448.455	113.06
448.675	124.06
448.896	127.06
449.117	97.06
449.338	110.06
449.559	129.06
449.779	147.06
450	91.06
450.221	97.06
450.442	90.06
450.662	96.06
450.883	120.06
451.104	121.06
451.324	97.06
451.545	87.06
451.766	78.06
451.986	81.06
452.207	99.06
452.428	88.06
452.648	105.06
452.869	111.06
453.089	107.06
453.31	135.06
453.53	109.06
453.751	106.06
453.971	127.06
454.192	115.06
454.412	89.06
454.633	87.06
454.853	75.06
455.073	76.06
455.294	83.06
455.514	109.06
455.734	93.06
455.955	93.06
456.175	91.06
456.395	82.06
456.616	81.06
456.836	80.06
457.056	89.06
457.276	97.06
457.497	83.06
457.717	79.06
457.937	83.06
458.157	81.06
458.377	88.06
458.598	114.06
458.818	192.06
459.038	203.06
459.258	143.06
459.478	99.06
459.698	89.06
459.918	91.06
460.138	78.06
460.358	77.06
460.578	102.06
460.798	82.06
461.018	96.06
461.238	75.06
461.458	97.06
461.678	89.06
461.898	81.06
462.118	92.06
462.338	81.06
462.558	82.06
462.777	87.06
462.997	83.06
463.217	98.06
463.437	93.06
463.657	101.06
463.876	83.06
464.096	91.06
464.316	85.06
464.536	99.06
464.755	95.06
464.975	99.06
465.195	209.06
465.414	205.06
465.634	98.06
465.854	93.06
466.073	98.06
466.293	93.06
466.512	81.06
466.732	85.06
466.951	94.06
467.171	89.06
467.391	101.06
467.61	128.06
467.829	153.06
468.049	277.06
468.268	405.06
468.488	136.06
468.707	97.06
468.927	75.06
469.146	96.06
469.365	81.06
469.585	99.06
469.804	100.06
470.023	112.06
470.243	104.06
470.462	101.06
470.681	112.06
470.901	105.06
471.12	93.06
471.339	109.06
471.558	110.06
471.777	136.06
471.997	191.06
472.216	522.06
472.435	1152.06
472.654	311.06
472.873	127.06
473.092	92.06
473.311	82.06
473.53	101.06
473.749	86.06
473.968	112.06
474.187	119.06
474.406	101.06
474.625	89.06
474.844	92.06
475.063	102.06
475.282	93.06
475.501	93.06
475.72	100.06
475.939	90.06
476.158	96.06
476.377	77.06
476.596	79.06
476.814	109.06
477.033	101.06
477.252	97.06
477.471	88.06
477.69	93.06
477.908	85.06
478.127	100.06
478.346	89.06
478.564	92.06
478.783	100.06
479.002	106.06
479.22	107.06
479.439	103.06
479.658	126.06
479.876	110.06
480.095	97.06
480.313	111.06
480.532	114.06
480.751	177.06
480.969	519.06
481.188	1990.06
481.406	1215.06
481.624	220.06
481.843	112.06
482.061	104.06
482.28	92.06
482.498	85.06
482.717	96.06
482.935	95.06
483.153	92.06
483.372	92.06
483.59	88.06
483.808	84.06
484.027	108.06
484.245	99.06
484.463	92.06
484.681	100.06
484.9	101.06
485.118	99.06
485.336	87.06
485.554	92.06
485.772	99.06
485.99	96.06
486.209	106.06
486.427	115.06
486.645	122.06
486.863	124.06
487.081	105.06
487.299	90.06
487.517	105.06
487.735	90.06
487.953	87.06
488.171	87.06
488.389	98.06
488.607	92.06
488.825	91.06
489.043	96.06
489.261	84.06
489.479	80.06
489.696	92.06
489.914	79.06
490.132	89.06
490.35	95.06
490.568	80.06
490.786	87.06
491.003	98.06
491.221	94.06
491.439	88.06
491.657	103.06
491.874	95.06
492.092	88.06
492.31	100.06
492.527	91.06
492.745	85.06
492.963	90.06
493.18	65.06
493.398	98.06
493.615	95.06
493.833	97.06
494.05	97.06
494.268	92.06
494.485	82.06
494.703	79.06
494.92	85.06
495.138	90.06
495.355	89.06
495.573	89.06
495.79	89.06
496.008	85.06
496.225	92.06
496.442	95.06
496.66	92.06
496.877	89.06
497.094	80.06
497.312	92.06
497.529	78.06
497.746	91.06
497.963	91.06
498.181	80.06
498.398	77.06
498.615	95.06
498.832	96.06
499.049	97.06
499.267	87.06
499.484	98.06
499.701	90.06
499.918	101.06
500.135	101.06
500.352	85.06
500.569	94.06
500.786	103.06
501.003	62.06
501.22	96.06
501.437	88.06
501.654	97.06
501.871	106.06
502.088	95.06
502.305	82.06
502.522	91.06
502.739	84.06
502.956	99.06
503.172	91.06
503.389	97.06
503.606	108.06
503.823	96.06
504.04	99.06
504.256	88.06
504.473	93.06
504.69	94.06
504.907	100.06
505.123	89.06
505.34	77.06
505.557	72.06
505.773	91.06
505.99	81.06
506.207	90.06
506.423	104.06
506.64	93.06
506.856	87.06
507.073	92.06
507.289	99.06
507.506	98.06
507.722	119.06
507.939	125.06
508.155	100.06
508.372	91.06
508.588	99.06
508.805	84.06
509.021	91.06
509.238	104.06
509.454	103.06
509.67	111.06
509.887	107.06
510.103	123.06
510.319	221.06
510.536	793.06
510.752	2674.06
510.968	731.06
511.184	158.06
511.401	114.06
511.617	106.06
511.833	99.06
512.049	106.06
512.265	94.06
512.481	97.06
512.698	89.06
512.914	88.06
513.13	89.06
513.346	97.06
513.562	96.06
513.778	109.06
513.994	113.06
514.21	93.06
514.426	127.06
