Data from Circ_1992_H10_HRD10591_00030.txt Node
Date: Wed Jan 03 11:47:50 EST 2024
User: Yrep
Spectrometer: HR+D1059
Trigger mode: 1
Integration Time (sec): 1.000000E-1
Scans to average: 1
Electric dark correction enabled: true
Nonlinearity correction enabled: false
Boxcar width: 0
XAxis mode: Wavelengths
Number of Pixels in Spectrum: 2048
>>>>>Begin Spectral Data<<<<<
223.165	-13.25
223.4	-13.25
223.635	-13.25
223.869	-13.25
224.104	-16.25
224.338	-17.25
224.573	-9.25
224.808	-12.25
225.042	-5.25
225.277	-9.25
225.511	-4.25
225.746	6.75
225.98	22.75
226.215	1.75
226.449	4.75
226.683	16.75
226.918	15.75
227.152	31.75
227.387	43.75
227.621	44.75
227.856	42.75
228.09	41.75
228.324	48.75
228.559	65.75
228.793	54.75
229.027	66.75
229.262	64.75
229.496	75.75
229.73	85.75
229.964	99.75
230.199	77.75
230.433	82.75
230.667	69.75
230.901	78.75
231.136	91.75
231.37	82.75
231.604	96.75
231.838	89.75
232.072	81.75
232.306	74.75
232.541	81.75
232.775	84.75
233.009	77.75
233.243	74.75
233.477	80.75
233.711	66.75
233.945	84.75
234.179	92.75
234.413	79.75
234.647	70.75
234.881	77.75
235.115	73.75
235.349	80.75
235.583	91.75
235.817	83.75
236.051	85.75
236.285	69.75
236.519	88.75
236.753	80.75
236.987	83.75
237.221	85.75
237.455	88.75
237.689	70.75
237.922	77.75
238.156	73.75
238.39	68.75
238.624	66.75
238.858	74.75
239.091	80.75
239.325	81.75
239.559	70.75
239.793	85.75
240.027	79.75
240.26	73.75
240.494	74.75
240.728	77.75
240.961	77.75
241.195	92.75
241.429	73.75
241.662	73.75
241.896	76.75
242.13	94.75
242.363	70.75
242.597	77.75
242.83	77.75
243.064	87.75
243.298	77.75
243.531	87.75
243.765	90.75
243.998	91.75
244.232	79.75
244.465	84.75
244.699	83.75
244.932	72.75
245.166	76.75
245.399	89.75
245.633	68.75
245.866	76.75
246.099	77.75
246.333	80.75
246.566	83.75
246.8	79.75
247.033	85.75
247.266	83.75
247.5	76.75
247.733	94.75
247.966	88.75
248.2	87.75
248.433	86.75
248.666	88.75
248.899	75.75
249.133	82.75
249.366	100.75
249.599	112.75
249.832	83.75
250.066	67.75
250.299	77.75
250.532	81.75
250.765	75.75
250.998	82.75
251.231	75.75
251.465	86.75
251.698	88.75
251.931	81.75
252.164	78.75
252.397	78.75
252.63	91.75
252.863	87.75
253.096	65.75
253.329	73.75
253.562	93.75
253.795	94.75
254.028	79.75
254.261	69.75
254.494	75.75
254.727	84.75
254.96	75.75
255.193	86.75
255.426	94.75
255.659	90.75
255.892	89.75
256.124	80.75
256.357	75.75
256.59	75.75
256.823	68.75
257.056	84.75
257.289	77.75
257.521	88.75
257.754	82.75
257.987	83.75
258.22	91.75
258.452	90.75
258.685	87.75
258.918	90.75
259.151	83.75
259.383	91.75
259.616	87.75
259.849	77.75
260.081	81.75
260.314	86.75
260.547	98.75
260.779	97.75
261.012	98.75
261.244	95.75
261.477	96.75
261.71	111.75
261.942	116.75
262.175	128.75
262.407	97.75
262.64	90.75
262.872	94.75
263.105	80.75
263.337	81.75
263.57	85.75
263.802	96.75
264.035	85.75
264.267	96.75
264.499	78.75
264.732	91.75
264.964	88.75
265.197	85.75
265.429	75.75
265.661	83.75
265.894	81.75
266.126	71.75
266.358	89.75
266.591	79.75
266.823	84.75
267.055	83.75
267.287	77.75
267.52	84.75
267.752	85.75
267.984	70.75
268.216	83.75
268.448	81.75
268.681	87.75
268.913	75.75
269.145	77.75
269.377	73.75
269.609	88.75
269.841	76.75
270.073	87.75
270.306	79.75
270.538	83.75
270.77	73.75
271.002	88.75
271.234	71.75
271.466	84.75
271.698	99.75
271.93	78.75
272.162	97.75
272.394	89.75
272.626	88.75
272.858	84.75
273.09	85.75
273.322	87.75
273.553	85.75
273.785	94.75
274.017	102.75
274.249	89.75
274.481	80.75
274.713	93.75
274.945	78.75
275.176	87.75
275.408	92.75
275.64	87.75
275.872	105.75
276.104	99.75
276.335	86.75
276.567	107.75
276.799	108.75
277.031	113.75
277.262	112.75
277.494	100.75
277.726	105.75
277.957	85.75
278.189	71.75
278.421	90.75
278.652	86.75
278.884	104.75
279.115	65.75
279.347	91.75
279.579	95.75
279.81	97.75
280.042	126.75
280.273	137.75
280.505	121.75
280.736	92.75
280.968	91.75
281.199	97.75
281.431	79.75
281.662	80.75
281.894	85.75
282.125	112.75
282.356	130.75
282.588	161.75
282.819	126.75
283.051	107.75
283.282	91.75
283.513	86.75
283.745	74.75
283.976	88.75
284.207	101.75
284.439	99.75
284.67	83.75
284.901	83.75
285.132	89.75
285.364	90.75
285.595	91.75
285.826	86.75
286.057	77.75
286.288	86.75
286.52	83.75
286.751	83.75
286.982	86.75
287.213	92.75
287.444	86.75
287.675	80.75
287.906	85.75
288.138	85.75
288.369	85.75
288.6	89.75
288.831	82.75
289.062	94.75
289.293	79.75
289.524	84.75
289.755	84.75
289.986	73.75
290.217	101.75
290.448	92.75
290.679	101.75
290.91	87.75
291.141	98.75
291.371	88.75
291.602	79.75
291.833	77.75
292.064	94.75
292.295	81.75
292.526	88.75
292.757	83.75
292.987	87.75
293.218	90.75
293.449	95.75
293.68	90.75
293.91	101.75
294.141	84.75
294.372	87.75
294.603	81.75
294.833	83.75
295.064	89.75
295.295	96.75
295.525	86.75
295.756	105.75
295.987	116.75
296.217	148.75
296.448	132.75
296.679	103.75
296.909	91.75
297.14	82.75
297.37	90.75
297.601	95.75
297.831	80.75
298.062	91.75
298.292	95.75
298.523	91.75
298.753	84.75
298.984	90.75
299.214	89.75
299.445	80.75
299.675	95.75
299.905	101.75
300.136	85.75
300.366	95.75
300.597	87.75
300.827	87.75
301.057	109.75
301.288	96.75
301.518	75.75
301.748	87.75
301.979	104.75
302.209	85.75
302.439	81.75
302.669	98.75
302.9	88.75
303.13	99.75
303.36	103.75
303.59	110.75
303.82	118.75
304.051	99.75
304.281	94.75
304.511	101.75
304.741	93.75
304.971	97.75
305.201	89.75
305.431	83.75
305.661	91.75
305.891	93.75
306.121	98.75
306.352	114.75
306.582	119.75
306.812	114.75
307.042	101.75
307.272	107.75
307.502	122.75
307.731	124.75
307.961	99.75
308.191	99.75
308.421	96.75
308.651	93.75
308.881	85.75
309.111	91.75
309.341	99.75
309.571	102.75
309.8	90.75
310.03	97.75
310.26	98.75
310.49	90.75
310.72	98.75
310.949	111.75
311.179	106.75
311.409	84.75
311.639	99.75
311.868	78.75
312.098	101.75
312.328	96.75
312.557	112.75
312.787	103.75
313.017	106.75
313.246	107.75
313.476	102.75
313.706	82.75
313.935	89.75
314.165	88.75
314.394	100.75
314.624	114.75
314.853	109.75
315.083	96.75
315.312	95.75
315.542	92.75
315.771	94.75
316.001	86.75
316.23	87.75
316.46	84.75
316.689	90.75
316.919	93.75
317.148	93.75
317.377	89.75
317.607	86.75
317.836	113.75
318.065	107.75
318.295	98.75
318.524	86.75
318.753	104.75
318.983	102.75
319.212	110.75
319.441	108.75
319.67	99.75
319.9	109.75
320.129	100.75
320.358	102.75
320.587	94.75
320.816	96.75
321.046	95.75
321.275	100.75
321.504	109.75
321.733	103.75
321.962	102.75
322.191	94.75
322.42	92.75
322.649	119.75
322.878	127.75
323.108	108.75
323.337	140.75
323.566	149.75
323.795	168.75
324.024	215.75
324.253	435.75
324.482	881.75
324.71	1928.75
324.939	2567.75
325.168	941.75
325.397	262.75
325.626	173.75
325.855	130.75
326.084	134.75
326.313	134.75
326.542	155.75
326.77	241.75
326.999	510.75
327.228	1012.75
327.457	1877.75
327.686	1542.75
327.914	450.75
328.143	319.75
328.372	341.75
328.6	226.75
328.829	153.75
329.058	174.75
329.287	174.75
329.515	130.75
329.744	171.75
329.972	247.75
330.201	437.75
330.43	632.75
330.658	319.75
330.887	185.75
331.115	143.75
331.344	100.75
331.572	98.75
331.801	133.75
332.03	96.75
332.258	97.75
332.486	108.75
332.715	106.75
332.943	93.75
333.172	106.75
333.4	107.75
333.629	133.75
333.857	159.75
334.085	249.75
334.314	415.75
334.542	786.75
334.771	738.75
334.999	242.75
335.227	132.75
335.455	102.75
335.684	100.75
335.912	102.75
336.14	102.75
336.369	113.75
336.597	112.75
336.825	105.75
337.053	111.75
337.281	89.75
337.51	90.75
337.738	93.75
337.966	75.75
338.194	102.75
338.422	101.75
338.65	91.75
338.878	85.75
339.106	90.75
339.334	79.75
339.562	73.75
339.79	92.75
340.018	88.75
340.246	104.75
340.474	91.75
340.702	83.75
340.93	98.75
341.158	87.75
341.386	99.75
341.614	107.75
341.842	96.75
342.07	87.75
342.298	100.75
342.526	101.75
342.754	85.75
342.981	91.75
343.209	92.75
343.437	94.75
343.665	94.75
343.893	85.75
344.12	101.75
344.348	88.75
344.576	91.75
344.804	90.75
345.031	110.75
345.259	82.75
345.487	106.75
345.714	97.75
345.942	87.75
346.17	95.75
346.397	94.75
346.625	105.75
346.853	107.75
347.08	95.75
347.308	91.75
347.535	100.75
347.763	99.75
347.99	103.75
348.218	110.75
348.445	101.75
348.673	91.75
348.9	98.75
349.128	85.75
349.355	101.75
349.583	90.75
349.81	87.75
350.037	107.75
350.265	97.75
350.492	105.75
350.72	107.75
350.947	99.75
351.174	103.75
351.402	126.75
351.629	90.75
351.856	90.75
352.083	101.75
352.311	103.75
352.538	112.75
352.765	92.75
352.992	113.75
353.22	123.75
353.447	107.75
353.674	79.75
353.901	109.75
354.128	103.75
354.355	98.75
354.583	106.75
354.81	105.75
355.037	102.75
355.264	89.75
355.491	94.75
355.718	91.75
355.945	100.75
356.172	105.75
356.399	88.75
356.626	81.75
356.853	97.75
357.08	88.75
357.307	101.75
357.534	95.75
357.761	91.75
357.988	100.75
358.215	108.75
358.441	84.75
358.668	91.75
358.895	97.75
359.122	99.75
359.349	93.75
359.576	79.75
359.802	114.75
360.029	131.75
360.256	108.75
360.483	98.75
360.709	87.75
360.936	98.75
361.163	100.75
361.39	84.75
361.616	77.75
361.843	76.75
362.07	83.75
362.296	104.75
362.523	80.75
362.749	96.75
362.976	94.75
363.203	97.75
363.429	101.75
363.656	101.75
363.882	92.75
364.109	86.75
364.335	105.75
364.562	96.75
364.788	93.75
365.015	102.75
365.241	102.75
365.468	111.75
365.694	103.75
365.92	98.75
366.147	86.75
366.373	99.75
366.599	87.75
366.826	88.75
367.052	93.75
367.278	101.75
367.505	79.75
367.731	95.75
367.957	104.75
368.184	94.75
368.41	106.75
368.636	110.75
368.862	123.75
369.089	114.75
369.315	97.75
369.541	90.75
369.767	102.75
369.993	81.75
370.219	90.75
370.445	79.75
370.672	91.75
370.898	82.75
371.124	98.75
371.35	102.75
371.576	93.75
371.802	90.75
372.028	84.75
372.254	89.75
372.48	84.75
372.706	88.75
372.932	75.75
373.158	76.75
373.384	78.75
373.61	90.75
373.835	98.75
374.061	92.75
374.287	98.75
374.513	82.75
374.739	84.75
374.965	71.75
375.191	82.75
375.416	83.75
375.642	88.75
375.868	98.75
376.094	92.75
376.319	85.75
376.545	92.75
376.771	105.75
376.997	85.75
377.222	86.75
377.448	79.75
377.674	94.75
377.899	90.75
378.125	101.75
378.35	91.75
378.576	97.75
378.802	92.75
379.027	97.75
379.253	90.75
379.478	97.75
379.704	94.75
379.929	102.75
380.155	109.75
380.38	84.75
380.606	89.75
380.831	98.75
381.057	103.75
381.282	89.75
381.507	91.75
381.733	100.75
381.958	86.75
382.184	106.75
382.409	94.75
382.634	110.75
382.86	104.75
383.085	101.75
383.31	103.75
383.535	106.75
383.761	117.75
383.986	92.75
384.211	104.75
384.436	115.75
384.662	95.75
384.887	102.75
385.112	113.75
385.337	98.75
385.562	112.75
385.787	110.75
386.013	112.75
386.238	127.75
386.463	128.75
386.688	126.75
386.913	110.75
387.138	130.75
387.363	109.75
387.588	106.75
387.813	99.75
388.038	116.75
388.263	131.75
388.488	117.75
388.713	92.75
388.938	88.75
389.163	95.75
389.387	97.75
389.612	102.75
389.837	86.75
390.062	93.75
390.287	81.75
390.512	94.75
390.736	86.75
390.961	91.75
391.186	81.75
391.411	99.75
391.636	96.75
391.86	85.75
392.085	84.75
392.31	79.75
392.534	68.75
392.759	77.75
392.984	102.75
393.208	105.75
393.433	103.75
393.658	102.75
393.882	70.75
394.107	94.75
394.331	85.75
394.556	80.75
394.78	84.75
395.005	81.75
395.229	82.75
395.454	83.75
395.678	93.75
395.903	99.75
396.127	89.75
396.352	83.75
396.576	91.75
396.801	99.75
397.025	87.75
397.249	69.75
397.474	94.75
397.698	83.75
397.922	90.75
398.147	89.75
398.371	88.75
398.595	89.75
398.82	77.75
399.044	77.75
399.268	86.75
399.492	93.75
399.717	98.75
399.941	85.75
400.165	103.75
400.389	87.75
400.613	97.75
400.837	92.75
401.062	77.75
401.286	92.75
401.51	81.75
401.734	108.75
401.958	117.75
402.182	126.75
402.406	179.75
402.63	126.75
402.854	85.75
403.078	82.75
403.302	79.75
403.526	77.75
403.75	88.75
403.974	86.75
404.198	100.75
404.422	82.75
404.645	99.75
404.869	94.75
405.093	101.75
405.317	123.75
405.541	122.75
405.765	106.75
405.988	118.75
406.212	170.75
406.436	262.75
406.66	173.75
406.883	114.75
407.107	103.75
407.331	104.75
407.555	99.75
407.778	94.75
408.002	85.75
408.226	91.75
408.449	91.75
408.673	100.75
408.896	99.75
409.12	103.75
409.344	98.75
409.567	86.75
409.791	103.75
410.014	86.75
410.238	99.75
410.461	102.75
410.685	83.75
410.908	91.75
411.132	99.75
411.355	99.75
411.578	95.75
411.802	102.75
412.025	99.75
412.249	108.75
412.472	101.75
412.695	122.75
412.919	87.75
413.142	105.75
413.365	88.75
413.589	92.75
413.812	91.75
414.035	97.75
414.258	100.75
414.482	92.75
414.705	92.75
414.928	97.75
415.151	92.75
415.374	93.75
415.597	91.75
415.821	110.75
416.044	100.75
416.267	92.75
416.49	78.75
416.713	93.75
416.936	87.75
417.159	85.75
417.382	93.75
417.605	106.75
417.828	101.75
418.051	105.75
418.274	109.75
418.497	93.75
418.72	82.75
418.943	102.75
419.166	91.75
419.389	91.75
419.611	89.75
419.834	102.75
420.057	97.75
420.28	99.75
420.503	78.75
420.726	98.75
420.948	90.75
421.171	111.75
421.394	91.75
421.617	108.75
421.839	93.75
422.062	97.75
422.285	93.75
422.507	93.75
422.73	88.75
422.953	80.75
423.175	95.75
423.398	101.75
423.621	107.75
423.843	81.75
424.066	97.75
424.288	89.75
424.511	80.75
424.733	102.75
424.956	109.75
425.178	94.75
425.401	102.75
425.623	110.75
425.846	102.75
426.068	108.75
426.291	91.75
426.513	92.75
426.735	100.75
426.958	93.75
427.18	123.75
427.402	162.75
427.625	217.75
427.847	198.75
428.069	169.75
428.292	105.75
428.514	89.75
428.736	78.75
428.958	96.75
429.181	93.75
429.403	82.75
429.625	81.75
429.847	93.75
430.069	88.75
430.292	86.75
430.514	89.75
430.736	97.75
430.958	84.75
431.18	83.75
431.402	79.75
431.624	90.75
431.846	97.75
432.068	105.75
432.29	77.75
432.512	80.75
432.734	84.75
432.956	89.75
433.178	93.75
433.4	103.75
433.622	89.75
433.844	82.75
434.066	103.75
434.287	98.75
434.509	85.75
434.731	82.75
434.953	78.75
435.175	90.75
435.397	96.75
435.618	80.75
435.84	116.75
436.062	145.75
436.284	107.75
436.505	103.75
436.727	106.75
436.949	96.75
437.17	105.75
437.392	98.75
437.614	88.75
437.835	96.75
438.057	124.75
438.278	103.75
438.5	112.75
438.721	147.75
438.943	97.75
439.165	102.75
439.386	96.75
439.608	109.75
439.829	99.75
440.05	130.75
440.272	157.75
440.493	94.75
440.715	69.75
440.936	93.75
441.158	81.75
441.379	98.75
441.6	97.75
441.822	93.75
442.043	103.75
442.264	117.75
442.486	100.75
442.707	83.75
442.928	118.75
443.149	144.75
443.371	152.75
443.592	129.75
443.813	116.75
444.034	107.75
444.255	93.75
444.476	79.75
444.698	87.75
444.919	85.75
445.14	126.75
445.361	130.75
445.582	109.75
445.803	145.75
446.024	163.75
446.245	154.75
446.466	125.75
446.687	95.75
446.908	81.75
447.129	100.75
447.35	92.75
447.571	90.75
447.792	81.75
448.013	96.75
448.234	105.75
448.455	93.75
448.675	130.75
448.896	122.75
449.117	116.75
449.338	118.75
449.559	132.75
449.779	162.75
450	109.75
450.221	78.75
450.442	100.75
450.662	95.75
450.883	110.75
451.104	115.75
451.324	97.75
451.545	90.75
451.766	96.75
451.986	76.75
452.207	81.75
452.428	102.75
452.648	97.75
452.869	117.75
453.089	116.75
453.31	126.75
453.53	105.75
453.751	100.75
453.971	106.75
454.192	128.75
454.412	89.75
454.633	99.75
454.853	87.75
455.073	91.75
455.294	95.75
455.514	114.75
455.734	95.75
455.955	95.75
456.175	87.75
456.395	81.75
456.616	75.75
456.836	85.75
457.056	89.75
457.276	86.75
457.497	77.75
457.717	85.75
457.937	93.75
458.157	80.75
458.377	97.75
458.598	109.75
458.818	162.75
459.038	188.75
459.258	141.75
459.478	93.75
459.698	81.75
459.918	89.75
460.138	95.75
460.358	90.75
460.578	74.75
460.798	93.75
461.018	86.75
461.238	88.75
461.458	79.75
461.678	98.75
461.898	92.75
462.118	98.75
462.338	79.75
462.558	84.75
462.777	79.75
462.997	67.75
463.217	93.75
463.437	87.75
463.657	87.75
463.876	93.75
464.096	91.75
464.316	94.75
464.536	90.75
464.755	98.75
464.975	101.75
465.195	189.75
465.414	181.75
465.634	105.75
465.854	90.75
466.073	96.75
466.293	98.75
466.512	81.75
466.732	89.75
466.951	81.75
467.171	94.75
467.391	89.75
467.61	99.75
467.829	134.75
468.049	268.75
468.268	374.75
468.488	132.75
468.707	102.75
468.927	100.75
469.146	103.75
469.365	92.75
469.585	89.75
469.804	101.75
470.023	93.75
470.243	94.75
470.462	114.75
470.681	121.75
470.901	86.75
471.12	79.75
471.339	99.75
471.558	86.75
471.777	112.75
471.997	169.75
472.216	504.75
472.435	1092.75
472.654	292.75
472.873	120.75
473.092	108.75
473.311	85.75
473.53	90.75
473.749	86.75
473.968	108.75
474.187	119.75
474.406	95.75
474.625	99.75
474.844	98.75
475.063	80.75
475.282	91.75
475.501	97.75
475.72	86.75
475.939	83.75
476.158	84.75
476.377	89.75
476.596	77.75
476.814	90.75
477.033	103.75
477.252	93.75
477.471	105.75
477.69	114.75
477.908	96.75
478.127	99.75
478.346	89.75
478.564	104.75
478.783	106.75
479.002	110.75
479.22	101.75
479.439	127.75
479.658	117.75
479.876	122.75
480.095	106.75
480.313	87.75
480.532	126.75
480.751	185.75
480.969	475.75
481.188	1855.75
481.406	1113.75
481.624	205.75
481.843	102.75
482.061	95.75
482.28	92.75
482.498	83.75
482.717	93.75
482.935	87.75
483.153	97.75
483.372	77.75
483.59	84.75
483.808	103.75
484.027	99.75
484.245	106.75
484.463	97.75
484.681	120.75
484.9	90.75
485.118	97.75
485.336	99.75
485.554	115.75
485.772	102.75
485.99	110.75
486.209	118.75
486.427	101.75
486.645	112.75
486.863	123.75
487.081	119.75
487.299	106.75
487.517	93.75
487.735	89.75
487.953	109.75
488.171	87.75
488.389	87.75
488.607	97.75
488.825	84.75
489.043	91.75
489.261	94.75
489.479	91.75
489.696	84.75
489.914	97.75
490.132	90.75
490.35	97.75
490.568	94.75
490.786	97.75
491.003	91.75
491.221	102.75
491.439	93.75
491.657	99.75
491.874	78.75
492.092	78.75
492.31	83.75
492.527	100.75
492.745	91.75
492.963	88.75
493.18	96.75
493.398	80.75
493.615	80.75
493.833	86.75
494.05	89.75
494.268	83.75
494.485	86.75
494.703	84.75
494.92	100.75
495.138	88.75
495.355	93.75
495.573	77.75
495.79	106.75
496.008	95.75
496.225	87.75
496.442	92.75
496.66	91.75
496.877	88.75
497.094	97.75
497.312	90.75
497.529	78.75
497.746	85.75
497.963	87.75
498.181	97.75
498.398	96.75
498.615	117.75
498.832	95.75
499.049	90.75
499.267	101.75
499.484	82.75
499.701	95.75
499.918	94.75
500.135	93.75
500.352	99.75
500.569	102.75
500.786	95.75
501.003	93.75
501.22	94.75
501.437	96.75
501.654	103.75
501.871	108.75
502.088	97.75
502.305	90.75
502.522	83.75
502.739	81.75
502.956	89.75
503.172	97.75
503.389	86.75
503.606	111.75
503.823	98.75
504.04	95.75
504.256	98.75
504.473	87.75
504.69	92.75
504.907	103.75
505.123	97.75
505.34	111.75
505.557	98.75
505.773	81.75
505.99	93.75
506.207	98.75
506.423	88.75
506.64	97.75
506.856	80.75
507.073	86.75
507.289	91.75
507.506	88.75
507.722	109.75
507.939	106.75
508.155	102.75
508.372	87.75
508.588	105.75
508.805	101.75
509.021	103.75
509.238	99.75
509.454	97.75
509.67	102.75
509.887	109.75
510.103	141.75
510.319	243.75
510.536	810.75
510.752	2694.75
510.968	733.75
511.184	163.75
511.401	112.75
511.617	101.75
511.833	92.75
512.049	92.75
512.265	96.75
512.481	87.75
512.698	93.75
512.914	101.75
513.13	85.75
513.346	89.75
513.562	99.75
513.778	97.75
513.994	102.75
