Data from Circ_1992_H10_HRD10591_00081.txt Node
Date: Wed Jan 03 11:48:01 EST 2024
User: Yrep
Spectrometer: HR+D1059
Trigger mode: 1
Integration Time (sec): 1.000000E-1
Scans to average: 1
Electric dark correction enabled: true
Nonlinearity correction enabled: false
Boxcar width: 0
XAxis mode: Wavelengths
Number of Pixels in Spectrum: 2048
>>>>>Begin Spectral Data<<<<<
223.165	-32.56
223.4	-32.56
223.635	-32.56
223.869	-24.56
224.104	-17.56
224.338	-20.56
224.573	-12.56
224.808	-2.56
225.042	2.44
225.277	-5.56
225.511	1.44
225.746	2.44
225.98	-0.56
226.215	7.44
226.449	13.44
226.683	24.44
226.918	24.44
227.152	40.44
227.387	41.44
227.621	29.44
227.856	39.44
228.09	41.44
228.324	43.44
228.559	56.44
228.793	49.44
229.027	58.44
229.262	65.44
229.496	60.44
229.73	88.44
229.964	89.44
230.199	81.44
230.433	60.44
230.667	79.44
230.901	75.44
231.136	79.44
231.37	90.44
231.604	73.44
231.838	59.44
232.072	76.44
232.306	78.44
232.541	70.44
232.775	74.44
233.009	67.44
233.243	86.44
233.477	76.44
233.711	76.44
233.945	85.44
234.179	76.44
234.413	64.44
234.647	78.44
234.881	79.44
235.115	73.44
235.349	74.44
235.583	84.44
235.817	72.44
236.051	70.44
236.285	80.44
236.519	73.44
236.753	73.44
236.987	82.44
237.221	80.44
237.455	85.44
237.689	71.44
237.922	80.44
238.156	61.44
238.39	71.44
238.624	69.44
238.858	74.44
239.091	75.44
239.325	79.44
239.559	78.44
239.793	72.44
240.027	65.44
240.26	74.44
240.494	77.44
240.728	77.44
240.961	78.44
241.195	79.44
241.429	73.44
241.662	69.44
241.896	76.44
242.13	75.44
242.363	65.44
242.597	66.44
242.83	74.44
243.064	74.44
243.298	78.44
243.531	81.44
243.765	77.44
243.998	76.44
244.232	76.44
244.465	64.44
244.699	92.44
244.932	61.44
245.166	78.44
245.399	88.44
245.633	76.44
245.866	65.44
246.099	82.44
246.333	81.44
246.566	83.44
246.8	86.44
247.033	63.44
247.266	72.44
247.5	81.44
247.733	74.44
247.966	75.44
248.2	75.44
248.433	62.44
248.666	82.44
248.899	76.44
249.133	79.44
249.366	106.44
249.599	103.44
249.832	76.44
250.066	80.44
250.299	90.44
250.532	73.44
250.765	82.44
250.998	86.44
251.231	69.44
251.465	77.44
251.698	77.44
251.931	82.44
252.164	88.44
252.397	86.44
252.63	64.44
252.863	77.44
253.096	75.44
253.329	84.44
253.562	76.44
253.795	90.44
254.028	89.44
254.261	82.44
254.494	78.44
254.727	73.44
254.96	85.44
255.193	59.44
255.426	74.44
255.659	76.44
255.892	78.44
256.124	92.44
256.357	75.44
256.59	71.44
256.823	89.44
257.056	92.44
257.289	74.44
257.521	88.44
257.754	87.44
257.987	93.44
258.22	88.44
258.452	85.44
258.685	92.44
258.918	83.44
259.151	78.44
259.383	67.44
259.616	86.44
259.849	69.44
260.081	82.44
260.314	91.44
260.547	76.44
260.779	92.44
261.012	82.44
261.244	104.44
261.477	93.44
261.71	87.44
261.942	101.44
262.175	125.44
262.407	78.44
262.64	82.44
262.872	73.44
263.105	87.44
263.337	89.44
263.57	82.44
263.802	83.44
264.035	82.44
264.267	71.44
264.499	90.44
264.732	72.44
264.964	81.44
265.197	89.44
265.429	93.44
265.661	66.44
265.894	85.44
266.126	91.44
266.358	74.44
266.591	88.44
266.823	87.44
267.055	81.44
267.287	63.44
267.52	55.44
267.752	85.44
267.984	81.44
268.216	79.44
268.448	74.44
268.681	74.44
268.913	82.44
269.145	86.44
269.377	80.44
269.609	79.44
269.841	78.44
270.073	85.44
270.306	89.44
270.538	95.44
270.77	81.44
271.002	89.44
271.234	85.44
271.466	96.44
271.698	88.44
271.93	81.44
272.162	88.44
272.394	88.44
272.626	83.44
272.858	79.44
273.09	66.44
273.322	89.44
273.553	81.44
273.785	85.44
274.017	79.44
274.249	81.44
274.481	82.44
274.713	91.44
274.945	104.44
275.176	81.44
275.408	81.44
275.64	87.44
275.872	110.44
276.104	93.44
276.335	93.44
276.567	91.44
276.799	128.44
277.031	137.44
277.262	147.44
277.494	98.44
277.726	93.44
277.957	79.44
278.189	87.44
278.421	95.44
278.652	80.44
278.884	77.44
279.115	71.44
279.347	83.44
279.579	82.44
279.81	95.44
280.042	146.44
280.273	178.44
280.505	123.44
280.736	98.44
280.968	94.44
281.199	93.44
281.431	98.44
281.662	89.44
281.894	108.44
282.125	92.44
282.356	127.44
282.588	150.44
282.819	106.44
283.051	92.44
283.282	86.44
283.513	79.44
283.745	90.44
283.976	94.44
284.207	89.44
284.439	73.44
284.67	89.44
284.901	87.44
285.132	71.44
285.364	92.44
285.595	85.44
285.826	66.44
286.057	96.44
286.288	71.44
286.52	94.44
286.751	84.44
286.982	73.44
287.213	71.44
287.444	98.44
287.675	90.44
287.906	91.44
288.138	85.44
288.369	89.44
288.6	91.44
288.831	81.44
289.062	92.44
289.293	90.44
289.524	67.44
289.755	83.44
289.986	78.44
290.217	84.44
290.448	93.44
290.679	80.44
290.91	94.44
291.141	88.44
291.371	92.44
291.602	89.44
291.833	78.44
292.064	64.44
292.295	83.44
292.526	90.44
292.757	85.44
292.987	82.44
293.218	86.44
293.449	76.44
293.68	84.44
293.91	59.44
294.141	89.44
294.372	88.44
294.603	86.44
294.833	70.44
295.064	91.44
295.295	90.44
295.525	94.44
295.756	106.44
295.987	112.44
296.217	149.44
296.448	123.44
296.679	86.44
296.909	84.44
297.14	88.44
297.37	92.44
297.601	78.44
297.831	92.44
298.062	100.44
298.292	90.44
298.523	94.44
298.753	90.44
298.984	90.44
299.214	86.44
299.445	93.44
299.675	93.44
299.905	91.44
300.136	91.44
300.366	92.44
300.597	90.44
300.827	77.44
301.057	98.44
301.288	88.44
301.518	94.44
301.748	90.44
301.979	106.44
302.209	94.44
302.439	81.44
302.669	93.44
302.9	98.44
303.13	87.44
303.36	109.44
303.59	114.44
303.82	117.44
304.051	92.44
304.281	83.44
304.511	102.44
304.741	71.44
304.971	82.44
305.201	96.44
305.431	87.44
305.661	84.44
305.891	98.44
306.121	89.44
306.352	87.44
306.582	109.44
306.812	107.44
307.042	96.44
307.272	133.44
307.502	127.44
307.731	138.44
307.961	115.44
308.191	75.44
308.421	80.44
308.651	85.44
308.881	85.44
309.111	92.44
309.341	91.44
309.571	95.44
309.8	99.44
310.03	99.44
310.26	104.44
310.49	102.44
310.72	92.44
310.949	105.44
311.179	107.44
311.409	92.44
311.639	98.44
311.868	104.44
312.098	104.44
312.328	106.44
312.557	111.44
312.787	95.44
313.017	99.44
313.246	102.44
313.476	96.44
313.706	90.44
313.935	93.44
314.165	105.44
314.394	100.44
314.624	90.44
314.853	95.44
315.083	91.44
315.312	80.44
315.542	96.44
315.771	89.44
316.001	93.44
316.23	82.44
316.46	79.44
316.689	89.44
316.919	79.44
317.148	89.44
317.377	96.44
317.607	114.44
317.836	89.44
318.065	74.44
318.295	81.44
318.524	79.44
318.753	74.44
318.983	83.44
319.212	93.44
319.441	121.44
319.67	114.44
319.9	88.44
320.129	87.44
320.358	76.44
320.587	91.44
320.816	81.44
321.046	103.44
321.275	90.44
321.504	89.44
321.733	91.44
321.962	89.44
322.191	93.44
322.42	122.44
322.649	119.44
322.878	99.44
323.108	118.44
323.337	135.44
323.566	146.44
323.795	177.44
324.024	232.44
324.253	449.44
324.482	1043.44
324.71	2241.44
324.939	3058.44
325.168	1076.44
325.397	283.44
325.626	171.44
325.855	137.44
326.084	134.44
326.313	148.44
326.542	173.44
326.77	259.44
326.999	567.44
327.228	1200.44
327.457	2272.44
327.686	1836.44
327.914	524.44
328.143	388.44
328.372	472.44
328.6	267.44
328.829	162.44
329.058	167.44
329.287	159.44
329.515	166.44
329.744	217.44
329.972	333.44
330.201	679.44
330.43	973.44
330.658	430.44
330.887	245.44
331.115	162.44
331.344	108.44
331.572	110.44
331.801	110.44
332.03	109.44
332.258	102.44
332.486	93.44
332.715	102.44
332.943	91.44
333.172	116.44
333.4	117.44
333.629	125.44
333.857	193.44
334.085	317.44
334.314	616.44
334.542	1205.44
334.771	1145.44
334.999	307.44
335.227	129.44
335.455	113.44
335.684	95.44
335.912	94.44
336.14	107.44
336.369	97.44
336.597	115.44
336.825	111.44
337.053	81.44
337.281	90.44
337.51	98.44
337.738	89.44
337.966	106.44
338.194	103.44
338.422	81.44
338.65	78.44
338.878	90.44
339.106	100.44
339.334	92.44
339.562	94.44
339.79	92.44
340.018	86.44
340.246	95.44
340.474	87.44
340.702	88.44
340.93	93.44
341.158	86.44
341.386	89.44
341.614	88.44
341.842	87.44
342.07	92.44
342.298	95.44
342.526	86.44
342.754	86.44
342.981	87.44
343.209	90.44
343.437	97.44
343.665	100.44
343.893	87.44
344.12	82.44
344.348	94.44
344.576	93.44
344.804	89.44
345.031	104.44
345.259	102.44
345.487	80.44
345.714	106.44
345.942	101.44
346.17	94.44
346.397	95.44
346.625	95.44
346.853	83.44
347.08	86.44
347.308	97.44
347.535	96.44
347.763	103.44
347.99	102.44
348.218	102.44
348.445	118.44
348.673	96.44
348.9	96.44
349.128	87.44
349.355	98.44
349.583	101.44
349.81	94.44
350.037	96.44
350.265	94.44
350.492	109.44
350.72	91.44
350.947	102.44
351.174	110.44
351.402	101.44
351.629	94.44
351.856	93.44
352.083	115.44
352.311	105.44
352.538	107.44
352.765	114.44
352.992	126.44
353.22	106.44
353.447	89.44
353.674	95.44
353.901	82.44
354.128	92.44
354.355	87.44
354.583	89.44
354.81	91.44
355.037	94.44
355.264	87.44
355.491	86.44
355.718	106.44
355.945	75.44
356.172	93.44
356.399	94.44
356.626	91.44
356.853	97.44
357.08	86.44
357.307	99.44
357.534	87.44
357.761	86.44
357.988	109.44
358.215	96.44
358.441	88.44
358.668	87.44
358.895	80.44
359.122	73.44
359.349	87.44
359.576	97.44
359.802	112.44
360.029	114.44
360.256	122.44
360.483	107.44
360.709	85.44
360.936	83.44
361.163	83.44
361.39	95.44
361.616	96.44
361.843	96.44
362.07	99.44
362.296	99.44
362.523	97.44
362.749	95.44
362.976	88.44
363.203	81.44
363.429	88.44
363.656	104.44
363.882	91.44
364.109	99.44
364.335	98.44
364.562	82.44
364.788	84.44
365.015	93.44
365.241	96.44
365.468	109.44
365.694	112.44
365.92	109.44
366.147	87.44
366.373	92.44
366.599	97.44
366.826	85.44
367.052	103.44
367.278	89.44
367.505	86.44
367.731	86.44
367.957	98.44
368.184	94.44
368.41	111.44
368.636	89.44
368.862	117.44
369.089	106.44
369.315	95.44
369.541	78.44
369.767	76.44
369.993	96.44
370.219	95.44
370.445	80.44
370.672	96.44
370.898	88.44
371.124	89.44
371.35	82.44
371.576	82.44
371.802	80.44
372.028	81.44
372.254	75.44
372.48	85.44
372.706	73.44
372.932	84.44
373.158	80.44
373.384	83.44
373.61	103.44
373.835	102.44
374.061	81.44
374.287	91.44
374.513	89.44
374.739	85.44
374.965	78.44
375.191	81.44
375.416	79.44
375.642	94.44
375.868	70.44
376.094	79.44
376.319	80.44
376.545	88.44
376.771	92.44
376.997	88.44
377.222	91.44
377.448	87.44
377.674	89.44
377.899	84.44
378.125	94.44
378.35	103.44
378.576	79.44
378.802	79.44
379.027	83.44
379.253	88.44
379.478	103.44
379.704	87.44
379.929	82.44
380.155	95.44
380.38	75.44
380.606	92.44
380.831	97.44
381.057	91.44
381.282	87.44
381.507	95.44
381.733	98.44
381.958	101.44
382.184	89.44
382.409	85.44
382.634	94.44
382.86	88.44
383.085	88.44
383.31	102.44
383.535	101.44
383.761	102.44
383.986	95.44
384.211	102.44
384.436	109.44
384.662	92.44
384.887	103.44
385.112	98.44
385.337	98.44
385.562	105.44
385.787	107.44
386.013	103.44
386.238	114.44
386.463	109.44
386.688	100.44
386.913	102.44
387.138	114.44
387.363	106.44
387.588	93.44
387.813	110.44
388.038	104.44
388.263	109.44
388.488	101.44
388.713	86.44
388.938	105.44
389.163	94.44
389.387	83.44
389.612	91.44
389.837	96.44
390.062	82.44
390.287	88.44
390.512	79.44
390.736	87.44
390.961	91.44
391.186	86.44
391.411	95.44
391.636	81.44
391.86	78.44
392.085	89.44
392.31	81.44
392.534	79.44
392.759	88.44
392.984	86.44
393.208	88.44
393.433	90.44
393.658	79.44
393.882	93.44
394.107	78.44
394.331	88.44
394.556	89.44
394.78	97.44
395.005	92.44
395.229	89.44
395.454	97.44
395.678	84.44
395.903	94.44
396.127	90.44
396.352	71.44
396.576	88.44
396.801	81.44
397.025	77.44
397.249	83.44
397.474	88.44
397.698	76.44
397.922	87.44
398.147	74.44
398.371	76.44
398.595	91.44
398.82	95.44
399.044	88.44
399.268	83.44
399.492	80.44
399.717	92.44
399.941	73.44
400.165	90.44
400.389	86.44
400.613	89.44
400.837	85.44
401.062	87.44
401.286	86.44
401.51	91.44
401.734	76.44
401.958	96.44
402.182	130.44
402.406	176.44
402.63	129.44
402.854	97.44
403.078	90.44
403.302	99.44
403.526	87.44
403.75	87.44
403.974	95.44
404.198	86.44
404.422	94.44
404.645	81.44
404.869	93.44
405.093	107.44
405.317	137.44
405.541	122.44
405.765	116.44
405.988	133.44
406.212	175.44
406.436	225.44
406.66	155.44
406.883	99.44
407.107	98.44
407.331	99.44
407.555	103.44
407.778	93.44
408.002	99.44
408.226	105.44
408.449	91.44
408.673	81.44
408.896	79.44
409.12	86.44
409.344	93.44
409.567	91.44
409.791	91.44
410.014	78.44
410.238	89.44
410.461	95.44
410.685	89.44
410.908	96.44
411.132	109.44
411.355	100.44
411.578	99.44
411.802	95.44
412.025	85.44
412.249	103.44
412.472	97.44
412.695	132.44
412.919	121.44
413.142	92.44
413.365	80.44
413.589	97.44
413.812	88.44
414.035	90.44
414.258	78.44
414.482	84.44
414.705	85.44
414.928	94.44
415.151	94.44
415.374	93.44
415.597	87.44
415.821	95.44
416.044	101.44
416.267	88.44
416.49	87.44
416.713	91.44
416.936	85.44
417.159	93.44
417.382	89.44
417.605	98.44
417.828	87.44
418.051	87.44
418.274	90.44
418.497	86.44
418.72	87.44
418.943	93.44
419.166	92.44
419.389	93.44
419.611	106.44
419.834	82.44
420.057	95.44
420.28	89.44
420.503	96.44
420.726	89.44
420.948	87.44
421.171	102.44
421.394	98.44
421.617	81.44
421.839	77.44
422.062	91.44
422.285	89.44
422.507	100.44
422.73	111.44
422.953	95.44
423.175	87.44
423.398	71.44
423.621	76.44
423.843	82.44
424.066	88.44
424.288	73.44
424.511	109.44
424.733	98.44
424.956	121.44
425.178	114.44
425.401	125.44
425.623	107.44
425.846	101.44
426.068	90.44
426.291	90.44
426.513	90.44
426.735	91.44
426.958	97.44
427.18	124.44
427.402	161.44
427.625	217.44
427.847	213.44
428.069	210.44
428.292	120.44
428.514	103.44
428.736	86.44
428.958	71.44
429.181	101.44
429.403	99.44
429.625	95.44
429.847	96.44
430.069	128.44
430.292	92.44
430.514	87.44
430.736	75.44
430.958	95.44
431.18	82.44
431.402	82.44
431.624	72.44
431.846	69.44
432.068	88.44
432.29	84.44
432.512	65.44
432.734	91.44
432.956	92.44
433.178	93.44
433.4	121.44
433.622	93.44
433.844	94.44
434.066	88.44
434.287	84.44
434.509	88.44
434.731	75.44
434.953	78.44
435.175	76.44
435.397	92.44
435.618	83.44
435.84	111.44
436.062	120.44
436.284	136.44
436.505	107.44
436.727	93.44
436.949	90.44
437.17	82.44
437.392	82.44
437.614	83.44
437.835	130.44
438.057	127.44
438.278	105.44
438.5	117.44
438.721	137.44
438.943	110.44
439.165	87.44
439.386	77.44
439.608	90.44
439.829	110.44
440.05	158.44
440.272	168.44
440.493	123.44
440.715	94.44
440.936	97.44
441.158	88.44
441.379	94.44
441.6	105.44
441.822	78.44
442.043	101.44
442.264	114.44
442.486	126.44
442.707	84.44
442.928	91.44
443.149	152.44
443.371	147.44
443.592	124.44
443.813	121.44
444.034	107.44
444.255	81.44
444.476	85.44
444.698	91.44
444.919	94.44
445.14	126.44
445.361	128.44
445.582	120.44
445.803	174.44
446.024	186.44
446.245	170.44
446.466	126.44
446.687	110.44
446.908	96.44
447.129	73.44
447.35	91.44
447.571	90.44
447.792	96.44
448.013	113.44
448.234	113.44
448.455	123.44
448.675	121.44
448.896	142.44
449.117	96.44
449.338	106.44
449.559	125.44
449.779	144.44
450	94.44
450.221	93.44
450.442	93.44
450.662	96.44
450.883	117.44
451.104	120.44
451.324	100.44
451.545	80.44
451.766	77.44
451.986	79.44
452.207	94.44
452.428	99.44
452.648	104.44
452.869	113.44
453.089	104.44
453.31	117.44
453.53	103.44
453.751	93.44
453.971	107.44
454.192	119.44
454.412	99.44
454.633	85.44
454.853	87.44
455.073	76.44
455.294	86.44
455.514	98.44
455.734	98.44
455.955	80.44
456.175	81.44
456.395	78.44
456.616	88.44
456.836	81.44
457.056	75.44
457.276	85.44
457.497	71.44
457.717	89.44
457.937	92.44
458.157	86.44
458.377	88.44
458.598	118.44
458.818	169.44
459.038	197.44
459.258	129.44
459.478	108.44
459.698	78.44
459.918	79.44
460.138	85.44
460.358	66.44
460.578	95.44
460.798	91.44
461.018	95.44
461.238	85.44
461.458	91.44
461.678	75.44
461.898	81.44
462.118	86.44
462.338	87.44
462.558	69.44
462.777	88.44
462.997	83.44
463.217	104.44
463.437	92.44
463.657	83.44
463.876	88.44
464.096	85.44
464.316	105.44
464.536	88.44
464.755	105.44
464.975	121.44
465.195	180.44
465.414	205.44
465.634	96.44
465.854	92.44
466.073	87.44
466.293	88.44
466.512	69.44
466.732	81.44
466.951	89.44
467.171	95.44
467.391	112.44
467.61	131.44
467.829	167.44
468.049	378.44
468.268	543.44
468.488	183.44
468.707	91.44
468.927	75.44
469.146	79.44
469.365	84.44
469.585	88.44
469.804	92.44
470.023	96.44
470.243	81.44
470.462	106.44
470.681	130.44
470.901	98.44
471.12	94.44
471.339	98.44
471.558	100.44
471.777	115.44
471.997	220.44
472.216	736.44
472.435	1615.44
472.654	409.44
472.873	129.44
473.092	97.44
473.311	70.44
473.53	90.44
473.749	82.44
473.968	83.44
474.187	136.44
474.406	104.44
474.625	96.44
474.844	91.44
475.063	70.44
475.282	88.44
475.501	83.44
475.72	91.44
475.939	81.44
476.158	76.44
476.377	82.44
476.596	81.44
476.814	95.44
477.033	103.44
477.252	96.44
477.471	101.44
477.69	92.44
477.908	99.44
478.127	95.44
478.346	98.44
478.564	89.44
478.783	103.44
479.002	94.44
479.22	98.44
479.439	112.44
479.658	122.44
479.876	94.44
480.095	103.44
480.313	119.44
480.532	145.44
480.751	211.44
480.969	697.44
481.188	2894.44
481.406	1673.44
481.624	283.44
481.843	113.44
482.061	103.44
482.28	110.44
482.498	80.44
482.717	89.44
482.935	95.44
483.153	105.44
483.372	90.44
483.59	89.44
483.808	85.44
484.027	93.44
484.245	102.44
484.463	99.44
484.681	97.44
484.9	80.44
485.118	93.44
485.336	91.44
485.554	99.44
485.772	89.44
485.99	98.44
486.209	112.44
486.427	111.44
486.645	115.44
486.863	114.44
487.081	91.44
487.299	96.44
487.517	87.44
487.735	94.44
487.953	82.44
488.171	91.44
488.389	90.44
488.607	102.44
488.825	91.44
489.043	83.44
489.261	84.44
489.479	96.44
489.696	89.44
489.914	66.44
490.132	75.44
490.35	78.44
490.568	83.44
490.786	86.44
491.003	90.44
491.221	86.44
491.439	102.44
491.657	94.44
491.874	83.44
492.092	94.44
492.31	82.44
492.527	97.44
492.745	81.44
492.963	74.44
493.18	77.44
493.398	89.44
493.615	93.44
493.833	95.44
494.05	92.44
494.268	80.44
494.485	74.44
494.703	80.44
494.92	91.44
495.138	93.44
495.355	94.44
495.573	77.44
495.79	73.44
496.008	86.44
496.225	92.44
496.442	93.44
496.66	101.44
496.877	82.44
497.094	79.44
497.312	90.44
497.529	91.44
497.746	75.44
497.963	87.44
498.181	104.44
498.398	107.44
498.615	110.44
498.832	111.44
499.049	81.44
499.267	87.44
499.484	81.44
499.701	77.44
499.918	77.44
500.135	76.44
500.352	83.44
500.569	86.44
500.786	96.44
501.003	84.44
501.22	89.44
501.437	85.44
501.654	102.44
501.871	113.44
502.088	108.44
502.305	71.44
502.522	88.44
502.739	85.44
502.956	101.44
503.172	89.44
503.389	112.44
503.606	101.44
503.823	102.44
504.04	90.44
504.256	106.44
504.473	77.44
504.69	97.44
504.907	97.44
505.123	86.44
505.34	85.44
505.557	72.44
505.773	99.44
505.99	83.44
506.207	83.44
506.423	89.44
506.64	94.44
506.856	91.44
507.073	74.44
507.289	93.44
507.506	98.44
507.722	120.44
507.939	122.44
508.155	99.44
508.372	89.44
508.588	87.44
508.805	95.44
509.021	93.44
509.238	102.44
509.454	86.44
509.67	108.44
509.887	103.44
510.103	117.44
510.319	203.44
510.536	727.44
510.752	2371.44
510.968	674.44
511.184	157.44
511.401	126.44
511.617	96.44
511.833	95.44
512.049	103.44
512.265	88.44
512.481	90.44
512.698	82.44
512.914	98.44
513.13	95.44
513.346	90.44
513.562	83.44
513.778	97.44
513.994	91.44
514.21	101.44
514.426	123.44
514.642	173.44
514.858	152.44
515.074	197.44
