Data from Circ_1992_H10_HRD10591_00003.txt Node
Date: Wed Jan 03 11:47:45 EST 2024
User: Yrep
Spectrometer: HR+D1059
Trigger mode: 1
Integration Time (sec): 1.000000E-1
Scans to average: 1
Electric dark correction enabled: true
Nonlinearity correction enabled: false
Boxcar width: 0
XAxis mode: Wavelengths
Number of Pixels in Spectrum: 2048
>>>>>Begin Spectral Data<<<<<
223.165	-15.12
223.4	-15.12
223.635	-15.12
223.869	-12.12
224.104	-21.12
224.338	-12.12
224.573	-14.12
224.808	-8.12
225.042	-3.12
225.277	-1.12
225.511	-13.12
225.746	22.88
225.98	4.88
226.215	8.88
226.449	8.88
226.683	13.88
226.918	8.88
227.152	31.88
227.387	35.88
227.621	37.88
227.856	44.88
228.09	33.88
228.324	54.88
228.559	32.88
228.793	58.88
229.027	52.88
229.262	51.88
229.496	60.88
229.73	96.88
229.964	84.88
230.199	69.88
230.433	75.88
230.667	80.88
230.901	71.88
231.136	76.88
231.37	74.88
231.604	84.88
231.838	93.88
232.072	89.88
232.306	70.88
232.541	73.88
232.775	82.88
233.009	69.88
233.243	86.88
233.477	76.88
233.711	81.88
233.945	70.88
234.179	62.88
234.413	74.88
234.647	82.88
234.881	89.88
235.115	77.88
235.349	72.88
235.583	73.88
235.817	80.88
236.051	73.88
236.285	82.88
236.519	76.88
236.753	80.88
236.987	86.88
237.221	81.88
237.455	86.88
237.689	68.88
237.922	67.88
238.156	78.88
238.39	86.88
238.624	73.88
238.858	75.88
239.091	69.88
239.325	73.88
239.559	81.88
239.793	74.88
240.027	75.88
240.26	81.88
240.494	71.88
240.728	74.88
240.961	68.88
241.195	81.88
241.429	78.88
241.662	77.88
241.896	76.88
242.13	82.88
242.363	74.88
242.597	66.88
242.83	83.88
243.064	66.88
243.298	80.88
243.531	74.88
243.765	80.88
243.998	55.88
244.232	70.88
244.465	78.88
244.699	79.88
244.932	89.88
245.166	80.88
245.399	82.88
245.633	81.88
245.866	81.88
246.099	74.88
246.333	80.88
246.566	62.88
246.8	85.88
247.033	70.88
247.266	76.88
247.5	65.88
247.733	67.88
247.966	75.88
248.2	96.88
248.433	81.88
248.666	81.88
248.899	83.88
249.133	73.88
249.366	93.88
249.599	91.88
249.832	94.88
250.066	91.88
250.299	90.88
250.532	100.88
250.765	99.88
250.998	79.88
251.231	82.88
251.465	74.88
251.698	84.88
251.931	73.88
252.164	67.88
252.397	66.88
252.63	76.88
252.863	81.88
253.096	83.88
253.329	94.88
253.562	71.88
253.795	75.88
254.028	78.88
254.261	74.88
254.494	98.88
254.727	72.88
254.96	74.88
255.193	84.88
255.426	71.88
255.659	87.88
255.892	97.88
256.124	90.88
256.357	89.88
256.59	82.88
256.823	78.88
257.056	89.88
257.289	84.88
257.521	75.88
257.754	90.88
257.987	76.88
258.22	82.88
258.452	83.88
258.685	76.88
258.918	67.88
259.151	88.88
259.383	90.88
259.616	70.88
259.849	73.88
260.081	84.88
260.314	98.88
260.547	77.88
260.779	88.88
261.012	76.88
261.244	90.88
261.477	83.88
261.71	86.88
261.942	109.88
262.175	114.88
262.407	91.88
262.64	93.88
262.872	75.88
263.105	78.88
263.337	99.88
263.57	82.88
263.802	95.88
264.035	70.88
264.267	75.88
264.499	82.88
264.732	87.88
264.964	75.88
265.197	94.88
265.429	83.88
265.661	74.88
265.894	81.88
266.126	64.88
266.358	74.88
266.591	84.88
266.823	81.88
267.055	77.88
267.287	83.88
267.52	74.88
267.752	82.88
267.984	90.88
268.216	81.88
268.448	84.88
268.681	78.88
268.913	81.88
269.145	78.88
269.377	71.88
269.609	86.88
269.841	78.88
270.073	96.88
270.306	83.88
270.538	84.88
270.77	73.88
271.002	82.88
271.234	80.88
271.466	94.88
271.698	78.88
271.93	89.88
272.162	96.88
272.394	84.88
272.626	83.88
272.858	89.88
273.09	81.88
273.322	82.88
273.553	86.88
273.785	87.88
274.017	77.88
274.249	72.88
274.481	86.88
274.713	85.88
274.945	72.88
275.176	91.88
275.408	80.88
275.64	97.88
275.872	88.88
276.104	78.88
276.335	90.88
276.567	99.88
276.799	108.88
277.031	120.88
277.262	107.88
277.494	121.88
277.726	76.88
277.957	86.88
278.189	97.88
278.421	76.88
278.652	74.88
278.884	100.88
279.115	79.88
279.347	91.88
279.579	86.88
279.81	75.88
280.042	104.88
280.273	139.88
280.505	112.88
280.736	94.88
280.968	87.88
281.199	83.88
281.431	90.88
281.662	80.88
281.894	86.88
282.125	94.88
282.356	131.88
282.588	124.88
282.819	110.88
283.051	83.88
283.282	78.88
283.513	84.88
283.745	87.88
283.976	95.88
284.207	83.88
284.439	78.88
284.67	74.88
284.901	83.88
285.132	87.88
285.364	75.88
285.595	98.88
285.826	82.88
286.057	82.88
286.288	84.88
286.52	88.88
286.751	85.88
286.982	88.88
287.213	88.88
287.444	71.88
287.675	94.88
287.906	92.88
288.138	95.88
288.369	92.88
288.6	97.88
288.831	81.88
289.062	84.88
289.293	86.88
289.524	81.88
289.755	96.88
289.986	89.88
290.217	82.88
290.448	87.88
290.679	93.88
290.91	78.88
291.141	80.88
291.371	85.88
291.602	93.88
291.833	68.88
292.064	82.88
292.295	100.88
292.526	86.88
292.757	82.88
292.987	75.88
293.218	88.88
293.449	72.88
293.68	75.88
293.91	85.88
294.141	93.88
294.372	80.88
294.603	71.88
294.833	95.88
295.064	91.88
295.295	90.88
295.525	92.88
295.756	99.88
295.987	119.88
296.217	124.88
296.448	129.88
296.679	83.88
296.909	82.88
297.14	72.88
297.37	66.88
297.601	80.88
297.831	91.88
298.062	92.88
298.292	87.88
298.523	84.88
298.753	83.88
298.984	84.88
299.214	97.88
299.445	74.88
299.675	80.88
299.905	98.88
300.136	90.88
300.366	91.88
300.597	92.88
300.827	80.88
301.057	97.88
301.288	106.88
301.518	77.88
301.748	93.88
301.979	91.88
302.209	98.88
302.439	98.88
302.669	91.88
302.9	83.88
303.13	88.88
303.36	87.88
303.59	114.88
303.82	110.88
304.051	110.88
304.281	91.88
304.511	90.88
304.741	95.88
304.971	78.88
305.201	85.88
305.431	95.88
305.661	99.88
305.891	98.88
306.121	88.88
306.352	80.88
306.582	104.88
306.812	101.88
307.042	93.88
307.272	106.88
307.502	129.88
307.731	110.88
307.961	86.88
308.191	94.88
308.421	89.88
308.651	76.88
308.881	89.88
309.111	104.88
309.341	97.88
309.571	98.88
309.8	95.88
310.03	97.88
310.26	112.88
310.49	98.88
310.72	98.88
310.949	102.88
311.179	92.88
311.409	92.88
311.639	88.88
311.868	94.88
312.098	92.88
312.328	100.88
312.557	90.88
312.787	94.88
313.017	105.88
313.246	91.88
313.476	96.88
313.706	94.88
313.935	103.88
314.165	88.88
314.394	103.88
314.624	96.88
314.853	91.88
315.083	100.88
315.312	79.88
315.542	78.88
315.771	91.88
316.001	89.88
316.23	87.88
316.46	86.88
316.689	97.88
316.919	79.88
317.148	86.88
317.377	98.88
317.607	94.88
317.836	86.88
318.065	98.88
318.295	82.88
318.524	101.88
318.753	83.88
318.983	86.88
319.212	89.88
319.441	99.88
319.67	97.88
319.9	89.88
320.129	88.88
320.358	88.88
320.587	97.88
320.816	92.88
321.046	95.88
321.275	103.88
321.504	97.88
321.733	95.88
321.962	87.88
322.191	111.88
322.42	103.88
322.649	111.88
322.878	111.88
323.108	122.88
323.337	136.88
323.566	130.88
323.795	155.88
324.024	192.88
324.253	394.88
324.482	816.88
324.71	1713.88
324.939	2354.88
325.168	864.88
325.397	247.88
325.626	151.88
325.855	134.88
326.084	126.88
326.313	137.88
326.542	146.88
326.77	225.88
326.999	472.88
327.228	943.88
327.457	1800.88
327.686	1434.88
327.914	414.88
328.143	266.88
328.372	280.88
328.6	187.88
328.829	135.88
329.058	151.88
329.287	161.88
329.515	102.88
329.744	150.88
329.972	202.88
330.201	331.88
330.43	480.88
330.658	255.88
330.887	187.88
331.115	141.88
331.344	100.88
331.572	110.88
331.801	118.88
332.03	121.88
332.258	100.88
332.486	103.88
332.715	108.88
332.943	100.88
333.172	107.88
333.4	98.88
333.629	115.88
333.857	126.88
334.085	201.88
334.314	315.88
334.542	576.88
334.771	567.88
334.999	202.88
335.227	134.88
335.455	96.88
335.684	110.88
335.912	98.88
336.14	94.88
336.369	77.88
336.597	96.88
336.825	96.88
337.053	92.88
337.281	88.88
337.51	96.88
337.738	88.88
337.966	98.88
338.194	94.88
338.422	103.88
338.65	89.88
338.878	86.88
339.106	70.88
339.334	86.88
339.562	91.88
339.79	83.88
340.018	95.88
340.246	94.88
340.474	90.88
340.702	94.88
340.93	99.88
341.158	74.88
341.386	95.88
341.614	100.88
341.842	97.88
342.07	92.88
342.298	103.88
342.526	93.88
342.754	92.88
342.981	86.88
343.209	86.88
343.437	105.88
343.665	78.88
343.893	87.88
344.12	81.88
344.348	87.88
344.576	98.88
344.804	99.88
345.031	99.88
345.259	92.88
345.487	83.88
345.714	97.88
345.942	92.88
346.17	97.88
346.397	86.88
346.625	98.88
346.853	90.88
347.08	97.88
347.308	110.88
347.535	107.88
347.763	100.88
347.99	78.88
348.218	93.88
348.445	109.88
348.673	106.88
348.9	109.88
349.128	92.88
349.355	91.88
349.583	97.88
349.81	94.88
350.037	96.88
350.265	91.88
350.492	93.88
350.72	93.88
350.947	103.88
351.174	100.88
351.402	96.88
351.629	100.88
351.856	89.88
352.083	97.88
352.311	101.88
352.538	116.88
352.765	100.88
352.992	95.88
353.22	111.88
353.447	108.88
353.674	83.88
353.901	97.88
354.128	93.88
354.355	91.88
354.583	104.88
354.81	99.88
355.037	90.88
355.264	75.88
355.491	93.88
355.718	88.88
355.945	98.88
356.172	102.88
356.399	107.88
356.626	93.88
356.853	91.88
357.08	82.88
357.307	90.88
357.534	85.88
357.761	103.88
357.988	122.88
358.215	98.88
358.441	108.88
358.668	103.88
358.895	110.88
359.122	91.88
359.349	84.88
359.576	87.88
359.802	91.88
360.029	116.88
360.256	128.88
360.483	109.88
360.709	102.88
360.936	101.88
361.163	94.88
361.39	104.88
361.616	88.88
361.843	84.88
362.07	89.88
362.296	106.88
362.523	90.88
362.749	90.88
362.976	75.88
363.203	73.88
363.429	72.88
363.656	88.88
363.882	106.88
364.109	71.88
364.335	102.88
364.562	88.88
364.788	86.88
365.015	81.88
365.241	95.88
365.468	106.88
365.694	96.88
365.92	90.88
366.147	88.88
366.373	88.88
366.599	82.88
366.826	90.88
367.052	95.88
367.278	98.88
367.505	84.88
367.731	81.88
367.957	70.88
368.184	86.88
368.41	93.88
368.636	120.88
368.862	106.88
369.089	103.88
369.315	105.88
369.541	78.88
369.767	98.88
369.993	95.88
370.219	86.88
370.445	92.88
370.672	75.88
370.898	76.88
371.124	77.88
371.35	82.88
371.576	88.88
371.802	90.88
372.028	94.88
372.254	84.88
372.48	91.88
372.706	96.88
372.932	74.88
373.158	101.88
373.384	94.88
373.61	93.88
373.835	81.88
374.061	95.88
374.287	82.88
374.513	74.88
374.739	84.88
374.965	94.88
375.191	98.88
375.416	97.88
375.642	109.88
375.868	90.88
376.094	89.88
376.319	90.88
376.545	78.88
376.771	88.88
376.997	102.88
377.222	98.88
377.448	94.88
377.674	90.88
377.899	94.88
378.125	96.88
378.35	100.88
378.576	89.88
378.802	94.88
379.027	106.88
379.253	104.88
379.478	105.88
379.704	89.88
379.929	97.88
380.155	98.88
380.38	112.88
380.606	95.88
380.831	93.88
381.057	114.88
381.282	104.88
381.507	112.88
381.733	111.88
381.958	113.88
382.184	115.88
382.409	105.88
382.634	126.88
382.86	104.88
383.085	111.88
383.31	112.88
383.535	129.88
383.761	126.88
383.986	126.88
384.211	121.88
384.436	126.88
384.662	131.88
384.887	157.88
385.112	163.88
385.337	137.88
385.562	152.88
385.787	131.88
386.013	150.88
386.238	165.88
386.463	154.88
386.688	140.88
386.913	146.88
387.138	135.88
387.363	154.88
387.588	104.88
387.813	126.88
388.038	159.88
388.263	176.88
388.488	155.88
388.713	108.88
388.938	90.88
389.163	106.88
389.387	83.88
389.612	82.88
389.837	82.88
390.062	90.88
390.287	86.88
390.512	96.88
390.736	84.88
390.961	88.88
391.186	80.88
391.411	83.88
391.636	88.88
391.86	84.88
392.085	83.88
392.31	79.88
392.534	80.88
392.759	84.88
392.984	81.88
393.208	72.88
393.433	97.88
393.658	92.88
393.882	89.88
394.107	81.88
394.331	86.88
394.556	86.88
394.78	81.88
395.005	75.88
395.229	79.88
395.454	81.88
395.678	82.88
395.903	101.88
396.127	106.88
396.352	91.88
396.576	80.88
396.801	89.88
397.025	77.88
397.249	86.88
397.474	92.88
397.698	89.88
397.922	79.88
398.147	79.88
398.371	81.88
398.595	75.88
398.82	74.88
399.044	82.88
399.268	81.88
399.492	79.88
399.717	91.88
399.941	91.88
400.165	82.88
400.389	101.88
400.613	74.88
400.837	89.88
401.062	91.88
401.286	89.88
401.51	87.88
401.734	107.88
401.958	83.88
402.182	113.88
402.406	139.88
402.63	113.88
402.854	89.88
403.078	88.88
403.302	88.88
403.526	86.88
403.75	72.88
403.974	77.88
404.198	94.88
404.422	78.88
404.645	83.88
404.869	94.88
405.093	99.88
405.317	110.88
405.541	114.88
405.765	103.88
405.988	101.88
406.212	159.88
406.436	216.88
406.66	167.88
406.883	106.88
407.107	93.88
407.331	102.88
407.555	118.88
407.778	107.88
408.002	84.88
408.226	94.88
408.449	72.88
408.673	95.88
408.896	98.88
409.12	100.88
409.344	80.88
409.567	89.88
409.791	79.88
410.014	94.88
410.238	95.88
410.461	87.88
410.685	77.88
410.908	100.88
411.132	106.88
411.355	93.88
411.578	91.88
411.802	98.88
412.025	96.88
412.249	94.88
412.472	105.88
412.695	126.88
412.919	94.88
413.142	100.88
413.365	79.88
413.589	91.88
413.812	83.88
414.035	79.88
414.258	94.88
414.482	100.88
414.705	73.88
414.928	96.88
415.151	95.88
415.374	98.88
415.597	99.88
415.821	89.88
416.044	72.88
416.267	86.88
416.49	95.88
416.713	80.88
416.936	92.88
417.159	76.88
417.382	74.88
417.605	103.88
417.828	100.88
418.051	80.88
418.274	100.88
418.497	86.88
418.72	94.88
418.943	84.88
419.166	82.88
419.389	83.88
419.611	96.88
419.834	92.88
420.057	79.88
420.28	84.88
420.503	75.88
420.726	83.88
420.948	85.88
421.171	107.88
421.394	82.88
421.617	102.88
421.839	95.88
422.062	93.88
422.285	77.88
422.507	99.88
422.73	107.88
422.953	84.88
423.175	87.88
423.398	88.88
423.621	64.88
423.843	86.88
424.066	84.88
424.288	86.88
424.511	88.88
424.733	102.88
424.956	117.88
425.178	99.88
425.401	95.88
425.623	101.88
425.846	96.88
426.068	79.88
426.291	88.88
426.513	73.88
426.735	97.88
426.958	97.88
427.18	108.88
427.402	147.88
427.625	203.88
427.847	168.88
428.069	160.88
428.292	126.88
428.514	99.88
428.736	84.88
428.958	82.88
429.181	84.88
429.403	74.88
429.625	83.88
429.847	110.88
430.069	99.88
430.292	86.88
430.514	91.88
430.736	87.88
430.958	86.88
431.18	86.88
431.402	83.88
431.624	89.88
431.846	84.88
432.068	84.88
432.29	83.88
432.512	90.88
432.734	77.88
432.956	104.88
433.178	108.88
433.4	101.88
433.622	81.88
433.844	66.88
434.066	89.88
434.287	83.88
434.509	91.88
434.731	83.88
434.953	70.88
435.175	90.88
435.397	87.88
435.618	86.88
435.84	104.88
436.062	122.88
436.284	123.88
436.505	116.88
436.727	105.88
436.949	87.88
437.17	76.88
437.392	90.88
437.614	73.88
437.835	114.88
438.057	127.88
438.278	137.88
438.5	121.88
438.721	144.88
438.943	110.88
439.165	89.88
439.386	86.88
439.608	106.88
439.829	103.88
440.05	129.88
440.272	173.88
440.493	113.88
440.715	100.88
440.936	71.88
441.158	90.88
441.379	81.88
441.6	96.88
441.822	94.88
442.043	94.88
442.264	108.88
442.486	100.88
442.707	99.88
442.928	115.88
443.149	148.88
443.371	150.88
443.592	117.88
443.813	120.88
444.034	108.88
444.255	80.88
444.476	94.88
444.698	84.88
444.919	92.88
445.14	123.88
445.361	140.88
445.582	129.88
445.803	154.88
446.024	174.88
446.245	153.88
446.466	118.88
446.687	97.88
446.908	86.88
447.129	85.88
447.35	88.88
447.571	87.88
447.792	72.88
448.013	99.88
448.234	94.88
448.455	110.88
448.675	126.88
448.896	130.88
449.117	111.88
449.338	104.88
449.559	133.88
449.779	136.88
450	89.88
450.221	78.88
450.442	83.88
450.662	95.88
450.883	116.88
451.104	108.88
451.324	94.88
451.545	84.88
451.766	75.88
451.986	97.88
452.207	86.88
452.428	83.88
452.648	89.88
452.869	104.88
453.089	102.88
453.31	103.88
453.53	92.88
453.751	75.88
453.971	101.88
454.192	115.88
454.412	101.88
454.633	90.88
454.853	82.88
455.073	82.88
455.294	89.88
455.514	97.88
455.734	94.88
455.955	83.88
456.175	77.88
456.395	81.88
456.616	78.88
456.836	73.88
457.056	86.88
457.276	76.88
457.497	91.88
457.717	93.88
457.937	78.88
458.157	82.88
458.377	90.88
458.598	91.88
458.818	155.88
459.038	176.88
459.258	143.88
459.478	97.88
459.698	76.88
459.918	84.88
460.138	80.88
460.358	78.88
460.578	97.88
460.798	82.88
461.018	85.88
461.238	93.88
461.458	87.88
461.678	81.88
461.898	88.88
462.118	99.88
462.338	87.88
462.558	73.88
462.777	84.88
462.997	88.88
463.217	83.88
463.437	74.88
463.657	91.88
463.876	72.88
464.096	86.88
464.316	91.88
464.536	97.88
464.755	94.88
464.975	101.88
465.195	161.88
465.414	171.88
465.634	98.88
465.854	93.88
466.073	86.88
466.293	94.88
466.512	82.88
466.732	89.88
466.951	78.88
467.171	82.88
467.391	92.88
467.61	105.88
467.829	122.88
468.049	197.88
468.268	266.88
468.488	102.88
468.707	74.88
468.927	80.88
469.146	81.88
469.365	68.88
469.585	81.88
469.804	102.88
470.023	80.88
470.243	84.88
470.462	100.88
470.681	120.88
470.901	101.88
471.12	99.88
471.339	94.88
471.558	101.88
471.777	98.88
471.997	136.88
472.216	342.88
472.435	688.88
472.654	218.88
472.873	96.88
473.092	102.88
473.311	82.88
473.53	102.88
473.749	84.88
473.968	95.88
474.187	100.88
474.406	100.88
474.625	78.88
474.844	86.88
475.063	84.88
475.282	75.88
475.501	93.88
475.72	98.88
475.939	75.88
476.158	80.88
476.377	76.88
476.596	90.88
476.814	96.88
477.033	82.88
477.252	91.88
477.471	67.88
477.69	82.88
477.908	83.88
478.127	85.88
478.346	100.88
478.564	84.88
478.783	94.88
479.002	97.88
479.22	83.88
479.439	99.88
479.658	118.88
479.876	109.88
480.095	101.88
480.313	102.88
480.532	104.88
480.751	151.88
480.969	318.88
481.188	1171.88
481.406	753.88
481.624	167.88
481.843	96.88
482.061	90.88
482.28	87.88
482.498	95.88
482.717	77.88
482.935	78.88
483.153	86.88
483.372	91.88
483.59	94.88
483.808	82.88
484.027	91.88
484.245	85.88
484.463	95.88
484.681	91.88
484.9	90.88
485.118	86.88
485.336	90.88
485.554	96.88
485.772	104.88
485.99	107.88
486.209	103.88
486.427	107.88
486.645	117.88
486.863	112.88
487.081	108.88
487.299	98.88
487.517	101.88
487.735	90.88
487.953	94.88
488.171	103.88
488.389	93.88
488.607	85.88
488.825	86.88
489.043	95.88
489.261	96.88
489.479	91.88
489.696	78.88
489.914	97.88
490.132	68.88
490.35	83.88
490.568	76.88
490.786	86.88
491.003	85.88
491.221	77.88
491.439	74.88
491.657	73.88
491.874	89.88
492.092	87.88
492.31	86.88
492.527	78.88
492.745	103.88
492.963	89.88
493.18	85.88
493.398	93.88
493.615	88.88
493.833	88.88
494.05	85.88
494.268	94.88
494.485	79.88
494.703	68.88
494.92	94.88
495.138	97.88
495.355	73.88
495.573	86.88
495.79	81.88
496.008	102.88
496.225	102.88
496.442	106.88
496.66	91.88
496.877	90.88
497.094	91.88
497.312	95.88
497.529	92.88
497.746	92.88
497.963	91.88
498.181	82.88
498.398	102.88
498.615	105.88
498.832	97.88
499.049	87.88
499.267	88.88
499.484	90.88
499.701	100.88
499.918	84.88
500.135	77.88
500.352	89.88
500.569	77.88
500.786	85.88
501.003	92.88
501.22	96.88
501.437	92.88
501.654	84.88
501.871	97.88
502.088	96.88
502.305	90.88
502.522	96.88
502.739	96.88
502.956	79.88
503.172	87.88
503.389	103.88
503.606	119.88
503.823	107.88
504.04	92.88
504.256	99.88
504.473	86.88
504.69	95.88
504.907	95.88
505.123	83.88
505.34	88.88
505.557	89.88
505.773	103.88
505.99	87.88
506.207	84.88
506.423	79.88
506.64	81.88
506.856	89.88
507.073	93.88
507.289	77.88
507.506	86.88
507.722	114.88
507.939	116.88
508.155	92.88
508.372	78.88
508.588	98.88
508.805	90.88
509.021	98.88
509.238	97.88
509.454	86.88
509.67	94.88
509.887	104.88
510.103	115.88
510.319	199.88
510.536	652.88
510.752	2126.88
510.968	598.88
511.184	144.88
511.401	116.88
511.617	103.88
511.833	107.88
512.049	82.88
512.265	82.88
512.481	90.88
512.698	83.88
512.914	93.88
513.13	92.88
513.346	87.88
513.562	97.88
513.778	83.88
513.994	91.88
514.21	99.88
514.426	123.88
514.642	151.88
514.858	141.88
515.074	179.88
515.29	467.88
