Data from Circ_1992_H10_HRD10591_00086.txt Node
Date: Wed Jan 03 11:48:02 EST 2024
User: Yrep
Spectrometer: HR+D1059
Trigger mode: 1
Integration Time (sec): 1.000000E-1
Scans to average: 1
Electric dark correction enabled: true
Nonlinearity correction enabled: false
Boxcar width: 0
XAxis mode: Wavelengths
Number of Pixels in Spectrum: 2048
>>>>>Begin Spectral Data<<<<<
223.165	-19.5
223.4	-19.5
223.635	-19.5
223.869	-30.5
224.104	-24.5
224.338	-19.5
224.573	-10.5
224.808	-12.5
225.042	-14.5
225.277	-3.5
225.511	-1.5
225.746	0.5
225.98	23.5
226.215	20.5
226.449	13.5
226.683	14.5
226.918	31.5
227.152	32.5
227.387	33.5
227.621	33.5
227.856	41.5
228.09	48.5
228.324	56.5
228.559	52.5
228.793	52.5
229.027	68.5
229.262	47.5
229.496	75.5
229.73	73.5
229.964	80.5
230.199	74.5
230.433	72.5
230.667	79.5
230.901	74.5
231.136	75.5
231.37	72.5
231.604	77.5
231.838	94.5
232.072	77.5
232.306	69.5
232.541	78.5
232.775	80.5
233.009	91.5
233.243	88.5
233.477	66.5
233.711	95.5
233.945	75.5
234.179	80.5
234.413	99.5
234.647	85.5
234.881	81.5
235.115	75.5
235.349	83.5
235.583	81.5
235.817	83.5
236.051	78.5
236.285	95.5
236.519	84.5
236.753	80.5
236.987	85.5
237.221	85.5
237.455	88.5
237.689	69.5
237.922	77.5
238.156	78.5
238.39	88.5
238.624	69.5
238.858	72.5
239.091	63.5
239.325	86.5
239.559	84.5
239.793	93.5
240.027	79.5
240.26	82.5
240.494	78.5
240.728	66.5
240.961	89.5
241.195	89.5
241.429	66.5
241.662	70.5
241.896	81.5
242.13	55.5
242.363	70.5
242.597	54.5
242.83	73.5
243.064	82.5
243.298	77.5
243.531	75.5
243.765	81.5
243.998	72.5
244.232	91.5
244.465	84.5
244.699	80.5
244.932	74.5
245.166	85.5
245.399	80.5
245.633	78.5
245.866	72.5
246.099	71.5
246.333	73.5
246.566	92.5
246.8	76.5
247.033	74.5
247.266	79.5
247.5	78.5
247.733	92.5
247.966	85.5
248.2	86.5
248.433	86.5
248.666	75.5
248.899	91.5
249.133	93.5
249.366	97.5
249.599	103.5
249.832	91.5
250.066	83.5
250.299	87.5
250.532	76.5
250.765	73.5
250.998	61.5
251.231	80.5
251.465	85.5
251.698	69.5
251.931	59.5
252.164	88.5
252.397	78.5
252.63	81.5
252.863	93.5
253.096	94.5
253.329	80.5
253.562	82.5
253.795	88.5
254.028	86.5
254.261	73.5
254.494	72.5
254.727	69.5
254.96	69.5
255.193	81.5
255.426	80.5
255.659	74.5
255.892	81.5
256.124	89.5
256.357	83.5
256.59	80.5
256.823	73.5
257.056	88.5
257.289	91.5
257.521	83.5
257.754	82.5
257.987	98.5
258.22	88.5
258.452	96.5
258.685	98.5
258.918	90.5
259.151	87.5
259.383	78.5
259.616	84.5
259.849	80.5
260.081	90.5
260.314	77.5
260.547	83.5
260.779	80.5
261.012	96.5
261.244	91.5
261.477	93.5
261.71	86.5
261.942	101.5
262.175	114.5
262.407	84.5
262.64	82.5
262.872	88.5
263.105	86.5
263.337	83.5
263.57	81.5
263.802	94.5
264.035	87.5
264.267	68.5
264.499	81.5
264.732	81.5
264.964	95.5
265.197	81.5
265.429	71.5
265.661	89.5
265.894	88.5
266.126	82.5
266.358	84.5
266.591	83.5
266.823	80.5
267.055	86.5
267.287	80.5
267.52	84.5
267.752	90.5
267.984	96.5
268.216	75.5
268.448	96.5
268.681	86.5
268.913	75.5
269.145	90.5
269.377	78.5
269.609	89.5
269.841	85.5
270.073	84.5
270.306	81.5
270.538	83.5
270.77	76.5
271.002	89.5
271.234	91.5
271.466	93.5
271.698	86.5
271.93	88.5
272.162	80.5
272.394	86.5
272.626	97.5
272.858	98.5
273.09	88.5
273.322	88.5
273.553	84.5
273.785	81.5
274.017	80.5
274.249	80.5
274.481	89.5
274.713	80.5
274.945	85.5
275.176	95.5
275.408	74.5
275.64	97.5
275.872	103.5
276.104	99.5
276.335	98.5
276.567	113.5
276.799	127.5
277.031	125.5
277.262	130.5
277.494	106.5
277.726	100.5
277.957	82.5
278.189	90.5
278.421	83.5
278.652	70.5
278.884	95.5
279.115	94.5
279.347	95.5
279.579	111.5
279.81	105.5
280.042	134.5
280.273	164.5
280.505	134.5
280.736	92.5
280.968	101.5
281.199	88.5
281.431	82.5
281.662	89.5
281.894	88.5
282.125	99.5
282.356	97.5
282.588	123.5
282.819	116.5
283.051	91.5
283.282	106.5
283.513	89.5
283.745	84.5
283.976	97.5
284.207	84.5
284.439	94.5
284.67	88.5
284.901	91.5
285.132	84.5
285.364	80.5
285.595	86.5
285.826	90.5
286.057	105.5
286.288	78.5
286.52	94.5
286.751	87.5
286.982	96.5
287.213	80.5
287.444	82.5
287.675	81.5
287.906	82.5
288.138	98.5
288.369	101.5
288.6	105.5
288.831	101.5
289.062	86.5
289.293	89.5
289.524	84.5
289.755	91.5
289.986	90.5
290.217	88.5
290.448	88.5
290.679	79.5
290.91	92.5
291.141	89.5
291.371	100.5
291.602	69.5
291.833	92.5
292.064	88.5
292.295	77.5
292.526	83.5
292.757	85.5
292.987	77.5
293.218	77.5
293.449	94.5
293.68	89.5
293.91	84.5
294.141	94.5
294.372	86.5
294.603	81.5
294.833	96.5
295.064	76.5
295.295	76.5
295.525	94.5
295.756	100.5
295.987	110.5
296.217	139.5
296.448	120.5
296.679	91.5
296.909	76.5
297.14	85.5
297.37	101.5
297.601	107.5
297.831	92.5
298.062	88.5
298.292	90.5
298.523	92.5
298.753	81.5
298.984	92.5
299.214	90.5
299.445	92.5
299.675	105.5
299.905	92.5
300.136	101.5
300.366	77.5
300.597	92.5
300.827	95.5
301.057	118.5
301.288	94.5
301.518	114.5
301.748	87.5
301.979	101.5
302.209	103.5
302.439	110.5
302.669	80.5
302.9	94.5
303.13	88.5
303.36	83.5
303.59	94.5
303.82	121.5
304.051	91.5
304.281	79.5
304.511	83.5
304.741	92.5
304.971	69.5
305.201	88.5
305.431	82.5
305.661	85.5
305.891	93.5
306.121	95.5
306.352	115.5
306.582	114.5
306.812	100.5
307.042	107.5
307.272	123.5
307.502	149.5
307.731	133.5
307.961	110.5
308.191	112.5
308.421	98.5
308.651	86.5
308.881	96.5
309.111	102.5
309.341	90.5
309.571	116.5
309.8	99.5
310.03	101.5
310.26	89.5
310.49	108.5
310.72	82.5
310.949	112.5
311.179	123.5
311.409	103.5
311.639	85.5
311.868	102.5
312.098	100.5
312.328	101.5
312.557	100.5
312.787	113.5
313.017	94.5
313.246	86.5
313.476	99.5
313.706	76.5
313.935	100.5
314.165	96.5
314.394	101.5
314.624	96.5
314.853	98.5
315.083	98.5
315.312	83.5
315.542	101.5
315.771	90.5
316.001	85.5
316.23	84.5
316.46	96.5
316.689	92.5
316.919	95.5
317.148	98.5
317.377	91.5
317.607	95.5
317.836	91.5
318.065	89.5
318.295	86.5
318.524	96.5
318.753	92.5
318.983	102.5
319.212	101.5
319.441	89.5
319.67	114.5
319.9	92.5
320.129	100.5
320.358	88.5
320.587	94.5
320.816	92.5
321.046	98.5
321.275	81.5
321.504	90.5
321.733	107.5
321.962	98.5
322.191	112.5
322.42	103.5
322.649	117.5
322.878	108.5
323.108	124.5
323.337	127.5
323.566	129.5
323.795	160.5
324.024	218.5
324.253	438.5
324.482	953.5
324.71	1985.5
324.939	2661.5
325.168	942.5
325.397	261.5
325.626	146.5
325.855	148.5
326.084	132.5
326.313	143.5
326.542	162.5
326.77	245.5
326.999	512.5
327.228	1078.5
327.457	2064.5
327.686	1625.5
327.914	489.5
328.143	360.5
328.372	432.5
328.6	251.5
328.829	163.5
329.058	147.5
329.287	150.5
329.515	145.5
329.744	182.5
329.972	308.5
330.201	570.5
330.43	832.5
330.658	399.5
330.887	206.5
331.115	141.5
331.344	104.5
331.572	110.5
331.801	112.5
332.03	123.5
332.258	122.5
332.486	100.5
332.715	111.5
332.943	125.5
333.172	105.5
333.4	98.5
333.629	129.5
333.857	181.5
334.085	283.5
334.314	554.5
334.542	1033.5
334.771	1006.5
334.999	276.5
335.227	144.5
335.455	119.5
335.684	113.5
335.912	98.5
336.14	113.5
336.369	112.5
336.597	96.5
336.825	113.5
337.053	102.5
337.281	99.5
337.51	105.5
337.738	89.5
337.966	86.5
338.194	96.5
338.422	101.5
338.65	90.5
338.878	108.5
339.106	101.5
339.334	84.5
339.562	93.5
339.79	99.5
340.018	105.5
340.246	82.5
340.474	101.5
340.702	99.5
340.93	98.5
341.158	95.5
341.386	86.5
341.614	105.5
341.842	92.5
342.07	88.5
342.298	81.5
342.526	91.5
342.754	86.5
342.981	88.5
343.209	90.5
343.437	116.5
343.665	98.5
343.893	97.5
344.12	86.5
344.348	93.5
344.576	85.5
344.804	92.5
345.031	108.5
345.259	88.5
345.487	89.5
345.714	90.5
345.942	91.5
346.17	94.5
346.397	88.5
346.625	104.5
346.853	104.5
347.08	85.5
347.308	84.5
347.535	99.5
347.763	97.5
347.99	96.5
348.218	96.5
348.445	105.5
348.673	106.5
348.9	100.5
349.128	106.5
349.355	99.5
349.583	98.5
349.81	94.5
350.037	90.5
350.265	91.5
350.492	94.5
350.72	92.5
350.947	97.5
351.174	107.5
351.402	122.5
351.629	104.5
351.856	112.5
352.083	102.5
352.311	120.5
352.538	115.5
352.765	110.5
352.992	121.5
353.22	94.5
353.447	99.5
353.674	112.5
353.901	100.5
354.128	97.5
354.355	89.5
354.583	107.5
354.81	88.5
355.037	104.5
355.264	93.5
355.491	68.5
355.718	94.5
355.945	90.5
356.172	101.5
356.399	83.5
356.626	76.5
356.853	81.5
357.08	80.5
357.307	84.5
357.534	88.5
357.761	97.5
357.988	89.5
358.215	85.5
358.441	94.5
358.668	77.5
358.895	86.5
359.122	92.5
359.349	78.5
359.576	89.5
359.802	87.5
360.029	113.5
360.256	109.5
360.483	99.5
360.709	92.5
360.936	90.5
361.163	93.5
361.39	101.5
361.616	103.5
361.843	98.5
362.07	107.5
362.296	98.5
362.523	89.5
362.749	90.5
362.976	91.5
363.203	84.5
363.429	93.5
363.656	106.5
363.882	93.5
364.109	95.5
364.335	96.5
364.562	92.5
364.788	91.5
365.015	82.5
365.241	102.5
365.468	111.5
365.694	107.5
365.92	105.5
366.147	93.5
366.373	94.5
366.599	85.5
366.826	87.5
367.052	90.5
367.278	92.5
367.505	101.5
367.731	98.5
367.957	80.5
368.184	93.5
368.41	90.5
368.636	108.5
368.862	116.5
369.089	103.5
369.315	99.5
369.541	93.5
369.767	82.5
369.993	89.5
370.219	97.5
370.445	96.5
370.672	65.5
370.898	90.5
371.124	91.5
371.35	102.5
371.576	80.5
371.802	85.5
372.028	87.5
372.254	96.5
372.48	93.5
372.706	80.5
372.932	88.5
373.158	94.5
373.384	90.5
373.61	85.5
373.835	91.5
374.061	95.5
374.287	89.5
374.513	92.5
374.739	90.5
374.965	93.5
375.191	92.5
375.416	83.5
375.642	76.5
375.868	102.5
376.094	79.5
376.319	82.5
376.545	86.5
376.771	91.5
376.997	99.5
377.222	94.5
377.448	90.5
377.674	91.5
377.899	83.5
378.125	94.5
378.35	90.5
378.576	104.5
378.802	89.5
379.027	88.5
379.253	92.5
379.478	104.5
379.704	108.5
379.929	88.5
380.155	88.5
380.38	92.5
380.606	87.5
380.831	84.5
381.057	94.5
381.282	91.5
381.507	90.5
381.733	99.5
381.958	92.5
382.184	106.5
382.409	100.5
382.634	90.5
382.86	107.5
383.085	93.5
383.31	111.5
383.535	95.5
383.761	103.5
383.986	95.5
384.211	100.5
384.436	77.5
384.662	100.5
384.887	102.5
385.112	102.5
385.337	94.5
385.562	120.5
385.787	106.5
386.013	115.5
386.238	119.5
386.463	104.5
386.688	110.5
386.913	99.5
387.138	108.5
387.363	100.5
387.588	98.5
387.813	97.5
388.038	110.5
388.263	117.5
388.488	110.5
388.713	91.5
388.938	104.5
389.163	94.5
389.387	104.5
389.612	92.5
389.837	90.5
390.062	93.5
390.287	85.5
390.512	75.5
390.736	96.5
390.961	88.5
391.186	82.5
391.411	99.5
391.636	90.5
391.86	88.5
392.085	93.5
392.31	79.5
392.534	86.5
392.759	90.5
392.984	76.5
393.208	78.5
393.433	85.5
393.658	85.5
393.882	75.5
394.107	89.5
394.331	82.5
394.556	94.5
394.78	95.5
395.005	88.5
395.229	81.5
395.454	108.5
395.678	89.5
395.903	81.5
396.127	90.5
396.352	98.5
396.576	84.5
396.801	105.5
397.025	84.5
397.249	93.5
397.474	83.5
397.698	90.5
397.922	106.5
398.147	93.5
398.371	84.5
398.595	80.5
398.82	72.5
399.044	86.5
399.268	97.5
399.492	89.5
399.717	89.5
399.941	96.5
400.165	82.5
400.389	104.5
400.613	81.5
400.837	97.5
401.062	84.5
401.286	95.5
401.51	104.5
401.734	86.5
401.958	92.5
402.182	103.5
402.406	154.5
402.63	130.5
402.854	107.5
403.078	85.5
403.302	96.5
403.526	99.5
403.75	86.5
403.974	82.5
404.198	98.5
404.422	85.5
404.645	99.5
404.869	94.5
405.093	114.5
405.317	126.5
405.541	115.5
405.765	116.5
405.988	117.5
406.212	179.5
406.436	235.5
406.66	158.5
406.883	98.5
407.107	88.5
407.331	97.5
407.555	115.5
407.778	92.5
408.002	83.5
408.226	86.5
408.449	97.5
408.673	81.5
408.896	92.5
409.12	99.5
409.344	96.5
409.567	93.5
409.791	99.5
410.014	106.5
410.238	91.5
410.461	90.5
410.685	86.5
410.908	96.5
411.132	101.5
411.355	87.5
411.578	91.5
411.802	92.5
412.025	101.5
412.249	95.5
412.472	105.5
412.695	129.5
412.919	103.5
413.142	92.5
413.365	93.5
413.589	87.5
413.812	82.5
414.035	91.5
414.258	91.5
414.482	97.5
414.705	101.5
414.928	90.5
415.151	94.5
415.374	97.5
415.597	89.5
415.821	68.5
416.044	87.5
416.267	100.5
416.49	95.5
416.713	109.5
416.936	97.5
417.159	91.5
417.382	97.5
417.605	91.5
417.828	95.5
418.051	77.5
418.274	80.5
418.497	76.5
418.72	68.5
418.943	88.5
419.166	91.5
419.389	83.5
419.611	90.5
419.834	73.5
420.057	89.5
420.28	80.5
420.503	86.5
420.726	97.5
420.948	91.5
421.171	98.5
421.394	105.5
421.617	82.5
421.839	85.5
422.062	84.5
422.285	103.5
422.507	114.5
422.73	96.5
422.953	110.5
423.175	97.5
423.398	95.5
423.621	79.5
423.843	84.5
424.066	90.5
424.288	91.5
424.511	87.5
424.733	100.5
424.956	126.5
425.178	97.5
425.401	101.5
425.623	96.5
425.846	106.5
426.068	93.5
426.291	98.5
426.513	84.5
426.735	93.5
426.958	112.5
427.18	137.5
427.402	150.5
427.625	211.5
427.847	220.5
428.069	189.5
428.292	91.5
428.514	112.5
428.736	84.5
428.958	88.5
429.181	92.5
429.403	83.5
429.625	85.5
429.847	98.5
430.069	102.5
430.292	101.5
430.514	93.5
430.736	87.5
430.958	80.5
431.18	81.5
431.402	79.5
431.624	96.5
431.846	86.5
432.068	84.5
432.29	92.5
432.512	81.5
432.734	79.5
432.956	89.5
433.178	106.5
433.4	94.5
433.622	77.5
433.844	91.5
434.066	77.5
434.287	94.5
434.509	90.5
434.731	104.5
434.953	95.5
435.175	87.5
435.397	78.5
435.618	89.5
435.84	97.5
436.062	129.5
436.284	129.5
436.505	105.5
436.727	114.5
436.949	90.5
437.17	92.5
437.392	86.5
437.614	79.5
437.835	116.5
438.057	120.5
438.278	108.5
438.5	104.5
438.721	129.5
438.943	108.5
439.165	103.5
439.386	94.5
439.608	89.5
439.829	113.5
440.05	131.5
440.272	153.5
440.493	102.5
440.715	94.5
440.936	90.5
441.158	91.5
441.379	82.5
441.6	93.5
441.822	110.5
442.043	101.5
442.264	107.5
442.486	110.5
442.707	103.5
442.928	112.5
443.149	145.5
443.371	138.5
443.592	98.5
443.813	130.5
444.034	131.5
444.255	83.5
444.476	86.5
444.698	79.5
444.919	102.5
445.14	127.5
445.361	123.5
445.582	125.5
445.803	164.5
446.024	142.5
446.245	170.5
446.466	111.5
446.687	76.5
446.908	80.5
447.129	82.5
447.35	80.5
447.571	87.5
447.792	89.5
448.013	103.5
448.234	105.5
448.455	118.5
448.675	121.5
448.896	143.5
449.117	111.5
449.338	121.5
449.559	162.5
449.779	154.5
450	86.5
450.221	88.5
450.442	79.5
450.662	95.5
450.883	100.5
451.104	124.5
451.324	104.5
451.545	94.5
451.766	83.5
451.986	86.5
452.207	107.5
452.428	99.5
452.648	91.5
452.869	122.5
453.089	121.5
453.31	115.5
453.53	96.5
453.751	90.5
453.971	113.5
454.192	117.5
454.412	71.5
454.633	85.5
454.853	76.5
455.073	88.5
455.294	87.5
455.514	103.5
455.734	96.5
455.955	91.5
456.175	76.5
456.395	82.5
456.616	82.5
456.836	72.5
457.056	78.5
457.276	95.5
457.497	89.5
457.717	81.5
457.937	89.5
458.157	94.5
458.377	90.5
458.598	118.5
458.818	174.5
459.038	190.5
459.258	131.5
459.478	100.5
459.698	102.5
459.918	92.5
460.138	89.5
460.358	84.5
460.578	88.5
460.798	93.5
461.018	93.5
461.238	97.5
461.458	84.5
461.678	74.5
461.898	93.5
462.118	89.5
462.338	91.5
462.558	89.5
462.777	91.5
462.997	94.5
463.217	90.5
463.437	97.5
463.657	95.5
463.876	98.5
464.096	87.5
464.316	93.5
464.536	86.5
464.755	98.5
464.975	110.5
465.195	193.5
465.414	188.5
465.634	104.5
465.854	86.5
466.073	97.5
466.293	78.5
466.512	86.5
466.732	73.5
466.951	96.5
467.171	92.5
467.391	102.5
467.61	110.5
467.829	162.5
468.049	358.5
468.268	486.5
468.488	170.5
468.707	97.5
468.927	93.5
469.146	92.5
469.365	94.5
469.585	76.5
469.804	95.5
470.023	106.5
470.243	115.5
470.462	113.5
470.681	119.5
470.901	97.5
471.12	98.5
471.339	91.5
471.558	97.5
471.777	110.5
471.997	206.5
472.216	673.5
472.435	1501.5
472.654	383.5
472.873	137.5
473.092	108.5
473.311	101.5
473.53	94.5
473.749	105.5
473.968	94.5
474.187	107.5
474.406	102.5
474.625	84.5
474.844	86.5
475.063	86.5
475.282	98.5
475.501	92.5
475.72	93.5
475.939	108.5
476.158	88.5
476.377	81.5
476.596	87.5
476.814	91.5
477.033	101.5
477.252	100.5
477.471	83.5
477.69	95.5
477.908	86.5
478.127	89.5
478.346	82.5
478.564	109.5
478.783	95.5
479.002	98.5
479.22	102.5
479.439	111.5
479.658	116.5
479.876	116.5
480.095	114.5
480.313	117.5
480.532	138.5
480.751	200.5
480.969	614.5
481.188	2605.5
481.406	1515.5
481.624	253.5
481.843	118.5
482.061	99.5
482.28	88.5
482.498	91.5
482.717	86.5
482.935	83.5
483.153	106.5
483.372	84.5
483.59	84.5
483.808	83.5
484.027	90.5
484.245	105.5
484.463	80.5
484.681	88.5
484.9	105.5
485.118	98.5
485.336	101.5
485.554	83.5
485.772	97.5
485.99	114.5
486.209	107.5
486.427	120.5
486.645	105.5
486.863	113.5
487.081	111.5
487.299	100.5
487.517	81.5
487.735	101.5
487.953	86.5
488.171	84.5
488.389	106.5
488.607	100.5
488.825	101.5
489.043	107.5
489.261	92.5
489.479	91.5
489.696	96.5
489.914	97.5
490.132	99.5
490.35	83.5
490.568	101.5
490.786	84.5
491.003	96.5
491.221	98.5
491.439	84.5
491.657	89.5
491.874	92.5
492.092	114.5
492.31	105.5
492.527	88.5
492.745	94.5
492.963	78.5
493.18	99.5
493.398	97.5
493.615	108.5
493.833	93.5
494.05	85.5
494.268	94.5
494.485	96.5
494.703	84.5
494.92	75.5
495.138	81.5
495.355	80.5
495.573	91.5
495.79	79.5
496.008	91.5
496.225	82.5
496.442	90.5
496.66	88.5
496.877	81.5
497.094	114.5
497.312	90.5
497.529	83.5
497.746	79.5
497.963	103.5
498.181	94.5
498.398	96.5
498.615	114.5
498.832	98.5
499.049	97.5
499.267	91.5
499.484	89.5
499.701	103.5
499.918	102.5
500.135	98.5
500.352	77.5
500.569	96.5
500.786	100.5
501.003	85.5
501.22	96.5
501.437	79.5
501.654	78.5
501.871	104.5
502.088	90.5
502.305	96.5
502.522	86.5
502.739	88.5
502.956	89.5
503.172	80.5
503.389	100.5
503.606	102.5
503.823	94.5
504.04	100.5
504.256	97.5
504.473	95.5
504.69	95.5
504.907	108.5
505.123	92.5
505.34	84.5
505.557	81.5
505.773	95.5
505.99	95.5
506.207	93.5
506.423	78.5
506.64	83.5
506.856	84.5
507.073	91.5
507.289	88.5
507.506	98.5
507.722	115.5
507.939	107.5
508.155	97.5
508.372	90.5
508.588	93.5
508.805	91.5
509.021	104.5
509.238	108.5
509.454	108.5
509.67	92.5
509.887	106.5
510.103	132.5
510.319	211.5
510.536	727.5
510.752	2418.5
510.968	687.5
511.184	151.5
511.401	110.5
511.617	110.5
511.833	103.5
512.049	94.5
512.265	87.5
512.481	91.5
512.698	92.5
512.914	86.5
513.13	94.5
513.346	108.5
513.562	101.5
513.778	104.5
513.994	104.5
514.21	96.5
514.426	125.5
514.642	140.5
514.858	133.5
515.074	172.5
515.29	491.5
515.506	1685.5
515.721	600.5
515.937	162.5
516.153	110.5
516.369	82.5
516.585	100.5
516.801	111.5
517.016	98.5
517.232	97.5
517.448	94.5
517.664	95.5
517.879	94.5
518.095	97.5
518.311	92.5
518.527	89.5
518.742	94.5
518.958	85.5
519.173	102.5
519.389	77.5
519.605	84.5
519.82	104.5
520.036	113.5
520.251	122.5
520.467	111.5
520.682	110.5
520.898	102.5
521.113	120.5
521.329	160.5
521.544	213.5
521.76	591.5
521.975	2780.5
522.19	1685.5
522.406	353.5
522.621	132.5
522.836	113.5
523.052	102.5
523.267	90.5
523.482	101.5
523.698	105.5
523.913	128.5
524.128	102.5
524.343	92.5
524.559	95.5
524.774	90.5
524.989	94.5
525.204	96.5
525.419	101.5
525.634	83.5
525.849	89.5
526.064	93.5
526.28	73.5
526.495	96.5
526.71	74.5
526.925	96.5
527.14	94.5
527.355	90.5
527.57	106.5
527.785	89.5
527.999	86.5
528.214	87.5
528.429	87.5
528.644	93.5
528.859	102.5
529.074	92.5
529.289	109.5
529.503	193.5
529.718	104.5
529.933	98.5
530.148	103.5
530.363	90.5
530.577	80.5
530.792	89.5
531.007	82.5
531.221	94.5
531.436	106.5
531.651	88.5
531.865	86.5
532.08	92.5
532.295	88.5
532.509	92.5
532.724	97.5
532.938	85.5
533.153	93.5
533.367	104.5
533.582	97.5
