Data from Circ_1992_H10_HRD10591_00010.txt Node
Date: Wed Jan 03 11:47:46 EST 2024
User: Yrep
Spectrometer: HR+D1059
Trigger mode: 1
Integration Time (sec): 1.000000E-1
Scans to average: 1
Electric dark correction enabled: true
Nonlinearity correction enabled: false
Boxcar width: 0
XAxis mode: Wavelengths
Number of Pixels in Spectrum: 2048
>>>>>Begin Spectral Data<<<<<
223.165	-24.81
223.4	-24.81
223.635	-24.81
223.869	-10.81
224.104	-9.81
224.338	-12.81
224.573	-7.81
224.808	-6.81
225.042	-11.81
225.277	-10.81
225.511	-2.81
225.746	-1.81
225.98	-12.81
226.215	11.19
226.449	20.19
226.683	24.19
226.918	31.19
227.152	26.19
227.387	49.19
227.621	37.19
227.856	50.19
228.09	52.19
228.324	42.19
228.559	62.19
228.793	57.19
229.027	59.19
229.262	68.19
229.496	71.19
229.73	96.19
229.964	79.19
230.199	83.19
230.433	83.19
230.667	56.19
230.901	81.19
231.136	72.19
231.37	73.19
231.604	71.19
231.838	83.19
232.072	79.19
232.306	84.19
232.541	80.19
232.775	85.19
233.009	81.19
233.243	84.19
233.477	69.19
233.711	78.19
233.945	67.19
234.179	81.19
234.413	71.19
234.647	74.19
234.881	80.19
235.115	75.19
235.349	66.19
235.583	77.19
235.817	91.19
236.051	90.19
236.285	68.19
236.519	77.19
236.753	81.19
236.987	82.19
237.221	66.19
237.455	84.19
237.689	79.19
237.922	71.19
238.156	68.19
238.39	77.19
238.624	71.19
238.858	72.19
239.091	64.19
239.325	71.19
239.559	60.19
239.793	82.19
240.027	75.19
240.26	73.19
240.494	69.19
240.728	68.19
240.961	96.19
241.195	75.19
241.429	67.19
241.662	85.19
241.896	79.19
242.13	77.19
242.363	74.19
242.597	75.19
242.83	75.19
243.064	62.19
243.298	81.19
243.531	84.19
243.765	69.19
243.998	75.19
244.232	93.19
244.465	79.19
244.699	72.19
244.932	81.19
245.166	74.19
245.399	82.19
245.633	96.19
245.866	84.19
246.099	89.19
246.333	87.19
246.566	65.19
246.8	84.19
247.033	74.19
247.266	73.19
247.5	76.19
247.733	75.19
247.966	73.19
248.2	84.19
248.433	77.19
248.666	78.19
248.899	92.19
249.133	84.19
249.366	106.19
249.599	99.19
249.832	71.19
250.066	72.19
250.299	87.19
250.532	69.19
250.765	95.19
250.998	71.19
251.231	84.19
251.465	80.19
251.698	82.19
251.931	72.19
252.164	80.19
252.397	86.19
252.63	77.19
252.863	71.19
253.096	89.19
253.329	77.19
253.562	65.19
253.795	83.19
254.028	76.19
254.261	101.19
254.494	85.19
254.727	77.19
254.96	66.19
255.193	68.19
255.426	94.19
255.659	85.19
255.892	76.19
256.124	93.19
256.357	79.19
256.59	91.19
256.823	75.19
257.056	74.19
257.289	77.19
257.521	67.19
257.754	94.19
257.987	76.19
258.22	79.19
258.452	76.19
258.685	64.19
258.918	72.19
259.151	86.19
259.383	87.19
259.616	81.19
259.849	77.19
260.081	76.19
260.314	87.19
260.547	88.19
260.779	100.19
261.012	96.19
261.244	91.19
261.477	90.19
261.71	103.19
261.942	115.19
262.175	119.19
262.407	103.19
262.64	84.19
262.872	91.19
263.105	86.19
263.337	85.19
263.57	85.19
263.802	96.19
264.035	86.19
264.267	65.19
264.499	91.19
264.732	87.19
264.964	83.19
265.197	67.19
265.429	80.19
265.661	82.19
265.894	90.19
266.126	79.19
266.358	96.19
266.591	79.19
266.823	82.19
267.055	82.19
267.287	77.19
267.52	75.19
267.752	77.19
267.984	81.19
268.216	76.19
268.448	77.19
268.681	69.19
268.913	89.19
269.145	91.19
269.377	79.19
269.609	76.19
269.841	83.19
270.073	79.19
270.306	73.19
270.538	87.19
270.77	99.19
271.002	92.19
271.234	92.19
271.466	80.19
271.698	84.19
271.93	71.19
272.162	96.19
272.394	98.19
272.626	95.19
272.858	77.19
273.09	79.19
273.322	93.19
273.553	85.19
273.785	84.19
274.017	67.19
274.249	81.19
274.481	76.19
274.713	102.19
274.945	98.19
275.176	91.19
275.408	84.19
275.64	85.19
275.872	90.19
276.104	85.19
276.335	107.19
276.567	113.19
276.799	119.19
277.031	136.19
277.262	108.19
277.494	96.19
277.726	90.19
277.957	86.19
278.189	96.19
278.421	79.19
278.652	103.19
278.884	80.19
279.115	91.19
279.347	94.19
279.579	80.19
279.81	95.19
280.042	118.19
280.273	123.19
280.505	109.19
280.736	95.19
280.968	104.19
281.199	88.19
281.431	93.19
281.662	82.19
281.894	94.19
282.125	97.19
282.356	113.19
282.588	148.19
282.819	114.19
283.051	79.19
283.282	91.19
283.513	97.19
283.745	92.19
283.976	85.19
284.207	87.19
284.439	78.19
284.67	77.19
284.901	84.19
285.132	90.19
285.364	81.19
285.595	83.19
285.826	84.19
286.057	89.19
286.288	95.19
286.52	83.19
286.751	83.19
286.982	84.19
287.213	81.19
287.444	91.19
287.675	82.19
287.906	79.19
288.138	74.19
288.369	95.19
288.6	99.19
288.831	77.19
289.062	109.19
289.293	89.19
289.524	89.19
289.755	80.19
289.986	80.19
290.217	82.19
290.448	88.19
290.679	87.19
290.91	79.19
291.141	67.19
291.371	82.19
291.602	92.19
291.833	85.19
292.064	83.19
292.295	85.19
292.526	88.19
292.757	87.19
292.987	92.19
293.218	91.19
293.449	100.19
293.68	88.19
293.91	111.19
294.141	103.19
294.372	90.19
294.603	85.19
294.833	104.19
295.064	86.19
295.295	94.19
295.525	95.19
295.756	96.19
295.987	125.19
296.217	124.19
296.448	120.19
296.679	96.19
296.909	97.19
297.14	91.19
297.37	96.19
297.601	108.19
297.831	99.19
298.062	92.19
298.292	99.19
298.523	91.19
298.753	92.19
298.984	99.19
299.214	88.19
299.445	93.19
299.675	102.19
299.905	91.19
300.136	101.19
300.366	99.19
300.597	100.19
300.827	84.19
301.057	114.19
301.288	92.19
301.518	99.19
301.748	101.19
301.979	111.19
302.209	89.19
302.439	105.19
302.669	83.19
302.9	92.19
303.13	94.19
303.36	114.19
303.59	97.19
303.82	109.19
304.051	95.19
304.281	87.19
304.511	97.19
304.741	103.19
304.971	78.19
305.201	79.19
305.431	102.19
305.661	86.19
305.891	94.19
306.121	96.19
306.352	94.19
306.582	110.19
306.812	89.19
307.042	87.19
307.272	124.19
307.502	123.19
307.731	103.19
307.961	107.19
308.191	101.19
308.421	97.19
308.651	81.19
308.881	93.19
309.111	94.19
309.341	110.19
309.571	106.19
309.8	100.19
310.03	104.19
310.26	103.19
310.49	105.19
310.72	100.19
310.949	92.19
311.179	108.19
311.409	101.19
311.639	100.19
311.868	92.19
312.098	96.19
312.328	95.19
312.557	101.19
312.787	109.19
313.017	111.19
313.246	98.19
313.476	89.19
313.706	114.19
313.935	96.19
314.165	109.19
314.394	110.19
314.624	98.19
314.853	107.19
315.083	69.19
315.312	78.19
315.542	84.19
315.771	88.19
316.001	87.19
316.23	88.19
316.46	86.19
316.689	90.19
316.919	92.19
317.148	102.19
317.377	107.19
317.607	91.19
317.836	96.19
318.065	92.19
318.295	89.19
318.524	78.19
318.753	84.19
318.983	86.19
319.212	89.19
319.441	116.19
319.67	118.19
319.9	101.19
320.129	85.19
320.358	88.19
320.587	103.19
320.816	106.19
321.046	106.19
321.275	94.19
321.504	93.19
321.733	92.19
321.962	106.19
322.191	89.19
322.42	104.19
322.649	110.19
322.878	104.19
323.108	126.19
323.337	115.19
323.566	121.19
323.795	165.19
324.024	209.19
324.253	388.19
324.482	829.19
324.71	1641.19
324.939	2215.19
325.168	831.19
325.397	248.19
325.626	149.19
325.855	140.19
326.084	130.19
326.313	120.19
326.542	136.19
326.77	234.19
326.999	426.19
327.228	915.19
327.457	1636.19
327.686	1321.19
327.914	405.19
328.143	299.19
328.372	294.19
328.6	195.19
328.829	135.19
329.058	135.19
329.287	162.19
329.515	131.19
329.744	139.19
329.972	210.19
330.201	384.19
330.43	557.19
330.658	289.19
330.887	199.19
331.115	147.19
331.344	108.19
331.572	106.19
331.801	109.19
332.03	110.19
332.258	100.19
332.486	109.19
332.715	98.19
332.943	95.19
333.172	103.19
333.4	113.19
333.629	129.19
333.857	146.19
334.085	206.19
334.314	357.19
334.542	671.19
334.771	638.19
334.999	212.19
335.227	122.19
335.455	116.19
335.684	127.19
335.912	101.19
336.14	103.19
336.369	98.19
336.597	104.19
336.825	117.19
337.053	100.19
337.281	94.19
337.51	83.19
337.738	82.19
337.966	85.19
338.194	96.19
338.422	104.19
338.65	87.19
338.878	92.19
339.106	92.19
339.334	88.19
339.562	83.19
339.79	109.19
340.018	91.19
340.246	95.19
340.474	94.19
340.702	95.19
340.93	103.19
341.158	92.19
341.386	107.19
341.614	101.19
341.842	91.19
342.07	101.19
342.298	97.19
342.526	97.19
342.754	95.19
342.981	88.19
343.209	95.19
343.437	104.19
343.665	83.19
343.893	73.19
344.12	85.19
344.348	100.19
344.576	84.19
344.804	94.19
345.031	103.19
345.259	100.19
345.487	93.19
345.714	95.19
345.942	83.19
346.17	92.19
346.397	99.19
346.625	95.19
346.853	88.19
347.08	79.19
347.308	87.19
347.535	97.19
347.763	105.19
347.99	92.19
348.218	105.19
348.445	108.19
348.673	94.19
348.9	98.19
349.128	92.19
349.355	80.19
349.583	93.19
349.81	101.19
350.037	101.19
350.265	84.19
350.492	93.19
350.72	95.19
350.947	89.19
351.174	108.19
351.402	108.19
351.629	114.19
351.856	98.19
352.083	104.19
352.311	107.19
352.538	101.19
352.765	118.19
352.992	123.19
353.22	125.19
353.447	101.19
353.674	103.19
353.901	96.19
354.128	106.19
354.355	103.19
354.583	103.19
354.81	97.19
355.037	101.19
355.264	94.19
355.491	99.19
355.718	100.19
355.945	88.19
356.172	105.19
356.399	81.19
356.626	98.19
356.853	92.19
357.08	86.19
357.307	106.19
357.534	92.19
357.761	97.19
357.988	112.19
358.215	113.19
358.441	102.19
358.668	91.19
358.895	96.19
359.122	89.19
359.349	94.19
359.576	95.19
359.802	113.19
360.029	117.19
360.256	112.19
360.483	106.19
360.709	88.19
360.936	102.19
361.163	102.19
361.39	104.19
361.616	104.19
361.843	77.19
362.07	89.19
362.296	100.19
362.523	93.19
362.749	103.19
362.976	92.19
363.203	87.19
363.429	108.19
363.656	79.19
363.882	85.19
364.109	89.19
364.335	76.19
364.562	92.19
364.788	95.19
365.015	91.19
365.241	95.19
365.468	121.19
365.694	108.19
365.92	87.19
366.147	97.19
366.373	95.19
366.599	83.19
366.826	93.19
367.052	90.19
367.278	96.19
367.505	94.19
367.731	104.19
367.957	100.19
368.184	91.19
368.41	92.19
368.636	115.19
368.862	128.19
369.089	108.19
369.315	92.19
369.541	95.19
369.767	90.19
369.993	82.19
370.219	83.19
370.445	101.19
370.672	77.19
370.898	66.19
371.124	86.19
371.35	82.19
371.576	77.19
371.802	84.19
372.028	92.19
372.254	93.19
372.48	87.19
372.706	91.19
372.932	106.19
373.158	97.19
373.384	109.19
373.61	97.19
373.835	75.19
374.061	87.19
374.287	91.19
374.513	95.19
374.739	82.19
374.965	83.19
375.191	79.19
375.416	99.19
375.642	74.19
375.868	83.19
376.094	95.19
376.319	91.19
376.545	92.19
376.771	88.19
376.997	103.19
377.222	89.19
377.448	92.19
377.674	85.19
377.899	87.19
378.125	94.19
378.35	86.19
378.576	83.19
378.802	100.19
379.027	90.19
379.253	96.19
379.478	105.19
379.704	96.19
379.929	110.19
380.155	107.19
380.38	107.19
380.606	107.19
380.831	92.19
381.057	100.19
381.282	99.19
381.507	102.19
381.733	109.19
381.958	114.19
382.184	109.19
382.409	109.19
382.634	111.19
382.86	108.19
383.085	98.19
383.31	124.19
383.535	112.19
383.761	115.19
383.986	114.19
384.211	121.19
384.436	125.19
384.662	111.19
384.887	126.19
385.112	140.19
385.337	128.19
385.562	145.19
385.787	117.19
386.013	129.19
386.238	142.19
386.463	124.19
386.688	125.19
386.913	113.19
387.138	127.19
387.363	128.19
387.588	97.19
387.813	110.19
388.038	126.19
388.263	145.19
388.488	154.19
388.713	108.19
388.938	88.19
389.163	103.19
389.387	90.19
389.612	88.19
389.837	98.19
390.062	96.19
390.287	82.19
390.512	89.19
390.736	98.19
390.961	88.19
391.186	100.19
391.411	82.19
391.636	81.19
391.86	87.19
392.085	85.19
392.31	84.19
392.534	91.19
392.759	91.19
392.984	81.19
393.208	104.19
393.433	88.19
393.658	83.19
393.882	79.19
394.107	77.19
394.331	83.19
394.556	94.19
394.78	83.19
395.005	91.19
395.229	94.19
395.454	96.19
395.678	94.19
395.903	97.19
396.127	79.19
396.352	96.19
396.576	91.19
396.801	88.19
397.025	108.19
397.249	95.19
397.474	81.19
397.698	89.19
397.922	83.19
398.147	93.19
398.371	82.19
398.595	92.19
398.82	83.19
399.044	76.19
399.268	80.19
399.492	88.19
399.717	91.19
399.941	83.19
400.165	83.19
400.389	82.19
400.613	80.19
400.837	86.19
401.062	82.19
401.286	89.19
401.51	87.19
401.734	96.19
401.958	101.19
402.182	120.19
402.406	159.19
402.63	120.19
402.854	81.19
403.078	75.19
403.302	91.19
403.526	86.19
403.75	80.19
403.974	93.19
404.198	81.19
404.422	91.19
404.645	84.19
404.869	103.19
405.093	92.19
405.317	115.19
405.541	105.19
405.765	94.19
405.988	101.19
406.212	192.19
406.436	262.19
406.66	157.19
406.883	94.19
407.107	92.19
407.331	91.19
407.555	95.19
407.778	102.19
408.002	93.19
408.226	78.19
408.449	86.19
408.673	89.19
408.896	101.19
409.12	106.19
409.344	92.19
409.567	93.19
409.791	84.19
410.014	86.19
410.238	81.19
410.461	98.19
410.685	91.19
410.908	86.19
411.132	93.19
411.355	99.19
411.578	89.19
411.802	94.19
412.025	87.19
412.249	100.19
412.472	95.19
412.695	123.19
412.919	106.19
413.142	85.19
413.365	87.19
413.589	88.19
413.812	79.19
414.035	92.19
414.258	85.19
414.482	95.19
414.705	87.19
414.928	78.19
415.151	93.19
415.374	100.19
415.597	79.19
415.821	81.19
416.044	83.19
416.267	96.19
416.49	92.19
416.713	94.19
416.936	101.19
417.159	79.19
417.382	95.19
417.605	107.19
417.828	95.19
418.051	93.19
418.274	89.19
418.497	83.19
418.72	92.19
418.943	89.19
419.166	75.19
419.389	101.19
419.611	89.19
419.834	92.19
420.057	96.19
420.28	88.19
420.503	86.19
420.726	76.19
420.948	97.19
421.171	86.19
421.394	79.19
421.617	98.19
421.839	95.19
422.062	101.19
422.285	85.19
422.507	86.19
422.73	94.19
422.953	105.19
423.175	80.19
423.398	90.19
423.621	101.19
423.843	85.19
424.066	82.19
424.288	83.19
424.511	98.19
424.733	101.19
424.956	98.19
425.178	96.19
425.401	97.19
425.623	99.19
425.846	103.19
426.068	100.19
426.291	100.19
426.513	100.19
426.735	93.19
426.958	80.19
427.18	109.19
427.402	138.19
427.625	186.19
427.847	163.19
428.069	154.19
428.292	100.19
428.514	83.19
428.736	82.19
428.958	84.19
429.181	77.19
429.403	92.19
429.625	93.19
429.847	101.19
430.069	105.19
430.292	86.19
430.514	89.19
430.736	83.19
430.958	93.19
431.18	73.19
431.402	88.19
431.624	85.19
431.846	82.19
432.068	83.19
432.29	91.19
432.512	72.19
432.734	95.19
432.956	107.19
433.178	82.19
433.4	91.19
433.622	80.19
433.844	91.19
434.066	89.19
434.287	87.19
434.509	96.19
434.731	98.19
434.953	94.19
435.175	97.19
435.397	79.19
435.618	92.19
435.84	100.19
436.062	120.19
436.284	119.19
436.505	100.19
436.727	100.19
436.949	87.19
437.17	87.19
437.392	84.19
437.614	97.19
437.835	107.19
438.057	120.19
438.278	106.19
438.5	109.19
438.721	112.19
438.943	95.19
439.165	88.19
439.386	94.19
439.608	93.19
439.829	100.19
440.05	118.19
440.272	167.19
440.493	99.19
440.715	81.19
440.936	80.19
441.158	98.19
441.379	91.19
441.6	90.19
441.822	101.19
442.043	93.19
442.264	100.19
442.486	110.19
442.707	81.19
442.928	93.19
443.149	133.19
443.371	125.19
443.592	114.19
443.813	121.19
444.034	114.19
444.255	95.19
444.476	87.19
444.698	81.19
444.919	84.19
445.14	136.19
445.361	115.19
445.582	119.19
445.803	138.19
446.024	147.19
446.245	152.19
446.466	111.19
446.687	92.19
446.908	83.19
447.129	87.19
447.35	92.19
447.571	81.19
447.792	82.19
448.013	89.19
448.234	97.19
448.455	91.19
448.675	107.19
448.896	120.19
449.117	97.19
449.338	103.19
449.559	127.19
449.779	132.19
450	99.19
450.221	84.19
450.442	79.19
450.662	86.19
450.883	96.19
451.104	131.19
451.324	91.19
451.545	90.19
451.766	93.19
451.986	80.19
452.207	87.19
452.428	91.19
452.648	109.19
452.869	116.19
453.089	123.19
453.31	122.19
453.53	96.19
453.751	91.19
453.971	105.19
454.192	103.19
454.412	93.19
454.633	87.19
454.853	79.19
455.073	82.19
455.294	83.19
455.514	87.19
455.734	83.19
455.955	85.19
456.175	78.19
456.395	73.19
456.616	89.19
456.836	73.19
457.056	77.19
457.276	78.19
457.497	74.19
457.717	90.19
457.937	81.19
458.157	87.19
458.377	83.19
458.598	100.19
458.818	142.19
459.038	177.19
459.258	119.19
459.478	111.19
459.698	76.19
459.918	82.19
460.138	85.19
460.358	82.19
460.578	88.19
460.798	86.19
461.018	93.19
461.238	90.19
461.458	93.19
461.678	94.19
461.898	76.19
462.118	91.19
462.338	79.19
462.558	76.19
462.777	82.19
462.997	75.19
463.217	105.19
463.437	76.19
463.657	83.19
463.876	78.19
464.096	84.19
464.316	78.19
464.536	90.19
464.755	81.19
464.975	98.19
465.195	178.19
465.414	182.19
465.634	111.19
465.854	94.19
466.073	76.19
466.293	90.19
466.512	77.19
466.732	67.19
466.951	80.19
467.171	93.19
467.391	87.19
467.61	103.19
467.829	120.19
468.049	239.19
468.268	333.19
468.488	123.19
468.707	99.19
468.927	91.19
469.146	91.19
469.365	94.19
469.585	99.19
469.804	97.19
470.023	88.19
470.243	103.19
470.462	92.19
470.681	131.19
470.901	93.19
471.12	83.19
471.339	88.19
471.558	100.19
471.777	101.19
471.997	140.19
472.216	420.19
472.435	922.19
472.654	268.19
472.873	120.19
473.092	88.19
473.311	93.19
473.53	96.19
473.749	95.19
473.968	101.19
474.187	106.19
474.406	112.19
474.625	72.19
474.844	87.19
475.063	69.19
475.282	90.19
475.501	89.19
475.72	92.19
475.939	95.19
476.158	77.19
476.377	95.19
476.596	87.19
476.814	98.19
477.033	82.19
477.252	88.19
477.471	75.19
477.69	88.19
477.908	95.19
478.127	103.19
478.346	94.19
478.564	83.19
478.783	95.19
479.002	103.19
479.22	107.19
479.439	103.19
479.658	105.19
479.876	100.19
480.095	82.19
480.313	99.19
480.532	119.19
480.751	149.19
480.969	389.19
481.188	1545.19
481.406	953.19
481.624	172.19
481.843	115.19
482.061	99.19
482.28	98.19
482.498	86.19
482.717	82.19
482.935	67.19
483.153	83.19
483.372	95.19
483.59	83.19
483.808	93.19
484.027	87.19
484.245	100.19
484.463	102.19
484.681	85.19
484.9	103.19
485.118	79.19
485.336	84.19
485.554	92.19
485.772	105.19
485.99	107.19
486.209	98.19
486.427	96.19
486.645	114.19
486.863	109.19
487.081	98.19
487.299	95.19
487.517	99.19
487.735	84.19
487.953	100.19
488.171	102.19
488.389	98.19
488.607	103.19
488.825	85.19
489.043	87.19
489.261	98.19
489.479	97.19
489.696	85.19
489.914	94.19
490.132	79.19
490.35	80.19
490.568	93.19
490.786	84.19
491.003	84.19
491.221	75.19
491.439	81.19
491.657	91.19
491.874	85.19
492.092	96.19
492.31	87.19
492.527	95.19
492.745	85.19
492.963	91.19
493.18	94.19
493.398	95.19
493.615	93.19
493.833	85.19
494.05	90.19
494.268	90.19
494.485	83.19
494.703	83.19
494.92	88.19
495.138	85.19
495.355	104.19
495.573	77.19
495.79	93.19
496.008	91.19
496.225	85.19
496.442	79.19
496.66	95.19
496.877	90.19
497.094	73.19
497.312	88.19
497.529	94.19
497.746	87.19
497.963	101.19
498.181	87.19
498.398	85.19
498.615	127.19
498.832	87.19
499.049	87.19
499.267	75.19
499.484	88.19
499.701	78.19
499.918	87.19
500.135	83.19
500.352	81.19
500.569	81.19
500.786	80.19
501.003	89.19
501.22	78.19
501.437	89.19
501.654	91.19
501.871	102.19
502.088	88.19
502.305	80.19
502.522	93.19
502.739	92.19
502.956	90.19
503.172	95.19
503.389	84.19
503.606	110.19
503.823	100.19
504.04	92.19
504.256	93.19
504.473	93.19
504.69	94.19
504.907	98.19
505.123	75.19
505.34	100.19
505.557	83.19
505.773	95.19
505.99	82.19
506.207	92.19
506.423	99.19
506.64	86.19
506.856	79.19
507.073	81.19
507.289	92.19
507.506	89.19
507.722	111.19
507.939	120.19
508.155	94.19
508.372	87.19
508.588	88.19
508.805	97.19
509.021	99.19
509.238	93.19
509.454	88.19
509.67	90.19
509.887	101.19
510.103	124.19
510.319	207.19
510.536	770.19
510.752	2495.19
510.968	687.19
511.184	164.19
511.401	121.19
511.617	112.19
511.833	90.19
512.049	91.19
512.265	90.19
512.481	93.19
512.698	79.19
512.914	96.19
513.13	96.19
513.346	77.19
513.562	94.19
513.778	92.19
513.994	108.19
514.21	107.19
514.426	95.19
514.642	148.19
