Data from Circ_1992_H10_HRD10591_00040.txt Node
Date: Wed Jan 03 11:47:52 EST 2024
User: Yrep
Spectrometer: HR+D1059
Trigger mode: 1
Integration Time (sec): 1.000000E-1
Scans to average: 1
Electric dark correction enabled: true
Nonlinearity correction enabled: false
Boxcar width: 0
XAxis mode: Wavelengths
Number of Pixels in Spectrum: 2048
>>>>>Begin Spectral Data<<<<<
223.165	-21.06
223.4	-21.06
223.635	-21.06
223.869	-16.06
224.104	-12.06
224.338	-18.06
224.573	-17.06
224.808	-13.06
225.042	-5.06
225.277	-4.06
225.511	1.94
225.746	13.94
225.98	-6.06
226.215	17.94
226.449	15.94
226.683	8.94
226.918	17.94
227.152	35.94
227.387	39.94
227.621	39.94
227.856	47.94
228.09	38.94
228.324	61.94
228.559	32.94
228.793	56.94
229.027	64.94
229.262	65.94
229.496	60.94
229.73	87.94
229.964	92.94
230.199	74.94
230.433	82.94
230.667	88.94
230.901	84.94
231.136	75.94
231.37	74.94
231.604	85.94
231.838	92.94
232.072	75.94
232.306	75.94
232.541	69.94
232.775	80.94
233.009	81.94
233.243	73.94
233.477	76.94
233.711	65.94
233.945	68.94
234.179	76.94
234.413	80.94
234.647	84.94
234.881	70.94
235.115	86.94
235.349	82.94
235.583	84.94
235.817	72.94
236.051	85.94
236.285	82.94
236.519	77.94
236.753	80.94
236.987	83.94
237.221	91.94
237.455	85.94
237.689	89.94
237.922	79.94
238.156	67.94
238.39	64.94
238.624	62.94
238.858	74.94
239.091	76.94
239.325	74.94
239.559	75.94
239.793	74.94
240.027	77.94
240.26	77.94
240.494	81.94
240.728	72.94
240.961	61.94
241.195	84.94
241.429	81.94
241.662	77.94
241.896	83.94
242.13	74.94
242.363	73.94
242.597	71.94
242.83	76.94
243.064	70.94
243.298	81.94
243.531	81.94
243.765	77.94
243.998	79.94
244.232	69.94
244.465	85.94
244.699	78.94
244.932	92.94
245.166	74.94
245.399	76.94
245.633	84.94
245.866	80.94
246.099	72.94
246.333	62.94
246.566	89.94
246.8	83.94
247.033	77.94
247.266	67.94
247.5	67.94
247.733	79.94
247.966	81.94
248.2	89.94
248.433	87.94
248.666	77.94
248.899	91.94
249.133	88.94
249.366	100.94
249.599	90.94
249.832	71.94
250.066	67.94
250.299	85.94
250.532	77.94
250.765	77.94
250.998	63.94
251.231	78.94
251.465	92.94
251.698	67.94
251.931	85.94
252.164	75.94
252.397	64.94
252.63	81.94
252.863	74.94
253.096	73.94
253.329	73.94
253.562	78.94
253.795	71.94
254.028	61.94
254.261	65.94
254.494	77.94
254.727	85.94
254.96	76.94
255.193	67.94
255.426	83.94
255.659	70.94
255.892	94.94
256.124	71.94
256.357	72.94
256.59	84.94
256.823	73.94
257.056	86.94
257.289	82.94
257.521	88.94
257.754	80.94
257.987	64.94
258.22	75.94
258.452	87.94
258.685	91.94
258.918	84.94
259.151	84.94
259.383	68.94
259.616	73.94
259.849	75.94
260.081	87.94
260.314	65.94
260.547	71.94
260.779	87.94
261.012	88.94
261.244	84.94
261.477	93.94
261.71	84.94
261.942	94.94
262.175	117.94
262.407	80.94
262.64	73.94
262.872	79.94
263.105	71.94
263.337	77.94
263.57	85.94
263.802	84.94
264.035	97.94
264.267	82.94
264.499	92.94
264.732	86.94
264.964	75.94
265.197	68.94
265.429	85.94
265.661	79.94
265.894	96.94
266.126	90.94
266.358	75.94
266.591	83.94
266.823	72.94
267.055	73.94
267.287	75.94
267.52	85.94
267.752	90.94
267.984	80.94
268.216	80.94
268.448	89.94
268.681	83.94
268.913	89.94
269.145	81.94
269.377	89.94
269.609	107.94
269.841	95.94
270.073	80.94
270.306	78.94
270.538	96.94
270.77	75.94
271.002	82.94
271.234	93.94
271.466	91.94
271.698	88.94
271.93	80.94
272.162	81.94
272.394	91.94
272.626	77.94
272.858	92.94
273.09	84.94
273.322	82.94
273.553	78.94
273.785	96.94
274.017	88.94
274.249	101.94
274.481	82.94
274.713	84.94
274.945	84.94
275.176	77.94
275.408	83.94
275.64	85.94
275.872	93.94
276.104	92.94
276.335	85.94
276.567	109.94
276.799	111.94
277.031	129.94
277.262	133.94
277.494	101.94
277.726	89.94
277.957	95.94
278.189	72.94
278.421	79.94
278.652	86.94
278.884	93.94
279.115	89.94
279.347	98.94
279.579	81.94
279.81	101.94
280.042	109.94
280.273	149.94
280.505	103.94
280.736	108.94
280.968	97.94
281.199	77.94
281.431	88.94
281.662	88.94
281.894	87.94
282.125	102.94
282.356	127.94
282.588	142.94
282.819	120.94
283.051	95.94
283.282	85.94
283.513	77.94
283.745	82.94
283.976	98.94
284.207	73.94
284.439	71.94
284.67	87.94
284.901	83.94
285.132	81.94
285.364	84.94
285.595	81.94
285.826	91.94
286.057	73.94
286.288	87.94
286.52	83.94
286.751	76.94
286.982	79.94
287.213	75.94
287.444	94.94
287.675	87.94
287.906	70.94
288.138	83.94
288.369	108.94
288.6	95.94
288.831	87.94
289.062	80.94
289.293	88.94
289.524	97.94
289.755	86.94
289.986	95.94
290.217	73.94
290.448	75.94
290.679	90.94
290.91	87.94
291.141	82.94
291.371	109.94
291.602	89.94
291.833	89.94
292.064	89.94
292.295	85.94
292.526	76.94
292.757	76.94
292.987	82.94
293.218	94.94
293.449	76.94
293.68	80.94
293.91	82.94
294.141	69.94
294.372	84.94
294.603	91.94
294.833	88.94
295.064	95.94
295.295	90.94
295.525	77.94
295.756	93.94
295.987	111.94
296.217	149.94
296.448	119.94
296.679	89.94
296.909	84.94
297.14	80.94
297.37	90.94
297.601	96.94
297.831	94.94
298.062	87.94
298.292	98.94
298.523	97.94
298.753	80.94
298.984	90.94
299.214	93.94
299.445	92.94
299.675	87.94
299.905	105.94
300.136	93.94
300.366	86.94
300.597	80.94
300.827	85.94
301.057	104.94
301.288	107.94
301.518	104.94
301.748	90.94
301.979	112.94
302.209	89.94
302.439	103.94
302.669	89.94
302.9	95.94
303.13	84.94
303.36	97.94
303.59	119.94
303.82	105.94
304.051	96.94
304.281	95.94
304.511	81.94
304.741	87.94
304.971	86.94
305.201	91.94
305.431	94.94
305.661	87.94
305.891	72.94
306.121	92.94
306.352	110.94
306.582	110.94
306.812	95.94
307.042	91.94
307.272	104.94
307.502	107.94
307.731	133.94
307.961	116.94
308.191	90.94
308.421	93.94
308.651	78.94
308.881	92.94
309.111	86.94
309.341	92.94
309.571	95.94
309.8	94.94
310.03	94.94
310.26	103.94
310.49	89.94
310.72	97.94
310.949	119.94
311.179	102.94
311.409	107.94
311.639	105.94
311.868	95.94
312.098	89.94
312.328	92.94
312.557	89.94
312.787	105.94
313.017	100.94
313.246	98.94
313.476	83.94
313.706	83.94
313.935	87.94
314.165	96.94
314.394	100.94
314.624	90.94
314.853	98.94
315.083	96.94
315.312	95.94
315.542	100.94
315.771	94.94
316.001	87.94
316.23	89.94
316.46	86.94
316.689	81.94
316.919	88.94
317.148	94.94
317.377	99.94
317.607	101.94
317.836	92.94
318.065	88.94
318.295	98.94
318.524	80.94
318.753	77.94
318.983	101.94
319.212	109.94
319.441	107.94
319.67	107.94
319.9	95.94
320.129	97.94
320.358	82.94
320.587	97.94
320.816	101.94
321.046	97.94
321.275	97.94
321.504	90.94
321.733	104.94
321.962	105.94
322.191	107.94
322.42	95.94
322.649	104.94
322.878	109.94
323.108	126.94
323.337	126.94
323.566	139.94
323.795	166.94
324.024	233.94
324.253	453.94
324.482	959.94
324.71	2036.94
324.939	2770.94
325.168	1004.94
325.397	285.94
325.626	166.94
325.855	138.94
326.084	136.94
326.313	140.94
326.542	153.94
326.77	247.94
326.999	539.94
327.228	1100.94
327.457	2103.94
327.686	1663.94
327.914	480.94
328.143	326.94
328.372	361.94
328.6	213.94
328.829	151.94
329.058	152.94
329.287	150.94
329.515	140.94
329.744	168.94
329.972	255.94
330.201	452.94
330.43	623.94
330.658	341.94
330.887	187.94
331.115	161.94
331.344	99.94
331.572	117.94
331.801	116.94
332.03	105.94
332.258	98.94
332.486	97.94
332.715	78.94
332.943	91.94
333.172	118.94
333.4	106.94
333.629	124.94
333.857	171.94
334.085	231.94
334.314	448.94
334.542	807.94
334.771	808.94
334.999	245.94
335.227	123.94
335.455	98.94
335.684	100.94
335.912	90.94
336.14	106.94
336.369	107.94
336.597	95.94
336.825	97.94
337.053	83.94
337.281	83.94
337.51	90.94
337.738	99.94
337.966	91.94
338.194	106.94
338.422	97.94
338.65	98.94
338.878	96.94
339.106	101.94
339.334	87.94
339.562	95.94
339.79	84.94
340.018	91.94
340.246	93.94
340.474	104.94
340.702	98.94
340.93	99.94
341.158	97.94
341.386	98.94
341.614	94.94
341.842	92.94
342.07	100.94
342.298	84.94
342.526	94.94
342.754	99.94
342.981	93.94
343.209	81.94
343.437	92.94
343.665	99.94
343.893	95.94
344.12	105.94
344.348	89.94
344.576	90.94
344.804	102.94
345.031	92.94
345.259	101.94
345.487	99.94
345.714	93.94
345.942	83.94
346.17	91.94
346.397	89.94
346.625	87.94
346.853	89.94
347.08	87.94
347.308	97.94
347.535	92.94
347.763	111.94
347.99	99.94
348.218	104.94
348.445	107.94
348.673	98.94
348.9	102.94
349.128	96.94
349.355	98.94
349.583	93.94
349.81	94.94
350.037	92.94
350.265	81.94
350.492	94.94
350.72	89.94
350.947	100.94
351.174	118.94
351.402	117.94
351.629	98.94
351.856	99.94
352.083	107.94
352.311	116.94
352.538	119.94
352.765	103.94
352.992	116.94
353.22	117.94
353.447	100.94
353.674	114.94
353.901	100.94
354.128	91.94
354.355	97.94
354.583	101.94
354.81	88.94
355.037	93.94
355.264	83.94
355.491	101.94
355.718	81.94
355.945	88.94
356.172	91.94
356.399	97.94
356.626	86.94
356.853	92.94
357.08	82.94
357.307	95.94
357.534	82.94
357.761	103.94
357.988	93.94
358.215	92.94
358.441	101.94
358.668	105.94
358.895	82.94
359.122	98.94
359.349	99.94
359.576	98.94
359.802	96.94
360.029	113.94
360.256	110.94
360.483	101.94
360.709	68.94
360.936	97.94
361.163	87.94
361.39	92.94
361.616	85.94
361.843	87.94
362.07	100.94
362.296	95.94
362.523	96.94
362.749	78.94
362.976	94.94
363.203	97.94
363.429	97.94
363.656	94.94
363.882	91.94
364.109	97.94
364.335	92.94
364.562	90.94
364.788	90.94
365.015	99.94
365.241	121.94
365.468	103.94
365.694	101.94
365.92	99.94
366.147	94.94
366.373	87.94
366.599	88.94
366.826	79.94
367.052	73.94
367.278	81.94
367.505	98.94
367.731	84.94
367.957	88.94
368.184	102.94
368.41	101.94
368.636	93.94
368.862	113.94
369.089	110.94
369.315	88.94
369.541	101.94
369.767	97.94
369.993	93.94
370.219	78.94
370.445	81.94
370.672	90.94
370.898	100.94
371.124	85.94
371.35	84.94
371.576	92.94
371.802	91.94
372.028	79.94
372.254	88.94
372.48	91.94
372.706	97.94
372.932	85.94
373.158	87.94
373.384	98.94
373.61	90.94
373.835	98.94
374.061	99.94
374.287	101.94
374.513	91.94
374.739	83.94
374.965	77.94
375.191	88.94
375.416	87.94
375.642	91.94
375.868	80.94
376.094	83.94
376.319	99.94
376.545	83.94
376.771	89.94
376.997	80.94
377.222	96.94
377.448	102.94
377.674	90.94
377.899	86.94
378.125	77.94
378.35	92.94
378.576	76.94
378.802	96.94
379.027	84.94
379.253	87.94
379.478	92.94
379.704	87.94
379.929	89.94
380.155	101.94
380.38	92.94
380.606	91.94
380.831	91.94
381.057	98.94
381.282	98.94
381.507	84.94
381.733	93.94
381.958	98.94
382.184	107.94
382.409	103.94
382.634	96.94
382.86	97.94
383.085	105.94
383.31	92.94
383.535	83.94
383.761	100.94
383.986	96.94
384.211	87.94
384.436	104.94
384.662	97.94
384.887	118.94
385.112	108.94
385.337	101.94
385.562	98.94
385.787	105.94
386.013	111.94
386.238	115.94
386.463	117.94
386.688	112.94
386.913	115.94
387.138	128.94
387.363	120.94
387.588	109.94
387.813	119.94
388.038	114.94
388.263	111.94
388.488	101.94
388.713	87.94
388.938	78.94
389.163	101.94
389.387	83.94
389.612	83.94
389.837	96.94
390.062	100.94
390.287	95.94
390.512	90.94
390.736	90.94
390.961	82.94
391.186	109.94
391.411	116.94
391.636	95.94
391.86	85.94
392.085	82.94
392.31	77.94
392.534	76.94
392.759	93.94
392.984	74.94
393.208	72.94
393.433	84.94
393.658	97.94
393.882	88.94
394.107	81.94
394.331	81.94
394.556	84.94
394.78	90.94
395.005	83.94
395.229	97.94
395.454	87.94
395.678	79.94
395.903	105.94
396.127	93.94
396.352	81.94
396.576	81.94
396.801	100.94
397.025	88.94
397.249	85.94
397.474	91.94
397.698	84.94
397.922	80.94
398.147	71.94
398.371	68.94
398.595	79.94
398.82	83.94
399.044	88.94
399.268	73.94
399.492	89.94
399.717	76.94
399.941	86.94
400.165	95.94
400.389	81.94
400.613	63.94
400.837	83.94
401.062	69.94
401.286	77.94
401.51	97.94
401.734	81.94
401.958	100.94
402.182	119.94
402.406	155.94
402.63	118.94
402.854	87.94
403.078	83.94
403.302	88.94
403.526	73.94
403.75	81.94
403.974	73.94
404.198	81.94
404.422	87.94
404.645	85.94
404.869	96.94
405.093	114.94
405.317	123.94
405.541	123.94
405.765	105.94
405.988	130.94
406.212	176.94
406.436	255.94
406.66	155.94
406.883	105.94
407.107	83.94
407.331	97.94
407.555	106.94
407.778	96.94
408.002	81.94
408.226	80.94
408.449	78.94
408.673	100.94
408.896	107.94
409.12	93.94
409.344	91.94
409.567	95.94
409.791	92.94
410.014	81.94
410.238	94.94
410.461	72.94
410.685	94.94
410.908	100.94
411.132	94.94
411.355	99.94
411.578	85.94
411.802	101.94
412.025	87.94
412.249	86.94
412.472	97.94
412.695	126.94
412.919	100.94
413.142	101.94
413.365	86.94
413.589	85.94
413.812	75.94
414.035	86.94
414.258	91.94
414.482	89.94
414.705	94.94
414.928	87.94
415.151	83.94
415.374	77.94
415.597	76.94
415.821	80.94
416.044	96.94
416.267	84.94
416.49	84.94
416.713	79.94
416.936	85.94
417.159	85.94
417.382	85.94
417.605	100.94
417.828	97.94
418.051	100.94
418.274	88.94
418.497	84.94
418.72	80.94
418.943	79.94
419.166	99.94
419.389	93.94
419.611	94.94
419.834	89.94
420.057	71.94
420.28	87.94
420.503	92.94
420.726	90.94
420.948	91.94
421.171	80.94
421.394	78.94
421.617	85.94
421.839	78.94
422.062	75.94
422.285	89.94
422.507	98.94
422.73	88.94
422.953	83.94
423.175	93.94
423.398	101.94
423.621	82.94
423.843	94.94
424.066	99.94
424.288	88.94
424.511	89.94
424.733	105.94
424.956	120.94
425.178	97.94
425.401	92.94
425.623	114.94
425.846	107.94
426.068	87.94
426.291	98.94
426.513	105.94
426.735	93.94
426.958	107.94
427.18	112.94
427.402	147.94
427.625	188.94
427.847	177.94
428.069	164.94
428.292	113.94
428.514	91.94
428.736	87.94
428.958	101.94
429.181	97.94
429.403	97.94
429.625	78.94
429.847	96.94
430.069	108.94
430.292	99.94
430.514	76.94
430.736	86.94
430.958	77.94
431.18	82.94
431.402	102.94
431.624	100.94
431.846	80.94
432.068	90.94
432.29	84.94
432.512	97.94
432.734	90.94
432.956	85.94
433.178	104.94
433.4	97.94
433.622	83.94
433.844	81.94
434.066	81.94
434.287	101.94
434.509	95.94
434.731	89.94
434.953	81.94
435.175	94.94
435.397	92.94
435.618	95.94
435.84	92.94
436.062	142.94
436.284	128.94
436.505	109.94
436.727	110.94
436.949	97.94
437.17	87.94
437.392	79.94
437.614	84.94
437.835	120.94
438.057	125.94
438.278	117.94
438.5	100.94
438.721	133.94
438.943	95.94
439.165	101.94
439.386	84.94
439.608	86.94
439.829	108.94
440.05	143.94
440.272	160.94
440.493	95.94
440.715	93.94
440.936	84.94
441.158	68.94
441.379	82.94
441.6	104.94
441.822	92.94
442.043	95.94
442.264	110.94
442.486	95.94
442.707	84.94
442.928	123.94
443.149	131.94
443.371	142.94
443.592	113.94
443.813	122.94
444.034	134.94
444.255	101.94
444.476	83.94
444.698	74.94
444.919	84.94
445.14	136.94
445.361	123.94
445.582	122.94
445.803	173.94
446.024	161.94
446.245	156.94
446.466	118.94
446.687	82.94
446.908	95.94
447.129	92.94
447.35	72.94
447.571	105.94
447.792	112.94
448.013	97.94
448.234	112.94
448.455	98.94
448.675	125.94
448.896	127.94
449.117	108.94
449.338	90.94
449.559	130.94
449.779	140.94
450	97.94
450.221	88.94
450.442	82.94
450.662	85.94
450.883	108.94
451.104	107.94
451.324	102.94
451.545	91.94
451.766	97.94
451.986	101.94
452.207	92.94
452.428	96.94
452.648	105.94
452.869	108.94
453.089	106.94
453.31	117.94
453.53	105.94
453.751	93.94
453.971	107.94
454.192	131.94
454.412	88.94
454.633	93.94
454.853	81.94
455.073	86.94
455.294	97.94
455.514	95.94
455.734	93.94
455.955	92.94
456.175	77.94
456.395	83.94
456.616	77.94
456.836	88.94
457.056	86.94
457.276	82.94
457.497	82.94
457.717	75.94
457.937	92.94
458.157	92.94
458.377	89.94
458.598	98.94
458.818	155.94
459.038	191.94
459.258	135.94
459.478	83.94
459.698	83.94
459.918	82.94
460.138	78.94
460.358	77.94
460.578	87.94
460.798	99.94
461.018	77.94
461.238	89.94
461.458	100.94
461.678	72.94
461.898	99.94
462.118	78.94
462.338	98.94
462.558	76.94
462.777	89.94
462.997	88.94
463.217	101.94
463.437	78.94
463.657	83.94
463.876	94.94
464.096	94.94
464.316	94.94
464.536	97.94
464.755	88.94
464.975	105.94
465.195	187.94
465.414	180.94
465.634	99.94
465.854	87.94
466.073	92.94
466.293	80.94
466.512	79.94
466.732	85.94
466.951	89.94
467.171	84.94
467.391	89.94
467.61	126.94
467.829	149.94
468.049	252.94
468.268	391.94
468.488	120.94
468.707	87.94
468.927	72.94
469.146	89.94
469.365	84.94
469.585	83.94
469.804	93.94
470.023	97.94
470.243	87.94
470.462	109.94
470.681	109.94
470.901	97.94
471.12	83.94
471.339	98.94
471.558	96.94
471.777	112.94
471.997	182.94
472.216	517.94
472.435	1118.94
472.654	287.94
472.873	127.94
473.092	96.94
473.311	85.94
473.53	93.94
473.749	92.94
473.968	95.94
474.187	111.94
474.406	96.94
474.625	96.94
474.844	77.94
475.063	81.94
475.282	79.94
475.501	92.94
475.72	81.94
475.939	89.94
476.158	83.94
476.377	89.94
476.596	90.94
476.814	88.94
477.033	95.94
477.252	103.94
477.471	85.94
477.69	95.94
477.908	84.94
478.127	80.94
478.346	86.94
478.564	97.94
478.783	91.94
479.002	97.94
479.22	99.94
479.439	102.94
479.658	116.94
479.876	108.94
480.095	113.94
480.313	106.94
480.532	120.94
480.751	169.94
480.969	494.94
481.188	1931.94
481.406	1159.94
481.624	215.94
481.843	105.94
482.061	91.94
482.28	95.94
482.498	103.94
482.717	90.94
482.935	96.94
483.153	81.94
483.372	91.94
483.59	87.94
483.808	77.94
484.027	89.94
484.245	78.94
484.463	84.94
484.681	97.94
484.9	81.94
485.118	92.94
485.336	88.94
485.554	98.94
485.772	96.94
485.99	107.94
486.209	96.94
486.427	111.94
486.645	108.94
486.863	111.94
487.081	98.94
487.299	86.94
487.517	96.94
487.735	101.94
487.953	83.94
488.171	90.94
488.389	88.94
488.607	101.94
488.825	81.94
489.043	98.94
489.261	75.94
489.479	106.94
489.696	87.94
489.914	83.94
490.132	86.94
490.35	89.94
490.568	94.94
490.786	91.94
491.003	84.94
491.221	92.94
491.439	80.94
491.657	84.94
491.874	98.94
492.092	84.94
492.31	110.94
492.527	98.94
492.745	110.94
492.963	85.94
493.18	94.94
493.398	84.94
493.615	89.94
493.833	79.94
494.05	81.94
494.268	95.94
494.485	97.94
494.703	108.94
494.92	74.94
495.138	86.94
495.355	84.94
495.573	95.94
495.79	87.94
496.008	77.94
496.225	84.94
496.442	83.94
496.66	83.94
496.877	89.94
497.094	99.94
497.312	100.94
497.529	96.94
497.746	84.94
497.963	76.94
498.181	95.94
498.398	98.94
498.615	120.94
498.832	113.94
499.049	80.94
499.267	95.94
499.484	89.94
499.701	83.94
499.918	78.94
500.135	90.94
500.352	87.94
500.569	87.94
500.786	92.94
501.003	87.94
501.22	91.94
501.437	99.94
501.654	84.94
501.871	130.94
502.088	99.94
502.305	92.94
502.522	71.94
502.739	87.94
502.956	77.94
503.172	77.94
503.389	92.94
503.606	130.94
503.823	105.94
504.04	86.94
504.256	98.94
504.473	87.94
504.69	80.94
504.907	95.94
505.123	86.94
505.34	87.94
505.557	88.94
505.773	85.94
505.99	77.94
506.207	75.94
506.423	79.94
506.64	80.94
506.856	89.94
507.073	85.94
507.289	89.94
507.506	99.94
507.722	137.94
507.939	116.94
508.155	87.94
508.372	81.94
508.588	90.94
508.805	97.94
509.021	101.94
509.238	99.94
509.454	94.94
509.67	95.94
509.887	107.94
510.103	123.94
510.319	202.94
510.536	767.94
510.752	2548.94
510.968	697.94
511.184	166.94
511.401	115.94
511.617	108.94
511.833	96.94
512.049	101.94
512.265	91.94
512.481	92.94
512.698	77.94
512.914	88.94
513.13	96.94
513.346	81.94
513.562	85.94
513.778	85.94
513.994	92.94
514.21	91.94
514.426	122.94
514.642	148.94
514.858	132.94
515.074	172.94
