Data from Circ_1992_H10_HRD10591_00049.txt Node
Date: Wed Jan 03 11:47:54 EST 2024
User: Yrep
Spectrometer: HR+D1059
Trigger mode: 1
Integration Time (sec): 1.000000E-1
Scans to average: 1
Electric dark correction enabled: true
Nonlinearity correction enabled: false
Boxcar width: 0
XAxis mode: Wavelengths
Number of Pixels in Spectrum: 2048
>>>>>Begin Spectral Data<<<<<
223.165	-11.44
223.4	-11.44
223.635	-11.44
223.869	-16.44
224.104	-20.44
224.338	-16.44
224.573	-21.44
224.808	-19.44
225.042	-3.44
225.277	0.56
225.511	-4.44
225.746	-8.44
225.98	7.56
226.215	13.56
226.449	14.56
226.683	15.56
226.918	32.56
227.152	37.56
227.387	23.56
227.621	31.56
227.856	49.56
228.09	46.56
228.324	46.56
228.559	67.56
228.793	60.56
229.027	66.56
229.262	64.56
229.496	94.56
229.73	100.56
229.964	80.56
230.199	84.56
230.433	70.56
230.667	67.56
230.901	79.56
231.136	66.56
231.37	80.56
231.604	85.56
231.838	87.56
232.072	89.56
232.306	84.56
232.541	80.56
232.775	85.56
233.009	97.56
233.243	90.56
233.477	82.56
233.711	89.56
233.945	70.56
234.179	76.56
234.413	82.56
234.647	70.56
234.881	87.56
235.115	77.56
235.349	100.56
235.583	83.56
235.817	81.56
236.051	85.56
236.285	80.56
236.519	78.56
236.753	75.56
236.987	69.56
237.221	91.56
237.455	91.56
237.689	85.56
237.922	77.56
238.156	83.56
238.39	82.56
238.624	79.56
238.858	71.56
239.091	87.56
239.325	92.56
239.559	80.56
239.793	66.56
240.027	71.56
240.26	68.56
240.494	84.56
240.728	78.56
240.961	88.56
241.195	75.56
241.429	78.56
241.662	72.56
241.896	80.56
242.13	90.56
242.363	89.56
242.597	88.56
242.83	78.56
243.064	58.56
243.298	73.56
243.531	85.56
243.765	83.56
243.998	79.56
244.232	75.56
244.465	89.56
244.699	78.56
244.932	84.56
245.166	80.56
245.399	85.56
245.633	80.56
245.866	90.56
246.099	76.56
246.333	76.56
246.566	75.56
246.8	70.56
247.033	82.56
247.266	81.56
247.5	83.56
247.733	75.56
247.966	79.56
248.2	84.56
248.433	92.56
248.666	90.56
248.899	76.56
249.133	88.56
249.366	101.56
249.599	92.56
249.832	88.56
250.066	80.56
250.299	75.56
250.532	94.56
250.765	81.56
250.998	75.56
251.231	82.56
251.465	79.56
251.698	79.56
251.931	85.56
252.164	70.56
252.397	63.56
252.63	87.56
252.863	83.56
253.096	83.56
253.329	74.56
253.562	76.56
253.795	83.56
254.028	74.56
254.261	85.56
254.494	80.56
254.727	98.56
254.96	93.56
255.193	85.56
255.426	72.56
255.659	79.56
255.892	92.56
256.124	94.56
256.357	82.56
256.59	75.56
256.823	87.56
257.056	90.56
257.289	102.56
257.521	83.56
257.754	78.56
257.987	94.56
258.22	74.56
258.452	87.56
258.685	83.56
258.918	84.56
259.151	72.56
259.383	96.56
259.616	88.56
259.849	91.56
260.081	67.56
260.314	81.56
260.547	92.56
260.779	88.56
261.012	78.56
261.244	94.56
261.477	96.56
261.71	95.56
261.942	104.56
262.175	109.56
262.407	76.56
262.64	87.56
262.872	74.56
263.105	74.56
263.337	85.56
263.57	90.56
263.802	97.56
264.035	93.56
264.267	86.56
264.499	76.56
264.732	89.56
264.964	77.56
265.197	83.56
265.429	84.56
265.661	83.56
265.894	82.56
266.126	101.56
266.358	87.56
266.591	79.56
266.823	85.56
267.055	91.56
267.287	82.56
267.52	80.56
267.752	101.56
267.984	87.56
268.216	84.56
268.448	89.56
268.681	94.56
268.913	92.56
269.145	86.56
269.377	75.56
269.609	84.56
269.841	75.56
270.073	95.56
270.306	100.56
270.538	104.56
270.77	79.56
271.002	84.56
271.234	83.56
271.466	93.56
271.698	91.56
271.93	96.56
272.162	91.56
272.394	81.56
272.626	74.56
272.858	78.56
273.09	89.56
273.322	84.56
273.553	90.56
273.785	91.56
274.017	78.56
274.249	90.56
274.481	80.56
274.713	105.56
274.945	79.56
275.176	86.56
275.408	85.56
275.64	82.56
275.872	103.56
276.104	76.56
276.335	99.56
276.567	101.56
276.799	122.56
277.031	122.56
277.262	114.56
277.494	109.56
277.726	93.56
277.957	87.56
278.189	90.56
278.421	99.56
278.652	81.56
278.884	91.56
279.115	86.56
279.347	89.56
279.579	82.56
279.81	107.56
280.042	127.56
280.273	143.56
280.505	112.56
280.736	91.56
280.968	95.56
281.199	91.56
281.431	87.56
281.662	83.56
281.894	88.56
282.125	94.56
282.356	127.56
282.588	145.56
282.819	122.56
283.051	88.56
283.282	90.56
283.513	90.56
283.745	95.56
283.976	78.56
284.207	74.56
284.439	100.56
284.67	97.56
284.901	82.56
285.132	82.56
285.364	86.56
285.595	91.56
285.826	95.56
286.057	97.56
286.288	85.56
286.52	82.56
286.751	83.56
286.982	86.56
287.213	83.56
287.444	88.56
287.675	86.56
287.906	95.56
288.138	94.56
288.369	107.56
288.6	102.56
288.831	100.56
289.062	105.56
289.293	92.56
289.524	76.56
289.755	81.56
289.986	88.56
290.217	80.56
290.448	84.56
290.679	87.56
290.91	92.56
291.141	87.56
291.371	90.56
291.602	92.56
291.833	91.56
292.064	87.56
292.295	82.56
292.526	93.56
292.757	83.56
292.987	104.56
293.218	104.56
293.449	79.56
293.68	87.56
293.91	83.56
294.141	94.56
294.372	86.56
294.603	83.56
294.833	110.56
295.064	84.56
295.295	95.56
295.525	99.56
295.756	95.56
295.987	110.56
296.217	147.56
296.448	129.56
296.679	98.56
296.909	74.56
297.14	101.56
297.37	100.56
297.601	85.56
297.831	88.56
298.062	101.56
298.292	95.56
298.523	85.56
298.753	90.56
298.984	92.56
299.214	81.56
299.445	90.56
299.675	84.56
299.905	100.56
300.136	111.56
300.366	88.56
300.597	82.56
300.827	93.56
301.057	98.56
301.288	110.56
301.518	91.56
301.748	88.56
301.979	104.56
302.209	97.56
302.439	103.56
302.669	103.56
302.9	114.56
303.13	88.56
303.36	103.56
303.59	115.56
303.82	120.56
304.051	109.56
304.281	84.56
304.511	90.56
304.741	101.56
304.971	84.56
305.201	84.56
305.431	96.56
305.661	94.56
305.891	92.56
306.121	88.56
306.352	110.56
306.582	105.56
306.812	111.56
307.042	106.56
307.272	121.56
307.502	124.56
307.731	144.56
307.961	92.56
308.191	84.56
308.421	87.56
308.651	93.56
308.881	100.56
309.111	108.56
309.341	91.56
309.571	93.56
309.8	94.56
310.03	98.56
310.26	92.56
310.49	96.56
310.72	90.56
310.949	116.56
311.179	96.56
311.409	91.56
311.639	113.56
311.868	105.56
312.098	101.56
312.328	112.56
312.557	114.56
312.787	113.56
313.017	111.56
313.246	106.56
313.476	101.56
313.706	80.56
313.935	102.56
314.165	105.56
314.394	107.56
314.624	92.56
314.853	95.56
315.083	87.56
315.312	100.56
315.542	98.56
315.771	85.56
316.001	96.56
316.23	101.56
316.46	100.56
316.689	101.56
316.919	101.56
317.148	112.56
317.377	109.56
317.607	93.56
317.836	108.56
318.065	101.56
318.295	94.56
318.524	80.56
318.753	94.56
318.983	114.56
319.212	104.56
319.441	111.56
319.67	107.56
319.9	94.56
320.129	106.56
320.358	103.56
320.587	92.56
320.816	109.56
321.046	103.56
321.275	99.56
321.504	86.56
321.733	94.56
321.962	97.56
322.191	100.56
322.42	86.56
322.649	110.56
322.878	105.56
323.108	130.56
323.337	128.56
323.566	145.56
323.795	149.56
324.024	196.56
324.253	387.56
324.482	848.56
324.71	1674.56
324.939	2261.56
325.168	826.56
325.397	237.56
325.626	147.56
325.855	126.56
326.084	127.56
326.313	136.56
326.542	154.56
326.77	237.56
326.999	434.56
327.228	918.56
327.457	1636.56
327.686	1349.56
327.914	409.56
328.143	296.56
328.372	351.56
328.6	229.56
328.829	152.56
329.058	143.56
329.287	159.56
329.515	131.56
329.744	146.56
329.972	234.56
330.201	426.56
330.43	595.56
330.658	327.56
330.887	197.56
331.115	162.56
331.344	112.56
331.572	113.56
331.801	102.56
332.03	98.56
332.258	114.56
332.486	96.56
332.715	89.56
332.943	121.56
333.172	95.56
333.4	121.56
333.629	127.56
333.857	169.56
334.085	236.56
334.314	420.56
334.542	785.56
334.771	755.56
334.999	227.56
335.227	116.56
335.455	104.56
335.684	119.56
335.912	104.56
336.14	97.56
336.369	119.56
336.597	110.56
336.825	92.56
337.053	106.56
337.281	96.56
337.51	99.56
337.738	83.56
337.966	86.56
338.194	94.56
338.422	94.56
338.65	94.56
338.878	104.56
339.106	98.56
339.334	81.56
339.562	108.56
339.79	83.56
340.018	93.56
340.246	100.56
340.474	100.56
340.702	88.56
340.93	85.56
341.158	96.56
341.386	90.56
341.614	109.56
341.842	103.56
342.07	94.56
342.298	88.56
342.526	74.56
342.754	87.56
342.981	96.56
343.209	94.56
343.437	102.56
343.665	81.56
343.893	102.56
344.12	95.56
344.348	82.56
344.576	104.56
344.804	86.56
345.031	84.56
345.259	102.56
345.487	88.56
345.714	111.56
345.942	92.56
346.17	98.56
346.397	102.56
346.625	100.56
346.853	85.56
347.08	83.56
347.308	90.56
347.535	108.56
347.763	105.56
347.99	88.56
348.218	110.56
348.445	103.56
348.673	101.56
348.9	104.56
349.128	110.56
349.355	106.56
349.583	96.56
349.81	96.56
350.037	85.56
350.265	96.56
350.492	95.56
350.72	90.56
350.947	97.56
351.174	102.56
351.402	129.56
351.629	107.56
351.856	105.56
352.083	109.56
352.311	110.56
352.538	110.56
352.765	100.56
352.992	126.56
353.22	118.56
353.447	107.56
353.674	109.56
353.901	101.56
354.128	84.56
354.355	96.56
354.583	102.56
354.81	89.56
355.037	103.56
355.264	105.56
355.491	89.56
355.718	83.56
355.945	100.56
356.172	92.56
356.399	106.56
356.626	82.56
356.853	94.56
357.08	97.56
357.307	83.56
357.534	88.56
357.761	105.56
357.988	90.56
358.215	95.56
358.441	96.56
358.668	100.56
358.895	93.56
359.122	92.56
359.349	104.56
359.576	96.56
359.802	100.56
360.029	125.56
360.256	109.56
360.483	125.56
360.709	96.56
360.936	88.56
361.163	103.56
361.39	102.56
361.616	83.56
361.843	96.56
362.07	111.56
362.296	97.56
362.523	93.56
362.749	108.56
362.976	92.56
363.203	91.56
363.429	96.56
363.656	82.56
363.882	87.56
364.109	89.56
364.335	90.56
364.562	89.56
364.788	97.56
365.015	97.56
365.241	98.56
365.468	117.56
365.694	108.56
365.92	90.56
366.147	101.56
366.373	94.56
366.599	95.56
366.826	93.56
367.052	89.56
367.278	85.56
367.505	98.56
367.731	94.56
367.957	88.56
368.184	87.56
368.41	91.56
368.636	117.56
368.862	128.56
369.089	106.56
369.315	104.56
369.541	93.56
369.767	98.56
369.993	107.56
370.219	101.56
370.445	98.56
370.672	93.56
370.898	96.56
371.124	85.56
371.35	95.56
371.576	86.56
371.802	88.56
372.028	94.56
372.254	99.56
372.48	96.56
372.706	89.56
372.932	87.56
373.158	94.56
373.384	89.56
373.61	98.56
373.835	84.56
374.061	84.56
374.287	91.56
374.513	85.56
374.739	97.56
374.965	78.56
375.191	74.56
375.416	97.56
375.642	98.56
375.868	72.56
376.094	90.56
376.319	76.56
376.545	88.56
376.771	87.56
376.997	93.56
377.222	87.56
377.448	100.56
377.674	95.56
377.899	86.56
378.125	96.56
378.35	98.56
378.576	90.56
378.802	96.56
379.027	107.56
379.253	102.56
379.478	103.56
379.704	105.56
379.929	99.56
380.155	95.56
380.38	103.56
380.606	100.56
380.831	94.56
381.057	106.56
381.282	107.56
381.507	90.56
381.733	104.56
381.958	91.56
382.184	101.56
382.409	103.56
382.634	98.56
382.86	106.56
383.085	112.56
383.31	91.56
383.535	92.56
383.761	104.56
383.986	82.56
384.211	99.56
384.436	106.56
384.662	112.56
384.887	112.56
385.112	107.56
385.337	95.56
385.562	109.56
385.787	103.56
386.013	107.56
386.238	110.56
386.463	112.56
386.688	114.56
386.913	99.56
387.138	105.56
387.363	99.56
387.588	108.56
387.813	93.56
388.038	90.56
388.263	135.56
388.488	107.56
388.713	98.56
388.938	96.56
389.163	97.56
389.387	84.56
389.612	83.56
389.837	79.56
390.062	84.56
390.287	80.56
390.512	83.56
390.736	82.56
390.961	82.56
391.186	97.56
391.411	80.56
391.636	82.56
391.86	92.56
392.085	96.56
392.31	87.56
392.534	100.56
392.759	79.56
392.984	91.56
393.208	78.56
393.433	92.56
393.658	82.56
393.882	99.56
394.107	87.56
394.331	94.56
394.556	90.56
394.78	95.56
395.005	87.56
395.229	91.56
395.454	87.56
395.678	90.56
395.903	77.56
396.127	93.56
396.352	105.56
396.576	83.56
396.801	84.56
397.025	87.56
397.249	79.56
397.474	93.56
397.698	73.56
397.922	91.56
398.147	87.56
398.371	90.56
398.595	98.56
398.82	84.56
399.044	93.56
399.268	74.56
399.492	67.56
399.717	103.56
399.941	94.56
400.165	97.56
400.389	71.56
400.613	83.56
400.837	83.56
401.062	99.56
401.286	78.56
401.51	90.56
401.734	95.56
401.958	109.56
402.182	142.56
402.406	163.56
402.63	115.56
402.854	92.56
403.078	92.56
403.302	89.56
403.526	98.56
403.75	95.56
403.974	90.56
404.198	102.56
404.422	96.56
404.645	79.56
404.869	101.56
405.093	95.56
405.317	103.56
405.541	106.56
405.765	102.56
405.988	105.56
406.212	178.56
406.436	232.56
406.66	164.56
406.883	108.56
407.107	91.56
407.331	101.56
407.555	93.56
407.778	113.56
408.002	86.56
408.226	86.56
408.449	83.56
408.673	94.56
408.896	96.56
409.12	103.56
409.344	97.56
409.567	92.56
409.791	105.56
410.014	92.56
410.238	75.56
410.461	110.56
410.685	95.56
410.908	90.56
411.132	91.56
411.355	85.56
411.578	91.56
411.802	71.56
412.025	109.56
412.249	87.56
412.472	102.56
412.695	123.56
412.919	89.56
413.142	109.56
413.365	88.56
413.589	80.56
413.812	90.56
414.035	91.56
414.258	92.56
414.482	95.56
414.705	86.56
414.928	95.56
415.151	71.56
415.374	83.56
415.597	104.56
415.821	86.56
416.044	83.56
416.267	85.56
416.49	94.56
416.713	93.56
416.936	87.56
417.159	76.56
417.382	91.56
417.605	93.56
417.828	118.56
418.051	101.56
418.274	95.56
418.497	87.56
418.72	92.56
418.943	80.56
419.166	93.56
419.389	87.56
419.611	79.56
419.834	104.56
420.057	93.56
420.28	75.56
420.503	89.56
420.726	93.56
420.948	97.56
421.171	100.56
421.394	95.56
421.617	102.56
421.839	84.56
422.062	93.56
422.285	87.56
422.507	89.56
422.73	103.56
422.953	68.56
423.175	91.56
423.398	85.56
423.621	99.56
423.843	81.56
424.066	88.56
424.288	97.56
424.511	102.56
424.733	107.56
424.956	107.56
425.178	92.56
425.401	111.56
425.623	111.56
425.846	93.56
426.068	98.56
426.291	86.56
426.513	80.56
426.735	91.56
426.958	100.56
427.18	118.56
427.402	124.56
427.625	204.56
427.847	180.56
428.069	174.56
428.292	99.56
428.514	80.56
428.736	84.56
428.958	64.56
429.181	87.56
429.403	74.56
429.625	75.56
429.847	110.56
430.069	93.56
430.292	98.56
430.514	81.56
430.736	85.56
430.958	83.56
431.18	91.56
431.402	89.56
431.624	78.56
431.846	83.56
432.068	77.56
432.29	96.56
432.512	82.56
432.734	92.56
432.956	94.56
433.178	93.56
433.4	93.56
433.622	88.56
433.844	92.56
434.066	101.56
434.287	106.56
434.509	94.56
434.731	89.56
434.953	85.56
435.175	78.56
435.397	98.56
435.618	102.56
435.84	108.56
436.062	120.56
436.284	116.56
436.505	97.56
436.727	102.56
436.949	99.56
437.17	94.56
437.392	92.56
437.614	109.56
437.835	101.56
438.057	122.56
438.278	109.56
438.5	110.56
438.721	118.56
438.943	102.56
439.165	71.56
439.386	89.56
439.608	77.56
439.829	99.56
440.05	120.56
440.272	142.56
440.493	89.56
440.715	90.56
440.936	97.56
441.158	94.56
441.379	85.56
441.6	92.56
441.822	100.56
442.043	98.56
442.264	108.56
442.486	110.56
442.707	99.56
442.928	104.56
443.149	130.56
443.371	141.56
443.592	107.56
443.813	104.56
444.034	109.56
444.255	89.56
444.476	86.56
444.698	81.56
444.919	78.56
445.14	97.56
445.361	121.56
445.582	118.56
445.803	163.56
446.024	150.56
446.245	138.56
446.466	111.56
446.687	89.56
446.908	95.56
447.129	84.56
447.35	90.56
447.571	96.56
447.792	97.56
448.013	109.56
448.234	114.56
448.455	100.56
448.675	99.56
448.896	110.56
449.117	100.56
449.338	102.56
449.559	128.56
449.779	123.56
450	99.56
450.221	79.56
450.442	86.56
450.662	103.56
450.883	108.56
451.104	114.56
451.324	84.56
451.545	94.56
451.766	83.56
451.986	85.56
452.207	78.56
452.428	80.56
452.648	97.56
452.869	122.56
453.089	115.56
453.31	120.56
453.53	107.56
453.751	94.56
453.971	106.56
454.192	108.56
454.412	79.56
454.633	94.56
454.853	90.56
455.073	80.56
455.294	98.56
455.514	102.56
455.734	88.56
455.955	67.56
456.175	69.56
456.395	84.56
456.616	82.56
456.836	83.56
457.056	88.56
457.276	83.56
457.497	83.56
457.717	80.56
457.937	82.56
458.157	69.56
458.377	100.56
458.598	115.56
458.818	169.56
459.038	192.56
459.258	114.56
459.478	80.56
459.698	86.56
459.918	83.56
460.138	80.56
460.358	83.56
460.578	89.56
460.798	98.56
461.018	93.56
461.238	79.56
461.458	96.56
461.678	84.56
461.898	83.56
462.118	88.56
462.338	97.56
462.558	91.56
462.777	92.56
462.997	88.56
463.217	88.56
463.437	93.56
463.657	85.56
463.876	82.56
464.096	78.56
464.316	91.56
464.536	95.56
464.755	92.56
464.975	94.56
465.195	186.56
465.414	186.56
465.634	103.56
465.854	86.56
466.073	81.56
466.293	89.56
466.512	88.56
466.732	83.56
466.951	86.56
467.171	94.56
467.391	96.56
467.61	113.56
467.829	136.56
468.049	276.56
468.268	399.56
468.488	122.56
468.707	82.56
468.927	98.56
469.146	93.56
469.365	99.56
469.585	72.56
469.804	96.56
470.023	94.56
470.243	96.56
470.462	103.56
470.681	128.56
470.901	101.56
471.12	94.56
471.339	62.56
471.558	99.56
471.777	115.56
471.997	191.56
472.216	517.56
472.435	1136.56
472.654	289.56
472.873	114.56
473.092	91.56
473.311	86.56
473.53	95.56
473.749	91.56
473.968	92.56
474.187	106.56
474.406	104.56
474.625	91.56
474.844	84.56
475.063	100.56
475.282	67.56
475.501	85.56
475.72	92.56
475.939	92.56
476.158	98.56
476.377	93.56
476.596	96.56
476.814	102.56
477.033	86.56
477.252	95.56
477.471	99.56
477.69	94.56
477.908	78.56
478.127	77.56
478.346	87.56
478.564	98.56
478.783	94.56
479.002	87.56
479.22	88.56
479.439	92.56
479.658	117.56
479.876	110.56
480.095	107.56
480.313	102.56
480.532	118.56
480.751	179.56
480.969	482.56
481.188	1917.56
481.406	1160.56
481.624	222.56
481.843	115.56
482.061	86.56
482.28	91.56
482.498	99.56
482.717	102.56
482.935	92.56
483.153	87.56
483.372	92.56
483.59	98.56
483.808	84.56
484.027	102.56
484.245	87.56
484.463	105.56
484.681	80.56
484.9	93.56
485.118	95.56
485.336	87.56
485.554	98.56
485.772	98.56
485.99	98.56
486.209	114.56
486.427	104.56
486.645	111.56
486.863	112.56
487.081	106.56
487.299	109.56
487.517	104.56
487.735	97.56
487.953	107.56
488.171	88.56
488.389	85.56
488.607	90.56
488.825	93.56
489.043	80.56
489.261	103.56
489.479	102.56
489.696	89.56
489.914	74.56
490.132	90.56
490.35	93.56
490.568	92.56
490.786	103.56
491.003	101.56
491.221	100.56
491.439	87.56
491.657	95.56
491.874	89.56
492.092	95.56
492.31	93.56
492.527	92.56
492.745	75.56
492.963	100.56
493.18	92.56
493.398	91.56
493.615	102.56
493.833	92.56
494.05	77.56
494.268	86.56
494.485	91.56
494.703	100.56
494.92	95.56
495.138	91.56
495.355	87.56
495.573	88.56
495.79	73.56
496.008	89.56
496.225	91.56
496.442	85.56
496.66	101.56
496.877	97.56
497.094	95.56
497.312	99.56
497.529	86.56
497.746	93.56
497.963	96.56
498.181	91.56
498.398	94.56
498.615	105.56
498.832	97.56
499.049	99.56
499.267	88.56
499.484	84.56
499.701	92.56
499.918	86.56
500.135	86.56
500.352	81.56
500.569	79.56
500.786	86.56
501.003	100.56
501.22	75.56
501.437	86.56
501.654	99.56
501.871	104.56
502.088	86.56
502.305	84.56
502.522	96.56
502.739	79.56
502.956	95.56
503.172	99.56
503.389	95.56
503.606	106.56
503.823	98.56
504.04	93.56
504.256	90.56
504.473	87.56
504.69	79.56
504.907	83.56
505.123	83.56
505.34	82.56
505.557	82.56
505.773	83.56
505.99	87.56
506.207	85.56
506.423	97.56
506.64	96.56
506.856	88.56
507.073	104.56
507.289	92.56
507.506	94.56
507.722	119.56
507.939	113.56
508.155	89.56
508.372	90.56
508.588	84.56
508.805	102.56
509.021	98.56
509.238	104.56
509.454	85.56
509.67	109.56
509.887	110.56
510.103	128.56
510.319	210.56
510.536	743.56
510.752	2514.56
510.968	708.56
511.184	163.56
511.401	115.56
511.617	101.56
511.833	109.56
512.049	104.56
512.265	102.56
512.481	78.56
512.698	86.56
512.914	91.56
513.13	92.56
513.346	85.56
513.562	82.56
513.778	94.56
513.994	97.56
514.21	100.56
