Data from Circ_1992_H10_HRD10591_00063.txt Node
Date: Wed Jan 03 11:47:57 EST 2024
User: Yrep
Spectrometer: HR+D1059
Trigger mode: 1
Integration Time (sec): 1.000000E-1
Scans to average: 1
Electric dark correction enabled: true
Nonlinearity correction enabled: false
Boxcar width: 0
XAxis mode: Wavelengths
Number of Pixels in Spectrum: 2048
>>>>>Begin Spectral Data<<<<<
223.165	-19
223.4	-19
223.635	-19
223.869	-30
224.104	-28
224.338	-17
224.573	-13
224.808	-7
225.042	-4
225.277	-12
225.511	-21
225.746	-4
225.98	16
226.215	15
226.449	19
226.683	33
226.918	35
227.152	37
227.387	32
227.621	20
227.856	37
228.09	37
228.324	44
228.559	46
228.793	59
229.027	69
229.262	77
229.496	89
229.73	91
229.964	83
230.199	77
230.433	82
230.667	78
230.901	80
231.136	76
231.37	87
231.604	68
231.838	75
232.072	75
232.306	87
232.541	77
232.775	79
233.009	96
233.243	76
233.477	67
233.711	97
233.945	82
234.179	71
234.413	70
234.647	76
234.881	80
235.115	75
235.349	76
235.583	76
235.817	78
236.051	81
236.285	80
236.519	76
236.753	87
236.987	87
237.221	90
237.455	93
237.689	80
237.922	68
238.156	76
238.39	66
238.624	75
238.858	88
239.091	70
239.325	79
239.559	94
239.793	71
240.027	80
240.26	80
240.494	85
240.728	90
240.961	77
241.195	80
241.429	78
241.662	90
241.896	73
242.13	60
242.363	64
242.597	77
242.83	71
243.064	71
243.298	76
243.531	80
243.765	75
243.998	84
244.232	67
244.465	88
244.699	81
244.932	65
245.166	74
245.399	75
245.633	73
245.866	77
246.099	79
246.333	75
246.566	75
246.8	66
247.033	63
247.266	79
247.5	80
247.733	77
247.966	67
248.2	65
248.433	82
248.666	67
248.899	68
249.133	89
249.366	87
249.599	95
249.832	101
250.066	85
250.299	78
250.532	77
250.765	76
250.998	77
251.231	92
251.465	81
251.698	82
251.931	87
252.164	70
252.397	72
252.63	89
252.863	68
253.096	81
253.329	83
253.562	76
253.795	90
254.028	82
254.261	77
254.494	85
254.727	93
254.96	75
255.193	88
255.426	79
255.659	79
255.892	76
256.124	95
256.357	91
256.59	75
256.823	79
257.056	77
257.289	83
257.521	81
257.754	81
257.987	78
258.22	82
258.452	80
258.685	91
258.918	76
259.151	90
259.383	75
259.616	91
259.849	86
260.081	96
260.314	89
260.547	80
260.779	83
261.012	101
261.244	98
261.477	95
261.71	98
261.942	139
262.175	125
262.407	93
262.64	81
262.872	77
263.105	76
263.337	83
263.57	83
263.802	83
264.035	75
264.267	81
264.499	71
264.732	84
264.964	75
265.197	78
265.429	76
265.661	88
265.894	89
266.126	87
266.358	75
266.591	80
266.823	84
267.055	66
267.287	90
267.52	86
267.752	78
267.984	72
268.216	75
268.448	67
268.681	99
268.913	82
269.145	79
269.377	74
269.609	84
269.841	89
270.073	98
270.306	79
270.538	88
270.77	81
271.002	83
271.234	92
271.466	85
271.698	77
271.93	89
272.162	89
272.394	100
272.626	81
272.858	81
273.09	84
273.322	102
273.553	75
273.785	100
274.017	77
274.249	75
274.481	83
274.713	84
274.945	70
275.176	89
275.408	96
275.64	97
275.872	113
276.104	91
276.335	79
276.567	110
276.799	123
277.031	162
277.262	166
277.494	131
277.726	99
277.957	88
278.189	96
278.421	86
278.652	90
278.884	79
279.115	85
279.347	90
279.579	81
279.81	130
280.042	155
280.273	203
280.505	143
280.736	105
280.968	95
281.199	91
281.431	88
281.662	76
281.894	95
282.125	107
282.356	119
282.588	162
282.819	135
283.051	91
283.282	77
283.513	80
283.745	86
283.976	83
284.207	85
284.439	92
284.67	90
284.901	79
285.132	81
285.364	87
285.595	89
285.826	83
286.057	88
286.288	99
286.52	88
286.751	72
286.982	87
287.213	99
287.444	73
287.675	97
287.906	86
288.138	85
288.369	100
288.6	101
288.831	88
289.062	96
289.293	91
289.524	67
289.755	91
289.986	84
290.217	84
290.448	76
290.679	71
290.91	94
291.141	93
291.371	80
291.602	79
291.833	83
292.064	87
292.295	88
292.526	85
292.757	85
292.987	95
293.218	81
293.449	99
293.68	95
293.91	92
294.141	78
294.372	93
294.603	100
294.833	96
295.064	84
295.295	84
295.525	90
295.756	117
295.987	128
296.217	159
296.448	132
296.679	82
296.909	90
297.14	84
297.37	77
297.601	100
297.831	93
298.062	88
298.292	102
298.523	89
298.753	97
298.984	106
299.214	106
299.445	90
299.675	84
299.905	91
300.136	97
300.366	81
300.597	100
300.827	89
301.057	100
301.288	97
301.518	90
301.748	93
301.979	107
302.209	95
302.439	84
302.669	88
302.9	87
303.13	93
303.36	109
303.59	124
303.82	120
304.051	98
304.281	95
304.511	84
304.741	92
304.971	83
305.201	92
305.431	83
305.661	83
305.891	91
306.121	96
306.352	106
306.582	117
306.812	122
307.042	92
307.272	127
307.502	157
307.731	141
307.961	109
308.191	109
308.421	99
308.651	100
308.881	89
309.111	96
309.341	98
309.571	91
309.8	100
310.03	113
310.26	105
310.49	109
310.72	97
310.949	101
311.179	119
311.409	87
311.639	85
311.868	93
312.098	93
312.328	114
312.557	126
312.787	114
313.017	115
313.246	99
313.476	95
313.706	99
313.935	88
314.165	104
314.394	112
314.624	114
314.853	100
315.083	101
315.312	109
315.542	97
315.771	92
316.001	85
316.23	87
316.46	91
316.689	100
316.919	99
317.148	98
317.377	91
317.607	88
317.836	108
318.065	104
318.295	85
318.524	85
318.753	80
318.983	114
319.212	95
319.441	111
319.67	106
319.9	111
320.129	98
320.358	100
320.587	93
320.816	107
321.046	105
321.275	107
321.504	98
321.733	103
321.962	93
322.191	111
322.42	119
322.649	121
322.878	128
323.108	136
323.337	158
323.566	164
323.795	179
324.024	252
324.253	527
324.482	1171
324.71	2488
324.939	3359
325.168	1195
325.397	316
325.626	177
325.855	143
326.084	144
326.313	144
326.542	188
326.77	293
326.999	613
327.228	1321
327.457	2519
327.686	2014
327.914	566
328.143	425
328.372	520
328.6	324
328.829	177
329.058	170
329.287	178
329.515	164
329.744	207
329.972	370
330.201	731
330.43	1082
330.658	509
330.887	266
331.115	173
331.344	128
331.572	115
331.801	127
332.03	122
332.258	110
332.486	99
332.715	107
332.943	97
333.172	100
333.4	126
333.629	164
333.857	200
334.085	353
334.314	687
334.542	1360
334.771	1282
334.999	353
335.227	161
335.455	142
335.684	110
335.912	110
336.14	116
336.369	107
336.597	111
336.825	105
337.053	105
337.281	89
337.51	105
337.738	105
337.966	101
338.194	110
338.422	92
338.65	85
338.878	85
339.106	94
339.334	97
339.562	100
339.79	103
340.018	91
340.246	92
340.474	105
340.702	96
340.93	93
341.158	103
341.386	99
341.614	106
341.842	93
342.07	97
342.298	93
342.526	92
342.754	107
342.981	104
343.209	101
343.437	102
343.665	86
343.893	104
344.12	100
344.348	77
344.576	80
344.804	99
345.031	111
345.259	108
345.487	116
345.714	90
345.942	100
346.17	98
346.397	97
346.625	103
346.853	99
347.08	89
347.308	98
347.535	116
347.763	113
347.99	120
348.218	106
348.445	111
348.673	116
348.9	92
349.128	106
349.355	96
349.583	92
349.81	89
350.037	91
350.265	93
350.492	90
350.72	99
350.947	99
351.174	123
351.402	124
351.629	103
351.856	98
352.083	103
352.311	115
352.538	113
352.765	132
352.992	121
353.22	104
353.447	107
353.674	106
353.901	92
354.128	118
354.355	88
354.583	99
354.81	96
355.037	93
355.264	103
355.491	102
355.718	83
355.945	92
356.172	89
356.399	100
356.626	96
356.853	98
357.08	101
357.307	90
357.534	84
357.761	81
357.988	94
358.215	85
358.441	104
358.668	95
358.895	87
359.122	70
359.349	88
359.576	102
359.802	114
360.029	125
360.256	144
360.483	111
360.709	88
360.936	91
361.163	103
361.39	100
361.616	104
361.843	87
362.07	89
362.296	94
362.523	100
362.749	93
362.976	93
363.203	81
363.429	99
363.656	87
363.882	97
364.109	97
364.335	95
364.562	90
364.788	86
365.015	86
365.241	106
365.468	111
365.694	122
365.92	114
366.147	100
366.373	89
366.599	84
366.826	98
367.052	104
367.278	88
367.505	80
367.731	82
367.957	101
368.184	94
368.41	109
368.636	118
368.862	124
369.089	109
369.315	104
369.541	93
369.767	98
369.993	83
370.219	91
370.445	100
370.672	95
370.898	83
371.124	99
371.35	87
371.576	79
371.802	79
372.028	81
372.254	87
372.48	82
372.706	93
372.932	89
373.158	89
373.384	89
373.61	106
373.835	93
374.061	96
374.287	95
374.513	99
374.739	92
374.965	88
375.191	72
375.416	86
375.642	88
375.868	98
376.094	93
376.319	94
376.545	89
376.771	87
376.997	89
377.222	80
377.448	82
377.674	99
377.899	89
378.125	97
378.35	104
378.576	97
378.802	102
379.027	78
379.253	96
379.478	84
379.704	103
379.929	93
380.155	100
380.38	94
380.606	106
380.831	100
381.057	90
381.282	106
381.507	98
381.733	108
381.958	104
382.184	98
382.409	101
382.634	116
382.86	95
383.085	94
383.31	97
383.535	114
383.761	114
383.986	97
384.211	94
384.436	96
384.662	98
384.887	94
385.112	101
385.337	109
385.562	94
385.787	108
386.013	114
386.238	128
386.463	115
386.688	119
386.913	108
387.138	118
387.363	110
387.588	87
387.813	103
388.038	97
388.263	120
388.488	93
388.713	87
388.938	97
389.163	87
389.387	83
389.612	87
389.837	92
390.062	91
390.287	96
390.512	81
390.736	92
390.961	88
391.186	88
391.411	105
391.636	84
391.86	94
392.085	84
392.31	80
392.534	89
392.759	98
392.984	97
393.208	90
393.433	92
393.658	97
393.882	77
394.107	85
394.331	84
394.556	80
394.78	85
395.005	98
395.229	81
395.454	95
395.678	91
395.903	88
396.127	96
396.352	96
396.576	80
396.801	62
397.025	80
397.249	82
397.474	82
397.698	100
397.922	103
398.147	91
398.371	87
398.595	84
398.82	93
399.044	81
399.268	87
399.492	92
399.717	87
399.941	83
400.165	99
400.389	90
400.613	109
400.837	101
401.062	86
401.286	98
401.51	93
401.734	94
401.958	100
402.182	139
402.406	191
402.63	148
402.854	104
403.078	88
403.302	95
403.526	99
403.75	104
403.974	87
404.198	88
404.422	97
404.645	101
404.869	111
405.093	105
405.317	148
405.541	135
405.765	126
405.988	128
406.212	189
406.436	275
406.66	188
406.883	123
407.107	97
407.331	107
407.555	112
407.778	97
408.002	108
408.226	92
408.449	82
408.673	83
408.896	98
409.12	102
409.344	87
409.567	76
409.791	79
410.014	84
410.238	87
410.461	89
410.685	84
410.908	100
411.132	102
411.355	93
411.578	96
411.802	97
412.025	99
412.249	104
412.472	113
412.695	139
412.919	101
413.142	103
413.365	84
413.589	81
413.812	98
414.035	95
414.258	90
414.482	94
414.705	103
414.928	95
415.151	81
415.374	98
415.597	88
415.821	89
416.044	85
416.267	75
416.49	98
416.713	85
416.936	86
417.159	98
417.382	101
417.605	119
417.828	112
418.051	109
418.274	90
418.497	92
418.72	75
418.943	94
419.166	76
419.389	92
419.611	102
419.834	87
420.057	93
420.28	85
420.503	101
420.726	87
420.948	87
421.171	106
421.394	92
421.617	102
421.839	79
422.062	96
422.285	94
422.507	117
422.73	101
422.953	93
423.175	98
423.398	79
423.621	95
423.843	81
424.066	88
424.288	91
424.511	97
424.733	100
424.956	117
425.178	112
425.401	112
425.623	110
425.846	96
426.068	103
426.291	85
426.513	83
426.735	77
426.958	101
427.18	115
427.402	168
427.625	263
427.847	237
428.069	232
428.292	113
428.514	91
428.736	93
428.958	88
429.181	88
429.403	84
429.625	93
429.847	91
430.069	124
430.292	107
430.514	85
430.736	94
430.958	88
431.18	74
431.402	94
431.624	74
431.846	79
432.068	100
432.29	85
432.512	85
432.734	85
432.956	89
433.178	100
433.4	95
433.622	88
433.844	96
434.066	82
434.287	87
434.509	105
434.731	84
434.953	84
435.175	90
435.397	84
435.618	96
435.84	109
436.062	155
436.284	145
436.505	111
436.727	118
436.949	112
437.17	93
437.392	86
437.614	93
437.835	111
438.057	145
438.278	132
438.5	111
438.721	148
438.943	115
439.165	103
439.386	94
439.608	99
439.829	116
440.05	157
440.272	204
440.493	106
440.715	97
440.936	95
441.158	81
441.379	72
441.6	86
441.822	106
442.043	106
442.264	125
442.486	110
442.707	99
442.928	131
443.149	170
443.371	178
443.592	129
443.813	145
444.034	129
444.255	98
444.476	97
444.698	89
444.919	77
445.14	124
445.361	139
445.582	135
445.803	197
446.024	186
446.245	157
446.466	127
446.687	92
446.908	85
447.129	89
447.35	80
447.571	86
447.792	83
448.013	95
448.234	112
448.455	101
448.675	138
448.896	151
449.117	112
449.338	128
449.559	175
449.779	166
450	104
450.221	74
450.442	104
450.662	100
450.883	120
451.104	133
451.324	96
451.545	88
451.766	71
451.986	73
452.207	84
452.428	98
452.648	95
452.869	114
453.089	135
453.31	140
453.53	86
453.751	106
453.971	116
454.192	121
454.412	103
454.633	98
454.853	99
455.073	91
455.294	92
455.514	114
455.734	84
455.955	87
456.175	91
456.395	77
456.616	75
456.836	84
457.056	81
457.276	84
457.497	97
457.717	85
457.937	80
458.157	91
458.377	88
458.598	117
458.818	203
459.038	205
459.258	119
459.478	108
459.698	80
459.918	87
460.138	88
460.358	95
460.578	81
460.798	94
461.018	90
461.238	97
461.458	96
461.678	94
461.898	87
462.118	92
462.338	95
462.558	91
462.777	75
462.997	90
463.217	88
463.437	88
463.657	91
463.876	91
464.096	103
464.316	90
464.536	79
464.755	101
464.975	115
465.195	236
465.414	214
465.634	117
465.854	90
466.073	93
466.293	100
466.512	80
466.732	76
466.951	98
467.171	100
467.391	106
467.61	135
467.829	169
468.049	406
468.268	565
468.488	183
468.707	100
468.927	88
469.146	85
469.365	90
469.585	97
469.804	114
470.023	95
470.243	100
470.462	109
470.681	134
470.901	103
471.12	84
471.339	96
471.558	113
471.777	139
471.997	240
472.216	767
472.435	1731
472.654	420
472.873	151
473.092	109
473.311	99
473.53	91
473.749	92
473.968	110
474.187	138
474.406	110
474.625	85
474.844	99
475.063	91
475.282	89
475.501	94
475.72	102
475.939	89
476.158	80
476.377	88
476.596	76
476.814	87
477.033	95
477.252	89
477.471	91
477.69	93
477.908	104
478.127	85
478.346	101
478.564	101
478.783	100
479.002	88
479.22	105
479.439	118
479.658	119
479.876	114
480.095	116
480.313	129
480.532	155
480.751	241
480.969	732
481.188	3149
481.406	1847
481.624	292
481.843	128
482.061	95
482.28	100
482.498	97
482.717	91
482.935	86
483.153	85
483.372	103
483.59	98
483.808	78
484.027	96
484.245	82
484.463	98
484.681	107
484.9	91
485.118	96
485.336	105
485.554	103
485.772	87
485.99	97
486.209	104
486.427	113
486.645	103
486.863	115
487.081	109
487.299	104
487.517	100
487.735	98
487.953	99
488.171	106
488.389	87
488.607	89
488.825	89
489.043	88
489.261	93
489.479	80
489.696	81
489.914	80
490.132	90
490.35	90
490.568	87
490.786	91
491.003	91
491.221	83
491.439	99
491.657	93
491.874	88
492.092	93
492.31	75
492.527	119
492.745	101
492.963	90
493.18	78
493.398	97
493.615	108
493.833	96
494.05	91
494.268	87
494.485	97
494.703	92
494.92	78
495.138	97
495.355	94
495.573	81
495.79	87
496.008	88
496.225	92
496.442	92
496.66	83
496.877	83
497.094	91
497.312	82
497.529	82
497.746	85
497.963	97
498.181	101
498.398	97
498.615	105
498.832	119
499.049	90
499.267	89
499.484	85
499.701	87
499.918	98
500.135	96
500.352	87
500.569	82
500.786	83
501.003	89
501.22	75
501.437	90
501.654	93
501.871	118
502.088	91
502.305	96
502.522	76
502.739	88
502.956	106
503.172	105
503.389	99
503.606	103
503.823	107
504.04	88
504.256	99
504.473	85
504.69	78
504.907	98
505.123	91
505.34	91
505.557	83
505.773	98
505.99	84
506.207	100
506.423	102
506.64	93
506.856	90
507.073	84
507.289	94
507.506	102
507.722	126
507.939	126
508.155	109
508.372	87
508.588	92
508.805	95
509.021	91
509.238	96
509.454	98
509.67	93
509.887	107
510.103	159
510.319	239
510.536	855
510.752	2852
510.968	765
511.184	167
511.401	127
511.617	111
511.833	120
512.049	91
512.265	95
512.481	91
512.698	90
512.914	98
513.13	81
513.346	87
513.562	100
513.778	99
513.994	93
514.21	98
514.426	109
514.642	165
514.858	144
515.074	209
515.29	628
515.506	2232
515.721	782
515.937	190
516.153	128
516.369	97
516.585	82
516.801	102
517.016	96
517.232	98
517.448	99
517.664	90
517.879	107
518.095	85
518.311	100
518.527	100
518.742	88
518.958	89
519.173	90
519.389	104
519.605	107
519.82	95
520.036	113
520.251	137
520.467	129
520.682	104
520.898	108
521.113	130
521.329	176
521.544	280
521.76	839
521.975	3731
522.19	2209
522.406	452
522.621	163
522.836	95
523.052	96
523.267	107
523.482	107
523.698	106
523.913	121
524.128	103
524.343	94
524.559	81
524.774	95
524.989	97
525.204	115
525.419	97
525.634	90
525.849	90
526.064	94
526.28	98
526.495	88
526.71	97
526.925	85
527.14	103
527.355	111
527.57	80
527.785	98
527.999	73
528.214	81
528.429	102
528.644	83
528.859	91
529.074	85
529.289	137
529.503	256
529.718	122
529.933	93
530.148	88
530.363	99
530.577	77
530.792	78
531.007	82
531.221	74
531.436	82
531.651	79
531.865	77
532.08	83
532.295	71
532.509	89
532.724	87
532.938	87
533.153	88
533.367	88
533.582	90
533.796	82
534.011	86
534.225	91
534.44	90
534.654	95
534.868	95
535.083	79
535.297	99
535.511	116
535.726	94
535.94	99
536.154	95
536.369	91
536.583	88
536.797	96
537.011	91
537.225	79
537.44	95
537.654	84
537.868	99
538.082	100
538.296	86
538.51	82
538.724	85
538.938	85
539.153	99
539.367	122
539.581	111
539.795	93
540.009	95
540.222	86
540.436	79
540.65	81
540.864	91
541.078	94
541.292	100
541.506	75
541.72	90
541.934	104
542.147	80
542.361	90
542.575	94
542.789	96
543.002	82
543.216	98
543.43	106
543.644	95
543.857	91
544.071	73
544.285	114
544.498	99
544.712	74
544.925	87
545.139	86
545.352	99
545.566	76
545.779	87
545.993	81
546.206	86
546.42	93
546.633	97
546.847	87
547.06	84
547.274	71
547.487	99
547.7	88
547.914	73
548.127	93
548.34	89
548.554	81
548.767	82
548.98	79
549.193	97
549.407	86
549.62	73
549.833	90
550.046	82
550.259	80
550.473	86
550.686	80
550.899	89
551.112	83
551.325	104
551.538	100
551.751	91
551.964	108
552.177	89
552.39	89
552.603	90
552.816	85
553.029	100
553.242	91
553.455	103
553.667	108
553.88	108
554.093	86
554.306	105
554.519	100
554.732	95
554.944	101
555.157	92
555.37	92
555.583	104
555.795	101
556.008	100
556.221	95
556.433	97
556.646	99
556.859	80
557.071	94
557.284	91
557.496	89
557.709	85
557.921	73
558.134	95
558.346	84
558.559	81
558.771	75
558.984	99
559.196	82
559.409	88
559.621	84
559.833	98
560.046	84
560.258	106
560.47	121
560.683	83
560.895	78
561.107	92
561.32	101
561.532	98
561.744	79
561.956	83
562.168	90
562.381	96
562.593	90
562.805	101
563.017	81
563.229	91
563.441	85
563.653	85
563.865	92
564.077	100
564.289	78
564.501	87
564.713	91
564.925	91
565.137	98
565.349	95
565.561	91
565.773	93
565.985	94
566.197	85
566.408	90
566.62	91
566.832	82
567.044	77
567.255	79
567.467	88
567.679	80
567.891	88
568.102	82
568.314	71
568.526	91
568.737	84
568.949	81
569.161	81
569.372	82
569.584	91
569.795	95
570.007	119
570.218	266
570.43	131
570.641	82
570.853	77
571.064	102
571.276	87
571.487	94
571.698	73
571.91	91
572.121	93
572.333	71
572.544	92
572.755	92
572.966	85
573.178	88
573.389	84
573.6	90
573.811	88
574.023	98
574.234	85
574.445	88
574.656	80
574.867	104
575.078	90
575.289	82
575.501	90
575.712	96
575.923	82
576.134	75
576.345	93
576.556	90
576.767	78
576.978	110
577.188	84
577.399	88
577.61	95
577.821	101
578.032	115
578.243	313
578.454	862
578.665	222
578.875	118
579.086	89
579.297	90
579.508	91
579.718	97
579.929	84
580.14	90
580.35	92
580.561	88
580.772	88
580.982	83
581.193	93
581.403	82
