Data from Circ_1992_H10_HRD10591_00076.txt Node
Date: Wed Jan 03 11:48:00 EST 2024
User: Yrep
Spectrometer: HR+D1059
Trigger mode: 1
Integration Time (sec): 1.000000E-1
Scans to average: 1
Electric dark correction enabled: true
Nonlinearity correction enabled: false
Boxcar width: 0
XAxis mode: Wavelengths
Number of Pixels in Spectrum: 2048
>>>>>Begin Spectral Data<<<<<
223.165	-16.75
223.4	-16.75
223.635	-16.75
223.869	-22.75
224.104	-18.75
224.338	-11.75
224.573	-16.75
224.808	-10.75
225.042	-11.75
225.277	-10.75
225.511	-7.75
225.746	9.25
225.98	14.25
226.215	19.25
226.449	0.25
226.683	26.25
226.918	26.25
227.152	32.25
227.387	32.25
227.621	36.25
227.856	47.25
228.09	51.25
228.324	44.25
228.559	59.25
228.793	71.25
229.027	60.25
229.262	69.25
229.496	78.25
229.73	90.25
229.964	91.25
230.199	80.25
230.433	87.25
230.667	80.25
230.901	76.25
231.136	81.25
231.37	77.25
231.604	78.25
231.838	81.25
232.072	71.25
232.306	77.25
232.541	82.25
232.775	74.25
233.009	84.25
233.243	83.25
233.477	77.25
233.711	84.25
233.945	79.25
234.179	63.25
234.413	76.25
234.647	74.25
234.881	83.25
235.115	68.25
235.349	79.25
235.583	65.25
235.817	74.25
236.051	90.25
236.285	69.25
236.519	88.25
236.753	80.25
236.987	82.25
237.221	86.25
237.455	87.25
237.689	81.25
237.922	84.25
238.156	83.25
238.39	79.25
238.624	97.25
238.858	67.25
239.091	79.25
239.325	78.25
239.559	82.25
239.793	96.25
240.027	71.25
240.26	80.25
240.494	69.25
240.728	86.25
240.961	75.25
241.195	80.25
241.429	79.25
241.662	80.25
241.896	72.25
242.13	86.25
242.363	76.25
242.597	79.25
242.83	65.25
243.064	87.25
243.298	77.25
243.531	70.25
243.765	89.25
243.998	87.25
244.232	82.25
244.465	90.25
244.699	83.25
244.932	84.25
245.166	86.25
245.399	72.25
245.633	82.25
245.866	91.25
246.099	90.25
246.333	78.25
246.566	86.25
246.8	69.25
247.033	74.25
247.266	81.25
247.5	93.25
247.733	76.25
247.966	93.25
248.2	75.25
248.433	81.25
248.666	83.25
248.899	89.25
249.133	83.25
249.366	97.25
249.599	101.25
249.832	88.25
250.066	87.25
250.299	85.25
250.532	80.25
250.765	82.25
250.998	73.25
251.231	88.25
251.465	94.25
251.698	79.25
251.931	95.25
252.164	80.25
252.397	80.25
252.63	92.25
252.863	90.25
253.096	83.25
253.329	71.25
253.562	78.25
253.795	76.25
254.028	83.25
254.261	84.25
254.494	91.25
254.727	92.25
254.96	77.25
255.193	94.25
255.426	81.25
255.659	87.25
255.892	85.25
256.124	99.25
256.357	87.25
256.59	78.25
256.823	92.25
257.056	98.25
257.289	86.25
257.521	90.25
257.754	91.25
257.987	76.25
258.22	89.25
258.452	81.25
258.685	82.25
258.918	78.25
259.151	72.25
259.383	83.25
259.616	79.25
259.849	88.25
260.081	82.25
260.314	72.25
260.547	70.25
260.779	99.25
261.012	99.25
261.244	85.25
261.477	95.25
261.71	101.25
261.942	108.25
262.175	126.25
262.407	92.25
262.64	101.25
262.872	87.25
263.105	87.25
263.337	94.25
263.57	95.25
263.802	82.25
264.035	90.25
264.267	83.25
264.499	88.25
264.732	91.25
264.964	64.25
265.197	82.25
265.429	86.25
265.661	77.25
265.894	95.25
266.126	88.25
266.358	74.25
266.591	82.25
266.823	78.25
267.055	95.25
267.287	93.25
267.52	79.25
267.752	94.25
267.984	86.25
268.216	92.25
268.448	76.25
268.681	83.25
268.913	74.25
269.145	91.25
269.377	83.25
269.609	84.25
269.841	82.25
270.073	93.25
270.306	84.25
270.538	80.25
270.77	88.25
271.002	95.25
271.234	98.25
271.466	98.25
271.698	80.25
271.93	87.25
272.162	87.25
272.394	100.25
272.626	86.25
272.858	77.25
273.09	71.25
273.322	71.25
273.553	91.25
273.785	93.25
274.017	78.25
274.249	86.25
274.481	91.25
274.713	76.25
274.945	91.25
275.176	95.25
275.408	96.25
275.64	98.25
275.872	96.25
276.104	89.25
276.335	98.25
276.567	92.25
276.799	132.25
277.031	127.25
277.262	129.25
277.494	134.25
277.726	90.25
277.957	92.25
278.189	85.25
278.421	110.25
278.652	90.25
278.884	82.25
279.115	97.25
279.347	82.25
279.579	98.25
279.81	111.25
280.042	141.25
280.273	182.25
280.505	140.25
280.736	104.25
280.968	96.25
281.199	104.25
281.431	73.25
281.662	80.25
281.894	72.25
282.125	112.25
282.356	117.25
282.588	144.25
282.819	125.25
283.051	76.25
283.282	86.25
283.513	85.25
283.745	77.25
283.976	97.25
284.207	86.25
284.439	86.25
284.67	87.25
284.901	98.25
285.132	78.25
285.364	81.25
285.595	82.25
285.826	84.25
286.057	94.25
286.288	74.25
286.52	82.25
286.751	83.25
286.982	99.25
287.213	83.25
287.444	99.25
287.675	98.25
287.906	97.25
288.138	95.25
288.369	109.25
288.6	82.25
288.831	101.25
289.062	85.25
289.293	71.25
289.524	80.25
289.755	82.25
289.986	76.25
290.217	77.25
290.448	90.25
290.679	100.25
290.91	88.25
291.141	101.25
291.371	99.25
291.602	75.25
291.833	92.25
292.064	100.25
292.295	84.25
292.526	89.25
292.757	84.25
292.987	82.25
293.218	74.25
293.449	91.25
293.68	87.25
293.91	84.25
294.141	84.25
294.372	74.25
294.603	88.25
294.833	103.25
295.064	102.25
295.295	96.25
295.525	89.25
295.756	107.25
295.987	124.25
296.217	141.25
296.448	130.25
296.679	92.25
296.909	93.25
297.14	88.25
297.37	87.25
297.601	86.25
297.831	81.25
298.062	97.25
298.292	93.25
298.523	82.25
298.753	90.25
298.984	101.25
299.214	91.25
299.445	117.25
299.675	109.25
299.905	99.25
300.136	93.25
300.366	86.25
300.597	90.25
300.827	91.25
301.057	111.25
301.288	105.25
301.518	109.25
301.748	108.25
301.979	108.25
302.209	98.25
302.439	92.25
302.669	87.25
302.9	114.25
303.13	100.25
303.36	108.25
303.59	114.25
303.82	132.25
304.051	112.25
304.281	97.25
304.511	96.25
304.741	91.25
304.971	79.25
305.201	89.25
305.431	86.25
305.661	90.25
305.891	110.25
306.121	98.25
306.352	98.25
306.582	109.25
306.812	98.25
307.042	97.25
307.272	141.25
307.502	150.25
307.731	126.25
307.961	110.25
308.191	92.25
308.421	86.25
308.651	85.25
308.881	84.25
309.111	96.25
309.341	98.25
309.571	75.25
309.8	83.25
310.03	104.25
310.26	98.25
310.49	86.25
310.72	97.25
310.949	113.25
311.179	95.25
311.409	100.25
311.639	84.25
311.868	106.25
312.098	96.25
312.328	93.25
312.557	109.25
312.787	115.25
313.017	94.25
313.246	91.25
313.476	107.25
313.706	85.25
313.935	95.25
314.165	112.25
314.394	107.25
314.624	97.25
314.853	99.25
315.083	85.25
315.312	99.25
315.542	84.25
315.771	87.25
316.001	90.25
316.23	91.25
316.46	96.25
316.689	88.25
316.919	104.25
317.148	101.25
317.377	100.25
317.607	74.25
317.836	95.25
318.065	88.25
318.295	84.25
318.524	84.25
318.753	86.25
318.983	94.25
319.212	108.25
319.441	116.25
319.67	109.25
319.9	104.25
320.129	87.25
320.358	88.25
320.587	86.25
320.816	113.25
321.046	103.25
321.275	106.25
321.504	92.25
321.733	105.25
321.962	93.25
322.191	110.25
322.42	103.25
322.649	117.25
322.878	108.25
323.108	132.25
323.337	137.25
323.566	156.25
323.795	182.25
324.024	226.25
324.253	476.25
324.482	1044.25
324.71	2276.25
324.939	3031.25
325.168	1060.25
325.397	296.25
325.626	165.25
325.855	140.25
326.084	137.25
326.313	134.25
326.542	172.25
326.77	273.25
326.999	558.25
327.228	1203.25
327.457	2222.25
327.686	1786.25
327.914	535.25
328.143	385.25
328.372	449.25
328.6	271.25
328.829	158.25
329.058	162.25
329.287	165.25
329.515	165.25
329.744	178.25
329.972	321.25
330.201	635.25
330.43	901.25
330.658	433.25
330.887	212.25
331.115	152.25
331.344	113.25
331.572	109.25
331.801	120.25
332.03	111.25
332.258	107.25
332.486	95.25
332.715	104.25
332.943	119.25
333.172	113.25
333.4	114.25
333.629	130.25
333.857	183.25
334.085	317.25
334.314	608.25
334.542	1154.25
334.771	1095.25
334.999	320.25
335.227	132.25
335.455	97.25
335.684	103.25
335.912	104.25
336.14	111.25
336.369	109.25
336.597	113.25
336.825	106.25
337.053	92.25
337.281	121.25
337.51	82.25
337.738	115.25
337.966	109.25
338.194	94.25
338.422	110.25
338.65	105.25
338.878	111.25
339.106	92.25
339.334	98.25
339.562	91.25
339.79	80.25
340.018	80.25
340.246	95.25
340.474	91.25
340.702	98.25
340.93	90.25
341.158	95.25
341.386	98.25
341.614	89.25
341.842	96.25
342.07	92.25
342.298	98.25
342.526	113.25
342.754	88.25
342.981	81.25
343.209	84.25
343.437	89.25
343.665	97.25
343.893	93.25
344.12	93.25
344.348	82.25
344.576	78.25
344.804	108.25
345.031	103.25
345.259	92.25
345.487	108.25
345.714	104.25
345.942	82.25
346.17	95.25
346.397	92.25
346.625	86.25
346.853	92.25
347.08	100.25
347.308	99.25
347.535	101.25
347.763	88.25
347.99	103.25
348.218	98.25
348.445	113.25
348.673	99.25
348.9	103.25
349.128	111.25
349.355	99.25
349.583	104.25
349.81	99.25
350.037	92.25
350.265	107.25
350.492	92.25
350.72	93.25
350.947	103.25
351.174	129.25
351.402	103.25
351.629	111.25
351.856	111.25
352.083	97.25
352.311	104.25
352.538	118.25
352.765	106.25
352.992	114.25
353.22	113.25
353.447	115.25
353.674	97.25
353.901	99.25
354.128	100.25
354.355	106.25
354.583	101.25
354.81	100.25
355.037	82.25
355.264	80.25
355.491	78.25
355.718	101.25
355.945	88.25
356.172	106.25
356.399	101.25
356.626	101.25
356.853	91.25
357.08	102.25
357.307	88.25
357.534	92.25
357.761	92.25
357.988	88.25
358.215	88.25
358.441	108.25
358.668	102.25
358.895	120.25
359.122	96.25
359.349	106.25
359.576	93.25
359.802	103.25
360.029	126.25
360.256	121.25
360.483	90.25
360.709	92.25
360.936	103.25
361.163	93.25
361.39	97.25
361.616	96.25
361.843	98.25
362.07	108.25
362.296	99.25
362.523	94.25
362.749	80.25
362.976	108.25
363.203	108.25
363.429	97.25
363.656	93.25
363.882	100.25
364.109	110.25
364.335	99.25
364.562	92.25
364.788	89.25
365.015	93.25
365.241	107.25
365.468	103.25
365.694	119.25
365.92	110.25
366.147	87.25
366.373	99.25
366.599	90.25
366.826	99.25
367.052	89.25
367.278	93.25
367.505	91.25
367.731	85.25
367.957	90.25
368.184	103.25
368.41	96.25
368.636	112.25
368.862	110.25
369.089	111.25
369.315	85.25
369.541	94.25
369.767	99.25
369.993	107.25
370.219	98.25
370.445	100.25
370.672	93.25
370.898	82.25
371.124	82.25
371.35	86.25
371.576	92.25
371.802	92.25
372.028	99.25
372.254	94.25
372.48	89.25
372.706	98.25
372.932	82.25
373.158	79.25
373.384	89.25
373.61	93.25
373.835	104.25
374.061	82.25
374.287	93.25
374.513	93.25
374.739	86.25
374.965	97.25
375.191	97.25
375.416	99.25
375.642	89.25
375.868	99.25
376.094	79.25
376.319	85.25
376.545	96.25
376.771	78.25
376.997	81.25
377.222	104.25
377.448	94.25
377.674	80.25
377.899	90.25
378.125	94.25
378.35	107.25
378.576	104.25
378.802	74.25
379.027	104.25
379.253	93.25
379.478	101.25
379.704	82.25
379.929	90.25
380.155	88.25
380.38	98.25
380.606	96.25
380.831	99.25
381.057	101.25
381.282	94.25
381.507	93.25
381.733	100.25
381.958	89.25
382.184	110.25
382.409	115.25
382.634	102.25
382.86	100.25
383.085	101.25
383.31	123.25
383.535	108.25
383.761	100.25
383.986	100.25
384.211	97.25
384.436	88.25
384.662	100.25
384.887	102.25
385.112	100.25
385.337	113.25
385.562	113.25
385.787	106.25
386.013	115.25
386.238	123.25
386.463	109.25
386.688	102.25
386.913	100.25
387.138	100.25
387.363	105.25
387.588	113.25
387.813	115.25
388.038	111.25
388.263	118.25
388.488	122.25
388.713	95.25
388.938	99.25
389.163	90.25
389.387	83.25
389.612	99.25
389.837	99.25
390.062	100.25
390.287	84.25
390.512	92.25
390.736	94.25
390.961	83.25
391.186	82.25
391.411	93.25
391.636	89.25
391.86	99.25
392.085	88.25
392.31	93.25
392.534	86.25
392.759	82.25
392.984	82.25
393.208	78.25
393.433	86.25
393.658	86.25
393.882	81.25
394.107	91.25
394.331	91.25
394.556	98.25
394.78	99.25
395.005	100.25
395.229	89.25
395.454	86.25
395.678	86.25
395.903	83.25
396.127	97.25
396.352	88.25
396.576	88.25
396.801	82.25
397.025	91.25
397.249	100.25
397.474	96.25
397.698	87.25
397.922	86.25
398.147	86.25
398.371	86.25
398.595	93.25
398.82	94.25
399.044	87.25
399.268	86.25
399.492	95.25
399.717	96.25
399.941	93.25
400.165	105.25
400.389	101.25
400.613	99.25
400.837	109.25
401.062	84.25
401.286	87.25
401.51	97.25
401.734	92.25
401.958	118.25
402.182	118.25
402.406	175.25
402.63	134.25
402.854	92.25
403.078	87.25
403.302	88.25
403.526	76.25
403.75	81.25
403.974	91.25
404.198	90.25
404.422	95.25
404.645	91.25
404.869	91.25
405.093	106.25
405.317	126.25
405.541	135.25
405.765	113.25
405.988	116.25
406.212	175.25
406.436	253.25
406.66	168.25
406.883	107.25
407.107	112.25
407.331	105.25
407.555	127.25
407.778	111.25
408.002	91.25
408.226	87.25
408.449	92.25
408.673	94.25
408.896	110.25
409.12	101.25
409.344	88.25
409.567	103.25
409.791	87.25
410.014	94.25
410.238	98.25
410.461	98.25
410.685	95.25
410.908	95.25
411.132	119.25
411.355	100.25
411.578	114.25
411.802	95.25
412.025	92.25
412.249	91.25
412.472	104.25
412.695	129.25
412.919	117.25
413.142	91.25
413.365	97.25
413.589	105.25
413.812	94.25
414.035	101.25
414.258	83.25
414.482	87.25
414.705	92.25
414.928	93.25
415.151	84.25
415.374	97.25
415.597	93.25
415.821	87.25
416.044	95.25
416.267	91.25
416.49	86.25
416.713	86.25
416.936	95.25
417.159	104.25
417.382	107.25
417.605	97.25
417.828	124.25
418.051	99.25
418.274	89.25
418.497	83.25
418.72	98.25
418.943	86.25
419.166	76.25
419.389	97.25
419.611	84.25
419.834	96.25
420.057	94.25
420.28	90.25
420.503	95.25
420.726	89.25
420.948	95.25
421.171	118.25
421.394	101.25
421.617	97.25
421.839	82.25
422.062	92.25
422.285	98.25
422.507	108.25
422.73	122.25
422.953	97.25
423.175	89.25
423.398	102.25
423.621	89.25
423.843	103.25
424.066	94.25
424.288	94.25
424.511	83.25
424.733	106.25
424.956	106.25
425.178	97.25
425.401	102.25
425.623	105.25
425.846	98.25
426.068	76.25
426.291	100.25
426.513	88.25
426.735	85.25
426.958	106.25
427.18	116.25
427.402	166.25
427.625	225.25
427.847	219.25
428.069	211.25
428.292	123.25
428.514	100.25
428.736	98.25
428.958	94.25
429.181	88.25
429.403	76.25
429.625	98.25
429.847	92.25
430.069	112.25
430.292	104.25
430.514	85.25
430.736	98.25
430.958	88.25
431.18	86.25
431.402	107.25
431.624	78.25
431.846	84.25
432.068	96.25
432.29	94.25
432.512	104.25
432.734	97.25
432.956	91.25
433.178	106.25
433.4	104.25
433.622	94.25
433.844	106.25
434.066	99.25
434.287	74.25
434.509	97.25
434.731	96.25
434.953	94.25
435.175	90.25
435.397	106.25
435.618	100.25
435.84	112.25
436.062	149.25
436.284	135.25
436.505	103.25
436.727	106.25
436.949	92.25
437.17	84.25
437.392	100.25
437.614	102.25
437.835	111.25
438.057	128.25
438.278	122.25
438.5	105.25
438.721	135.25
438.943	120.25
439.165	86.25
439.386	92.25
439.608	103.25
439.829	108.25
440.05	145.25
440.272	169.25
440.493	108.25
440.715	110.25
440.936	86.25
441.158	103.25
441.379	104.25
441.6	94.25
441.822	105.25
442.043	99.25
442.264	105.25
442.486	117.25
442.707	102.25
442.928	108.25
443.149	149.25
443.371	172.25
443.592	127.25
443.813	123.25
444.034	116.25
444.255	97.25
444.476	87.25
444.698	76.25
444.919	90.25
445.14	141.25
445.361	134.25
445.582	126.25
445.803	172.25
446.024	179.25
446.245	182.25
446.466	127.25
446.687	96.25
446.908	79.25
447.129	92.25
447.35	86.25
447.571	93.25
447.792	88.25
448.013	101.25
448.234	120.25
448.455	108.25
448.675	127.25
448.896	135.25
449.117	117.25
449.338	110.25
449.559	148.25
449.779	147.25
450	108.25
450.221	99.25
450.442	92.25
450.662	102.25
450.883	122.25
451.104	112.25
451.324	104.25
451.545	86.25
451.766	114.25
451.986	97.25
452.207	86.25
452.428	100.25
452.648	114.25
452.869	119.25
453.089	114.25
453.31	133.25
453.53	78.25
453.751	95.25
453.971	106.25
454.192	123.25
454.412	110.25
454.633	77.25
454.853	70.25
455.073	86.25
455.294	88.25
455.514	107.25
455.734	104.25
455.955	87.25
456.175	88.25
456.395	84.25
456.616	86.25
456.836	90.25
457.056	99.25
457.276	90.25
457.497	90.25
457.717	87.25
457.937	88.25
458.157	94.25
458.377	95.25
458.598	121.25
458.818	184.25
459.038	199.25
459.258	142.25
459.478	95.25
459.698	94.25
459.918	86.25
460.138	89.25
460.358	91.25
460.578	89.25
460.798	97.25
461.018	77.25
461.238	81.25
461.458	100.25
461.678	79.25
461.898	87.25
462.118	82.25
462.338	98.25
462.558	86.25
462.777	86.25
462.997	98.25
463.217	107.25
463.437	85.25
463.657	88.25
463.876	95.25
464.096	85.25
464.316	102.25
464.536	107.25
464.755	92.25
464.975	106.25
465.195	199.25
465.414	186.25
465.634	103.25
465.854	104.25
466.073	101.25
466.293	90.25
466.512	90.25
466.732	96.25
466.951	88.25
467.171	108.25
467.391	102.25
467.61	124.25
467.829	175.25
468.049	379.25
468.268	550.25
468.488	170.25
468.707	101.25
468.927	87.25
469.146	103.25
469.365	96.25
469.585	95.25
469.804	112.25
470.023	93.25
470.243	89.25
470.462	113.25
470.681	121.25
470.901	103.25
471.12	102.25
471.339	101.25
471.558	112.25
471.777	118.25
471.997	219.25
472.216	704.25
472.435	1536.25
472.654	388.25
472.873	145.25
473.092	100.25
473.311	104.25
473.53	80.25
473.749	106.25
473.968	112.25
474.187	121.25
474.406	114.25
474.625	98.25
474.844	106.25
475.063	85.25
475.282	91.25
475.501	87.25
475.72	92.25
475.939	103.25
476.158	79.25
476.377	103.25
476.596	91.25
476.814	90.25
477.033	95.25
477.252	99.25
477.471	93.25
477.69	99.25
477.908	95.25
478.127	95.25
478.346	86.25
478.564	78.25
478.783	85.25
479.002	112.25
479.22	128.25
479.439	111.25
479.658	108.25
479.876	112.25
480.095	112.25
480.313	110.25
480.532	128.25
480.751	216.25
480.969	679.25
481.188	2698.25
481.406	1582.25
481.624	257.25
481.843	131.25
482.061	105.25
482.28	89.25
482.498	97.25
482.717	91.25
482.935	101.25
483.153	90.25
483.372	102.25
483.59	84.25
483.808	99.25
484.027	102.25
484.245	100.25
484.463	101.25
484.681	89.25
484.9	93.25
485.118	104.25
485.336	102.25
485.554	107.25
485.772	103.25
485.99	95.25
486.209	104.25
486.427	117.25
486.645	120.25
486.863	127.25
487.081	104.25
487.299	96.25
487.517	97.25
487.735	101.25
487.953	98.25
488.171	93.25
488.389	100.25
488.607	100.25
488.825	99.25
489.043	102.25
489.261	86.25
489.479	94.25
489.696	93.25
489.914	94.25
490.132	97.25
490.35	96.25
490.568	88.25
490.786	116.25
491.003	66.25
491.221	87.25
491.439	105.25
491.657	89.25
491.874	97.25
492.092	94.25
492.31	101.25
492.527	104.25
492.745	100.25
492.963	93.25
493.18	95.25
493.398	99.25
493.615	109.25
493.833	104.25
494.05	86.25
494.268	96.25
494.485	100.25
494.703	99.25
494.92	98.25
495.138	86.25
495.355	95.25
495.573	88.25
495.79	88.25
496.008	109.25
496.225	84.25
496.442	95.25
496.66	100.25
496.877	92.25
497.094	99.25
497.312	86.25
497.529	98.25
497.746	104.25
497.963	86.25
498.181	81.25
498.398	104.25
498.615	127.25
498.832	114.25
499.049	98.25
499.267	84.25
499.484	91.25
499.701	99.25
499.918	87.25
500.135	90.25
500.352	96.25
500.569	100.25
500.786	90.25
501.003	90.25
501.22	90.25
501.437	102.25
501.654	91.25
501.871	122.25
502.088	94.25
502.305	107.25
502.522	96.25
502.739	82.25
502.956	96.25
503.172	103.25
503.389	98.25
503.606	117.25
503.823	92.25
504.04	101.25
504.256	93.25
504.473	96.25
504.69	87.25
504.907	100.25
505.123	89.25
505.34	78.25
505.557	94.25
505.773	91.25
505.99	101.25
506.207	112.25
506.423	92.25
506.64	92.25
506.856	97.25
507.073	102.25
507.289	84.25
507.506	98.25
507.722	124.25
507.939	123.25
508.155	99.25
508.372	103.25
508.588	100.25
508.805	92.25
509.021	100.25
509.238	103.25
509.454	105.25
509.67	111.25
509.887	114.25
510.103	140.25
510.319	220.25
510.536	750.25
510.752	2492.25
510.968	691.25
511.184	163.25
511.401	121.25
511.617	108.25
511.833	112.25
512.049	103.25
512.265	107.25
512.481	95.25
512.698	103.25
512.914	93.25
