Data from Circ_1992_H10_HRD10591_00050.txt Node
Date: Wed Jan 03 11:47:54 EST 2024
User: Yrep
Spectrometer: HR+D1059
Trigger mode: 1
Integration Time (sec): 1.000000E-1
Scans to average: 1
Electric dark correction enabled: true
Nonlinearity correction enabled: false
Boxcar width: 0
XAxis mode: Wavelengths
Number of Pixels in Spectrum: 2048
>>>>>Begin Spectral Data<<<<<
223.165	-17.5
223.4	-17.5
223.635	-17.5
223.869	-30.5
224.104	-4.5
224.338	-30.5
224.573	-15.5
224.808	-20.5
225.042	-8.5
225.277	1.5
225.511	1.5
225.746	-4.5
225.98	3.5
226.215	23.5
226.449	24.5
226.683	21.5
226.918	14.5
227.152	41.5
227.387	31.5
227.621	25.5
227.856	46.5
228.09	34.5
228.324	61.5
228.559	53.5
228.793	59.5
229.027	64.5
229.262	67.5
229.496	89.5
229.73	92.5
229.964	70.5
230.199	77.5
230.433	71.5
230.667	71.5
230.901	86.5
231.136	77.5
231.37	85.5
231.604	79.5
231.838	87.5
232.072	76.5
232.306	97.5
232.541	93.5
232.775	86.5
233.009	80.5
233.243	89.5
233.477	82.5
233.711	92.5
233.945	73.5
234.179	75.5
234.413	83.5
234.647	95.5
234.881	85.5
235.115	75.5
235.349	77.5
235.583	78.5
235.817	88.5
236.051	80.5
236.285	80.5
236.519	79.5
236.753	85.5
236.987	72.5
237.221	83.5
237.455	75.5
237.689	94.5
237.922	83.5
238.156	76.5
238.39	85.5
238.624	68.5
238.858	71.5
239.091	72.5
239.325	68.5
239.559	87.5
239.793	77.5
240.027	73.5
240.26	91.5
240.494	83.5
240.728	85.5
240.961	83.5
241.195	75.5
241.429	81.5
241.662	82.5
241.896	68.5
242.13	77.5
242.363	72.5
242.597	80.5
242.83	66.5
243.064	80.5
243.298	73.5
243.531	77.5
243.765	69.5
243.998	80.5
244.232	94.5
244.465	90.5
244.699	90.5
244.932	86.5
245.166	92.5
245.399	85.5
245.633	93.5
245.866	86.5
246.099	80.5
246.333	89.5
246.566	77.5
246.8	84.5
247.033	94.5
247.266	78.5
247.5	79.5
247.733	85.5
247.966	71.5
248.2	98.5
248.433	79.5
248.666	90.5
248.899	93.5
249.133	87.5
249.366	109.5
249.599	98.5
249.832	95.5
250.066	82.5
250.299	83.5
250.532	84.5
250.765	79.5
250.998	89.5
251.231	83.5
251.465	80.5
251.698	87.5
251.931	78.5
252.164	83.5
252.397	84.5
252.63	86.5
252.863	81.5
253.096	87.5
253.329	82.5
253.562	72.5
253.795	80.5
254.028	80.5
254.261	95.5
254.494	65.5
254.727	84.5
254.96	90.5
255.193	77.5
255.426	80.5
255.659	88.5
255.892	84.5
256.124	83.5
256.357	103.5
256.59	99.5
256.823	91.5
257.056	91.5
257.289	95.5
257.521	80.5
257.754	66.5
257.987	82.5
258.22	90.5
258.452	76.5
258.685	103.5
258.918	92.5
259.151	82.5
259.383	80.5
259.616	91.5
259.849	81.5
260.081	71.5
260.314	68.5
260.547	78.5
260.779	89.5
261.012	101.5
261.244	85.5
261.477	91.5
261.71	79.5
261.942	96.5
262.175	119.5
262.407	86.5
262.64	87.5
262.872	95.5
263.105	81.5
263.337	84.5
263.57	77.5
263.802	108.5
264.035	81.5
264.267	72.5
264.499	83.5
264.732	101.5
264.964	83.5
265.197	86.5
265.429	92.5
265.661	87.5
265.894	79.5
266.126	85.5
266.358	87.5
266.591	90.5
266.823	101.5
267.055	89.5
267.287	93.5
267.52	77.5
267.752	71.5
267.984	83.5
268.216	91.5
268.448	88.5
268.681	89.5
268.913	85.5
269.145	85.5
269.377	84.5
269.609	83.5
269.841	81.5
270.073	82.5
270.306	83.5
270.538	92.5
270.77	83.5
271.002	75.5
271.234	88.5
271.466	103.5
271.698	100.5
271.93	85.5
272.162	79.5
272.394	88.5
272.626	87.5
272.858	93.5
273.09	96.5
273.322	83.5
273.553	77.5
273.785	74.5
274.017	90.5
274.249	87.5
274.481	96.5
274.713	89.5
274.945	82.5
275.176	99.5
275.408	103.5
275.64	110.5
275.872	98.5
276.104	93.5
276.335	100.5
276.567	94.5
276.799	116.5
277.031	111.5
277.262	118.5
277.494	107.5
277.726	87.5
277.957	71.5
278.189	96.5
278.421	97.5
278.652	92.5
278.884	95.5
279.115	83.5
279.347	92.5
279.579	93.5
279.81	92.5
280.042	125.5
280.273	137.5
280.505	110.5
280.736	100.5
280.968	103.5
281.199	97.5
281.431	92.5
281.662	113.5
281.894	103.5
282.125	101.5
282.356	100.5
282.588	138.5
282.819	133.5
283.051	93.5
283.282	76.5
283.513	94.5
283.745	96.5
283.976	86.5
284.207	94.5
284.439	72.5
284.67	83.5
284.901	88.5
285.132	92.5
285.364	91.5
285.595	92.5
285.826	101.5
286.057	93.5
286.288	88.5
286.52	67.5
286.751	85.5
286.982	88.5
287.213	80.5
287.444	96.5
287.675	99.5
287.906	90.5
288.138	95.5
288.369	100.5
288.6	91.5
288.831	80.5
289.062	84.5
289.293	95.5
289.524	104.5
289.755	84.5
289.986	77.5
290.217	92.5
290.448	97.5
290.679	93.5
290.91	96.5
291.141	93.5
291.371	83.5
291.602	81.5
291.833	96.5
292.064	96.5
292.295	105.5
292.526	76.5
292.757	83.5
292.987	95.5
293.218	90.5
293.449	94.5
293.68	86.5
293.91	88.5
294.141	89.5
294.372	71.5
294.603	86.5
294.833	80.5
295.064	97.5
295.295	101.5
295.525	87.5
295.756	89.5
295.987	110.5
296.217	145.5
296.448	128.5
296.679	97.5
296.909	85.5
297.14	90.5
297.37	93.5
297.601	101.5
297.831	83.5
298.062	85.5
298.292	83.5
298.523	92.5
298.753	83.5
298.984	96.5
299.214	81.5
299.445	89.5
299.675	87.5
299.905	95.5
300.136	97.5
300.366	103.5
300.597	93.5
300.827	101.5
301.057	108.5
301.288	97.5
301.518	75.5
301.748	86.5
301.979	102.5
302.209	87.5
302.439	91.5
302.669	88.5
302.9	88.5
303.13	100.5
303.36	109.5
303.59	98.5
303.82	113.5
304.051	95.5
304.281	71.5
304.511	80.5
304.741	83.5
304.971	85.5
305.201	92.5
305.431	91.5
305.661	95.5
305.891	88.5
306.121	96.5
306.352	108.5
306.582	97.5
306.812	95.5
307.042	108.5
307.272	111.5
307.502	121.5
307.731	134.5
307.961	108.5
308.191	88.5
308.421	80.5
308.651	97.5
308.881	105.5
309.111	94.5
309.341	95.5
309.571	108.5
309.8	100.5
310.03	96.5
310.26	90.5
310.49	89.5
310.72	111.5
310.949	109.5
311.179	95.5
311.409	100.5
311.639	98.5
311.868	103.5
312.098	95.5
312.328	95.5
312.557	102.5
312.787	120.5
313.017	104.5
313.246	101.5
313.476	84.5
313.706	92.5
313.935	86.5
314.165	98.5
314.394	108.5
314.624	102.5
314.853	97.5
315.083	90.5
315.312	93.5
315.542	101.5
315.771	103.5
316.001	93.5
316.23	97.5
316.46	101.5
316.689	100.5
316.919	75.5
317.148	99.5
317.377	100.5
317.607	98.5
317.836	86.5
318.065	99.5
318.295	88.5
318.524	114.5
318.753	85.5
318.983	87.5
319.212	99.5
319.441	117.5
319.67	110.5
319.9	91.5
320.129	99.5
320.358	95.5
320.587	84.5
320.816	103.5
321.046	89.5
321.275	102.5
321.504	91.5
321.733	109.5
321.962	109.5
322.191	91.5
322.42	95.5
322.649	108.5
322.878	99.5
323.108	111.5
323.337	135.5
323.566	136.5
323.795	161.5
324.024	211.5
324.253	393.5
324.482	837.5
324.71	1748.5
324.939	2282.5
325.168	821.5
325.397	255.5
325.626	143.5
325.855	121.5
326.084	125.5
326.313	136.5
326.542	147.5
326.77	239.5
326.999	458.5
327.228	962.5
327.457	1724.5
327.686	1398.5
327.914	423.5
328.143	279.5
328.372	317.5
328.6	206.5
328.829	147.5
329.058	152.5
329.287	132.5
329.515	116.5
329.744	153.5
329.972	229.5
330.201	411.5
330.43	603.5
330.658	287.5
330.887	184.5
331.115	135.5
331.344	103.5
331.572	96.5
331.801	121.5
332.03	111.5
332.258	128.5
332.486	112.5
332.715	102.5
332.943	105.5
333.172	93.5
333.4	105.5
333.629	119.5
333.857	148.5
334.085	227.5
334.314	413.5
334.542	715.5
334.771	712.5
334.999	224.5
335.227	126.5
335.455	109.5
335.684	106.5
335.912	111.5
336.14	96.5
336.369	104.5
336.597	100.5
336.825	100.5
337.053	97.5
337.281	93.5
337.51	96.5
337.738	85.5
337.966	87.5
338.194	88.5
338.422	100.5
338.65	95.5
338.878	97.5
339.106	78.5
339.334	100.5
339.562	97.5
339.79	104.5
340.018	103.5
340.246	100.5
340.474	104.5
340.702	103.5
340.93	100.5
341.158	84.5
341.386	101.5
341.614	107.5
341.842	97.5
342.07	96.5
342.298	107.5
342.526	106.5
342.754	102.5
342.981	82.5
343.209	91.5
343.437	96.5
343.665	107.5
343.893	99.5
344.12	88.5
344.348	93.5
344.576	85.5
344.804	101.5
345.031	100.5
345.259	108.5
345.487	94.5
345.714	114.5
345.942	100.5
346.17	99.5
346.397	88.5
346.625	85.5
346.853	85.5
347.08	83.5
347.308	85.5
347.535	95.5
347.763	102.5
347.99	104.5
348.218	116.5
348.445	116.5
348.673	97.5
348.9	84.5
349.128	97.5
349.355	91.5
349.583	87.5
349.81	103.5
350.037	89.5
350.265	105.5
350.492	94.5
350.72	110.5
350.947	100.5
351.174	95.5
351.402	109.5
351.629	96.5
351.856	99.5
352.083	103.5
352.311	115.5
352.538	115.5
352.765	104.5
352.992	113.5
353.22	103.5
353.447	94.5
353.674	108.5
353.901	81.5
354.128	92.5
354.355	88.5
354.583	113.5
354.81	100.5
355.037	96.5
355.264	100.5
355.491	96.5
355.718	95.5
355.945	94.5
356.172	92.5
356.399	102.5
356.626	101.5
356.853	102.5
357.08	103.5
357.307	102.5
357.534	97.5
357.761	94.5
357.988	97.5
358.215	96.5
358.441	91.5
358.668	102.5
358.895	99.5
359.122	98.5
359.349	88.5
359.576	107.5
359.802	105.5
360.029	115.5
360.256	113.5
360.483	86.5
360.709	82.5
360.936	98.5
361.163	117.5
361.39	110.5
361.616	104.5
361.843	89.5
362.07	89.5
362.296	109.5
362.523	81.5
362.749	87.5
362.976	102.5
363.203	100.5
363.429	94.5
363.656	106.5
363.882	92.5
364.109	95.5
364.335	88.5
364.562	79.5
364.788	92.5
365.015	86.5
365.241	84.5
365.468	103.5
365.694	97.5
365.92	100.5
366.147	97.5
366.373	102.5
366.599	82.5
366.826	92.5
367.052	97.5
367.278	91.5
367.505	100.5
367.731	95.5
367.957	96.5
368.184	81.5
368.41	111.5
368.636	109.5
368.862	113.5
369.089	106.5
369.315	102.5
369.541	82.5
369.767	110.5
369.993	87.5
370.219	100.5
370.445	91.5
370.672	92.5
370.898	93.5
371.124	103.5
371.35	93.5
371.576	92.5
371.802	84.5
372.028	83.5
372.254	83.5
372.48	103.5
372.706	99.5
372.932	75.5
373.158	85.5
373.384	104.5
373.61	98.5
373.835	93.5
374.061	83.5
374.287	100.5
374.513	91.5
374.739	91.5
374.965	87.5
375.191	83.5
375.416	87.5
375.642	78.5
375.868	85.5
376.094	107.5
376.319	88.5
376.545	93.5
376.771	97.5
376.997	100.5
377.222	102.5
377.448	94.5
377.674	102.5
377.899	86.5
378.125	88.5
378.35	95.5
378.576	94.5
378.802	87.5
379.027	94.5
379.253	107.5
379.478	85.5
379.704	109.5
379.929	104.5
380.155	95.5
380.38	87.5
380.606	96.5
380.831	106.5
381.057	96.5
381.282	87.5
381.507	99.5
381.733	100.5
381.958	87.5
382.184	100.5
382.409	93.5
382.634	107.5
382.86	105.5
383.085	109.5
383.31	92.5
383.535	100.5
383.761	104.5
383.986	103.5
384.211	94.5
384.436	99.5
384.662	102.5
384.887	95.5
385.112	96.5
385.337	104.5
385.562	108.5
385.787	104.5
386.013	104.5
386.238	118.5
386.463	112.5
386.688	110.5
386.913	118.5
387.138	112.5
387.363	98.5
387.588	97.5
387.813	96.5
388.038	110.5
388.263	107.5
388.488	117.5
388.713	114.5
388.938	94.5
389.163	101.5
389.387	109.5
389.612	98.5
389.837	89.5
390.062	84.5
390.287	99.5
390.512	94.5
390.736	87.5
390.961	89.5
391.186	89.5
391.411	94.5
391.636	100.5
391.86	81.5
392.085	100.5
392.31	99.5
392.534	94.5
392.759	85.5
392.984	91.5
393.208	90.5
393.433	108.5
393.658	86.5
393.882	99.5
394.107	77.5
394.331	96.5
394.556	96.5
394.78	80.5
395.005	89.5
395.229	101.5
395.454	91.5
395.678	94.5
395.903	92.5
396.127	88.5
396.352	80.5
396.576	93.5
396.801	94.5
397.025	81.5
397.249	96.5
397.474	78.5
397.698	89.5
397.922	95.5
398.147	83.5
398.371	91.5
398.595	101.5
398.82	89.5
399.044	90.5
399.268	93.5
399.492	97.5
399.717	87.5
399.941	94.5
400.165	115.5
400.389	105.5
400.613	91.5
400.837	78.5
401.062	96.5
401.286	99.5
401.51	100.5
401.734	94.5
401.958	107.5
402.182	117.5
402.406	139.5
402.63	109.5
402.854	113.5
403.078	81.5
403.302	111.5
403.526	97.5
403.75	102.5
403.974	97.5
404.198	75.5
404.422	100.5
404.645	112.5
404.869	89.5
405.093	102.5
405.317	124.5
405.541	114.5
405.765	92.5
405.988	123.5
406.212	169.5
406.436	227.5
406.66	144.5
406.883	113.5
407.107	96.5
407.331	107.5
407.555	109.5
407.778	102.5
408.002	96.5
408.226	101.5
408.449	87.5
408.673	101.5
408.896	93.5
409.12	102.5
409.344	84.5
409.567	81.5
409.791	83.5
410.014	104.5
410.238	101.5
410.461	100.5
410.685	105.5
410.908	93.5
411.132	115.5
411.355	116.5
411.578	86.5
411.802	82.5
412.025	91.5
412.249	111.5
412.472	103.5
412.695	119.5
412.919	110.5
413.142	95.5
413.365	96.5
413.589	92.5
413.812	99.5
414.035	97.5
414.258	87.5
414.482	93.5
414.705	84.5
414.928	84.5
415.151	96.5
415.374	100.5
415.597	95.5
415.821	85.5
416.044	93.5
416.267	85.5
416.49	87.5
416.713	84.5
416.936	91.5
417.159	97.5
417.382	94.5
417.605	91.5
417.828	101.5
418.051	100.5
418.274	82.5
418.497	83.5
418.72	81.5
418.943	91.5
419.166	102.5
419.389	90.5
419.611	85.5
419.834	85.5
420.057	95.5
420.28	79.5
420.503	103.5
420.726	105.5
420.948	93.5
421.171	92.5
421.394	108.5
421.617	94.5
421.839	92.5
422.062	80.5
422.285	100.5
422.507	105.5
422.73	118.5
422.953	99.5
423.175	90.5
423.398	91.5
423.621	89.5
423.843	95.5
424.066	92.5
424.288	107.5
424.511	106.5
424.733	97.5
424.956	115.5
425.178	102.5
425.401	99.5
425.623	95.5
425.846	88.5
426.068	88.5
426.291	95.5
426.513	94.5
426.735	89.5
426.958	101.5
427.18	101.5
427.402	165.5
427.625	191.5
427.847	173.5
428.069	172.5
428.292	112.5
428.514	98.5
428.736	79.5
428.958	92.5
429.181	91.5
429.403	69.5
429.625	97.5
429.847	83.5
430.069	114.5
430.292	86.5
430.514	93.5
430.736	104.5
430.958	96.5
431.18	102.5
431.402	84.5
431.624	77.5
431.846	91.5
432.068	82.5
432.29	98.5
432.512	85.5
432.734	91.5
432.956	95.5
433.178	98.5
433.4	96.5
433.622	85.5
433.844	95.5
434.066	91.5
434.287	91.5
434.509	104.5
434.731	86.5
434.953	79.5
435.175	79.5
435.397	100.5
435.618	102.5
435.84	93.5
436.062	109.5
436.284	111.5
436.505	113.5
436.727	100.5
436.949	78.5
437.17	75.5
437.392	96.5
437.614	94.5
437.835	108.5
438.057	112.5
438.278	128.5
438.5	113.5
438.721	115.5
438.943	97.5
439.165	97.5
439.386	90.5
439.608	91.5
439.829	105.5
440.05	131.5
440.272	150.5
440.493	102.5
440.715	92.5
440.936	81.5
441.158	91.5
441.379	81.5
441.6	81.5
441.822	90.5
442.043	107.5
442.264	99.5
442.486	114.5
442.707	101.5
442.928	109.5
443.149	134.5
443.371	136.5
443.592	113.5
443.813	111.5
444.034	108.5
444.255	101.5
444.476	86.5
444.698	74.5
444.919	88.5
445.14	141.5
445.361	128.5
445.582	125.5
445.803	149.5
446.024	145.5
446.245	150.5
446.466	110.5
446.687	99.5
446.908	83.5
447.129	95.5
447.35	91.5
447.571	99.5
447.792	95.5
448.013	100.5
448.234	107.5
448.455	111.5
448.675	117.5
448.896	123.5
449.117	101.5
449.338	111.5
449.559	136.5
449.779	137.5
450	95.5
450.221	88.5
450.442	92.5
450.662	96.5
450.883	102.5
451.104	113.5
451.324	113.5
451.545	98.5
451.766	101.5
451.986	99.5
452.207	89.5
452.428	99.5
452.648	100.5
452.869	106.5
453.089	103.5
453.31	102.5
453.53	115.5
453.751	90.5
453.971	93.5
454.192	107.5
454.412	88.5
454.633	97.5
454.853	85.5
455.073	91.5
455.294	84.5
455.514	93.5
455.734	95.5
455.955	82.5
456.175	80.5
456.395	80.5
456.616	80.5
456.836	98.5
457.056	83.5
457.276	92.5
457.497	79.5
457.717	65.5
457.937	83.5
458.157	88.5
458.377	89.5
458.598	112.5
458.818	145.5
459.038	172.5
459.258	115.5
459.478	91.5
459.698	99.5
459.918	93.5
460.138	87.5
460.358	85.5
460.578	83.5
460.798	95.5
461.018	94.5
461.238	88.5
461.458	84.5
461.678	87.5
461.898	78.5
462.118	102.5
462.338	88.5
462.558	80.5
462.777	84.5
462.997	82.5
463.217	83.5
463.437	96.5
463.657	85.5
463.876	83.5
464.096	88.5
464.316	93.5
464.536	99.5
464.755	85.5
464.975	111.5
465.195	163.5
465.414	159.5
465.634	86.5
465.854	87.5
466.073	102.5
466.293	85.5
466.512	84.5
466.732	87.5
466.951	92.5
467.171	104.5
467.391	103.5
467.61	120.5
467.829	136.5
468.049	269.5
468.268	349.5
468.488	125.5
468.707	93.5
468.927	81.5
469.146	82.5
469.365	109.5
469.585	98.5
469.804	78.5
470.023	103.5
470.243	96.5
470.462	104.5
470.681	116.5
470.901	91.5
471.12	99.5
471.339	104.5
471.558	112.5
471.777	120.5
471.997	173.5
472.216	482.5
472.435	1022.5
472.654	288.5
472.873	113.5
473.092	98.5
473.311	101.5
473.53	91.5
473.749	77.5
473.968	99.5
474.187	112.5
474.406	104.5
474.625	80.5
474.844	85.5
475.063	86.5
475.282	99.5
475.501	84.5
475.72	97.5
475.939	94.5
476.158	96.5
476.377	80.5
476.596	84.5
476.814	99.5
477.033	97.5
477.252	98.5
477.471	94.5
477.69	82.5
477.908	70.5
478.127	104.5
478.346	96.5
478.564	92.5
478.783	98.5
479.002	94.5
479.22	103.5
479.439	105.5
479.658	107.5
479.876	100.5
480.095	104.5
480.313	110.5
480.532	126.5
480.751	168.5
480.969	459.5
481.188	1785.5
481.406	1046.5
481.624	203.5
481.843	112.5
482.061	93.5
482.28	108.5
482.498	97.5
482.717	89.5
482.935	103.5
483.153	101.5
483.372	76.5
483.59	111.5
483.808	88.5
484.027	95.5
484.245	100.5
484.463	91.5
484.681	96.5
484.9	91.5
485.118	92.5
485.336	103.5
485.554	99.5
485.772	98.5
485.99	92.5
486.209	92.5
486.427	103.5
486.645	114.5
486.863	124.5
487.081	111.5
487.299	93.5
487.517	94.5
487.735	95.5
487.953	89.5
488.171	100.5
488.389	103.5
488.607	92.5
488.825	95.5
489.043	87.5
489.261	93.5
489.479	79.5
489.696	92.5
489.914	89.5
490.132	96.5
490.35	79.5
490.568	109.5
490.786	95.5
491.003	91.5
491.221	83.5
491.439	96.5
491.657	87.5
491.874	96.5
492.092	96.5
492.31	100.5
492.527	105.5
492.745	94.5
492.963	89.5
493.18	82.5
493.398	83.5
493.615	103.5
493.833	89.5
494.05	104.5
494.268	102.5
494.485	95.5
494.703	92.5
494.92	81.5
495.138	95.5
495.355	85.5
495.573	104.5
495.79	100.5
496.008	92.5
496.225	105.5
496.442	93.5
496.66	95.5
496.877	88.5
497.094	91.5
497.312	104.5
497.529	79.5
497.746	95.5
497.963	101.5
498.181	94.5
498.398	113.5
498.615	112.5
498.832	103.5
499.049	87.5
499.267	94.5
499.484	94.5
499.701	92.5
499.918	86.5
500.135	89.5
500.352	113.5
500.569	91.5
500.786	102.5
501.003	83.5
501.22	102.5
501.437	86.5
501.654	92.5
501.871	116.5
502.088	111.5
502.305	96.5
502.522	103.5
502.739	82.5
502.956	84.5
503.172	97.5
503.389	92.5
503.606	111.5
503.823	92.5
504.04	69.5
504.256	100.5
504.473	99.5
504.69	82.5
504.907	99.5
505.123	101.5
505.34	88.5
505.557	91.5
505.773	108.5
505.99	100.5
506.207	79.5
506.423	105.5
506.64	92.5
506.856	93.5
507.073	77.5
507.289	103.5
507.506	92.5
507.722	124.5
507.939	110.5
508.155	95.5
508.372	98.5
508.588	95.5
508.805	112.5
509.021	106.5
509.238	101.5
509.454	83.5
509.67	94.5
509.887	105.5
510.103	134.5
510.319	200.5
510.536	654.5
510.752	2123.5
510.968	582.5
511.184	161.5
511.401	123.5
511.617	95.5
511.833	96.5
512.049	97.5
512.265	85.5
512.481	103.5
512.698	87.5
512.914	99.5
513.13	98.5
513.346	97.5
513.562	98.5
513.778	91.5
513.994	94.5
514.21	109.5
514.426	123.5
514.642	129.5
514.858	137.5
515.074	147.5
515.29	441.5
515.506	1395.5
515.721	525.5
515.937	143.5
516.153	119.5
516.369	100.5
516.585	95.5
516.801	96.5
517.016	82.5
517.232	89.5
517.448	83.5
517.664	91.5
517.879	80.5
518.095	84.5
518.311	100.5
518.527	100.5
518.742	101.5
518.958	107.5
519.173	84.5
519.389	106.5
519.605	99.5
519.82	92.5
520.036	100.5
520.251	117.5
520.467	108.5
520.682	105.5
520.898	100.5
521.113	117.5
521.329	142.5
521.544	215.5
521.76	535.5
521.975	2314.5
522.19	1409.5
522.406	318.5
522.621	140.5
522.836	101.5
523.052	107.5
523.267	106.5
523.482	102.5
523.698	97.5
523.913	132.5
524.128	96.5
524.343	105.5
524.559	90.5
524.774	81.5
524.989	95.5
525.204	81.5
525.419	88.5
525.634	93.5
525.849	93.5
526.064	99.5
526.28	99.5
526.495	88.5
526.71	97.5
526.925	89.5
527.14	76.5
527.355	102.5
527.57	78.5
527.785	92.5
527.999	88.5
528.214	90.5
528.429	101.5
528.644	95.5
528.859	96.5
529.074	96.5
529.289	124.5
529.503	185.5
529.718	117.5
529.933	94.5
530.148	85.5
530.363	79.5
530.577	76.5
530.792	91.5
531.007	88.5
531.221	87.5
531.436	96.5
531.651	95.5
531.865	92.5
532.08	92.5
532.295	108.5
532.509	84.5
532.724	86.5
532.938	94.5
