Data from Circ_1992_H10_HRD10591_00094.txt Node
Date: Wed Jan 03 11:48:03 EST 2024
User: Yrep
Spectrometer: HR+D1059
Trigger mode: 1
Integration Time (sec): 1.000000E-1
Scans to average: 1
Electric dark correction enabled: true
Nonlinearity correction enabled: false
Boxcar width: 0
XAxis mode: Wavelengths
Number of Pixels in Spectrum: 2048
>>>>>Begin Spectral Data<<<<<
223.165	-15.31
223.4	-15.31
223.635	-15.31
223.869	-32.31
224.104	-19.31
224.338	-26.31
224.573	-13.31
224.808	-10.31
225.042	-14.31
225.277	-17.31
225.511	1.69
225.746	-2.31
225.98	23.69
226.215	10.69
226.449	18.69
226.683	20.69
226.918	40.69
227.152	34.69
227.387	48.69
227.621	31.69
227.856	33.69
228.09	48.69
228.324	59.69
228.559	60.69
228.793	50.69
229.027	70.69
229.262	70.69
229.496	73.69
229.73	98.69
229.964	88.69
230.199	78.69
230.433	83.69
230.667	80.69
230.901	69.69
231.136	64.69
231.37	80.69
231.604	93.69
231.838	79.69
232.072	78.69
232.306	84.69
232.541	73.69
232.775	87.69
233.009	85.69
233.243	84.69
233.477	89.69
233.711	81.69
233.945	76.69
234.179	68.69
234.413	95.69
234.647	82.69
234.881	85.69
235.115	81.69
235.349	69.69
235.583	76.69
235.817	67.69
236.051	84.69
236.285	67.69
236.519	88.69
236.753	70.69
236.987	84.69
237.221	87.69
237.455	85.69
237.689	76.69
237.922	76.69
238.156	80.69
238.39	69.69
238.624	77.69
238.858	61.69
239.091	82.69
239.325	86.69
239.559	82.69
239.793	85.69
240.027	59.69
240.26	78.69
240.494	79.69
240.728	75.69
240.961	70.69
241.195	91.69
241.429	77.69
241.662	70.69
241.896	85.69
242.13	74.69
242.363	91.69
242.597	64.69
242.83	66.69
243.064	77.69
243.298	73.69
243.531	76.69
243.765	68.69
243.998	81.69
244.232	87.69
244.465	87.69
244.699	72.69
244.932	66.69
245.166	74.69
245.399	68.69
245.633	86.69
245.866	89.69
246.099	67.69
246.333	66.69
246.566	78.69
246.8	70.69
247.033	70.69
247.266	73.69
247.5	93.69
247.733	89.69
247.966	74.69
248.2	82.69
248.433	84.69
248.666	82.69
248.899	83.69
249.133	97.69
249.366	102.69
249.599	111.69
249.832	61.69
250.066	78.69
250.299	76.69
250.532	83.69
250.765	85.69
250.998	80.69
251.231	77.69
251.465	69.69
251.698	77.69
251.931	85.69
252.164	88.69
252.397	69.69
252.63	77.69
252.863	82.69
253.096	88.69
253.329	76.69
253.562	73.69
253.795	77.69
254.028	69.69
254.261	82.69
254.494	84.69
254.727	88.69
254.96	80.69
255.193	91.69
255.426	84.69
255.659	72.69
255.892	89.69
256.124	90.69
256.357	81.69
256.59	75.69
256.823	84.69
257.056	80.69
257.289	91.69
257.521	70.69
257.754	84.69
257.987	91.69
258.22	97.69
258.452	88.69
258.685	95.69
258.918	87.69
259.151	89.69
259.383	77.69
259.616	76.69
259.849	77.69
260.081	69.69
260.314	90.69
260.547	74.69
260.779	92.69
261.012	100.69
261.244	101.69
261.477	90.69
261.71	95.69
261.942	104.69
262.175	130.69
262.407	98.69
262.64	74.69
262.872	72.69
263.105	81.69
263.337	88.69
263.57	85.69
263.802	82.69
264.035	93.69
264.267	78.69
264.499	80.69
264.732	92.69
264.964	82.69
265.197	85.69
265.429	79.69
265.661	70.69
265.894	80.69
266.126	84.69
266.358	85.69
266.591	88.69
266.823	72.69
267.055	76.69
267.287	95.69
267.52	84.69
267.752	82.69
267.984	78.69
268.216	78.69
268.448	85.69
268.681	93.69
268.913	82.69
269.145	84.69
269.377	100.69
269.609	93.69
269.841	80.69
270.073	80.69
270.306	81.69
270.538	81.69
270.77	89.69
271.002	89.69
271.234	72.69
271.466	83.69
271.698	98.69
271.93	77.69
272.162	89.69
272.394	88.69
272.626	88.69
272.858	79.69
273.09	84.69
273.322	66.69
273.553	76.69
273.785	73.69
274.017	78.69
274.249	76.69
274.481	86.69
274.713	86.69
274.945	91.69
275.176	80.69
275.408	82.69
275.64	106.69
275.872	104.69
276.104	98.69
276.335	93.69
276.567	97.69
276.799	127.69
277.031	129.69
277.262	146.69
277.494	117.69
277.726	99.69
277.957	94.69
278.189	98.69
278.421	70.69
278.652	90.69
278.884	72.69
279.115	76.69
279.347	92.69
279.579	85.69
279.81	113.69
280.042	149.69
280.273	177.69
280.505	137.69
280.736	97.69
280.968	100.69
281.199	78.69
281.431	82.69
281.662	94.69
281.894	88.69
282.125	100.69
282.356	111.69
282.588	153.69
282.819	104.69
283.051	99.69
283.282	68.69
283.513	80.69
283.745	90.69
283.976	89.69
284.207	86.69
284.439	69.69
284.67	85.69
284.901	85.69
285.132	99.69
285.364	95.69
285.595	84.69
285.826	100.69
286.057	92.69
286.288	86.69
286.52	79.69
286.751	88.69
286.982	87.69
287.213	90.69
287.444	89.69
287.675	77.69
287.906	79.69
288.138	83.69
288.369	82.69
288.6	92.69
288.831	79.69
289.062	83.69
289.293	101.69
289.524	86.69
289.755	93.69
289.986	76.69
290.217	76.69
290.448	81.69
290.679	89.69
290.91	104.69
291.141	95.69
291.371	88.69
291.602	84.69
291.833	93.69
292.064	84.69
292.295	82.69
292.526	88.69
292.757	86.69
292.987	88.69
293.218	90.69
293.449	81.69
293.68	90.69
293.91	87.69
294.141	100.69
294.372	77.69
294.603	92.69
294.833	79.69
295.064	89.69
295.295	86.69
295.525	105.69
295.756	107.69
295.987	118.69
296.217	148.69
296.448	128.69
296.679	93.69
296.909	98.69
297.14	84.69
297.37	96.69
297.601	94.69
297.831	74.69
298.062	89.69
298.292	97.69
298.523	89.69
298.753	94.69
298.984	99.69
299.214	97.69
299.445	80.69
299.675	88.69
299.905	83.69
300.136	98.69
300.366	88.69
300.597	82.69
300.827	89.69
301.057	93.69
301.288	101.69
301.518	93.69
301.748	95.69
301.979	107.69
302.209	94.69
302.439	85.69
302.669	101.69
302.9	84.69
303.13	86.69
303.36	107.69
303.59	110.69
303.82	119.69
304.051	105.69
304.281	89.69
304.511	94.69
304.741	98.69
304.971	93.69
305.201	99.69
305.431	89.69
305.661	95.69
305.891	97.69
306.121	97.69
306.352	106.69
306.582	102.69
306.812	97.69
307.042	121.69
307.272	137.69
307.502	155.69
307.731	134.69
307.961	114.69
308.191	84.69
308.421	83.69
308.651	77.69
308.881	87.69
309.111	85.69
309.341	87.69
309.571	98.69
309.8	94.69
310.03	87.69
310.26	107.69
310.49	82.69
310.72	104.69
310.949	94.69
311.179	86.69
311.409	91.69
311.639	101.69
311.868	99.69
312.098	92.69
312.328	90.69
312.557	106.69
312.787	113.69
313.017	108.69
313.246	116.69
313.476	85.69
313.706	109.69
313.935	89.69
314.165	94.69
314.394	98.69
314.624	93.69
314.853	88.69
315.083	97.69
315.312	104.69
315.542	90.69
315.771	91.69
316.001	89.69
316.23	92.69
316.46	75.69
316.689	96.69
316.919	109.69
317.148	99.69
317.377	86.69
317.607	99.69
317.836	93.69
318.065	97.69
318.295	90.69
318.524	83.69
318.753	92.69
318.983	89.69
319.212	90.69
319.441	93.69
319.67	106.69
319.9	100.69
320.129	102.69
320.358	95.69
320.587	101.69
320.816	100.69
321.046	94.69
321.275	105.69
321.504	108.69
321.733	99.69
321.962	100.69
322.191	112.69
322.42	105.69
322.649	100.69
322.878	115.69
323.108	125.69
323.337	137.69
323.566	155.69
323.795	171.69
324.024	253.69
324.253	461.69
324.482	989.69
324.71	2046.69
324.939	2804.69
325.168	994.69
325.397	278.69
325.626	161.69
325.855	145.69
326.084	143.69
326.313	144.69
326.542	157.69
326.77	251.69
326.999	540.69
327.228	1120.69
327.457	2126.69
327.686	1716.69
327.914	502.69
328.143	388.69
328.372	436.69
328.6	267.69
328.829	169.69
329.058	160.69
329.287	162.69
329.515	163.69
329.744	196.69
329.972	341.69
330.201	648.69
330.43	944.69
330.658	438.69
330.887	227.69
331.115	144.69
331.344	104.69
331.572	117.69
331.801	119.69
332.03	101.69
332.258	115.69
332.486	98.69
332.715	102.69
332.943	112.69
333.172	112.69
333.4	123.69
333.629	146.69
333.857	178.69
334.085	302.69
334.314	630.69
334.542	1170.69
334.771	1124.69
334.999	302.69
335.227	129.69
335.455	118.69
335.684	112.69
335.912	109.69
336.14	109.69
336.369	102.69
336.597	101.69
336.825	100.69
337.053	85.69
337.281	93.69
337.51	102.69
337.738	98.69
337.966	97.69
338.194	90.69
338.422	86.69
338.65	86.69
338.878	95.69
339.106	88.69
339.334	99.69
339.562	94.69
339.79	86.69
340.018	81.69
340.246	101.69
340.474	87.69
340.702	105.69
340.93	87.69
341.158	107.69
341.386	101.69
341.614	84.69
341.842	88.69
342.07	103.69
342.298	91.69
342.526	84.69
342.754	101.69
342.981	72.69
343.209	82.69
343.437	97.69
343.665	91.69
343.893	88.69
344.12	97.69
344.348	82.69
344.576	83.69
344.804	93.69
345.031	98.69
345.259	99.69
345.487	99.69
345.714	95.69
345.942	83.69
346.17	98.69
346.397	72.69
346.625	88.69
346.853	90.69
347.08	93.69
347.308	112.69
347.535	90.69
347.763	109.69
347.99	84.69
348.218	114.69
348.445	104.69
348.673	106.69
348.9	102.69
349.128	105.69
349.355	101.69
349.583	97.69
349.81	96.69
350.037	91.69
350.265	101.69
350.492	102.69
350.72	100.69
350.947	82.69
351.174	105.69
351.402	109.69
351.629	104.69
351.856	99.69
352.083	113.69
352.311	104.69
352.538	106.69
352.765	121.69
352.992	115.69
353.22	111.69
353.447	102.69
353.674	78.69
353.901	89.69
354.128	100.69
354.355	82.69
354.583	98.69
354.81	105.69
355.037	99.69
355.264	94.69
355.491	93.69
355.718	94.69
355.945	83.69
356.172	86.69
356.399	76.69
356.626	99.69
356.853	93.69
357.08	94.69
357.307	99.69
357.534	89.69
357.761	101.69
357.988	109.69
358.215	91.69
358.441	89.69
358.668	89.69
358.895	85.69
359.122	96.69
359.349	93.69
359.576	100.69
359.802	126.69
360.029	114.69
360.256	122.69
360.483	99.69
360.709	88.69
360.936	93.69
361.163	97.69
361.39	94.69
361.616	97.69
361.843	80.69
362.07	99.69
362.296	91.69
362.523	102.69
362.749	96.69
362.976	100.69
363.203	93.69
363.429	93.69
363.656	95.69
363.882	84.69
364.109	94.69
364.335	88.69
364.562	83.69
364.788	82.69
365.015	87.69
365.241	97.69
365.468	114.69
365.694	107.69
365.92	100.69
366.147	85.69
366.373	92.69
366.599	91.69
366.826	91.69
367.052	98.69
367.278	99.69
367.505	99.69
367.731	93.69
367.957	94.69
368.184	85.69
368.41	96.69
368.636	102.69
368.862	97.69
369.089	108.69
369.315	95.69
369.541	97.69
369.767	96.69
369.993	99.69
370.219	88.69
370.445	93.69
370.672	92.69
370.898	95.69
371.124	80.69
371.35	85.69
371.576	93.69
371.802	107.69
372.028	88.69
372.254	85.69
372.48	85.69
372.706	93.69
372.932	85.69
373.158	86.69
373.384	90.69
373.61	85.69
373.835	94.69
374.061	92.69
374.287	78.69
374.513	90.69
374.739	80.69
374.965	93.69
375.191	97.69
375.416	87.69
375.642	96.69
375.868	84.69
376.094	101.69
376.319	93.69
376.545	97.69
376.771	83.69
376.997	92.69
377.222	80.69
377.448	93.69
377.674	82.69
377.899	98.69
378.125	90.69
378.35	86.69
378.576	80.69
378.802	83.69
379.027	97.69
379.253	96.69
379.478	95.69
379.704	95.69
379.929	103.69
380.155	110.69
380.38	85.69
380.606	92.69
380.831	106.69
381.057	105.69
381.282	100.69
381.507	94.69
381.733	108.69
381.958	90.69
382.184	104.69
382.409	87.69
382.634	92.69
382.86	99.69
383.085	90.69
383.31	99.69
383.535	84.69
383.761	91.69
383.986	102.69
384.211	86.69
384.436	91.69
384.662	86.69
384.887	104.69
385.112	94.69
385.337	101.69
385.562	97.69
385.787	98.69
386.013	114.69
386.238	123.69
386.463	99.69
386.688	102.69
386.913	101.69
387.138	96.69
387.363	123.69
387.588	108.69
387.813	98.69
388.038	93.69
388.263	113.69
388.488	106.69
388.713	100.69
388.938	104.69
389.163	93.69
389.387	80.69
389.612	99.69
389.837	95.69
390.062	91.69
390.287	108.69
390.512	90.69
390.736	76.69
390.961	97.69
391.186	96.69
391.411	105.69
391.636	98.69
391.86	78.69
392.085	66.69
392.31	74.69
392.534	80.69
392.759	82.69
392.984	91.69
393.208	93.69
393.433	74.69
393.658	77.69
393.882	84.69
394.107	91.69
394.331	94.69
394.556	88.69
394.78	97.69
395.005	108.69
395.229	103.69
395.454	97.69
395.678	93.69
395.903	73.69
396.127	89.69
396.352	91.69
396.576	76.69
396.801	88.69
397.025	78.69
397.249	108.69
397.474	84.69
397.698	87.69
397.922	98.69
398.147	80.69
398.371	78.69
398.595	89.69
398.82	73.69
399.044	86.69
399.268	95.69
399.492	82.69
399.717	98.69
399.941	89.69
400.165	95.69
400.389	99.69
400.613	91.69
400.837	67.69
401.062	100.69
401.286	95.69
401.51	105.69
401.734	90.69
401.958	107.69
402.182	125.69
402.406	169.69
402.63	132.69
402.854	102.69
403.078	85.69
403.302	90.69
403.526	103.69
403.75	80.69
403.974	87.69
404.198	85.69
404.422	83.69
404.645	95.69
404.869	91.69
405.093	115.69
405.317	133.69
405.541	130.69
405.765	121.69
405.988	122.69
406.212	176.69
406.436	243.69
406.66	173.69
406.883	108.69
407.107	105.69
407.331	107.69
407.555	88.69
407.778	90.69
408.002	97.69
408.226	90.69
408.449	97.69
408.673	101.69
408.896	89.69
409.12	111.69
409.344	98.69
409.567	93.69
409.791	90.69
410.014	98.69
410.238	93.69
410.461	102.69
410.685	98.69
410.908	104.69
411.132	86.69
411.355	97.69
411.578	83.69
411.802	88.69
412.025	70.69
412.249	104.69
412.472	108.69
412.695	130.69
412.919	115.69
413.142	88.69
413.365	93.69
413.589	93.69
413.812	99.69
414.035	91.69
414.258	96.69
414.482	92.69
414.705	76.69
414.928	84.69
415.151	72.69
415.374	83.69
415.597	92.69
415.821	78.69
416.044	97.69
416.267	86.69
416.49	92.69
416.713	83.69
416.936	105.69
417.159	93.69
417.382	88.69
417.605	79.69
417.828	101.69
418.051	92.69
418.274	82.69
418.497	100.69
418.72	103.69
418.943	92.69
419.166	85.69
419.389	90.69
419.611	93.69
419.834	66.69
420.057	95.69
420.28	104.69
420.503	81.69
420.726	94.69
420.948	109.69
421.171	95.69
421.394	100.69
421.617	98.69
421.839	92.69
422.062	89.69
422.285	95.69
422.507	91.69
422.73	117.69
422.953	108.69
423.175	86.69
423.398	92.69
423.621	87.69
423.843	90.69
424.066	86.69
424.288	98.69
424.511	98.69
424.733	97.69
424.956	103.69
425.178	100.69
425.401	109.69
425.623	104.69
425.846	97.69
426.068	99.69
426.291	94.69
426.513	94.69
426.735	101.69
426.958	94.69
427.18	107.69
427.402	156.69
427.625	216.69
427.847	194.69
428.069	188.69
428.292	112.69
428.514	88.69
428.736	72.69
428.958	89.69
429.181	90.69
429.403	89.69
429.625	82.69
429.847	109.69
430.069	113.69
430.292	95.69
430.514	84.69
430.736	80.69
430.958	94.69
431.18	99.69
431.402	72.69
431.624	75.69
431.846	81.69
432.068	82.69
432.29	75.69
432.512	84.69
432.734	84.69
432.956	92.69
433.178	101.69
433.4	95.69
433.622	99.69
433.844	89.69
434.066	89.69
434.287	95.69
434.509	90.69
434.731	89.69
434.953	97.69
435.175	91.69
435.397	89.69
435.618	95.69
435.84	113.69
436.062	140.69
436.284	125.69
436.505	110.69
436.727	107.69
436.949	93.69
437.17	91.69
437.392	90.69
437.614	96.69
437.835	106.69
438.057	162.69
438.278	111.69
438.5	116.69
438.721	137.69
438.943	116.69
439.165	98.69
439.386	88.69
439.608	82.69
439.829	114.69
440.05	141.69
440.272	193.69
440.493	116.69
440.715	94.69
440.936	78.69
441.158	92.69
441.379	94.69
441.6	101.69
441.822	97.69
442.043	96.69
442.264	96.69
442.486	126.69
442.707	86.69
442.928	101.69
443.149	146.69
443.371	152.69
443.592	125.69
443.813	119.69
444.034	113.69
444.255	120.69
444.476	94.69
444.698	91.69
444.919	83.69
445.14	144.69
445.361	125.69
445.582	117.69
445.803	150.69
446.024	166.69
446.245	163.69
446.466	131.69
446.687	93.69
446.908	84.69
447.129	91.69
447.35	83.69
447.571	85.69
447.792	101.69
448.013	83.69
448.234	108.69
448.455	94.69
448.675	128.69
448.896	137.69
449.117	105.69
449.338	114.69
449.559	135.69
449.779	161.69
450	96.69
450.221	88.69
450.442	102.69
450.662	101.69
450.883	107.69
451.104	124.69
451.324	92.69
451.545	89.69
451.766	90.69
451.986	86.69
452.207	85.69
452.428	96.69
452.648	94.69
452.869	130.69
453.089	108.69
453.31	127.69
453.53	96.69
453.751	93.69
453.971	109.69
454.192	104.69
454.412	99.69
454.633	80.69
454.853	85.69
455.073	68.69
455.294	94.69
455.514	109.69
455.734	89.69
455.955	78.69
456.175	78.69
456.395	82.69
456.616	92.69
456.836	99.69
457.056	63.69
457.276	100.69
457.497	77.69
457.717	95.69
457.937	77.69
458.157	76.69
458.377	97.69
458.598	112.69
458.818	171.69
459.038	204.69
459.258	126.69
459.478	94.69
459.698	94.69
459.918	88.69
460.138	90.69
460.358	85.69
460.578	96.69
460.798	88.69
461.018	93.69
461.238	95.69
461.458	98.69
461.678	92.69
461.898	78.69
462.118	86.69
462.338	80.69
462.558	90.69
462.777	92.69
462.997	90.69
463.217	97.69
463.437	103.69
463.657	99.69
463.876	117.69
464.096	85.69
464.316	90.69
464.536	104.69
464.755	96.69
464.975	117.69
465.195	186.69
465.414	185.69
465.634	95.69
465.854	81.69
466.073	103.69
466.293	80.69
466.512	94.69
466.732	91.69
466.951	87.69
467.171	81.69
467.391	97.69
467.61	116.69
467.829	154.69
468.049	380.69
468.268	554.69
468.488	172.69
468.707	99.69
468.927	90.69
469.146	97.69
469.365	90.69
469.585	96.69
469.804	104.69
470.023	95.69
470.243	99.69
470.462	107.69
470.681	136.69
470.901	102.69
471.12	86.69
471.339	104.69
471.558	108.69
471.777	115.69
471.997	221.69
472.216	741.69
472.435	1673.69
472.654	432.69
472.873	145.69
473.092	102.69
473.311	98.69
473.53	99.69
473.749	93.69
473.968	102.69
474.187	104.69
474.406	100.69
474.625	99.69
474.844	108.69
475.063	88.69
475.282	88.69
475.501	83.69
475.72	63.69
475.939	90.69
476.158	91.69
476.377	84.69
476.596	95.69
476.814	88.69
477.033	96.69
477.252	91.69
477.471	93.69
477.69	86.69
477.908	101.69
478.127	94.69
478.346	106.69
478.564	116.69
478.783	111.69
479.002	92.69
479.22	91.69
479.439	109.69
479.658	91.69
479.876	87.69
480.095	110.69
480.313	121.69
480.532	131.69
480.751	228.69
480.969	710.69
481.188	2908.69
481.406	1694.69
481.624	264.69
481.843	121.69
482.061	95.69
482.28	96.69
482.498	87.69
482.717	91.69
482.935	95.69
483.153	96.69
483.372	109.69
483.59	91.69
483.808	78.69
484.027	86.69
484.245	91.69
484.463	87.69
484.681	91.69
484.9	100.69
485.118	90.69
485.336	90.69
485.554	85.69
485.772	98.69
485.99	103.69
486.209	90.69
486.427	112.69
486.645	126.69
486.863	118.69
487.081	105.69
487.299	97.69
487.517	98.69
487.735	95.69
487.953	82.69
488.171	88.69
488.389	88.69
488.607	102.69
488.825	89.69
489.043	95.69
489.261	92.69
489.479	94.69
489.696	86.69
489.914	83.69
490.132	91.69
490.35	104.69
490.568	96.69
490.786	83.69
491.003	89.69
491.221	85.69
491.439	83.69
491.657	97.69
491.874	88.69
492.092	78.69
492.31	83.69
492.527	89.69
492.745	92.69
492.963	98.69
493.18	86.69
493.398	85.69
493.615	83.69
493.833	93.69
494.05	86.69
494.268	101.69
494.485	93.69
494.703	100.69
494.92	79.69
495.138	87.69
495.355	87.69
495.573	87.69
495.79	79.69
496.008	107.69
496.225	93.69
496.442	83.69
496.66	88.69
496.877	95.69
497.094	93.69
497.312	84.69
497.529	84.69
497.746	90.69
497.963	97.69
498.181	94.69
498.398	108.69
498.615	125.69
498.832	97.69
499.049	88.69
499.267	93.69
499.484	78.69
499.701	84.69
499.918	86.69
500.135	80.69
500.352	98.69
500.569	86.69
500.786	100.69
501.003	89.69
501.22	93.69
501.437	91.69
501.654	100.69
501.871	122.69
502.088	85.69
502.305	104.69
502.522	85.69
502.739	96.69
502.956	80.69
503.172	109.69
503.389	96.69
503.606	93.69
503.823	102.69
504.04	110.69
504.256	92.69
504.473	98.69
504.69	92.69
504.907	93.69
505.123	91.69
505.34	84.69
505.557	95.69
505.773	102.69
505.99	84.69
506.207	89.69
506.423	81.69
506.64	97.69
506.856	98.69
507.073	96.69
507.289	83.69
507.506	95.69
507.722	118.69
507.939	121.69
508.155	98.69
508.372	88.69
508.588	90.69
508.805	86.69
509.021	82.69
509.238	94.69
509.454	111.69
509.67	110.69
509.887	109.69
510.103	135.69
510.319	217.69
510.536	752.69
510.752	2594.69
510.968	722.69
511.184	161.69
511.401	120.69
511.617	104.69
511.833	111.69
512.049	92.69
512.265	84.69
512.481	98.69
512.698	82.69
512.914	96.69
513.13	97.69
513.346	105.69
513.562	92.69
513.778	101.69
513.994	92.69
514.21	129.69
514.426	127.69
