Data from Circ_1992_H10_HRD10591_00060.txt Node
Date: Wed Jan 03 11:47:56 EST 2024
User: Yrep
Spectrometer: HR+D1059
Trigger mode: 1
Integration Time (sec): 1.000000E-1
Scans to average: 1
Electric dark correction enabled: true
Nonlinearity correction enabled: false
Boxcar width: 0
XAxis mode: Wavelengths
Number of Pixels in Spectrum: 2048
>>>>>Begin Spectral Data<<<<<
223.165	-1.19
223.4	-1.19
223.635	-1.19
223.869	-9.19
224.104	-16.19
224.338	-18.19
224.573	-4.19
224.808	-18.19
225.042	-15.19
225.277	-1.19
225.511	0.81
225.746	0.81
225.98	-4.19
226.215	15.81
226.449	1.81
226.683	21.81
226.918	18.81
227.152	27.81
227.387	40.81
227.621	40.81
227.856	40.81
228.09	48.81
228.324	48.81
228.559	48.81
228.793	64.81
229.027	67.81
229.262	63.81
229.496	77.81
229.73	94.81
229.964	96.81
230.199	82.81
230.433	73.81
230.667	70.81
230.901	75.81
231.136	79.81
231.37	85.81
231.604	77.81
231.838	78.81
232.072	81.81
232.306	85.81
232.541	78.81
232.775	69.81
233.009	77.81
233.243	92.81
233.477	77.81
233.711	83.81
233.945	89.81
234.179	80.81
234.413	68.81
234.647	75.81
234.881	66.81
235.115	86.81
235.349	87.81
235.583	83.81
235.817	95.81
236.051	75.81
236.285	72.81
236.519	94.81
236.753	65.81
236.987	85.81
237.221	81.81
237.455	99.81
237.689	85.81
237.922	67.81
238.156	77.81
238.39	81.81
238.624	82.81
238.858	82.81
239.091	74.81
239.325	73.81
239.559	87.81
239.793	77.81
240.027	84.81
240.26	91.81
240.494	79.81
240.728	82.81
240.961	76.81
241.195	64.81
241.429	70.81
241.662	84.81
241.896	72.81
242.13	74.81
242.363	77.81
242.597	66.81
242.83	70.81
243.064	77.81
243.298	64.81
243.531	75.81
243.765	81.81
243.998	74.81
244.232	70.81
244.465	81.81
244.699	82.81
244.932	75.81
245.166	80.81
245.399	76.81
245.633	85.81
245.866	86.81
246.099	69.81
246.333	75.81
246.566	81.81
246.8	69.81
247.033	68.81
247.266	73.81
247.5	77.81
247.733	74.81
247.966	93.81
248.2	89.81
248.433	65.81
248.666	78.81
248.899	79.81
249.133	75.81
249.366	94.81
249.599	104.81
249.832	83.81
250.066	93.81
250.299	79.81
250.532	63.81
250.765	84.81
250.998	71.81
251.231	77.81
251.465	91.81
251.698	86.81
251.931	83.81
252.164	79.81
252.397	78.81
252.63	83.81
252.863	81.81
253.096	83.81
253.329	65.81
253.562	84.81
253.795	84.81
254.028	95.81
254.261	68.81
254.494	77.81
254.727	85.81
254.96	90.81
255.193	70.81
255.426	75.81
255.659	78.81
255.892	85.81
256.124	80.81
256.357	93.81
256.59	88.81
256.823	73.81
257.056	79.81
257.289	86.81
257.521	78.81
257.754	79.81
257.987	82.81
258.22	81.81
258.452	83.81
258.685	89.81
258.918	81.81
259.151	67.81
259.383	73.81
259.616	76.81
259.849	84.81
260.081	85.81
260.314	83.81
260.547	86.81
260.779	90.81
261.012	92.81
261.244	91.81
261.477	87.81
261.71	77.81
261.942	110.81
262.175	121.81
262.407	98.81
262.64	82.81
262.872	86.81
263.105	81.81
263.337	81.81
263.57	95.81
263.802	68.81
264.035	82.81
264.267	83.81
264.499	82.81
264.732	87.81
264.964	99.81
265.197	80.81
265.429	93.81
265.661	100.81
265.894	86.81
266.126	100.81
266.358	86.81
266.591	89.81
266.823	80.81
267.055	81.81
267.287	85.81
267.52	68.81
267.752	84.81
267.984	84.81
268.216	92.81
268.448	101.81
268.681	88.81
268.913	73.81
269.145	79.81
269.377	83.81
269.609	78.81
269.841	90.81
270.073	85.81
270.306	92.81
270.538	76.81
270.77	93.81
271.002	96.81
271.234	92.81
271.466	85.81
271.698	93.81
271.93	90.81
272.162	77.81
272.394	85.81
272.626	87.81
272.858	82.81
273.09	90.81
273.322	88.81
273.553	80.81
273.785	82.81
274.017	91.81
274.249	80.81
274.481	83.81
274.713	79.81
274.945	90.81
275.176	97.81
275.408	85.81
275.64	82.81
275.872	100.81
276.104	94.81
276.335	80.81
276.567	107.81
276.799	117.81
277.031	122.81
277.262	119.81
277.494	93.81
277.726	89.81
277.957	82.81
278.189	86.81
278.421	99.81
278.652	94.81
278.884	99.81
279.115	93.81
279.347	77.81
279.579	91.81
279.81	103.81
280.042	111.81
280.273	142.81
280.505	107.81
280.736	100.81
280.968	90.81
281.199	81.81
281.431	76.81
281.662	93.81
281.894	86.81
282.125	98.81
282.356	116.81
282.588	146.81
282.819	115.81
283.051	70.81
283.282	87.81
283.513	87.81
283.745	94.81
283.976	77.81
284.207	78.81
284.439	85.81
284.67	92.81
284.901	94.81
285.132	92.81
285.364	81.81
285.595	92.81
285.826	79.81
286.057	86.81
286.288	76.81
286.52	84.81
286.751	74.81
286.982	87.81
287.213	92.81
287.444	100.81
287.675	91.81
287.906	97.81
288.138	103.81
288.369	92.81
288.6	81.81
288.831	92.81
289.062	92.81
289.293	76.81
289.524	92.81
289.755	81.81
289.986	87.81
290.217	80.81
290.448	94.81
290.679	100.81
290.91	93.81
291.141	99.81
291.371	80.81
291.602	83.81
291.833	76.81
292.064	81.81
292.295	95.81
292.526	84.81
292.757	91.81
292.987	77.81
293.218	86.81
293.449	93.81
293.68	86.81
293.91	78.81
294.141	74.81
294.372	96.81
294.603	84.81
294.833	81.81
295.064	97.81
295.295	97.81
295.525	84.81
295.756	94.81
295.987	108.81
296.217	130.81
296.448	113.81
296.679	89.81
296.909	84.81
297.14	89.81
297.37	83.81
297.601	84.81
297.831	75.81
298.062	81.81
298.292	86.81
298.523	90.81
298.753	92.81
298.984	83.81
299.214	81.81
299.445	86.81
299.675	91.81
299.905	93.81
300.136	94.81
300.366	81.81
300.597	83.81
300.827	93.81
301.057	99.81
301.288	91.81
301.518	114.81
301.748	82.81
301.979	101.81
302.209	100.81
302.439	95.81
302.669	94.81
302.9	85.81
303.13	102.81
303.36	98.81
303.59	111.81
303.82	117.81
304.051	84.81
304.281	81.81
304.511	91.81
304.741	94.81
304.971	98.81
305.201	85.81
305.431	87.81
305.661	101.81
305.891	84.81
306.121	88.81
306.352	84.81
306.582	91.81
306.812	99.81
307.042	87.81
307.272	119.81
307.502	126.81
307.731	138.81
307.961	109.81
308.191	89.81
308.421	103.81
308.651	79.81
308.881	96.81
309.111	101.81
309.341	100.81
309.571	108.81
309.8	88.81
310.03	91.81
310.26	82.81
310.49	111.81
310.72	93.81
310.949	96.81
311.179	95.81
311.409	97.81
311.639	99.81
311.868	100.81
312.098	92.81
312.328	114.81
312.557	93.81
312.787	110.81
313.017	110.81
313.246	89.81
313.476	91.81
313.706	90.81
313.935	93.81
314.165	107.81
314.394	98.81
314.624	85.81
314.853	91.81
315.083	97.81
315.312	86.81
315.542	94.81
315.771	92.81
316.001	87.81
316.23	89.81
316.46	100.81
316.689	97.81
316.919	93.81
317.148	119.81
317.377	89.81
317.607	98.81
317.836	97.81
318.065	84.81
318.295	89.81
318.524	83.81
318.753	99.81
318.983	95.81
319.212	109.81
319.441	102.81
319.67	98.81
319.9	98.81
320.129	90.81
320.358	90.81
320.587	92.81
320.816	95.81
321.046	100.81
321.275	91.81
321.504	101.81
321.733	98.81
321.962	106.81
322.191	93.81
322.42	94.81
322.649	101.81
322.878	102.81
323.108	121.81
323.337	124.81
323.566	122.81
323.795	160.81
324.024	204.81
324.253	415.81
324.482	864.81
324.71	1860.81
324.939	2511.81
325.168	892.81
325.397	274.81
325.626	159.81
325.855	131.81
326.084	134.81
326.313	146.81
326.542	157.81
326.77	253.81
326.999	498.81
327.228	1007.81
327.457	1917.81
327.686	1547.81
327.914	431.81
328.143	317.81
328.372	312.81
328.6	194.81
328.829	128.81
329.058	140.81
329.287	132.81
329.515	129.81
329.744	164.81
329.972	238.81
330.201	430.81
330.43	586.81
330.658	287.81
330.887	171.81
331.115	132.81
331.344	105.81
331.572	112.81
331.801	117.81
332.03	101.81
332.258	100.81
332.486	103.81
332.715	102.81
332.943	113.81
333.172	101.81
333.4	113.81
333.629	129.81
333.857	163.81
334.085	220.81
334.314	425.81
334.542	741.81
334.771	717.81
334.999	243.81
335.227	125.81
335.455	99.81
335.684	106.81
335.912	103.81
336.14	114.81
336.369	96.81
336.597	106.81
336.825	106.81
337.053	100.81
337.281	98.81
337.51	106.81
337.738	85.81
337.966	101.81
338.194	92.81
338.422	96.81
338.65	97.81
338.878	84.81
339.106	91.81
339.334	88.81
339.562	99.81
339.79	97.81
340.018	91.81
340.246	94.81
340.474	95.81
340.702	93.81
340.93	81.81
341.158	81.81
341.386	88.81
341.614	93.81
341.842	94.81
342.07	82.81
342.298	91.81
342.526	85.81
342.754	80.81
342.981	101.81
343.209	77.81
343.437	79.81
343.665	87.81
343.893	93.81
344.12	103.81
344.348	91.81
344.576	95.81
344.804	102.81
345.031	105.81
345.259	103.81
345.487	89.81
345.714	86.81
345.942	95.81
346.17	96.81
346.397	97.81
346.625	86.81
346.853	93.81
347.08	93.81
347.308	84.81
347.535	94.81
347.763	93.81
347.99	89.81
348.218	105.81
348.445	102.81
348.673	94.81
348.9	84.81
349.128	86.81
349.355	109.81
349.583	83.81
349.81	87.81
350.037	87.81
350.265	78.81
350.492	80.81
350.72	89.81
350.947	91.81
351.174	102.81
351.402	102.81
351.629	101.81
351.856	98.81
352.083	102.81
352.311	104.81
352.538	102.81
352.765	110.81
352.992	101.81
353.22	99.81
353.447	114.81
353.674	114.81
353.901	89.81
354.128	70.81
354.355	110.81
354.583	101.81
354.81	91.81
355.037	91.81
355.264	91.81
355.491	90.81
355.718	94.81
355.945	81.81
356.172	84.81
356.399	109.81
356.626	96.81
356.853	94.81
357.08	110.81
357.307	89.81
357.534	103.81
357.761	86.81
357.988	79.81
358.215	98.81
358.441	93.81
358.668	93.81
358.895	93.81
359.122	89.81
359.349	93.81
359.576	101.81
359.802	106.81
360.029	95.81
360.256	99.81
360.483	107.81
360.709	100.81
360.936	99.81
361.163	93.81
361.39	101.81
361.616	98.81
361.843	85.81
362.07	90.81
362.296	95.81
362.523	89.81
362.749	91.81
362.976	92.81
363.203	92.81
363.429	79.81
363.656	88.81
363.882	96.81
364.109	93.81
364.335	98.81
364.562	98.81
364.788	86.81
365.015	93.81
365.241	98.81
365.468	101.81
365.694	105.81
365.92	90.81
366.147	91.81
366.373	91.81
366.599	84.81
366.826	93.81
367.052	98.81
367.278	91.81
367.505	97.81
367.731	99.81
367.957	97.81
368.184	87.81
368.41	107.81
368.636	108.81
368.862	119.81
369.089	112.81
369.315	101.81
369.541	107.81
369.767	97.81
369.993	94.81
370.219	91.81
370.445	84.81
370.672	92.81
370.898	94.81
371.124	97.81
371.35	87.81
371.576	98.81
371.802	82.81
372.028	69.81
372.254	90.81
372.48	86.81
372.706	70.81
372.932	111.81
373.158	75.81
373.384	97.81
373.61	96.81
373.835	89.81
374.061	79.81
374.287	90.81
374.513	98.81
374.739	90.81
374.965	91.81
375.191	93.81
375.416	95.81
375.642	85.81
375.868	86.81
376.094	81.81
376.319	103.81
376.545	92.81
376.771	90.81
376.997	93.81
377.222	82.81
377.448	93.81
377.674	89.81
377.899	91.81
378.125	79.81
378.35	88.81
378.576	96.81
378.802	98.81
379.027	87.81
379.253	100.81
379.478	95.81
379.704	89.81
379.929	94.81
380.155	86.81
380.38	87.81
380.606	92.81
380.831	78.81
381.057	97.81
381.282	96.81
381.507	78.81
381.733	86.81
381.958	93.81
382.184	99.81
382.409	99.81
382.634	110.81
382.86	85.81
383.085	103.81
383.31	91.81
383.535	101.81
383.761	95.81
383.986	94.81
384.211	99.81
384.436	94.81
384.662	104.81
384.887	105.81
385.112	103.81
385.337	117.81
385.562	93.81
385.787	105.81
386.013	108.81
386.238	110.81
386.463	105.81
386.688	103.81
386.913	112.81
387.138	105.81
387.363	114.81
387.588	106.81
387.813	104.81
388.038	107.81
388.263	106.81
388.488	106.81
388.713	86.81
388.938	92.81
389.163	102.81
389.387	99.81
389.612	84.81
389.837	86.81
390.062	93.81
390.287	84.81
390.512	79.81
390.736	89.81
390.961	94.81
391.186	83.81
391.411	109.81
391.636	93.81
391.86	86.81
392.085	84.81
392.31	82.81
392.534	80.81
392.759	83.81
392.984	97.81
393.208	87.81
393.433	98.81
393.658	73.81
393.882	89.81
394.107	95.81
394.331	86.81
394.556	89.81
394.78	94.81
395.005	84.81
395.229	91.81
395.454	78.81
395.678	86.81
395.903	75.81
396.127	91.81
396.352	81.81
396.576	90.81
396.801	86.81
397.025	84.81
397.249	80.81
397.474	85.81
397.698	74.81
397.922	71.81
398.147	91.81
398.371	95.81
398.595	81.81
398.82	85.81
399.044	78.81
399.268	82.81
399.492	79.81
399.717	98.81
399.941	93.81
400.165	99.81
400.389	89.81
400.613	70.81
400.837	85.81
401.062	94.81
401.286	87.81
401.51	93.81
401.734	109.81
401.958	91.81
402.182	118.81
402.406	164.81
402.63	118.81
402.854	121.81
403.078	83.81
403.302	92.81
403.526	95.81
403.75	97.81
403.974	79.81
404.198	88.81
404.422	99.81
404.645	95.81
404.869	97.81
405.093	106.81
405.317	117.81
405.541	117.81
405.765	101.81
405.988	123.81
406.212	169.81
406.436	206.81
406.66	143.81
406.883	110.81
407.107	98.81
407.331	99.81
407.555	91.81
407.778	90.81
408.002	92.81
408.226	85.81
408.449	86.81
408.673	89.81
408.896	84.81
409.12	96.81
409.344	85.81
409.567	85.81
409.791	82.81
410.014	89.81
410.238	98.81
410.461	95.81
410.685	84.81
410.908	86.81
411.132	87.81
411.355	91.81
411.578	85.81
411.802	85.81
412.025	80.81
412.249	95.81
412.472	112.81
412.695	115.81
412.919	108.81
413.142	85.81
413.365	95.81
413.589	92.81
413.812	109.81
414.035	106.81
414.258	95.81
414.482	79.81
414.705	77.81
414.928	93.81
415.151	89.81
415.374	77.81
415.597	90.81
415.821	87.81
416.044	90.81
416.267	91.81
416.49	94.81
416.713	89.81
416.936	87.81
417.159	95.81
417.382	79.81
417.605	83.81
417.828	98.81
418.051	90.81
418.274	99.81
418.497	75.81
418.72	86.81
418.943	90.81
419.166	86.81
419.389	78.81
419.611	74.81
419.834	93.81
420.057	96.81
420.28	82.81
420.503	96.81
420.726	81.81
420.948	92.81
421.171	99.81
421.394	91.81
421.617	74.81
421.839	90.81
422.062	78.81
422.285	96.81
422.507	100.81
422.73	98.81
422.953	111.81
423.175	81.81
423.398	79.81
423.621	73.81
423.843	78.81
424.066	86.81
424.288	91.81
424.511	95.81
424.733	103.81
424.956	101.81
425.178	89.81
425.401	97.81
425.623	113.81
425.846	86.81
426.068	82.81
426.291	84.81
426.513	103.81
426.735	95.81
426.958	84.81
427.18	106.81
427.402	135.81
427.625	178.81
427.847	178.81
428.069	167.81
428.292	103.81
428.514	95.81
428.736	80.81
428.958	89.81
429.181	85.81
429.403	79.81
429.625	85.81
429.847	106.81
430.069	94.81
430.292	91.81
430.514	91.81
430.736	97.81
430.958	82.81
431.18	80.81
431.402	90.81
431.624	76.81
431.846	74.81
432.068	90.81
432.29	90.81
432.512	93.81
432.734	97.81
432.956	100.81
433.178	100.81
433.4	94.81
433.622	94.81
433.844	107.81
434.066	84.81
434.287	100.81
434.509	91.81
434.731	88.81
434.953	91.81
435.175	90.81
435.397	89.81
435.618	93.81
435.84	109.81
436.062	125.81
436.284	109.81
436.505	111.81
436.727	109.81
436.949	100.81
437.17	82.81
437.392	95.81
437.614	93.81
437.835	103.81
438.057	121.81
438.278	105.81
438.5	104.81
438.721	109.81
438.943	90.81
439.165	89.81
439.386	86.81
439.608	90.81
439.829	92.81
440.05	134.81
440.272	159.81
440.493	91.81
440.715	91.81
440.936	96.81
441.158	93.81
441.379	92.81
441.6	109.81
441.822	91.81
442.043	88.81
442.264	115.81
442.486	97.81
442.707	97.81
442.928	107.81
443.149	130.81
443.371	132.81
443.592	122.81
443.813	112.81
444.034	99.81
444.255	109.81
444.476	82.81
444.698	81.81
444.919	90.81
445.14	123.81
445.361	106.81
445.582	103.81
445.803	153.81
446.024	124.81
446.245	138.81
446.466	97.81
446.687	75.81
446.908	80.81
447.129	94.81
447.35	90.81
447.571	90.81
447.792	89.81
448.013	103.81
448.234	90.81
448.455	87.81
448.675	113.81
448.896	126.81
449.117	113.81
449.338	114.81
449.559	116.81
449.779	123.81
450	93.81
450.221	91.81
450.442	81.81
450.662	87.81
450.883	114.81
451.104	114.81
451.324	95.81
451.545	92.81
451.766	83.81
451.986	84.81
452.207	83.81
452.428	84.81
452.648	107.81
452.869	104.81
453.089	119.81
453.31	108.81
453.53	89.81
453.751	84.81
453.971	102.81
454.192	112.81
454.412	92.81
454.633	82.81
454.853	83.81
455.073	92.81
455.294	89.81
455.514	97.81
455.734	88.81
455.955	90.81
456.175	78.81
456.395	76.81
456.616	91.81
456.836	89.81
457.056	75.81
457.276	89.81
457.497	77.81
457.717	89.81
457.937	77.81
458.157	84.81
458.377	100.81
458.598	100.81
458.818	143.81
459.038	167.81
459.258	119.81
459.478	102.81
459.698	101.81
459.918	83.81
460.138	77.81
460.358	74.81
460.578	86.81
460.798	92.81
461.018	90.81
461.238	69.81
461.458	86.81
461.678	93.81
461.898	95.81
462.118	90.81
462.338	95.81
462.558	89.81
462.777	85.81
462.997	86.81
463.217	87.81
463.437	92.81
463.657	95.81
463.876	92.81
464.096	95.81
464.316	90.81
464.536	99.81
464.755	89.81
464.975	113.81
465.195	181.81
465.414	158.81
465.634	91.81
465.854	87.81
466.073	80.81
466.293	89.81
466.512	84.81
466.732	85.81
466.951	93.81
467.171	89.81
467.391	96.81
467.61	108.81
467.829	150.81
468.049	274.81
468.268	374.81
468.488	139.81
468.707	84.81
468.927	95.81
469.146	85.81
469.365	85.81
469.585	93.81
469.804	87.81
470.023	110.81
470.243	100.81
470.462	88.81
470.681	119.81
470.901	107.81
471.12	106.81
471.339	92.81
471.558	103.81
471.777	117.81
471.997	170.81
472.216	516.81
472.435	1045.81
472.654	273.81
472.873	118.81
473.092	87.81
473.311	92.81
473.53	89.81
473.749	102.81
473.968	97.81
474.187	112.81
474.406	106.81
474.625	87.81
474.844	83.81
475.063	92.81
475.282	92.81
475.501	97.81
475.72	86.81
475.939	98.81
476.158	85.81
476.377	93.81
476.596	88.81
476.814	96.81
477.033	95.81
477.252	87.81
477.471	71.81
477.69	83.81
477.908	84.81
478.127	97.81
478.346	92.81
478.564	94.81
478.783	89.81
479.002	104.81
479.22	95.81
479.439	108.81
479.658	91.81
479.876	103.81
480.095	102.81
480.313	83.81
480.532	134.81
480.751	177.81
480.969	502.81
481.188	1871.81
481.406	1075.81
481.624	196.81
481.843	105.81
482.061	83.81
482.28	101.81
482.498	98.81
482.717	85.81
482.935	93.81
483.153	101.81
483.372	95.81
483.59	89.81
483.808	99.81
484.027	81.81
484.245	71.81
484.463	90.81
484.681	98.81
484.9	80.81
485.118	95.81
485.336	106.81
485.554	95.81
485.772	107.81
485.99	101.81
486.209	93.81
486.427	111.81
486.645	117.81
486.863	98.81
487.081	101.81
487.299	95.81
487.517	106.81
487.735	101.81
487.953	99.81
488.171	97.81
488.389	103.81
488.607	120.81
488.825	98.81
489.043	82.81
489.261	82.81
489.479	84.81
489.696	78.81
489.914	90.81
490.132	91.81
490.35	91.81
490.568	90.81
490.786	83.81
491.003	94.81
491.221	91.81
491.439	99.81
491.657	100.81
491.874	101.81
492.092	94.81
492.31	103.81
492.527	92.81
492.745	97.81
492.963	96.81
493.18	101.81
493.398	81.81
493.615	105.81
493.833	96.81
494.05	87.81
494.268	76.81
494.485	91.81
494.703	93.81
494.92	90.81
495.138	84.81
495.355	90.81
495.573	84.81
495.79	89.81
496.008	83.81
496.225	81.81
496.442	71.81
496.66	91.81
496.877	88.81
497.094	92.81
497.312	85.81
497.529	106.81
497.746	97.81
497.963	87.81
498.181	88.81
498.398	101.81
498.615	120.81
498.832	97.81
499.049	98.81
499.267	95.81
499.484	95.81
499.701	90.81
499.918	102.81
500.135	86.81
500.352	95.81
500.569	91.81
500.786	90.81
501.003	85.81
501.22	94.81
501.437	81.81
501.654	87.81
501.871	109.81
502.088	98.81
502.305	94.81
502.522	77.81
502.739	99.81
502.956	92.81
503.172	109.81
503.389	98.81
503.606	97.81
503.823	108.81
504.04	73.81
504.256	91.81
504.473	85.81
504.69	81.81
504.907	81.81
505.123	81.81
505.34	91.81
505.557	91.81
505.773	87.81
505.99	101.81
506.207	88.81
506.423	90.81
506.64	93.81
506.856	85.81
507.073	84.81
507.289	100.81
507.506	111.81
507.722	106.81
507.939	99.81
508.155	99.81
508.372	92.81
508.588	90.81
508.805	97.81
509.021	94.81
509.238	95.81
509.454	103.81
509.67	97.81
509.887	104.81
510.103	127.81
510.319	182.81
510.536	690.81
510.752	2204.81
510.968	622.81
511.184	138.81
511.401	97.81
511.617	94.81
511.833	101.81
512.049	82.81
512.265	94.81
512.481	90.81
512.698	96.81
512.914	106.81
513.13	91.81
513.346	83.81
513.562	101.81
513.778	96.81
513.994	91.81
514.21	107.81
514.426	114.81
514.642	124.81
514.858	108.81
515.074	164.81
515.29	439.81
