Data from Circ_1992_H10_HRD10591_00093.txt Node
Date: Wed Jan 03 11:48:03 EST 2024
User: Yrep
Spectrometer: HR+D1059
Trigger mode: 1
Integration Time (sec): 1.000000E-1
Scans to average: 1
Electric dark correction enabled: true
Nonlinearity correction enabled: false
Boxcar width: 0
XAxis mode: Wavelengths
Number of Pixels in Spectrum: 2048
>>>>>Begin Spectral Data<<<<<
223.165	-13
223.4	-13
223.635	-13
223.869	-8
224.104	-16
224.338	-12
224.573	-22
224.808	-4
225.042	1
225.277	-6
225.511	-12
225.746	10
225.98	3
226.215	16
226.449	3
226.683	11
226.918	27
227.152	22
227.387	48
227.621	42
227.856	45
228.09	49
228.324	63
228.559	46
228.793	63
229.027	55
229.262	65
229.496	84
229.73	93
229.964	90
230.199	87
230.433	66
230.667	78
230.901	89
231.136	94
231.37	80
231.604	85
231.838	85
232.072	86
232.306	71
232.541	85
232.775	80
233.009	65
233.243	79
233.477	80
233.711	88
233.945	80
234.179	77
234.413	79
234.647	82
234.881	81
235.115	80
235.349	76
235.583	89
235.817	70
236.051	81
236.285	61
236.519	73
236.753	95
236.987	63
237.221	73
237.455	83
237.689	80
237.922	68
238.156	79
238.39	89
238.624	83
238.858	73
239.091	85
239.325	78
239.559	91
239.793	74
240.027	79
240.26	87
240.494	69
240.728	80
240.961	98
241.195	84
241.429	82
241.662	69
241.896	73
242.13	75
242.363	66
242.597	81
242.83	69
243.064	59
243.298	86
243.531	73
243.765	71
243.998	78
244.232	86
244.465	81
244.699	77
244.932	79
245.166	73
245.399	92
245.633	64
245.866	71
246.099	73
246.333	80
246.566	74
246.8	81
247.033	89
247.266	86
247.5	89
247.733	64
247.966	94
248.2	83
248.433	83
248.666	74
248.899	80
249.133	77
249.366	92
249.599	91
249.832	83
250.066	76
250.299	90
250.532	91
250.765	81
250.998	76
251.231	63
251.465	81
251.698	77
251.931	68
252.164	86
252.397	86
252.63	86
252.863	88
253.096	75
253.329	77
253.562	75
253.795	78
254.028	85
254.261	97
254.494	94
254.727	87
254.96	77
255.193	75
255.426	77
255.659	70
255.892	90
256.124	80
256.357	77
256.59	71
256.823	75
257.056	95
257.289	90
257.521	93
257.754	74
257.987	77
258.22	95
258.452	86
258.685	81
258.918	83
259.151	85
259.383	75
259.616	86
259.849	85
260.081	96
260.314	58
260.547	80
260.779	79
261.012	97
261.244	99
261.477	102
261.71	112
261.942	111
262.175	121
262.407	86
262.64	88
262.872	77
263.105	85
263.337	91
263.57	91
263.802	88
264.035	79
264.267	75
264.499	83
264.732	87
264.964	81
265.197	84
265.429	80
265.661	102
265.894	86
266.126	81
266.358	81
266.591	102
266.823	88
267.055	72
267.287	83
267.52	89
267.752	90
267.984	74
268.216	77
268.448	83
268.681	81
268.913	77
269.145	80
269.377	96
269.609	69
269.841	74
270.073	73
270.306	83
270.538	87
270.77	94
271.002	78
271.234	70
271.466	99
271.698	83
271.93	92
272.162	83
272.394	91
272.626	88
272.858	87
273.09	78
273.322	91
273.553	86
273.785	93
274.017	85
274.249	90
274.481	95
274.713	82
274.945	93
275.176	79
275.408	81
275.64	94
275.872	105
276.104	89
276.335	93
276.567	109
276.799	111
277.031	127
277.262	125
277.494	105
277.726	87
277.957	88
278.189	78
278.421	75
278.652	99
278.884	81
279.115	81
279.347	96
279.579	90
279.81	94
280.042	142
280.273	158
280.505	126
280.736	99
280.968	91
281.199	85
281.431	90
281.662	81
281.894	91
282.125	98
282.356	108
282.588	147
282.819	127
283.051	99
283.282	86
283.513	98
283.745	90
283.976	84
284.207	81
284.439	93
284.67	92
284.901	85
285.132	86
285.364	82
285.595	93
285.826	78
286.057	92
286.288	89
286.52	92
286.751	80
286.982	87
287.213	95
287.444	97
287.675	97
287.906	90
288.138	86
288.369	106
288.6	79
288.831	61
289.062	78
289.293	77
289.524	84
289.755	95
289.986	89
290.217	80
290.448	102
290.679	81
290.91	79
291.141	89
291.371	97
291.602	87
291.833	78
292.064	91
292.295	94
292.526	101
292.757	99
292.987	98
293.218	92
293.449	74
293.68	100
293.91	91
294.141	107
294.372	87
294.603	92
294.833	84
295.064	96
295.295	85
295.525	81
295.756	76
295.987	114
296.217	141
296.448	100
296.679	97
296.909	90
297.14	96
297.37	87
297.601	79
297.831	81
298.062	75
298.292	78
298.523	94
298.753	83
298.984	86
299.214	86
299.445	88
299.675	96
299.905	103
300.136	85
300.366	87
300.597	92
300.827	83
301.057	103
301.288	98
301.518	107
301.748	82
301.979	97
302.209	93
302.439	89
302.669	88
302.9	91
303.13	83
303.36	93
303.59	109
303.82	112
304.051	102
304.281	93
304.511	95
304.741	90
304.971	81
305.201	79
305.431	87
305.661	92
305.891	90
306.121	87
306.352	101
306.582	96
306.812	104
307.042	111
307.272	129
307.502	134
307.731	122
307.961	113
308.191	92
308.421	92
308.651	95
308.881	97
309.111	92
309.341	97
309.571	95
309.8	109
310.03	92
310.26	103
310.49	97
310.72	109
310.949	110
311.179	98
311.409	102
311.639	107
311.868	93
312.098	87
312.328	92
312.557	107
312.787	102
313.017	97
313.246	89
313.476	90
313.706	94
313.935	116
314.165	109
314.394	107
314.624	89
314.853	92
315.083	96
315.312	106
315.542	100
315.771	101
316.001	93
316.23	94
316.46	88
316.689	96
316.919	99
317.148	113
317.377	99
317.607	108
317.836	91
318.065	89
318.295	100
318.524	95
318.753	99
318.983	88
319.212	116
319.441	111
319.67	110
319.9	97
320.129	91
320.358	98
320.587	109
320.816	94
321.046	104
321.275	103
321.504	89
321.733	105
321.962	100
322.191	117
322.42	99
322.649	109
322.878	117
323.108	122
323.337	137
323.566	158
323.795	162
324.024	236
324.253	448
324.482	931
324.71	1988
324.939	2606
325.168	943
325.397	284
325.626	167
325.855	128
326.084	123
326.313	139
326.542	162
326.77	252
326.999	500
327.228	1074
327.457	1979
327.686	1545
327.914	448
328.143	359
328.372	398
328.6	247
328.829	132
329.058	143
329.287	161
329.515	139
329.744	170
329.972	289
330.201	547
330.43	777
330.658	379
330.887	206
331.115	153
331.344	101
331.572	102
331.801	107
332.03	113
332.258	99
332.486	99
332.715	100
332.943	100
333.172	112
333.4	116
333.629	129
333.857	157
334.085	278
334.314	501
334.542	963
334.771	930
334.999	261
335.227	142
335.455	118
335.684	107
335.912	99
336.14	124
336.369	116
336.597	100
336.825	93
337.053	84
337.281	89
337.51	102
337.738	94
337.966	90
338.194	89
338.422	84
338.65	86
338.878	98
339.106	91
339.334	105
339.562	92
339.79	96
340.018	110
340.246	101
340.474	83
340.702	91
340.93	103
341.158	106
341.386	90
341.614	95
341.842	111
342.07	85
342.298	97
342.526	85
342.754	82
342.981	98
343.209	84
343.437	102
343.665	90
343.893	80
344.12	91
344.348	74
344.576	95
344.804	91
345.031	94
345.259	103
345.487	98
345.714	90
345.942	99
346.17	89
346.397	91
346.625	97
346.853	90
347.08	83
347.308	102
347.535	95
347.763	97
347.99	110
348.218	97
348.445	107
348.673	84
348.9	99
349.128	101
349.355	89
349.583	82
349.81	85
350.037	81
350.265	91
350.492	102
350.72	93
350.947	105
351.174	102
351.402	105
351.629	109
351.856	90
352.083	92
352.311	109
352.538	93
352.765	96
352.992	129
353.22	97
353.447	99
353.674	107
353.901	97
354.128	90
354.355	101
354.583	103
354.81	105
355.037	87
355.264	96
355.491	97
355.718	93
355.945	73
356.172	94
356.399	95
356.626	91
356.853	86
357.08	97
357.307	102
357.534	102
357.761	96
357.988	91
358.215	90
358.441	98
358.668	105
358.895	85
359.122	87
359.349	100
359.576	92
359.802	105
360.029	114
360.256	113
360.483	104
360.709	76
360.936	86
361.163	87
361.39	102
361.616	91
361.843	95
362.07	102
362.296	103
362.523	96
362.749	100
362.976	91
363.203	96
363.429	99
363.656	87
363.882	93
364.109	98
364.335	91
364.562	99
364.788	99
365.015	90
365.241	95
365.468	107
365.694	107
365.92	105
366.147	91
366.373	87
366.599	90
366.826	94
367.052	91
367.278	93
367.505	83
367.731	95
367.957	95
368.184	89
368.41	99
368.636	110
368.862	114
369.089	94
369.315	95
369.541	90
369.767	90
369.993	91
370.219	87
370.445	84
370.672	73
370.898	86
371.124	93
371.35	84
371.576	93
371.802	102
372.028	91
372.254	107
372.48	103
372.706	70
372.932	87
373.158	90
373.384	89
373.61	99
373.835	105
374.061	87
374.287	90
374.513	95
374.739	96
374.965	90
375.191	94
375.416	105
375.642	91
375.868	92
376.094	89
376.319	98
376.545	89
376.771	94
376.997	91
377.222	99
377.448	82
377.674	96
377.899	93
378.125	92
378.35	94
378.576	90
378.802	73
379.027	89
379.253	97
379.478	76
379.704	84
379.929	88
380.155	90
380.38	75
380.606	94
380.831	91
381.057	97
381.282	106
381.507	89
381.733	102
381.958	92
382.184	91
382.409	83
382.634	105
382.86	95
383.085	98
383.31	107
383.535	101
383.761	105
383.986	83
384.211	98
384.436	91
384.662	94
384.887	93
385.112	95
385.337	88
385.562	101
385.787	94
386.013	115
386.238	105
386.463	89
386.688	101
386.913	103
387.138	105
387.363	105
387.588	107
387.813	104
388.038	101
388.263	120
388.488	103
388.713	93
388.938	87
389.163	81
389.387	75
389.612	89
389.837	94
390.062	88
390.287	101
390.512	80
390.736	89
390.961	96
391.186	108
391.411	89
391.636	87
391.86	81
392.085	86
392.31	86
392.534	82
392.759	85
392.984	86
393.208	79
393.433	73
393.658	84
393.882	101
394.107	79
394.331	73
394.556	89
394.78	89
395.005	101
395.229	93
395.454	99
395.678	99
395.903	90
396.127	93
396.352	103
396.576	92
396.801	78
397.025	83
397.249	86
397.474	88
397.698	81
397.922	100
398.147	86
398.371	80
398.595	82
398.82	95
399.044	81
399.268	81
399.492	92
399.717	100
399.941	96
400.165	92
400.389	80
400.613	87
400.837	83
401.062	89
401.286	88
401.51	84
401.734	79
401.958	99
402.182	121
402.406	157
402.63	98
402.854	108
403.078	85
403.302	101
403.526	75
403.75	91
403.974	102
404.198	73
404.422	92
404.645	83
404.869	96
405.093	108
405.317	131
405.541	117
405.765	93
405.988	118
406.212	160
406.436	221
406.66	148
406.883	116
407.107	93
407.331	108
407.555	113
407.778	95
408.002	93
408.226	81
408.449	96
408.673	84
408.896	101
409.12	97
409.344	98
409.567	95
409.791	82
410.014	88
410.238	91
410.461	102
410.685	99
410.908	105
411.132	101
411.355	90
411.578	89
411.802	92
412.025	89
412.249	97
412.472	110
412.695	118
412.919	88
413.142	98
413.365	103
413.589	74
413.812	91
414.035	94
414.258	82
414.482	94
414.705	95
414.928	93
415.151	96
415.374	86
415.597	95
415.821	98
416.044	96
416.267	94
416.49	89
416.713	86
416.936	88
417.159	78
417.382	79
417.605	100
417.828	108
418.051	96
418.274	106
418.497	93
418.72	90
418.943	89
419.166	97
419.389	85
419.611	84
419.834	91
420.057	86
420.28	94
420.503	88
420.726	85
420.948	88
421.171	121
421.394	94
421.617	93
421.839	86
422.062	83
422.285	89
422.507	103
422.73	109
422.953	92
423.175	87
423.398	92
423.621	100
423.843	87
424.066	88
424.288	89
424.511	90
424.733	98
424.956	102
425.178	95
425.401	106
425.623	97
425.846	87
426.068	83
426.291	97
426.513	101
426.735	102
426.958	96
427.18	116
427.402	155
427.625	198
427.847	198
428.069	200
428.292	126
428.514	89
428.736	99
428.958	100
429.181	87
429.403	92
429.625	89
429.847	95
430.069	99
430.292	93
430.514	74
430.736	77
430.958	77
431.18	103
431.402	71
431.624	79
431.846	89
432.068	92
432.29	101
432.512	94
432.734	92
432.956	95
433.178	107
433.4	85
433.622	86
433.844	89
434.066	89
434.287	99
434.509	99
434.731	87
434.953	79
435.175	75
435.397	83
435.618	95
435.84	124
436.062	125
436.284	133
436.505	110
436.727	107
436.949	95
437.17	89
437.392	87
437.614	86
437.835	97
438.057	106
438.278	112
438.5	122
438.721	131
438.943	85
439.165	94
439.386	84
439.608	102
439.829	92
440.05	139
440.272	153
440.493	102
440.715	84
440.936	85
441.158	87
441.379	86
441.6	81
441.822	82
442.043	110
442.264	121
442.486	115
442.707	97
442.928	108
443.149	134
443.371	125
443.592	124
443.813	116
444.034	137
444.255	106
444.476	93
444.698	79
444.919	83
445.14	136
445.361	116
445.582	125
445.803	157
446.024	161
446.245	141
446.466	126
446.687	98
446.908	93
447.129	99
447.35	89
447.571	109
447.792	98
448.013	114
448.234	124
448.455	119
448.675	118
448.896	129
449.117	104
449.338	113
449.559	145
449.779	145
450	86
450.221	90
450.442	92
450.662	109
450.883	107
451.104	118
451.324	90
451.545	96
451.766	87
451.986	90
452.207	85
452.428	89
452.648	126
452.869	114
453.089	112
453.31	118
453.53	89
453.751	85
453.971	102
454.192	120
454.412	90
454.633	83
454.853	92
455.073	83
455.294	100
455.514	108
455.734	90
455.955	81
456.175	93
456.395	79
456.616	110
456.836	87
457.056	87
457.276	86
457.497	75
457.717	77
457.937	90
458.157	98
458.377	87
458.598	101
458.818	154
459.038	173
459.258	134
459.478	89
459.698	93
459.918	93
460.138	87
460.358	87
460.578	85
460.798	94
461.018	101
461.238	87
461.458	100
461.678	105
461.898	88
462.118	70
462.338	78
462.558	95
462.777	73
462.997	96
463.217	101
463.437	90
463.657	81
463.876	85
464.096	95
464.316	87
464.536	103
464.755	98
464.975	121
465.195	169
465.414	177
465.634	106
465.854	97
466.073	86
466.293	84
466.512	86
466.732	98
466.951	82
467.171	105
467.391	100
467.61	109
467.829	143
468.049	332
468.268	467
468.488	154
468.707	108
468.927	78
469.146	88
469.365	90
469.585	97
469.804	91
470.023	95
470.243	94
470.462	110
470.681	118
470.901	101
471.12	93
471.339	97
471.558	99
471.777	108
471.997	217
472.216	624
472.435	1345
472.654	353
472.873	115
473.092	95
473.311	91
473.53	91
473.749	88
473.968	102
474.187	102
474.406	106
474.625	87
474.844	92
475.063	95
475.282	98
475.501	91
475.72	90
475.939	100
476.158	90
476.377	83
476.596	93
476.814	92
477.033	98
477.252	106
477.471	92
477.69	89
477.908	94
478.127	90
478.346	94
478.564	102
478.783	99
479.002	104
479.22	101
479.439	107
479.658	105
479.876	109
480.095	99
480.313	122
480.532	125
480.751	203
480.969	590
481.188	2391
481.406	1381
481.624	237
481.843	116
482.061	104
482.28	99
482.498	89
482.717	98
482.935	92
483.153	95
483.372	96
483.59	77
483.808	80
484.027	94
484.245	91
484.463	102
484.681	102
484.9	99
485.118	92
485.336	105
485.554	98
485.772	100
485.99	97
486.209	101
486.427	96
486.645	111
486.863	114
487.081	101
487.299	102
487.517	86
487.735	83
487.953	106
488.171	93
488.389	83
488.607	106
488.825	91
489.043	95
489.261	87
489.479	94
489.696	91
489.914	89
490.132	69
490.35	96
490.568	89
490.786	90
491.003	83
491.221	83
491.439	108
491.657	83
491.874	102
492.092	99
492.31	94
492.527	100
492.745	90
492.963	94
493.18	98
493.398	84
493.615	98
493.833	93
494.05	94
494.268	84
494.485	80
494.703	94
494.92	94
495.138	86
495.355	87
495.573	95
495.79	106
496.008	111
496.225	107
496.442	95
496.66	94
496.877	78
497.094	97
497.312	91
497.529	87
497.746	98
497.963	97
498.181	94
498.398	107
498.615	99
498.832	96
499.049	100
499.267	93
499.484	96
499.701	94
499.918	94
500.135	103
500.352	94
500.569	105
500.786	107
501.003	89
501.22	87
501.437	105
501.654	107
501.871	117
502.088	92
502.305	86
502.522	91
502.739	87
502.956	87
503.172	93
503.389	94
503.606	116
503.823	91
504.04	102
504.256	90
504.473	85
504.69	90
504.907	98
505.123	89
505.34	80
505.557	100
505.773	90
505.99	102
506.207	75
506.423	84
506.64	90
506.856	85
507.073	102
507.289	94
507.506	95
507.722	125
507.939	112
508.155	82
508.372	94
508.588	95
508.805	87
509.021	91
509.238	94
509.454	101
509.67	97
509.887	122
510.103	126
510.319	222
510.536	730
510.752	2305
510.968	642
511.184	162
511.401	112
511.617	91
511.833	94
512.049	93
512.265	80
512.481	86
512.698	105
512.914	97
513.13	95
513.346	77
513.562	91
513.778	81
513.994	98
514.21	103
514.426	120
514.642	143
514.858	135
515.074	158
515.29	432
515.506	1576
515.721	577
515.937	161
516.153	119
516.369	97
516.585	96
516.801	105
517.016	99
517.232	102
517.448	95
517.664	110
517.879	84
518.095	93
518.311	94
518.527	104
518.742	86
518.958	90
519.173	103
519.389	94
519.605	94
519.82	106
520.036	110
520.251	122
520.467	122
520.682	106
520.898	121
521.113	111
521.329	129
521.544	211
521.76	589
521.975	2679
522.19	1531
522.406	341
522.621	143
522.836	119
523.052	91
523.267	92
523.482	96
523.698	100
523.913	134
524.128	108
524.343	81
524.559	99
524.774	92
524.989	103
525.204	104
525.419	95
525.634	91
525.849	92
526.064	78
526.28	92
526.495	89
526.71	101
526.925	86
527.14	100
527.355	106
527.57	88
527.785	91
527.999	94
528.214	80
528.429	97
528.644	102
528.859	88
529.074	92
529.289	137
529.503	182
529.718	111
529.933	109
530.148	93
530.363	95
530.577	102
530.792	90
531.007	75
531.221	82
531.436	96
531.651	108
531.865	85
532.08	90
532.295	77
532.509	94
532.724	83
532.938	87
533.153	96
533.367	76
533.582	91
533.796	103
534.011	86
534.225	86
534.44	94
534.654	86
534.868	78
535.083	81
535.297	87
535.511	99
535.726	94
535.94	94
536.154	82
536.369	93
536.583	84
536.797	86
537.011	95
537.225	95
537.44	102
537.654	97
537.868	87
538.082	93
538.296	78
538.51	81
538.724	97
538.938	81
539.153	98
539.367	106
539.581	105
539.795	80
540.009	103
540.222	75
540.436	93
540.65	95
540.864	89
541.078	91
541.292	100
541.506	101
541.72	98
541.934	79
542.147	77
542.361	85
542.575	78
542.789	95
543.002	93
543.216	83
543.43	87
543.644	77
543.857	86
544.071	83
544.285	98
544.498	81
544.712	81
544.925	85
545.139	101
545.352	87
545.566	84
545.779	93
545.993	90
546.206	103
546.42	99
546.633	95
546.847	101
547.06	77
547.274	93
547.487	97
547.7	86
547.914	77
548.127	101
548.34	84
548.554	85
548.767	90
548.98	97
549.193	94
549.407	85
549.62	88
549.833	82
550.046	86
550.259	99
550.473	82
550.686	96
550.899	94
551.112	88
551.325	103
551.538	82
551.751	91
551.964	104
552.177	99
552.39	91
552.603	107
552.816	99
553.029	97
553.242	76
553.455	86
553.667	86
553.88	108
554.093	109
554.306	99
554.519	100
554.732	97
554.944	98
555.157	93
555.37	70
555.583	91
555.795	107
556.008	94
556.221	89
556.433	91
556.646	95
556.859	93
557.071	72
557.284	83
557.496	83
557.709	92
557.921	95
558.134	96
558.346	91
558.559	89
558.771	87
558.984	83
559.196	84
559.409	93
559.621	92
559.833	81
560.046	85
560.258	105
560.47	108
560.683	97
560.895	94
561.107	93
561.32	86
561.532	76
561.744	101
561.956	91
562.168	80
562.381	78
562.593	81
562.805	82
563.017	79
563.229	89
563.441	96
563.653	82
563.865	81
564.077	86
564.289	89
564.501	89
564.713	85
564.925	85
565.137	88
565.349	84
565.561	96
565.773	88
565.985	94
566.197	80
566.408	89
566.62	73
566.832	87
567.044	93
567.255	91
567.467	85
567.679	86
567.891	97
568.102	83
568.314	70
568.526	86
568.737	83
568.949	89
569.161	101
569.372	82
569.584	87
569.795	76
570.007	114
570.218	227
570.43	130
570.641	95
570.853	95
571.064	81
571.276	82
571.487	84
571.698	83
571.91	95
572.121	75
572.333	94
572.544	85
572.755	85
572.966	83
573.178	89
573.389	103
573.6	101
573.811	94
574.023	82
574.234	76
574.445	83
574.656	81
574.867	100
575.078	93
575.289	102
575.501	101
575.712	98
575.923	90
576.134	94
576.345	92
576.556	92
576.767	99
576.978	89
577.188	100
577.399	94
577.61	91
577.821	101
578.032	113
578.243	240
578.454	693
578.665	190
578.875	102
579.086	88
579.297	91
579.508	84
579.718	97
579.929	95
580.14	75
580.35	98
580.561	80
580.772	93
580.982	91
581.193	96
581.403	87
581.614	81
581.825	93
582.035	76
582.246	91
582.456	79
582.667	100
