Data from Circ_1992_H10_HRD10591_00069.txt Node
Date: Wed Jan 03 11:47:58 EST 2024
User: Yrep
Spectrometer: HR+D1059
Trigger mode: 1
Integration Time (sec): 1.000000E-1
Scans to average: 1
Electric dark correction enabled: true
Nonlinearity correction enabled: false
Boxcar width: 0
XAxis mode: Wavelengths
Number of Pixels in Spectrum: 2048
>>>>>Begin Spectral Data<<<<<
223.165	-15.19
223.4	-15.19
223.635	-15.19
223.869	-22.19
224.104	-15.19
224.338	-6.19
224.573	-8.19
224.808	-9.19
225.042	-16.19
225.277	-15.19
225.511	-10.19
225.746	14.81
225.98	11.81
226.215	16.81
226.449	9.81
226.683	16.81
226.918	22.81
227.152	24.81
227.387	35.81
227.621	42.81
227.856	39.81
228.09	33.81
228.324	72.81
228.559	68.81
228.793	67.81
229.027	66.81
229.262	85.81
229.496	79.81
229.73	87.81
229.964	92.81
230.199	70.81
230.433	72.81
230.667	73.81
230.901	82.81
231.136	82.81
231.37	76.81
231.604	76.81
231.838	78.81
232.072	83.81
232.306	83.81
232.541	84.81
232.775	93.81
233.009	95.81
233.243	67.81
233.477	68.81
233.711	72.81
233.945	86.81
234.179	90.81
234.413	73.81
234.647	75.81
234.881	82.81
235.115	97.81
235.349	78.81
235.583	71.81
235.817	80.81
236.051	68.81
236.285	91.81
236.519	76.81
236.753	73.81
236.987	88.81
237.221	72.81
237.455	69.81
237.689	83.81
237.922	78.81
238.156	81.81
238.39	68.81
238.624	72.81
238.858	74.81
239.091	57.81
239.325	70.81
239.559	69.81
239.793	94.81
240.027	76.81
240.26	77.81
240.494	83.81
240.728	84.81
240.961	77.81
241.195	84.81
241.429	93.81
241.662	78.81
241.896	61.81
242.13	71.81
242.363	63.81
242.597	66.81
242.83	88.81
243.064	82.81
243.298	69.81
243.531	81.81
243.765	80.81
243.998	85.81
244.232	76.81
244.465	87.81
244.699	77.81
244.932	69.81
245.166	56.81
245.399	77.81
245.633	72.81
245.866	88.81
246.099	64.81
246.333	83.81
246.566	66.81
246.8	67.81
247.033	72.81
247.266	72.81
247.5	73.81
247.733	82.81
247.966	75.81
248.2	64.81
248.433	72.81
248.666	80.81
248.899	75.81
249.133	76.81
249.366	93.81
249.599	96.81
249.832	83.81
250.066	79.81
250.299	86.81
250.532	83.81
250.765	80.81
250.998	78.81
251.231	79.81
251.465	83.81
251.698	84.81
251.931	76.81
252.164	101.81
252.397	90.81
252.63	78.81
252.863	61.81
253.096	76.81
253.329	68.81
253.562	83.81
253.795	77.81
254.028	87.81
254.261	77.81
254.494	79.81
254.727	79.81
254.96	79.81
255.193	75.81
255.426	80.81
255.659	86.81
255.892	77.81
256.124	97.81
256.357	73.81
256.59	81.81
256.823	78.81
257.056	78.81
257.289	87.81
257.521	89.81
257.754	84.81
257.987	74.81
258.22	82.81
258.452	80.81
258.685	84.81
258.918	70.81
259.151	86.81
259.383	65.81
259.616	62.81
259.849	61.81
260.081	82.81
260.314	88.81
260.547	85.81
260.779	88.81
261.012	87.81
261.244	84.81
261.477	78.81
261.71	93.81
261.942	123.81
262.175	130.81
262.407	85.81
262.64	80.81
262.872	86.81
263.105	86.81
263.337	94.81
263.57	77.81
263.802	85.81
264.035	69.81
264.267	75.81
264.499	92.81
264.732	85.81
264.964	92.81
265.197	80.81
265.429	81.81
265.661	86.81
265.894	78.81
266.126	86.81
266.358	80.81
266.591	66.81
266.823	85.81
267.055	78.81
267.287	85.81
267.52	81.81
267.752	83.81
267.984	82.81
268.216	69.81
268.448	96.81
268.681	97.81
268.913	70.81
269.145	90.81
269.377	88.81
269.609	72.81
269.841	89.81
270.073	91.81
270.306	73.81
270.538	77.81
270.77	86.81
271.002	89.81
271.234	83.81
271.466	93.81
271.698	90.81
271.93	87.81
272.162	88.81
272.394	92.81
272.626	92.81
272.858	96.81
273.09	81.81
273.322	76.81
273.553	82.81
273.785	92.81
274.017	86.81
274.249	80.81
274.481	79.81
274.713	91.81
274.945	72.81
275.176	97.81
275.408	90.81
275.64	81.81
275.872	100.81
276.104	96.81
276.335	87.81
276.567	117.81
276.799	117.81
277.031	140.81
277.262	134.81
277.494	118.81
277.726	77.81
277.957	67.81
278.189	80.81
278.421	90.81
278.652	90.81
278.884	92.81
279.115	89.81
279.347	91.81
279.579	97.81
279.81	108.81
280.042	132.81
280.273	165.81
280.505	123.81
280.736	97.81
280.968	111.81
281.199	89.81
281.431	93.81
281.662	74.81
281.894	96.81
282.125	112.81
282.356	110.81
282.588	138.81
282.819	131.81
283.051	90.81
283.282	91.81
283.513	83.81
283.745	88.81
283.976	89.81
284.207	79.81
284.439	74.81
284.67	98.81
284.901	91.81
285.132	83.81
285.364	83.81
285.595	85.81
285.826	83.81
286.057	84.81
286.288	75.81
286.52	89.81
286.751	96.81
286.982	90.81
287.213	92.81
287.444	86.81
287.675	89.81
287.906	97.81
288.138	87.81
288.369	92.81
288.6	86.81
288.831	83.81
289.062	78.81
289.293	103.81
289.524	88.81
289.755	87.81
289.986	89.81
290.217	98.81
290.448	97.81
290.679	95.81
290.91	92.81
291.141	82.81
291.371	81.81
291.602	86.81
291.833	76.81
292.064	88.81
292.295	93.81
292.526	90.81
292.757	86.81
292.987	92.81
293.218	88.81
293.449	82.81
293.68	92.81
293.91	96.81
294.141	83.81
294.372	86.81
294.603	95.81
294.833	88.81
295.064	97.81
295.295	98.81
295.525	96.81
295.756	109.81
295.987	109.81
296.217	137.81
296.448	136.81
296.679	102.81
296.909	94.81
297.14	85.81
297.37	91.81
297.601	82.81
297.831	91.81
298.062	66.81
298.292	77.81
298.523	96.81
298.753	70.81
298.984	84.81
299.214	91.81
299.445	93.81
299.675	98.81
299.905	85.81
300.136	106.81
300.366	84.81
300.597	100.81
300.827	105.81
301.057	102.81
301.288	101.81
301.518	81.81
301.748	89.81
301.979	110.81
302.209	96.81
302.439	97.81
302.669	94.81
302.9	81.81
303.13	98.81
303.36	92.81
303.59	108.81
303.82	119.81
304.051	115.81
304.281	83.81
304.511	88.81
304.741	95.81
304.971	79.81
305.201	99.81
305.431	93.81
305.661	81.81
305.891	86.81
306.121	95.81
306.352	96.81
306.582	117.81
306.812	112.81
307.042	109.81
307.272	120.81
307.502	132.81
307.731	144.81
307.961	107.81
308.191	91.81
308.421	102.81
308.651	94.81
308.881	86.81
309.111	99.81
309.341	92.81
309.571	93.81
309.8	90.81
310.03	97.81
310.26	98.81
310.49	96.81
310.72	101.81
310.949	98.81
311.179	116.81
311.409	96.81
311.639	94.81
311.868	97.81
312.098	92.81
312.328	98.81
312.557	112.81
312.787	117.81
313.017	108.81
313.246	102.81
313.476	98.81
313.706	86.81
313.935	105.81
314.165	107.81
314.394	98.81
314.624	100.81
314.853	90.81
315.083	91.81
315.312	80.81
315.542	94.81
315.771	105.81
316.001	96.81
316.23	96.81
316.46	91.81
316.689	90.81
316.919	104.81
317.148	97.81
317.377	107.81
317.607	91.81
317.836	90.81
318.065	98.81
318.295	94.81
318.524	108.81
318.753	111.81
318.983	102.81
319.212	98.81
319.441	117.81
319.67	102.81
319.9	97.81
320.129	97.81
320.358	98.81
320.587	98.81
320.816	106.81
321.046	104.81
321.275	112.81
321.504	100.81
321.733	92.81
321.962	103.81
322.191	100.81
322.42	110.81
322.649	101.81
322.878	128.81
323.108	140.81
323.337	132.81
323.566	156.81
323.795	171.81
324.024	230.81
324.253	484.81
324.482	1075.81
324.71	2253.81
324.939	3073.81
325.168	1070.81
325.397	285.81
325.626	176.81
325.855	138.81
326.084	143.81
326.313	156.81
326.542	179.81
326.77	284.81
326.999	574.81
327.228	1224.81
327.457	2273.81
327.686	1840.81
327.914	527.81
328.143	364.81
328.372	419.81
328.6	269.81
328.829	157.81
329.058	156.81
329.287	163.81
329.515	156.81
329.744	164.81
329.972	316.81
330.201	598.81
330.43	841.81
330.658	399.81
330.887	226.81
331.115	160.81
331.344	115.81
331.572	113.81
331.801	123.81
332.03	98.81
332.258	110.81
332.486	112.81
332.715	97.81
332.943	100.81
333.172	117.81
333.4	126.81
333.629	129.81
333.857	182.81
334.085	276.81
334.314	565.81
334.542	1005.81
334.771	970.81
334.999	291.81
335.227	141.81
335.455	106.81
335.684	99.81
335.912	97.81
336.14	99.81
336.369	97.81
336.597	93.81
336.825	107.81
337.053	91.81
337.281	95.81
337.51	94.81
337.738	100.81
337.966	96.81
338.194	100.81
338.422	89.81
338.65	87.81
338.878	91.81
339.106	96.81
339.334	90.81
339.562	92.81
339.79	88.81
340.018	92.81
340.246	93.81
340.474	102.81
340.702	99.81
340.93	90.81
341.158	88.81
341.386	98.81
341.614	102.81
341.842	101.81
342.07	80.81
342.298	95.81
342.526	94.81
342.754	84.81
342.981	83.81
343.209	91.81
343.437	93.81
343.665	92.81
343.893	94.81
344.12	88.81
344.348	110.81
344.576	93.81
344.804	105.81
345.031	88.81
345.259	110.81
345.487	95.81
345.714	97.81
345.942	102.81
346.17	88.81
346.397	106.81
346.625	97.81
346.853	99.81
347.08	86.81
347.308	98.81
347.535	112.81
347.763	106.81
347.99	100.81
348.218	111.81
348.445	96.81
348.673	98.81
348.9	109.81
349.128	104.81
349.355	86.81
349.583	102.81
349.81	96.81
350.037	99.81
350.265	96.81
350.492	95.81
350.72	97.81
350.947	112.81
351.174	115.81
351.402	125.81
351.629	102.81
351.856	92.81
352.083	106.81
352.311	108.81
352.538	113.81
352.765	116.81
352.992	107.81
353.22	118.81
353.447	117.81
353.674	90.81
353.901	90.81
354.128	96.81
354.355	104.81
354.583	105.81
354.81	99.81
355.037	101.81
355.264	85.81
355.491	92.81
355.718	92.81
355.945	106.81
356.172	98.81
356.399	92.81
356.626	77.81
356.853	102.81
357.08	81.81
357.307	78.81
357.534	88.81
357.761	91.81
357.988	97.81
358.215	110.81
358.441	91.81
358.668	78.81
358.895	98.81
359.122	79.81
359.349	85.81
359.576	101.81
359.802	110.81
360.029	125.81
360.256	115.81
360.483	104.81
360.709	94.81
360.936	104.81
361.163	88.81
361.39	100.81
361.616	105.81
361.843	100.81
362.07	102.81
362.296	85.81
362.523	96.81
362.749	96.81
362.976	91.81
363.203	92.81
363.429	101.81
363.656	86.81
363.882	98.81
364.109	99.81
364.335	105.81
364.562	84.81
364.788	91.81
365.015	85.81
365.241	107.81
365.468	103.81
365.694	105.81
365.92	100.81
366.147	84.81
366.373	99.81
366.599	100.81
366.826	96.81
367.052	98.81
367.278	113.81
367.505	102.81
367.731	103.81
367.957	104.81
368.184	92.81
368.41	95.81
368.636	109.81
368.862	119.81
369.089	121.81
369.315	90.81
369.541	107.81
369.767	92.81
369.993	85.81
370.219	76.81
370.445	90.81
370.672	88.81
370.898	97.81
371.124	82.81
371.35	102.81
371.576	79.81
371.802	83.81
372.028	90.81
372.254	72.81
372.48	84.81
372.706	91.81
372.932	86.81
373.158	93.81
373.384	88.81
373.61	93.81
373.835	84.81
374.061	96.81
374.287	91.81
374.513	81.81
374.739	83.81
374.965	96.81
375.191	94.81
375.416	79.81
375.642	92.81
375.868	101.81
376.094	102.81
376.319	83.81
376.545	85.81
376.771	96.81
376.997	111.81
377.222	105.81
377.448	80.81
377.674	76.81
377.899	95.81
378.125	76.81
378.35	105.81
378.576	94.81
378.802	96.81
379.027	89.81
379.253	97.81
379.478	98.81
379.704	100.81
379.929	93.81
380.155	90.81
380.38	98.81
380.606	77.81
380.831	91.81
381.057	109.81
381.282	103.81
381.507	103.81
381.733	102.81
381.958	95.81
382.184	97.81
382.409	106.81
382.634	103.81
382.86	97.81
383.085	97.81
383.31	94.81
383.535	101.81
383.761	96.81
383.986	99.81
384.211	101.81
384.436	92.81
384.662	101.81
384.887	98.81
385.112	107.81
385.337	112.81
385.562	116.81
385.787	100.81
386.013	102.81
386.238	124.81
386.463	116.81
386.688	114.81
386.913	102.81
387.138	108.81
387.363	100.81
387.588	90.81
387.813	112.81
388.038	100.81
388.263	108.81
388.488	113.81
388.713	90.81
388.938	105.81
389.163	101.81
389.387	104.81
389.612	99.81
389.837	92.81
390.062	84.81
390.287	87.81
390.512	99.81
390.736	94.81
390.961	88.81
391.186	90.81
391.411	82.81
391.636	64.81
391.86	80.81
392.085	89.81
392.31	96.81
392.534	82.81
392.759	86.81
392.984	105.81
393.208	82.81
393.433	81.81
393.658	78.81
393.882	81.81
394.107	63.81
394.331	93.81
394.556	92.81
394.78	73.81
395.005	82.81
395.229	92.81
395.454	89.81
395.678	90.81
395.903	84.81
396.127	97.81
396.352	80.81
396.576	81.81
396.801	85.81
397.025	99.81
397.249	84.81
397.474	89.81
397.698	99.81
397.922	94.81
398.147	103.81
398.371	72.81
398.595	89.81
398.82	92.81
399.044	91.81
399.268	88.81
399.492	84.81
399.717	88.81
399.941	85.81
400.165	92.81
400.389	97.81
400.613	81.81
400.837	76.81
401.062	85.81
401.286	96.81
401.51	83.81
401.734	92.81
401.958	107.81
402.182	134.81
402.406	175.81
402.63	136.81
402.854	104.81
403.078	77.81
403.302	82.81
403.526	80.81
403.75	80.81
403.974	77.81
404.198	83.81
404.422	97.81
404.645	94.81
404.869	109.81
405.093	103.81
405.317	118.81
405.541	113.81
405.765	92.81
405.988	120.81
406.212	210.81
406.436	268.81
406.66	188.81
406.883	113.81
407.107	94.81
407.331	96.81
407.555	112.81
407.778	108.81
408.002	93.81
408.226	95.81
408.449	100.81
408.673	92.81
408.896	93.81
409.12	92.81
409.344	92.81
409.567	86.81
409.791	91.81
410.014	98.81
410.238	88.81
410.461	92.81
410.685	94.81
410.908	105.81
411.132	101.81
411.355	107.81
411.578	100.81
411.802	92.81
412.025	74.81
412.249	99.81
412.472	98.81
412.695	112.81
412.919	86.81
413.142	106.81
413.365	81.81
413.589	85.81
413.812	88.81
414.035	83.81
414.258	92.81
414.482	96.81
414.705	91.81
414.928	90.81
415.151	78.81
415.374	93.81
415.597	102.81
415.821	103.81
416.044	98.81
416.267	89.81
416.49	81.81
416.713	93.81
416.936	89.81
417.159	89.81
417.382	77.81
417.605	88.81
417.828	108.81
418.051	89.81
418.274	97.81
418.497	85.81
418.72	82.81
418.943	88.81
419.166	79.81
419.389	100.81
419.611	90.81
419.834	86.81
420.057	88.81
420.28	106.81
420.503	95.81
420.726	102.81
420.948	93.81
421.171	115.81
421.394	88.81
421.617	94.81
421.839	87.81
422.062	68.81
422.285	90.81
422.507	99.81
422.73	102.81
422.953	77.81
423.175	101.81
423.398	99.81
423.621	95.81
423.843	76.81
424.066	76.81
424.288	90.81
424.511	90.81
424.733	109.81
424.956	119.81
425.178	113.81
425.401	102.81
425.623	106.81
425.846	84.81
426.068	96.81
426.291	94.81
426.513	90.81
426.735	89.81
426.958	102.81
427.18	108.81
427.402	150.81
427.625	236.81
427.847	216.81
428.069	188.81
428.292	114.81
428.514	98.81
428.736	90.81
428.958	83.81
429.181	97.81
429.403	97.81
429.625	84.81
429.847	94.81
430.069	117.81
430.292	86.81
430.514	97.81
430.736	80.81
430.958	80.81
431.18	75.81
431.402	76.81
431.624	81.81
431.846	81.81
432.068	80.81
432.29	85.81
432.512	100.81
432.734	84.81
432.956	99.81
433.178	94.81
433.4	98.81
433.622	88.81
433.844	102.81
434.066	98.81
434.287	100.81
434.509	91.81
434.731	102.81
434.953	95.81
435.175	81.81
435.397	89.81
435.618	93.81
435.84	105.81
436.062	132.81
436.284	122.81
436.505	97.81
436.727	104.81
436.949	93.81
437.17	72.81
437.392	100.81
437.614	106.81
437.835	113.81
438.057	129.81
438.278	120.81
438.5	114.81
438.721	140.81
438.943	108.81
439.165	82.81
439.386	97.81
439.608	108.81
439.829	111.81
440.05	145.81
440.272	176.81
440.493	101.81
440.715	101.81
440.936	85.81
441.158	90.81
441.379	91.81
441.6	90.81
441.822	93.81
442.043	100.81
442.264	114.81
442.486	112.81
442.707	101.81
442.928	115.81
443.149	149.81
443.371	143.81
443.592	134.81
443.813	124.81
444.034	115.81
444.255	113.81
444.476	67.81
444.698	85.81
444.919	98.81
445.14	134.81
445.361	121.81
445.582	128.81
445.803	170.81
446.024	161.81
446.245	160.81
446.466	123.81
446.687	93.81
446.908	81.81
447.129	102.81
447.35	84.81
447.571	102.81
447.792	90.81
448.013	115.81
448.234	117.81
448.455	99.81
448.675	115.81
448.896	127.81
449.117	111.81
449.338	108.81
449.559	153.81
449.779	137.81
450	107.81
450.221	95.81
450.442	83.81
450.662	78.81
450.883	125.81
451.104	132.81
451.324	103.81
451.545	90.81
451.766	97.81
451.986	90.81
452.207	95.81
452.428	104.81
452.648	98.81
452.869	114.81
453.089	131.81
453.31	136.81
453.53	95.81
453.751	104.81
453.971	105.81
454.192	125.81
454.412	96.81
454.633	84.81
454.853	88.81
455.073	77.81
455.294	96.81
455.514	101.81
455.734	88.81
455.955	80.81
456.175	90.81
456.395	80.81
456.616	86.81
456.836	81.81
457.056	82.81
457.276	83.81
457.497	92.81
457.717	95.81
457.937	86.81
458.157	89.81
458.377	104.81
458.598	125.81
458.818	193.81
459.038	190.81
459.258	138.81
459.478	95.81
459.698	84.81
459.918	101.81
460.138	80.81
460.358	96.81
460.578	90.81
460.798	88.81
461.018	80.81
461.238	88.81
461.458	68.81
461.678	91.81
461.898	84.81
462.118	80.81
462.338	93.81
462.558	78.81
462.777	80.81
462.997	105.81
463.217	108.81
463.437	95.81
463.657	78.81
463.876	78.81
464.096	97.81
464.316	99.81
464.536	86.81
464.755	99.81
464.975	110.81
465.195	194.81
465.414	184.81
465.634	94.81
465.854	89.81
466.073	84.81
466.293	85.81
466.512	85.81
466.732	83.81
466.951	93.81
467.171	98.81
467.391	100.81
467.61	129.81
467.829	148.81
468.049	357.81
468.268	514.81
468.488	159.81
468.707	90.81
468.927	82.81
469.146	99.81
469.365	85.81
469.585	94.81
469.804	103.81
470.023	85.81
470.243	88.81
470.462	102.81
470.681	129.81
470.901	105.81
471.12	105.81
471.339	86.81
471.558	104.81
471.777	121.81
471.997	220.81
472.216	696.81
472.435	1485.81
472.654	372.81
472.873	138.81
473.092	101.81
473.311	90.81
473.53	81.81
473.749	100.81
473.968	98.81
474.187	123.81
474.406	111.81
474.625	94.81
474.844	84.81
475.063	71.81
475.282	85.81
475.501	78.81
475.72	85.81
475.939	96.81
476.158	74.81
476.377	88.81
476.596	91.81
476.814	96.81
477.033	99.81
477.252	102.81
477.471	81.81
477.69	73.81
477.908	83.81
478.127	100.81
478.346	102.81
478.564	96.81
478.783	99.81
479.002	96.81
479.22	93.81
479.439	101.81
479.658	113.81
479.876	107.81
480.095	121.81
480.313	121.81
480.532	127.81
480.751	193.81
480.969	653.81
481.188	2571.81
481.406	1491.81
481.624	236.81
481.843	125.81
482.061	92.81
482.28	103.81
482.498	108.81
482.717	88.81
482.935	94.81
483.153	92.81
483.372	96.81
483.59	96.81
483.808	81.81
484.027	92.81
484.245	105.81
484.463	86.81
484.681	96.81
484.9	106.81
485.118	101.81
485.336	101.81
485.554	101.81
485.772	109.81
485.99	100.81
486.209	115.81
486.427	119.81
486.645	115.81
486.863	115.81
487.081	112.81
487.299	101.81
487.517	105.81
487.735	105.81
487.953	78.81
488.171	102.81
488.389	108.81
488.607	105.81
488.825	94.81
489.043	88.81
489.261	96.81
489.479	74.81
489.696	86.81
489.914	84.81
490.132	93.81
490.35	95.81
490.568	97.81
490.786	89.81
491.003	83.81
491.221	86.81
491.439	82.81
491.657	94.81
491.874	78.81
492.092	82.81
492.31	94.81
492.527	98.81
492.745	93.81
492.963	92.81
493.18	84.81
493.398	84.81
493.615	99.81
493.833	94.81
494.05	85.81
494.268	96.81
494.485	84.81
494.703	72.81
494.92	96.81
495.138	95.81
495.355	90.81
495.573	94.81
495.79	100.81
496.008	102.81
496.225	95.81
496.442	90.81
496.66	80.81
496.877	83.81
497.094	88.81
497.312	90.81
497.529	74.81
497.746	93.81
497.963	86.81
498.181	91.81
498.398	95.81
498.615	103.81
498.832	108.81
499.049	95.81
499.267	95.81
499.484	86.81
499.701	88.81
499.918	96.81
500.135	92.81
500.352	92.81
500.569	94.81
500.786	98.81
501.003	88.81
501.22	91.81
501.437	90.81
501.654	112.81
501.871	114.81
502.088	81.81
502.305	97.81
502.522	83.81
502.739	84.81
502.956	76.81
503.172	92.81
503.389	100.81
503.606	118.81
503.823	101.81
504.04	85.81
504.256	89.81
504.473	81.81
504.69	88.81
504.907	94.81
505.123	96.81
505.34	96.81
505.557	92.81
505.773	89.81
505.99	90.81
506.207	83.81
506.423	92.81
506.64	91.81
506.856	73.81
507.073	84.81
507.289	100.81
507.506	107.81
507.722	110.81
507.939	117.81
508.155	96.81
508.372	108.81
508.588	99.81
508.805	100.81
509.021	91.81
509.238	105.81
509.454	80.81
509.67	108.81
509.887	105.81
510.103	139.81
510.319	220.81
510.536	833.81
510.752	2803.81
510.968	758.81
511.184	166.81
511.401	119.81
511.617	105.81
511.833	100.81
512.049	98.81
512.265	97.81
512.481	93.81
512.698	93.81
512.914	93.81
513.13	95.81
513.346	88.81
513.562	97.81
513.778	95.81
513.994	100.81
