Data from Circ_1992_H10_HRD10591_00053.txt Node
Date: Wed Jan 03 11:47:55 EST 2024
User: Yrep
Spectrometer: HR+D1059
Trigger mode: 1
Integration Time (sec): 1.000000E-1
Scans to average: 1
Electric dark correction enabled: true
Nonlinearity correction enabled: false
Boxcar width: 0
XAxis mode: Wavelengths
Number of Pixels in Spectrum: 2048
>>>>>Begin Spectral Data<<<<<
223.165	-23.62
223.4	-23.62
223.635	-23.62
223.869	-21.62
224.104	-15.62
224.338	-18.62
224.573	-15.62
224.808	-17.62
225.042	-32.62
225.277	9.38
225.511	-10.62
225.746	5.38
225.98	14.38
226.215	13.38
226.449	18.38
226.683	28.38
226.918	35.38
227.152	31.38
227.387	41.38
227.621	51.38
227.856	52.38
228.09	45.38
228.324	50.38
228.559	53.38
228.793	50.38
229.027	61.38
229.262	70.38
229.496	68.38
229.73	76.38
229.964	90.38
230.199	80.38
230.433	73.38
230.667	74.38
230.901	80.38
231.136	84.38
231.37	78.38
231.604	89.38
231.838	77.38
232.072	78.38
232.306	86.38
232.541	89.38
232.775	86.38
233.009	77.38
233.243	74.38
233.477	81.38
233.711	79.38
233.945	58.38
234.179	83.38
234.413	74.38
234.647	77.38
234.881	82.38
235.115	78.38
235.349	77.38
235.583	76.38
235.817	82.38
236.051	84.38
236.285	87.38
236.519	67.38
236.753	73.38
236.987	105.38
237.221	86.38
237.455	93.38
237.689	72.38
237.922	83.38
238.156	66.38
238.39	73.38
238.624	77.38
238.858	85.38
239.091	80.38
239.325	75.38
239.559	68.38
239.793	80.38
240.027	73.38
240.26	73.38
240.494	86.38
240.728	71.38
240.961	71.38
241.195	91.38
241.429	82.38
241.662	70.38
241.896	72.38
242.13	71.38
242.363	80.38
242.597	73.38
242.83	82.38
243.064	81.38
243.298	78.38
243.531	77.38
243.765	85.38
243.998	77.38
244.232	66.38
244.465	77.38
244.699	85.38
244.932	73.38
245.166	83.38
245.399	90.38
245.633	81.38
245.866	79.38
246.099	81.38
246.333	85.38
246.566	75.38
246.8	80.38
247.033	76.38
247.266	81.38
247.5	86.38
247.733	70.38
247.966	67.38
248.2	73.38
248.433	82.38
248.666	79.38
248.899	85.38
249.133	92.38
249.366	107.38
249.599	120.38
249.832	83.38
250.066	85.38
250.299	82.38
250.532	83.38
250.765	71.38
250.998	89.38
251.231	85.38
251.465	90.38
251.698	86.38
251.931	65.38
252.164	85.38
252.397	75.38
252.63	87.38
252.863	82.38
253.096	90.38
253.329	87.38
253.562	88.38
253.795	91.38
254.028	88.38
254.261	86.38
254.494	81.38
254.727	91.38
254.96	85.38
255.193	73.38
255.426	86.38
255.659	74.38
255.892	95.38
256.124	82.38
256.357	80.38
256.59	68.38
256.823	79.38
257.056	107.38
257.289	95.38
257.521	89.38
257.754	77.38
257.987	87.38
258.22	92.38
258.452	80.38
258.685	86.38
258.918	89.38
259.151	89.38
259.383	82.38
259.616	84.38
259.849	91.38
260.081	85.38
260.314	94.38
260.547	86.38
260.779	90.38
261.012	99.38
261.244	86.38
261.477	83.38
261.71	93.38
261.942	99.38
262.175	129.38
262.407	97.38
262.64	81.38
262.872	91.38
263.105	71.38
263.337	88.38
263.57	83.38
263.802	91.38
264.035	95.38
264.267	92.38
264.499	89.38
264.732	92.38
264.964	84.38
265.197	80.38
265.429	91.38
265.661	85.38
265.894	78.38
266.126	93.38
266.358	76.38
266.591	87.38
266.823	80.38
267.055	90.38
267.287	90.38
267.52	79.38
267.752	83.38
267.984	83.38
268.216	81.38
268.448	86.38
268.681	96.38
268.913	86.38
269.145	89.38
269.377	93.38
269.609	87.38
269.841	82.38
270.073	73.38
270.306	91.38
270.538	94.38
270.77	84.38
271.002	92.38
271.234	67.38
271.466	92.38
271.698	94.38
271.93	97.38
272.162	89.38
272.394	93.38
272.626	94.38
272.858	85.38
273.09	100.38
273.322	84.38
273.553	87.38
273.785	89.38
274.017	91.38
274.249	89.38
274.481	84.38
274.713	71.38
274.945	81.38
275.176	76.38
275.408	99.38
275.64	100.38
275.872	91.38
276.104	97.38
276.335	91.38
276.567	92.38
276.799	127.38
277.031	118.38
277.262	116.38
277.494	99.38
277.726	90.38
277.957	100.38
278.189	102.38
278.421	92.38
278.652	85.38
278.884	84.38
279.115	97.38
279.347	90.38
279.579	87.38
279.81	105.38
280.042	128.38
280.273	129.38
280.505	110.38
280.736	101.38
280.968	81.38
281.199	83.38
281.431	77.38
281.662	87.38
281.894	94.38
282.125	103.38
282.356	124.38
282.588	131.38
282.819	115.38
283.051	95.38
283.282	76.38
283.513	81.38
283.745	91.38
283.976	89.38
284.207	97.38
284.439	92.38
284.67	92.38
284.901	98.38
285.132	99.38
285.364	92.38
285.595	86.38
285.826	89.38
286.057	85.38
286.288	78.38
286.52	89.38
286.751	75.38
286.982	83.38
287.213	91.38
287.444	88.38
287.675	80.38
287.906	113.38
288.138	96.38
288.369	85.38
288.6	82.38
288.831	71.38
289.062	89.38
289.293	86.38
289.524	100.38
289.755	93.38
289.986	95.38
290.217	95.38
290.448	100.38
290.679	89.38
290.91	89.38
291.141	95.38
291.371	82.38
291.602	90.38
291.833	82.38
292.064	82.38
292.295	92.38
292.526	86.38
292.757	86.38
292.987	86.38
293.218	95.38
293.449	96.38
293.68	83.38
293.91	93.38
294.141	102.38
294.372	78.38
294.603	77.38
294.833	91.38
295.064	92.38
295.295	94.38
295.525	86.38
295.756	93.38
295.987	109.38
296.217	126.38
296.448	122.38
296.679	107.38
296.909	95.38
297.14	87.38
297.37	86.38
297.601	102.38
297.831	90.38
298.062	89.38
298.292	79.38
298.523	93.38
298.753	94.38
298.984	95.38
299.214	89.38
299.445	84.38
299.675	85.38
299.905	85.38
300.136	95.38
300.366	91.38
300.597	106.38
300.827	80.38
301.057	107.38
301.288	96.38
301.518	97.38
301.748	95.38
301.979	91.38
302.209	91.38
302.439	84.38
302.669	91.38
302.9	93.38
303.13	75.38
303.36	90.38
303.59	91.38
303.82	110.38
304.051	100.38
304.281	94.38
304.511	102.38
304.741	96.38
304.971	87.38
305.201	88.38
305.431	88.38
305.661	85.38
305.891	87.38
306.121	106.38
306.352	102.38
306.582	95.38
306.812	94.38
307.042	96.38
307.272	114.38
307.502	120.38
307.731	114.38
307.961	103.38
308.191	91.38
308.421	94.38
308.651	87.38
308.881	99.38
309.111	76.38
309.341	83.38
309.571	98.38
309.8	90.38
310.03	95.38
310.26	109.38
310.49	105.38
310.72	98.38
310.949	115.38
311.179	115.38
311.409	95.38
311.639	75.38
311.868	90.38
312.098	95.38
312.328	102.38
312.557	91.38
312.787	112.38
313.017	111.38
313.246	89.38
313.476	89.38
313.706	101.38
313.935	94.38
314.165	91.38
314.394	101.38
314.624	115.38
314.853	114.38
315.083	86.38
315.312	97.38
315.542	91.38
315.771	95.38
316.001	100.38
316.23	98.38
316.46	97.38
316.689	98.38
316.919	115.38
317.148	96.38
317.377	95.38
317.607	88.38
317.836	85.38
318.065	111.38
318.295	89.38
318.524	92.38
318.753	98.38
318.983	89.38
319.212	97.38
319.441	110.38
319.67	93.38
319.9	97.38
320.129	89.38
320.358	85.38
320.587	92.38
320.816	113.38
321.046	89.38
321.275	95.38
321.504	77.38
321.733	107.38
321.962	96.38
322.191	97.38
322.42	103.38
322.649	97.38
322.878	109.38
323.108	119.38
323.337	113.38
323.566	152.38
323.795	167.38
324.024	232.38
324.253	452.38
324.482	985.38
324.71	2102.38
324.939	2865.38
325.168	955.38
325.397	262.38
325.626	169.38
325.855	142.38
326.084	132.38
326.313	142.38
326.542	167.38
326.77	237.38
326.999	523.38
327.228	1126.38
327.457	2144.38
327.686	1715.38
327.914	487.38
328.143	325.38
328.372	344.38
328.6	238.38
328.829	150.38
329.058	139.38
329.287	137.38
329.515	130.38
329.744	163.38
329.972	260.38
330.201	441.38
330.43	640.38
330.658	316.38
330.887	189.38
331.115	148.38
331.344	102.38
331.572	107.38
331.801	111.38
332.03	119.38
332.258	94.38
332.486	102.38
332.715	112.38
332.943	89.38
333.172	98.38
333.4	101.38
333.629	125.38
333.857	158.38
334.085	237.38
334.314	442.38
334.542	808.38
334.771	774.38
334.999	241.38
335.227	137.38
335.455	104.38
335.684	113.38
335.912	95.38
336.14	103.38
336.369	101.38
336.597	101.38
336.825	102.38
337.053	88.38
337.281	85.38
337.51	91.38
337.738	96.38
337.966	98.38
338.194	104.38
338.422	93.38
338.65	97.38
338.878	93.38
339.106	92.38
339.334	86.38
339.562	86.38
339.79	85.38
340.018	84.38
340.246	96.38
340.474	99.38
340.702	102.38
340.93	99.38
341.158	91.38
341.386	105.38
341.614	103.38
341.842	93.38
342.07	82.38
342.298	95.38
342.526	102.38
342.754	87.38
342.981	83.38
343.209	64.38
343.437	97.38
343.665	82.38
343.893	98.38
344.12	83.38
344.348	98.38
344.576	80.38
344.804	98.38
345.031	99.38
345.259	107.38
345.487	83.38
345.714	89.38
345.942	85.38
346.17	101.38
346.397	90.38
346.625	88.38
346.853	90.38
347.08	79.38
347.308	91.38
347.535	106.38
347.763	113.38
347.99	99.38
348.218	108.38
348.445	103.38
348.673	102.38
348.9	103.38
349.128	98.38
349.355	88.38
349.583	78.38
349.81	96.38
350.037	88.38
350.265	100.38
350.492	106.38
350.72	84.38
350.947	101.38
351.174	101.38
351.402	122.38
351.629	99.38
351.856	100.38
352.083	105.38
352.311	100.38
352.538	118.38
352.765	101.38
352.992	114.38
353.22	104.38
353.447	102.38
353.674	105.38
353.901	101.38
354.128	101.38
354.355	99.38
354.583	96.38
354.81	102.38
355.037	92.38
355.264	91.38
355.491	103.38
355.718	81.38
355.945	94.38
356.172	109.38
356.399	82.38
356.626	102.38
356.853	76.38
357.08	82.38
357.307	94.38
357.534	93.38
357.761	83.38
357.988	85.38
358.215	89.38
358.441	89.38
358.668	70.38
358.895	81.38
359.122	95.38
359.349	79.38
359.576	79.38
359.802	110.38
360.029	115.38
360.256	114.38
360.483	93.38
360.709	86.38
360.936	101.38
361.163	94.38
361.39	110.38
361.616	97.38
361.843	88.38
362.07	95.38
362.296	93.38
362.523	101.38
362.749	90.38
362.976	82.38
363.203	92.38
363.429	78.38
363.656	96.38
363.882	95.38
364.109	96.38
364.335	101.38
364.562	98.38
364.788	94.38
365.015	99.38
365.241	110.38
365.468	104.38
365.694	107.38
365.92	90.38
366.147	85.38
366.373	96.38
366.599	94.38
366.826	85.38
367.052	79.38
367.278	96.38
367.505	86.38
367.731	98.38
367.957	84.38
368.184	87.38
368.41	102.38
368.636	112.38
368.862	117.38
369.089	109.38
369.315	93.38
369.541	85.38
369.767	96.38
369.993	99.38
370.219	95.38
370.445	87.38
370.672	93.38
370.898	89.38
371.124	89.38
371.35	97.38
371.576	98.38
371.802	86.38
372.028	86.38
372.254	77.38
372.48	101.38
372.706	88.38
372.932	79.38
373.158	81.38
373.384	106.38
373.61	93.38
373.835	95.38
374.061	101.38
374.287	96.38
374.513	98.38
374.739	88.38
374.965	74.38
375.191	93.38
375.416	85.38
375.642	88.38
375.868	79.38
376.094	100.38
376.319	75.38
376.545	87.38
376.771	98.38
376.997	99.38
377.222	86.38
377.448	104.38
377.674	84.38
377.899	101.38
378.125	101.38
378.35	84.38
378.576	85.38
378.802	90.38
379.027	87.38
379.253	89.38
379.478	91.38
379.704	90.38
379.929	91.38
380.155	94.38
380.38	93.38
380.606	91.38
380.831	93.38
381.057	97.38
381.282	100.38
381.507	96.38
381.733	97.38
381.958	100.38
382.184	101.38
382.409	91.38
382.634	87.38
382.86	100.38
383.085	106.38
383.31	105.38
383.535	87.38
383.761	110.38
383.986	98.38
384.211	106.38
384.436	106.38
384.662	93.38
384.887	91.38
385.112	99.38
385.337	121.38
385.562	104.38
385.787	113.38
386.013	103.38
386.238	117.38
386.463	105.38
386.688	112.38
386.913	99.38
387.138	110.38
387.363	113.38
387.588	114.38
387.813	93.38
388.038	102.38
388.263	120.38
388.488	98.38
388.713	102.38
388.938	90.38
389.163	100.38
389.387	93.38
389.612	91.38
389.837	93.38
390.062	87.38
390.287	100.38
390.512	98.38
390.736	97.38
390.961	92.38
391.186	91.38
391.411	71.38
391.636	94.38
391.86	101.38
392.085	105.38
392.31	67.38
392.534	85.38
392.759	77.38
392.984	66.38
393.208	81.38
393.433	85.38
393.658	87.38
393.882	91.38
394.107	86.38
394.331	99.38
394.556	85.38
394.78	93.38
395.005	81.38
395.229	76.38
395.454	88.38
395.678	82.38
395.903	84.38
396.127	84.38
396.352	107.38
396.576	83.38
396.801	77.38
397.025	84.38
397.249	101.38
397.474	99.38
397.698	77.38
397.922	83.38
398.147	81.38
398.371	79.38
398.595	75.38
398.82	86.38
399.044	91.38
399.268	92.38
399.492	97.38
399.717	85.38
399.941	87.38
400.165	93.38
400.389	103.38
400.613	89.38
400.837	83.38
401.062	94.38
401.286	94.38
401.51	82.38
401.734	76.38
401.958	109.38
402.182	112.38
402.406	149.38
402.63	122.38
402.854	85.38
403.078	96.38
403.302	91.38
403.526	83.38
403.75	84.38
403.974	84.38
404.198	88.38
404.422	82.38
404.645	85.38
404.869	92.38
405.093	99.38
405.317	118.38
405.541	117.38
405.765	115.38
405.988	129.38
406.212	169.38
406.436	220.38
406.66	155.38
406.883	113.38
407.107	98.38
407.331	102.38
407.555	98.38
407.778	94.38
408.002	97.38
408.226	89.38
408.449	90.38
408.673	111.38
408.896	93.38
409.12	92.38
409.344	98.38
409.567	94.38
409.791	90.38
410.014	85.38
410.238	93.38
410.461	61.38
410.685	95.38
410.908	102.38
411.132	92.38
411.355	119.38
411.578	89.38
411.802	100.38
412.025	92.38
412.249	106.38
412.472	95.38
412.695	122.38
412.919	112.38
413.142	97.38
413.365	84.38
413.589	94.38
413.812	94.38
414.035	98.38
414.258	99.38
414.482	106.38
414.705	89.38
414.928	93.38
415.151	99.38
415.374	98.38
415.597	108.38
415.821	93.38
416.044	88.38
416.267	90.38
416.49	94.38
416.713	89.38
416.936	91.38
417.159	91.38
417.382	94.38
417.605	109.38
417.828	86.38
418.051	97.38
418.274	85.38
418.497	89.38
418.72	86.38
418.943	90.38
419.166	90.38
419.389	101.38
419.611	87.38
419.834	91.38
420.057	80.38
420.28	88.38
420.503	86.38
420.726	83.38
420.948	85.38
421.171	92.38
421.394	87.38
421.617	89.38
421.839	75.38
422.062	82.38
422.285	90.38
422.507	111.38
422.73	112.38
422.953	95.38
423.175	78.38
423.398	71.38
423.621	95.38
423.843	85.38
424.066	85.38
424.288	95.38
424.511	91.38
424.733	107.38
424.956	123.38
425.178	108.38
425.401	109.38
425.623	122.38
425.846	88.38
426.068	107.38
426.291	85.38
426.513	98.38
426.735	85.38
426.958	99.38
427.18	109.38
427.402	163.38
427.625	210.38
427.847	188.38
428.069	177.38
428.292	116.38
428.514	93.38
428.736	91.38
428.958	79.38
429.181	94.38
429.403	78.38
429.625	84.38
429.847	94.38
430.069	105.38
430.292	95.38
430.514	92.38
430.736	94.38
430.958	87.38
431.18	82.38
431.402	89.38
431.624	84.38
431.846	85.38
432.068	92.38
432.29	75.38
432.512	81.38
432.734	93.38
432.956	77.38
433.178	101.38
433.4	99.38
433.622	106.38
433.844	94.38
434.066	103.38
434.287	98.38
434.509	85.38
434.731	75.38
434.953	90.38
435.175	101.38
435.397	99.38
435.618	85.38
435.84	103.38
436.062	132.38
436.284	125.38
436.505	111.38
436.727	109.38
436.949	101.38
437.17	89.38
437.392	93.38
437.614	97.38
437.835	112.38
438.057	121.38
438.278	124.38
438.5	115.38
438.721	165.38
438.943	109.38
439.165	87.38
439.386	81.38
439.608	102.38
439.829	108.38
440.05	139.38
440.272	172.38
440.493	117.38
440.715	97.38
440.936	89.38
441.158	85.38
441.379	104.38
441.6	76.38
441.822	97.38
442.043	102.38
442.264	109.38
442.486	105.38
442.707	101.38
442.928	112.38
443.149	141.38
443.371	143.38
443.592	114.38
443.813	115.38
444.034	113.38
444.255	92.38
444.476	83.38
444.698	92.38
444.919	102.38
445.14	122.38
445.361	125.38
445.582	127.38
445.803	167.38
446.024	163.38
446.245	148.38
446.466	118.38
446.687	98.38
446.908	89.38
447.129	95.38
447.35	103.38
447.571	105.38
447.792	95.38
448.013	105.38
448.234	118.38
448.455	106.38
448.675	125.38
448.896	142.38
449.117	107.38
449.338	117.38
449.559	141.38
449.779	166.38
450	94.38
450.221	89.38
450.442	93.38
450.662	105.38
450.883	100.38
451.104	105.38
451.324	93.38
451.545	95.38
451.766	97.38
451.986	94.38
452.207	93.38
452.428	83.38
452.648	108.38
452.869	114.38
453.089	119.38
453.31	124.38
453.53	105.38
453.751	88.38
453.971	108.38
454.192	118.38
454.412	96.38
454.633	81.38
454.853	80.38
455.073	82.38
455.294	94.38
455.514	93.38
455.734	105.38
455.955	90.38
456.175	86.38
456.395	73.38
456.616	93.38
456.836	96.38
457.056	88.38
457.276	97.38
457.497	101.38
457.717	88.38
457.937	98.38
458.157	85.38
458.377	83.38
458.598	107.38
458.818	166.38
459.038	171.38
459.258	132.38
459.478	87.38
459.698	84.38
459.918	98.38
460.138	101.38
460.358	89.38
460.578	93.38
460.798	95.38
461.018	89.38
461.238	93.38
461.458	76.38
461.678	90.38
461.898	82.38
462.118	96.38
462.338	92.38
462.558	86.38
462.777	83.38
462.997	100.38
463.217	91.38
463.437	89.38
463.657	89.38
463.876	90.38
464.096	103.38
464.316	107.38
464.536	95.38
464.755	114.38
464.975	97.38
465.195	181.38
465.414	196.38
465.634	108.38
465.854	86.38
466.073	92.38
466.293	89.38
466.512	87.38
466.732	99.38
466.951	95.38
467.171	101.38
467.391	115.38
467.61	110.38
467.829	134.38
468.049	294.38
468.268	369.38
468.488	137.38
468.707	92.38
468.927	84.38
469.146	92.38
469.365	90.38
469.585	94.38
469.804	95.38
470.023	98.38
470.243	86.38
470.462	101.38
470.681	107.38
470.901	106.38
471.12	102.38
471.339	102.38
471.558	89.38
471.777	113.38
471.997	182.38
472.216	521.38
472.435	1081.38
472.654	312.38
472.873	130.38
473.092	86.38
473.311	85.38
473.53	90.38
473.749	84.38
473.968	101.38
474.187	114.38
474.406	102.38
474.625	92.38
474.844	97.38
475.063	92.38
475.282	89.38
475.501	97.38
475.72	86.38
475.939	92.38
476.158	87.38
476.377	83.38
476.596	92.38
476.814	95.38
477.033	94.38
477.252	98.38
477.471	93.38
477.69	110.38
477.908	94.38
478.127	83.38
478.346	81.38
478.564	101.38
478.783	101.38
479.002	96.38
479.22	89.38
479.439	105.38
479.658	113.38
479.876	96.38
480.095	98.38
480.313	116.38
480.532	109.38
480.751	173.38
480.969	507.38
481.188	1930.38
481.406	1185.38
481.624	226.38
481.843	102.38
482.061	93.38
482.28	87.38
482.498	96.38
482.717	96.38
482.935	89.38
483.153	94.38
483.372	105.38
483.59	84.38
483.808	95.38
484.027	98.38
484.245	90.38
484.463	96.38
484.681	104.38
484.9	96.38
485.118	105.38
485.336	75.38
485.554	92.38
485.772	98.38
485.99	104.38
486.209	89.38
486.427	114.38
486.645	113.38
486.863	125.38
487.081	108.38
487.299	95.38
487.517	110.38
487.735	98.38
487.953	95.38
488.171	95.38
488.389	93.38
488.607	97.38
488.825	98.38
489.043	98.38
489.261	88.38
489.479	89.38
489.696	73.38
489.914	85.38
490.132	88.38
490.35	105.38
490.568	83.38
490.786	90.38
491.003	86.38
491.221	107.38
491.439	91.38
491.657	98.38
491.874	89.38
492.092	85.38
492.31	105.38
492.527	97.38
492.745	92.38
492.963	84.38
493.18	94.38
493.398	95.38
493.615	93.38
493.833	96.38
494.05	108.38
494.268	92.38
494.485	98.38
494.703	93.38
494.92	85.38
495.138	93.38
495.355	105.38
495.573	94.38
495.79	90.38
496.008	75.38
496.225	94.38
496.442	96.38
496.66	96.38
496.877	91.38
497.094	84.38
497.312	95.38
497.529	93.38
497.746	104.38
497.963	76.38
498.181	98.38
498.398	94.38
498.615	113.38
498.832	99.38
499.049	92.38
499.267	94.38
499.484	86.38
499.701	89.38
499.918	90.38
500.135	83.38
500.352	83.38
500.569	90.38
500.786	87.38
501.003	83.38
501.22	82.38
501.437	85.38
501.654	89.38
501.871	116.38
502.088	100.38
502.305	91.38
502.522	92.38
502.739	74.38
502.956	78.38
503.172	94.38
503.389	103.38
503.606	103.38
503.823	90.38
504.04	100.38
504.256	86.38
504.473	83.38
504.69	94.38
504.907	80.38
505.123	83.38
505.34	96.38
505.557	89.38
505.773	87.38
505.99	94.38
506.207	99.38
506.423	99.38
506.64	96.38
506.856	84.38
507.073	95.38
507.289	90.38
507.506	100.38
507.722	118.38
507.939	107.38
508.155	94.38
508.372	86.38
508.588	77.38
508.805	110.38
509.021	111.38
509.238	100.38
509.454	95.38
509.67	102.38
509.887	104.38
510.103	130.38
510.319	209.38
510.536	697.38
510.752	2290.38
510.968	623.38
511.184	155.38
511.401	121.38
511.617	103.38
511.833	100.38
512.049	108.38
512.265	89.38
512.481	97.38
512.698	83.38
512.914	95.38
513.13	91.38
513.346	90.38
513.562	89.38
513.778	88.38
513.994	92.38
514.21	94.38
514.426	116.38
