Data from Circ_1992_H10_HRD10591_00043.txt Node
Date: Wed Jan 03 11:47:53 EST 2024
User: Yrep
Spectrometer: HR+D1059
Trigger mode: 1
Integration Time (sec): 1.000000E-1
Scans to average: 1
Electric dark correction enabled: true
Nonlinearity correction enabled: false
Boxcar width: 0
XAxis mode: Wavelengths
Number of Pixels in Spectrum: 2048
>>>>>Begin Spectral Data<<<<<
223.165	-12.94
223.4	-12.94
223.635	-12.94
223.869	-25.94
224.104	-8.94
224.338	-18.94
224.573	-20.94
224.808	-22.94
225.042	-4.94
225.277	-7.94
225.511	-2.94
225.746	16.06
225.98	7.06
226.215	1.06
226.449	18.06
226.683	27.06
226.918	28.06
227.152	29.06
227.387	49.06
227.621	50.06
227.856	54.06
228.09	57.06
228.324	52.06
228.559	63.06
228.793	51.06
229.027	58.06
229.262	72.06
229.496	73.06
229.73	103.06
229.964	92.06
230.199	89.06
230.433	76.06
230.667	85.06
230.901	78.06
231.136	94.06
231.37	94.06
231.604	96.06
231.838	90.06
232.072	80.06
232.306	74.06
232.541	79.06
232.775	71.06
233.009	90.06
233.243	71.06
233.477	88.06
233.711	71.06
233.945	69.06
234.179	93.06
234.413	87.06
234.647	79.06
234.881	88.06
235.115	82.06
235.349	81.06
235.583	87.06
235.817	70.06
236.051	81.06
236.285	74.06
236.519	81.06
236.753	93.06
236.987	84.06
237.221	79.06
237.455	86.06
237.689	93.06
237.922	82.06
238.156	99.06
238.39	86.06
238.624	75.06
238.858	70.06
239.091	56.06
239.325	95.06
239.559	85.06
239.793	89.06
240.027	93.06
240.26	86.06
240.494	76.06
240.728	80.06
240.961	81.06
241.195	71.06
241.429	84.06
241.662	81.06
241.896	81.06
242.13	75.06
242.363	77.06
242.597	91.06
242.83	83.06
243.064	70.06
243.298	80.06
243.531	77.06
243.765	79.06
243.998	84.06
244.232	81.06
244.465	85.06
244.699	75.06
244.932	87.06
245.166	91.06
245.399	81.06
245.633	86.06
245.866	88.06
246.099	86.06
246.333	76.06
246.566	83.06
246.8	82.06
247.033	83.06
247.266	81.06
247.5	62.06
247.733	81.06
247.966	84.06
248.2	81.06
248.433	90.06
248.666	70.06
248.899	74.06
249.133	89.06
249.366	92.06
249.599	91.06
249.832	88.06
250.066	75.06
250.299	88.06
250.532	90.06
250.765	88.06
250.998	84.06
251.231	83.06
251.465	83.06
251.698	79.06
251.931	82.06
252.164	88.06
252.397	86.06
252.63	79.06
252.863	80.06
253.096	93.06
253.329	81.06
253.562	74.06
253.795	77.06
254.028	71.06
254.261	97.06
254.494	79.06
254.727	86.06
254.96	85.06
255.193	82.06
255.426	85.06
255.659	85.06
255.892	87.06
256.124	97.06
256.357	93.06
256.59	87.06
256.823	80.06
257.056	89.06
257.289	68.06
257.521	82.06
257.754	83.06
257.987	87.06
258.22	89.06
258.452	96.06
258.685	89.06
258.918	90.06
259.151	94.06
259.383	79.06
259.616	91.06
259.849	87.06
260.081	89.06
260.314	87.06
260.547	89.06
260.779	87.06
261.012	102.06
261.244	94.06
261.477	84.06
261.71	100.06
261.942	115.06
262.175	126.06
262.407	89.06
262.64	93.06
262.872	86.06
263.105	83.06
263.337	93.06
263.57	87.06
263.802	93.06
264.035	93.06
264.267	71.06
264.499	76.06
264.732	94.06
264.964	78.06
265.197	96.06
265.429	96.06
265.661	69.06
265.894	64.06
266.126	90.06
266.358	84.06
266.591	90.06
266.823	70.06
267.055	85.06
267.287	88.06
267.52	83.06
267.752	89.06
267.984	89.06
268.216	98.06
268.448	83.06
268.681	83.06
268.913	104.06
269.145	83.06
269.377	87.06
269.609	74.06
269.841	70.06
270.073	75.06
270.306	102.06
270.538	83.06
270.77	89.06
271.002	91.06
271.234	92.06
271.466	90.06
271.698	85.06
271.93	91.06
272.162	75.06
272.394	87.06
272.626	100.06
272.858	87.06
273.09	92.06
273.322	99.06
273.553	88.06
273.785	91.06
274.017	91.06
274.249	99.06
274.481	90.06
274.713	100.06
274.945	96.06
275.176	101.06
275.408	95.06
275.64	81.06
275.872	110.06
276.104	99.06
276.335	87.06
276.567	97.06
276.799	125.06
277.031	134.06
277.262	107.06
277.494	105.06
277.726	91.06
277.957	87.06
278.189	95.06
278.421	83.06
278.652	91.06
278.884	87.06
279.115	91.06
279.347	93.06
279.579	100.06
279.81	93.06
280.042	101.06
280.273	129.06
280.505	112.06
280.736	103.06
280.968	83.06
281.199	86.06
281.431	89.06
281.662	90.06
281.894	74.06
282.125	103.06
282.356	128.06
282.588	132.06
282.819	115.06
283.051	87.06
283.282	95.06
283.513	92.06
283.745	93.06
283.976	92.06
284.207	85.06
284.439	89.06
284.67	89.06
284.901	84.06
285.132	87.06
285.364	73.06
285.595	88.06
285.826	86.06
286.057	89.06
286.288	87.06
286.52	87.06
286.751	91.06
286.982	97.06
287.213	97.06
287.444	90.06
287.675	96.06
287.906	85.06
288.138	87.06
288.369	104.06
288.6	85.06
288.831	81.06
289.062	97.06
289.293	96.06
289.524	108.06
289.755	97.06
289.986	90.06
290.217	90.06
290.448	94.06
290.679	91.06
290.91	105.06
291.141	90.06
291.371	92.06
291.602	87.06
291.833	93.06
292.064	79.06
292.295	94.06
292.526	89.06
292.757	91.06
292.987	106.06
293.218	109.06
293.449	89.06
293.68	98.06
293.91	95.06
294.141	87.06
294.372	76.06
294.603	94.06
294.833	93.06
295.064	95.06
295.295	93.06
295.525	83.06
295.756	109.06
295.987	107.06
296.217	157.06
296.448	132.06
296.679	98.06
296.909	89.06
297.14	105.06
297.37	83.06
297.601	76.06
297.831	75.06
298.062	90.06
298.292	79.06
298.523	82.06
298.753	80.06
298.984	90.06
299.214	87.06
299.445	99.06
299.675	87.06
299.905	98.06
300.136	85.06
300.366	97.06
300.597	86.06
300.827	111.06
301.057	87.06
301.288	105.06
301.518	89.06
301.748	99.06
301.979	107.06
302.209	104.06
302.439	88.06
302.669	93.06
302.9	88.06
303.13	86.06
303.36	107.06
303.59	110.06
303.82	111.06
304.051	96.06
304.281	107.06
304.511	102.06
304.741	89.06
304.971	93.06
305.201	94.06
305.431	106.06
305.661	101.06
305.891	90.06
306.121	90.06
306.352	103.06
306.582	103.06
306.812	99.06
307.042	117.06
307.272	130.06
307.502	136.06
307.731	150.06
307.961	107.06
308.191	104.06
308.421	75.06
308.651	87.06
308.881	99.06
309.111	95.06
309.341	86.06
309.571	92.06
309.8	92.06
310.03	105.06
310.26	101.06
310.49	102.06
310.72	100.06
310.949	117.06
311.179	88.06
311.409	96.06
311.639	105.06
311.868	88.06
312.098	94.06
312.328	96.06
312.557	115.06
312.787	115.06
313.017	113.06
313.246	110.06
313.476	88.06
313.706	96.06
313.935	104.06
314.165	100.06
314.394	107.06
314.624	95.06
314.853	95.06
315.083	101.06
315.312	95.06
315.542	100.06
315.771	114.06
316.001	91.06
316.23	100.06
316.46	89.06
316.689	86.06
316.919	94.06
317.148	101.06
317.377	102.06
317.607	111.06
317.836	106.06
318.065	102.06
318.295	96.06
318.524	87.06
318.753	104.06
318.983	94.06
319.212	103.06
319.441	110.06
319.67	102.06
319.9	87.06
320.129	83.06
320.358	89.06
320.587	104.06
320.816	101.06
321.046	104.06
321.275	98.06
321.504	94.06
321.733	97.06
321.962	101.06
322.191	120.06
322.42	108.06
322.649	113.06
322.878	112.06
323.108	117.06
323.337	132.06
323.566	134.06
323.795	144.06
324.024	211.06
324.253	407.06
324.482	895.06
324.71	1815.06
324.939	2507.06
325.168	936.06
325.397	261.06
325.626	162.06
325.855	134.06
326.084	115.06
326.313	139.06
326.542	169.06
326.77	224.06
326.999	473.06
327.228	985.06
327.457	1822.06
327.686	1511.06
327.914	436.06
328.143	285.06
328.372	320.06
328.6	202.06
328.829	144.06
329.058	147.06
329.287	143.06
329.515	121.06
329.744	159.06
329.972	239.06
330.201	411.06
330.43	599.06
330.658	306.06
330.887	186.06
331.115	149.06
331.344	115.06
331.572	116.06
331.801	103.06
332.03	102.06
332.258	109.06
332.486	84.06
332.715	106.06
332.943	99.06
333.172	107.06
333.4	119.06
333.629	154.06
333.857	152.06
334.085	215.06
334.314	398.06
334.542	717.06
334.771	737.06
334.999	223.06
335.227	118.06
335.455	115.06
335.684	121.06
335.912	116.06
336.14	106.06
336.369	90.06
336.597	105.06
336.825	109.06
337.053	99.06
337.281	101.06
337.51	90.06
337.738	98.06
337.966	83.06
338.194	93.06
338.422	102.06
338.65	92.06
338.878	91.06
339.106	93.06
339.334	97.06
339.562	83.06
339.79	91.06
340.018	98.06
340.246	89.06
340.474	86.06
340.702	83.06
340.93	110.06
341.158	96.06
341.386	106.06
341.614	99.06
341.842	103.06
342.07	102.06
342.298	99.06
342.526	92.06
342.754	82.06
342.981	88.06
343.209	87.06
343.437	102.06
343.665	90.06
343.893	113.06
344.12	104.06
344.348	80.06
344.576	86.06
344.804	94.06
345.031	105.06
345.259	102.06
345.487	97.06
345.714	84.06
345.942	98.06
346.17	95.06
346.397	101.06
346.625	93.06
346.853	90.06
347.08	99.06
347.308	104.06
347.535	101.06
347.763	104.06
347.99	114.06
348.218	105.06
348.445	118.06
348.673	101.06
348.9	102.06
349.128	103.06
349.355	90.06
349.583	94.06
349.81	104.06
350.037	117.06
350.265	89.06
350.492	97.06
350.72	108.06
350.947	102.06
351.174	120.06
351.402	101.06
351.629	98.06
351.856	104.06
352.083	97.06
352.311	110.06
352.538	109.06
352.765	104.06
352.992	112.06
353.22	118.06
353.447	107.06
353.674	101.06
353.901	97.06
354.128	93.06
354.355	103.06
354.583	98.06
354.81	95.06
355.037	89.06
355.264	93.06
355.491	82.06
355.718	98.06
355.945	107.06
356.172	85.06
356.399	108.06
356.626	104.06
356.853	85.06
357.08	104.06
357.307	101.06
357.534	90.06
357.761	99.06
357.988	91.06
358.215	106.06
358.441	102.06
358.668	98.06
358.895	97.06
359.122	100.06
359.349	103.06
359.576	88.06
359.802	103.06
360.029	112.06
360.256	125.06
360.483	122.06
360.709	96.06
360.936	113.06
361.163	94.06
361.39	88.06
361.616	103.06
361.843	93.06
362.07	96.06
362.296	96.06
362.523	106.06
362.749	96.06
362.976	99.06
363.203	100.06
363.429	103.06
363.656	99.06
363.882	110.06
364.109	87.06
364.335	90.06
364.562	98.06
364.788	97.06
365.015	102.06
365.241	102.06
365.468	106.06
365.694	98.06
365.92	111.06
366.147	104.06
366.373	92.06
366.599	101.06
366.826	103.06
367.052	103.06
367.278	109.06
367.505	96.06
367.731	95.06
367.957	97.06
368.184	99.06
368.41	104.06
368.636	112.06
368.862	116.06
369.089	111.06
369.315	101.06
369.541	115.06
369.767	97.06
369.993	97.06
370.219	98.06
370.445	88.06
370.672	94.06
370.898	98.06
371.124	93.06
371.35	95.06
371.576	98.06
371.802	86.06
372.028	108.06
372.254	95.06
372.48	85.06
372.706	88.06
372.932	106.06
373.158	72.06
373.384	93.06
373.61	99.06
373.835	85.06
374.061	89.06
374.287	103.06
374.513	81.06
374.739	102.06
374.965	102.06
375.191	76.06
375.416	88.06
375.642	97.06
375.868	93.06
376.094	107.06
376.319	80.06
376.545	91.06
376.771	88.06
376.997	89.06
377.222	101.06
377.448	100.06
377.674	100.06
377.899	86.06
378.125	104.06
378.35	83.06
378.576	95.06
378.802	85.06
379.027	98.06
379.253	107.06
379.478	97.06
379.704	88.06
379.929	100.06
380.155	107.06
380.38	95.06
380.606	87.06
380.831	105.06
381.057	106.06
381.282	110.06
381.507	91.06
381.733	98.06
381.958	114.06
382.184	102.06
382.409	105.06
382.634	104.06
382.86	92.06
383.085	107.06
383.31	106.06
383.535	111.06
383.761	98.06
383.986	112.06
384.211	106.06
384.436	115.06
384.662	102.06
384.887	101.06
385.112	106.06
385.337	115.06
385.562	111.06
385.787	112.06
386.013	112.06
386.238	114.06
386.463	112.06
386.688	126.06
386.913	105.06
387.138	105.06
387.363	106.06
387.588	108.06
387.813	104.06
388.038	122.06
388.263	101.06
388.488	107.06
388.713	103.06
388.938	96.06
389.163	80.06
389.387	105.06
389.612	97.06
389.837	94.06
390.062	94.06
390.287	96.06
390.512	103.06
390.736	100.06
390.961	85.06
391.186	79.06
391.411	91.06
391.636	99.06
391.86	92.06
392.085	87.06
392.31	101.06
392.534	95.06
392.759	104.06
392.984	83.06
393.208	86.06
393.433	101.06
393.658	92.06
393.882	99.06
394.107	95.06
394.331	91.06
394.556	89.06
394.78	93.06
395.005	93.06
395.229	94.06
395.454	99.06
395.678	90.06
395.903	70.06
396.127	100.06
396.352	89.06
396.576	90.06
396.801	89.06
397.025	97.06
397.249	101.06
397.474	86.06
397.698	81.06
397.922	98.06
398.147	87.06
398.371	89.06
398.595	94.06
398.82	89.06
399.044	88.06
399.268	101.06
399.492	92.06
399.717	106.06
399.941	103.06
400.165	105.06
400.389	106.06
400.613	103.06
400.837	113.06
401.062	88.06
401.286	91.06
401.51	101.06
401.734	89.06
401.958	81.06
402.182	127.06
402.406	165.06
402.63	110.06
402.854	99.06
403.078	93.06
403.302	88.06
403.526	85.06
403.75	96.06
403.974	87.06
404.198	84.06
404.422	92.06
404.645	101.06
404.869	112.06
405.093	112.06
405.317	117.06
405.541	121.06
405.765	101.06
405.988	121.06
406.212	169.06
406.436	230.06
406.66	164.06
406.883	119.06
407.107	111.06
407.331	95.06
407.555	99.06
407.778	99.06
408.002	95.06
408.226	102.06
408.449	100.06
408.673	105.06
408.896	97.06
409.12	111.06
409.344	87.06
409.567	100.06
409.791	100.06
410.014	88.06
410.238	84.06
410.461	95.06
410.685	85.06
410.908	89.06
411.132	102.06
411.355	104.06
411.578	99.06
411.802	101.06
412.025	98.06
412.249	102.06
412.472	103.06
412.695	135.06
412.919	115.06
413.142	99.06
413.365	86.06
413.589	99.06
413.812	85.06
414.035	97.06
414.258	88.06
414.482	100.06
414.705	94.06
414.928	94.06
415.151	103.06
415.374	103.06
415.597	102.06
415.821	88.06
416.044	100.06
416.267	82.06
416.49	92.06
416.713	95.06
416.936	80.06
417.159	89.06
417.382	94.06
417.605	102.06
417.828	93.06
418.051	105.06
418.274	94.06
418.497	87.06
418.72	86.06
418.943	87.06
419.166	98.06
419.389	86.06
419.611	84.06
419.834	93.06
420.057	83.06
420.28	109.06
420.503	105.06
420.726	97.06
420.948	82.06
421.171	91.06
421.394	103.06
421.617	98.06
421.839	97.06
422.062	99.06
422.285	97.06
422.507	96.06
422.73	95.06
422.953	75.06
423.175	86.06
423.398	93.06
423.621	97.06
423.843	88.06
424.066	88.06
424.288	97.06
424.511	89.06
424.733	100.06
424.956	111.06
425.178	97.06
425.401	102.06
425.623	91.06
425.846	102.06
426.068	107.06
426.291	109.06
426.513	81.06
426.735	91.06
426.958	99.06
427.18	118.06
427.402	141.06
427.625	182.06
427.847	189.06
428.069	158.06
428.292	121.06
428.514	101.06
428.736	93.06
428.958	83.06
429.181	96.06
429.403	91.06
429.625	99.06
429.847	88.06
430.069	106.06
430.292	108.06
430.514	96.06
430.736	98.06
430.958	91.06
431.18	92.06
431.402	89.06
431.624	85.06
431.846	93.06
432.068	86.06
432.29	80.06
432.512	88.06
432.734	94.06
432.956	87.06
433.178	112.06
433.4	119.06
433.622	109.06
433.844	87.06
434.066	88.06
434.287	100.06
434.509	112.06
434.731	99.06
434.953	82.06
435.175	79.06
435.397	100.06
435.618	101.06
435.84	98.06
436.062	122.06
436.284	102.06
436.505	100.06
436.727	127.06
436.949	107.06
437.17	88.06
437.392	94.06
437.614	95.06
437.835	111.06
438.057	123.06
438.278	125.06
438.5	98.06
438.721	119.06
438.943	107.06
439.165	101.06
439.386	93.06
439.608	96.06
439.829	108.06
440.05	123.06
440.272	155.06
440.493	89.06
440.715	94.06
440.936	97.06
441.158	95.06
441.379	93.06
441.6	98.06
441.822	115.06
442.043	112.06
442.264	107.06
442.486	98.06
442.707	111.06
442.928	112.06
443.149	132.06
443.371	141.06
443.592	128.06
443.813	105.06
444.034	119.06
444.255	81.06
444.476	94.06
444.698	84.06
444.919	90.06
445.14	128.06
445.361	130.06
445.582	116.06
445.803	134.06
446.024	146.06
446.245	158.06
446.466	122.06
446.687	93.06
446.908	98.06
447.129	87.06
447.35	87.06
447.571	102.06
447.792	90.06
448.013	102.06
448.234	102.06
448.455	103.06
448.675	116.06
448.896	133.06
449.117	127.06
449.338	108.06
449.559	143.06
449.779	145.06
450	106.06
450.221	95.06
450.442	101.06
450.662	90.06
450.883	125.06
451.104	125.06
451.324	94.06
451.545	86.06
451.766	89.06
451.986	84.06
452.207	104.06
452.428	95.06
452.648	95.06
452.869	118.06
453.089	114.06
453.31	118.06
453.53	103.06
453.751	94.06
453.971	102.06
454.192	123.06
454.412	99.06
454.633	93.06
454.853	101.06
455.073	105.06
455.294	98.06
455.514	99.06
455.734	93.06
455.955	98.06
456.175	95.06
456.395	105.06
456.616	82.06
456.836	86.06
457.056	95.06
457.276	90.06
457.497	77.06
457.717	88.06
457.937	92.06
458.157	95.06
458.377	97.06
458.598	107.06
458.818	161.06
459.038	165.06
459.258	115.06
459.478	94.06
459.698	92.06
459.918	103.06
460.138	90.06
460.358	89.06
460.578	89.06
460.798	96.06
461.018	85.06
461.238	94.06
461.458	85.06
461.678	84.06
461.898	83.06
462.118	96.06
462.338	89.06
462.558	85.06
462.777	87.06
462.997	87.06
463.217	104.06
463.437	110.06
463.657	86.06
463.876	105.06
464.096	89.06
464.316	90.06
464.536	90.06
464.755	88.06
464.975	106.06
465.195	187.06
465.414	186.06
465.634	115.06
465.854	98.06
466.073	92.06
466.293	102.06
466.512	97.06
466.732	89.06
466.951	80.06
467.171	113.06
467.391	106.06
467.61	108.06
467.829	150.06
468.049	249.06
468.268	383.06
468.488	156.06
468.707	97.06
468.927	99.06
469.146	80.06
469.365	97.06
469.585	96.06
469.804	91.06
470.023	109.06
470.243	96.06
470.462	109.06
470.681	133.06
470.901	100.06
471.12	87.06
471.339	81.06
471.558	103.06
471.777	105.06
471.997	150.06
472.216	490.06
472.435	1053.06
472.654	296.06
472.873	129.06
473.092	95.06
473.311	90.06
473.53	86.06
473.749	102.06
473.968	99.06
474.187	113.06
474.406	99.06
474.625	103.06
474.844	89.06
475.063	93.06
475.282	100.06
475.501	96.06
475.72	100.06
475.939	101.06
476.158	87.06
476.377	88.06
476.596	101.06
476.814	92.06
477.033	93.06
477.252	101.06
477.471	94.06
477.69	89.06
477.908	86.06
478.127	115.06
478.346	92.06
478.564	89.06
478.783	101.06
479.002	109.06
479.22	97.06
479.439	121.06
479.658	113.06
479.876	110.06
480.095	96.06
480.313	110.06
480.532	124.06
480.751	170.06
480.969	463.06
481.188	1793.06
481.406	1073.06
481.624	199.06
481.843	114.06
482.061	94.06
482.28	89.06
482.498	107.06
482.717	95.06
482.935	100.06
483.153	104.06
483.372	92.06
483.59	102.06
483.808	94.06
484.027	80.06
484.245	100.06
484.463	99.06
484.681	89.06
484.9	94.06
485.118	97.06
485.336	96.06
485.554	107.06
485.772	105.06
485.99	104.06
486.209	97.06
486.427	114.06
486.645	111.06
486.863	123.06
487.081	108.06
487.299	104.06
487.517	115.06
487.735	106.06
487.953	103.06
488.171	93.06
488.389	93.06
488.607	116.06
488.825	110.06
489.043	95.06
489.261	95.06
489.479	84.06
489.696	95.06
489.914	106.06
490.132	98.06
490.35	92.06
490.568	89.06
490.786	93.06
491.003	94.06
491.221	101.06
491.439	105.06
491.657	104.06
491.874	90.06
492.092	81.06
492.31	101.06
492.527	104.06
492.745	86.06
492.963	102.06
493.18	97.06
493.398	101.06
493.615	95.06
493.833	99.06
494.05	84.06
494.268	88.06
494.485	97.06
494.703	91.06
494.92	87.06
495.138	101.06
495.355	93.06
495.573	94.06
495.79	97.06
496.008	101.06
496.225	106.06
496.442	103.06
496.66	88.06
496.877	84.06
497.094	104.06
497.312	94.06
497.529	104.06
497.746	95.06
497.963	90.06
498.181	96.06
498.398	97.06
498.615	97.06
498.832	91.06
499.049	102.06
499.267	115.06
499.484	93.06
499.701	93.06
499.918	93.06
500.135	98.06
500.352	90.06
500.569	90.06
500.786	95.06
501.003	86.06
501.22	98.06
501.437	101.06
501.654	95.06
501.871	105.06
502.088	98.06
502.305	91.06
502.522	97.06
502.739	90.06
502.956	96.06
503.172	112.06
503.389	103.06
503.606	119.06
503.823	113.06
504.04	97.06
504.256	93.06
504.473	90.06
504.69	91.06
504.907	99.06
505.123	86.06
505.34	89.06
505.557	113.06
505.773	85.06
505.99	87.06
506.207	99.06
506.423	81.06
506.64	82.06
506.856	88.06
507.073	97.06
507.289	94.06
507.506	106.06
507.722	136.06
507.939	111.06
508.155	107.06
508.372	106.06
508.588	100.06
508.805	100.06
509.021	107.06
509.238	102.06
509.454	96.06
509.67	109.06
509.887	98.06
510.103	132.06
510.319	198.06
510.536	648.06
510.752	2169.06
510.968	606.06
511.184	142.06
511.401	123.06
511.617	107.06
511.833	107.06
512.049	90.06
512.265	91.06
512.481	100.06
512.698	114.06
