Data from Circ_1992_H10_HRD10591_00009.txt Node
Date: Wed Jan 03 11:47:46 EST 2024
User: Yrep
Spectrometer: HR+D1059
Trigger mode: 1
Integration Time (sec): 1.000000E-1
Scans to average: 1
Electric dark correction enabled: true
Nonlinearity correction enabled: false
Boxcar width: 0
XAxis mode: Wavelengths
Number of Pixels in Spectrum: 2048
>>>>>Begin Spectral Data<<<<<
223.165	-11.88
223.4	-11.88
223.635	-11.88
223.869	-11.88
224.104	-21.88
224.338	-25.88
224.573	-21.88
224.808	-4.88
225.042	-3.88
225.277	-8.88
225.511	-5.88
225.746	-3.88
225.98	8.12
226.215	11.12
226.449	15.12
226.683	18.12
226.918	44.12
227.152	24.12
227.387	32.12
227.621	33.12
227.856	39.12
228.09	45.12
228.324	50.12
228.559	54.12
228.793	56.12
229.027	69.12
229.262	80.12
229.496	82.12
229.73	84.12
229.964	85.12
230.199	80.12
230.433	75.12
230.667	97.12
230.901	70.12
231.136	76.12
231.37	80.12
231.604	85.12
231.838	69.12
232.072	72.12
232.306	89.12
232.541	85.12
232.775	69.12
233.009	82.12
233.243	69.12
233.477	82.12
233.711	93.12
233.945	98.12
234.179	93.12
234.413	82.12
234.647	80.12
234.881	83.12
235.115	86.12
235.349	80.12
235.583	88.12
235.817	98.12
236.051	78.12
236.285	71.12
236.519	80.12
236.753	89.12
236.987	76.12
237.221	88.12
237.455	79.12
237.689	89.12
237.922	71.12
238.156	82.12
238.39	80.12
238.624	89.12
238.858	74.12
239.091	72.12
239.325	71.12
239.559	82.12
239.793	85.12
240.027	78.12
240.26	76.12
240.494	80.12
240.728	78.12
240.961	98.12
241.195	60.12
241.429	87.12
241.662	80.12
241.896	61.12
242.13	69.12
242.363	84.12
242.597	83.12
242.83	75.12
243.064	72.12
243.298	93.12
243.531	72.12
243.765	73.12
243.998	86.12
244.232	77.12
244.465	80.12
244.699	90.12
244.932	68.12
245.166	81.12
245.399	81.12
245.633	80.12
245.866	86.12
246.099	69.12
246.333	96.12
246.566	68.12
246.8	78.12
247.033	84.12
247.266	78.12
247.5	75.12
247.733	67.12
247.966	90.12
248.2	78.12
248.433	80.12
248.666	93.12
248.899	101.12
249.133	93.12
249.366	118.12
249.599	103.12
249.832	85.12
250.066	95.12
250.299	81.12
250.532	86.12
250.765	84.12
250.998	84.12
251.231	79.12
251.465	72.12
251.698	76.12
251.931	105.12
252.164	84.12
252.397	72.12
252.63	82.12
252.863	81.12
253.096	92.12
253.329	76.12
253.562	81.12
253.795	82.12
254.028	89.12
254.261	82.12
254.494	92.12
254.727	84.12
254.96	92.12
255.193	77.12
255.426	87.12
255.659	86.12
255.892	84.12
256.124	79.12
256.357	97.12
256.59	86.12
256.823	84.12
257.056	96.12
257.289	98.12
257.521	87.12
257.754	87.12
257.987	86.12
258.22	98.12
258.452	85.12
258.685	84.12
258.918	98.12
259.151	86.12
259.383	80.12
259.616	92.12
259.849	78.12
260.081	96.12
260.314	93.12
260.547	79.12
260.779	96.12
261.012	90.12
261.244	99.12
261.477	91.12
261.71	96.12
261.942	103.12
262.175	129.12
262.407	100.12
262.64	91.12
262.872	100.12
263.105	87.12
263.337	95.12
263.57	101.12
263.802	71.12
264.035	80.12
264.267	92.12
264.499	96.12
264.732	89.12
264.964	89.12
265.197	92.12
265.429	93.12
265.661	90.12
265.894	92.12
266.126	78.12
266.358	102.12
266.591	90.12
266.823	85.12
267.055	79.12
267.287	96.12
267.52	83.12
267.752	77.12
267.984	68.12
268.216	79.12
268.448	87.12
268.681	88.12
268.913	88.12
269.145	88.12
269.377	81.12
269.609	84.12
269.841	81.12
270.073	92.12
270.306	101.12
270.538	81.12
270.77	94.12
271.002	77.12
271.234	95.12
271.466	94.12
271.698	98.12
271.93	112.12
272.162	79.12
272.394	85.12
272.626	89.12
272.858	97.12
273.09	86.12
273.322	103.12
273.553	77.12
273.785	98.12
274.017	97.12
274.249	96.12
274.481	87.12
274.713	88.12
274.945	94.12
275.176	81.12
275.408	87.12
275.64	105.12
275.872	93.12
276.104	97.12
276.335	95.12
276.567	96.12
276.799	126.12
277.031	115.12
277.262	113.12
277.494	116.12
277.726	93.12
277.957	98.12
278.189	102.12
278.421	86.12
278.652	82.12
278.884	84.12
279.115	89.12
279.347	88.12
279.579	80.12
279.81	87.12
280.042	116.12
280.273	131.12
280.505	115.12
280.736	109.12
280.968	88.12
281.199	104.12
281.431	76.12
281.662	87.12
281.894	105.12
282.125	97.12
282.356	125.12
282.588	160.12
282.819	120.12
283.051	92.12
283.282	91.12
283.513	96.12
283.745	80.12
283.976	95.12
284.207	95.12
284.439	97.12
284.67	97.12
284.901	97.12
285.132	85.12
285.364	83.12
285.595	96.12
285.826	68.12
286.057	92.12
286.288	81.12
286.52	86.12
286.751	94.12
286.982	85.12
287.213	88.12
287.444	92.12
287.675	79.12
287.906	84.12
288.138	81.12
288.369	101.12
288.6	97.12
288.831	81.12
289.062	89.12
289.293	93.12
289.524	103.12
289.755	98.12
289.986	87.12
290.217	92.12
290.448	86.12
290.679	101.12
290.91	92.12
291.141	93.12
291.371	95.12
291.602	91.12
291.833	92.12
292.064	90.12
292.295	83.12
292.526	96.12
292.757	88.12
292.987	86.12
293.218	95.12
293.449	88.12
293.68	92.12
293.91	104.12
294.141	85.12
294.372	97.12
294.603	95.12
294.833	105.12
295.064	103.12
295.295	77.12
295.525	93.12
295.756	104.12
295.987	121.12
296.217	145.12
296.448	136.12
296.679	100.12
296.909	113.12
297.14	88.12
297.37	100.12
297.601	102.12
297.831	88.12
298.062	103.12
298.292	82.12
298.523	94.12
298.753	72.12
298.984	95.12
299.214	94.12
299.445	99.12
299.675	90.12
299.905	100.12
300.136	92.12
300.366	103.12
300.597	90.12
300.827	84.12
301.057	93.12
301.288	103.12
301.518	102.12
301.748	92.12
301.979	113.12
302.209	96.12
302.439	98.12
302.669	102.12
302.9	93.12
303.13	90.12
303.36	100.12
303.59	123.12
303.82	121.12
304.051	105.12
304.281	83.12
304.511	84.12
304.741	89.12
304.971	95.12
305.201	90.12
305.431	84.12
305.661	90.12
305.891	95.12
306.121	99.12
306.352	101.12
306.582	99.12
306.812	107.12
307.042	93.12
307.272	106.12
307.502	131.12
307.731	111.12
307.961	118.12
308.191	80.12
308.421	94.12
308.651	90.12
308.881	92.12
309.111	101.12
309.341	102.12
309.571	96.12
309.8	96.12
310.03	103.12
310.26	96.12
310.49	89.12
310.72	97.12
310.949	104.12
311.179	110.12
311.409	97.12
311.639	101.12
311.868	89.12
312.098	112.12
312.328	99.12
312.557	96.12
312.787	107.12
313.017	96.12
313.246	101.12
313.476	90.12
313.706	92.12
313.935	97.12
314.165	106.12
314.394	97.12
314.624	103.12
314.853	107.12
315.083	102.12
315.312	97.12
315.542	96.12
315.771	94.12
316.001	94.12
316.23	89.12
316.46	87.12
316.689	87.12
316.919	98.12
317.148	104.12
317.377	102.12
317.607	80.12
317.836	107.12
318.065	90.12
318.295	96.12
318.524	81.12
318.753	97.12
318.983	95.12
319.212	109.12
319.441	99.12
319.67	106.12
319.9	91.12
320.129	93.12
320.358	104.12
320.587	100.12
320.816	106.12
321.046	109.12
321.275	102.12
321.504	102.12
321.733	108.12
321.962	97.12
322.191	97.12
322.42	114.12
322.649	122.12
322.878	107.12
323.108	110.12
323.337	132.12
323.566	141.12
323.795	162.12
324.024	234.12
324.253	397.12
324.482	820.12
324.71	1672.12
324.939	2305.12
325.168	848.12
325.397	260.12
325.626	164.12
325.855	148.12
326.084	148.12
326.313	150.12
326.542	154.12
326.77	232.12
326.999	450.12
327.228	945.12
327.457	1732.12
327.686	1398.12
327.914	423.12
328.143	286.12
328.372	292.12
328.6	190.12
328.829	143.12
329.058	156.12
329.287	145.12
329.515	124.12
329.744	142.12
329.972	208.12
330.201	343.12
330.43	506.12
330.658	284.12
330.887	176.12
331.115	145.12
331.344	109.12
331.572	112.12
331.801	110.12
332.03	120.12
332.258	115.12
332.486	114.12
332.715	95.12
332.943	110.12
333.172	98.12
333.4	122.12
333.629	116.12
333.857	128.12
334.085	186.12
334.314	331.12
334.542	578.12
334.771	607.12
334.999	202.12
335.227	132.12
335.455	102.12
335.684	103.12
335.912	106.12
336.14	105.12
336.369	94.12
336.597	113.12
336.825	111.12
337.053	97.12
337.281	102.12
337.51	99.12
337.738	107.12
337.966	109.12
338.194	100.12
338.422	96.12
338.65	96.12
338.878	88.12
339.106	97.12
339.334	100.12
339.562	106.12
339.79	93.12
340.018	98.12
340.246	93.12
340.474	104.12
340.702	95.12
340.93	87.12
341.158	102.12
341.386	91.12
341.614	95.12
341.842	108.12
342.07	110.12
342.298	105.12
342.526	89.12
342.754	100.12
342.981	84.12
343.209	95.12
343.437	101.12
343.665	96.12
343.893	94.12
344.12	96.12
344.348	100.12
344.576	84.12
344.804	96.12
345.031	90.12
345.259	92.12
345.487	95.12
345.714	102.12
345.942	93.12
346.17	111.12
346.397	80.12
346.625	95.12
346.853	103.12
347.08	93.12
347.308	101.12
347.535	106.12
347.763	95.12
347.99	96.12
348.218	94.12
348.445	109.12
348.673	110.12
348.9	101.12
349.128	108.12
349.355	103.12
349.583	109.12
349.81	94.12
350.037	105.12
350.265	99.12
350.492	102.12
350.72	89.12
350.947	107.12
351.174	107.12
351.402	121.12
351.629	121.12
351.856	96.12
352.083	106.12
352.311	113.12
352.538	120.12
352.765	129.12
352.992	127.12
353.22	109.12
353.447	97.12
353.674	98.12
353.901	110.12
354.128	108.12
354.355	96.12
354.583	109.12
354.81	105.12
355.037	108.12
355.264	93.12
355.491	83.12
355.718	95.12
355.945	101.12
356.172	93.12
356.399	88.12
356.626	106.12
356.853	92.12
357.08	80.12
357.307	92.12
357.534	105.12
357.761	102.12
357.988	114.12
358.215	126.12
358.441	111.12
358.668	105.12
358.895	105.12
359.122	93.12
359.349	104.12
359.576	94.12
359.802	85.12
360.029	125.12
360.256	130.12
360.483	104.12
360.709	95.12
360.936	91.12
361.163	95.12
361.39	104.12
361.616	89.12
361.843	92.12
362.07	96.12
362.296	96.12
362.523	105.12
362.749	98.12
362.976	98.12
363.203	99.12
363.429	90.12
363.656	80.12
363.882	88.12
364.109	90.12
364.335	79.12
364.562	87.12
364.788	88.12
365.015	98.12
365.241	92.12
365.468	119.12
365.694	106.12
365.92	112.12
366.147	102.12
366.373	96.12
366.599	88.12
366.826	86.12
367.052	86.12
367.278	96.12
367.505	84.12
367.731	102.12
367.957	97.12
368.184	100.12
368.41	87.12
368.636	110.12
368.862	111.12
369.089	102.12
369.315	100.12
369.541	89.12
369.767	99.12
369.993	84.12
370.219	106.12
370.445	87.12
370.672	84.12
370.898	84.12
371.124	97.12
371.35	94.12
371.576	110.12
371.802	80.12
372.028	99.12
372.254	90.12
372.48	94.12
372.706	87.12
372.932	100.12
373.158	95.12
373.384	100.12
373.61	99.12
373.835	94.12
374.061	89.12
374.287	98.12
374.513	101.12
374.739	90.12
374.965	89.12
375.191	93.12
375.416	89.12
375.642	101.12
375.868	97.12
376.094	82.12
376.319	95.12
376.545	97.12
376.771	112.12
376.997	92.12
377.222	104.12
377.448	95.12
377.674	105.12
377.899	97.12
378.125	97.12
378.35	97.12
378.576	96.12
378.802	100.12
379.027	103.12
379.253	112.12
379.478	107.12
379.704	101.12
379.929	99.12
380.155	97.12
380.38	110.12
380.606	121.12
380.831	107.12
381.057	119.12
381.282	104.12
381.507	97.12
381.733	97.12
381.958	102.12
382.184	109.12
382.409	103.12
382.634	100.12
382.86	121.12
383.085	112.12
383.31	113.12
383.535	121.12
383.761	113.12
383.986	123.12
384.211	116.12
384.436	117.12
384.662	128.12
384.887	129.12
385.112	126.12
385.337	135.12
385.562	134.12
385.787	140.12
386.013	157.12
386.238	147.12
386.463	140.12
386.688	141.12
386.913	113.12
387.138	134.12
387.363	121.12
387.588	117.12
387.813	130.12
388.038	132.12
388.263	136.12
388.488	149.12
388.713	116.12
388.938	101.12
389.163	91.12
389.387	99.12
389.612	86.12
389.837	91.12
390.062	96.12
390.287	97.12
390.512	87.12
390.736	82.12
390.961	91.12
391.186	104.12
391.411	97.12
391.636	102.12
391.86	90.12
392.085	88.12
392.31	97.12
392.534	90.12
392.759	88.12
392.984	87.12
393.208	103.12
393.433	96.12
393.658	89.12
393.882	85.12
394.107	92.12
394.331	105.12
394.556	97.12
394.78	86.12
395.005	85.12
395.229	98.12
395.454	78.12
395.678	80.12
395.903	89.12
396.127	106.12
396.352	98.12
396.576	85.12
396.801	86.12
397.025	95.12
397.249	98.12
397.474	89.12
397.698	89.12
397.922	67.12
398.147	80.12
398.371	81.12
398.595	89.12
398.82	82.12
399.044	90.12
399.268	93.12
399.492	97.12
399.717	95.12
399.941	94.12
400.165	93.12
400.389	82.12
400.613	94.12
400.837	86.12
401.062	108.12
401.286	94.12
401.51	95.12
401.734	95.12
401.958	100.12
402.182	122.12
402.406	153.12
402.63	132.12
402.854	100.12
403.078	96.12
403.302	81.12
403.526	103.12
403.75	92.12
403.974	93.12
404.198	97.12
404.422	96.12
404.645	90.12
404.869	82.12
405.093	112.12
405.317	128.12
405.541	117.12
405.765	104.12
405.988	124.12
406.212	163.12
406.436	237.12
406.66	172.12
406.883	110.12
407.107	96.12
407.331	113.12
407.555	114.12
407.778	114.12
408.002	87.12
408.226	88.12
408.449	93.12
408.673	96.12
408.896	101.12
409.12	105.12
409.344	100.12
409.567	96.12
409.791	93.12
410.014	96.12
410.238	86.12
410.461	102.12
410.685	96.12
410.908	96.12
411.132	109.12
411.355	110.12
411.578	84.12
411.802	91.12
412.025	78.12
412.249	105.12
412.472	106.12
412.695	118.12
412.919	109.12
413.142	104.12
413.365	98.12
413.589	86.12
413.812	96.12
414.035	83.12
414.258	96.12
414.482	90.12
414.705	88.12
414.928	102.12
415.151	106.12
415.374	102.12
415.597	96.12
415.821	99.12
416.044	103.12
416.267	102.12
416.49	94.12
416.713	96.12
416.936	85.12
417.159	96.12
417.382	106.12
417.605	94.12
417.828	93.12
418.051	96.12
418.274	92.12
418.497	105.12
418.72	104.12
418.943	94.12
419.166	87.12
419.389	106.12
419.611	90.12
419.834	91.12
420.057	89.12
420.28	83.12
420.503	88.12
420.726	80.12
420.948	84.12
421.171	99.12
421.394	92.12
421.617	101.12
421.839	97.12
422.062	83.12
422.285	98.12
422.507	100.12
422.73	107.12
422.953	100.12
423.175	80.12
423.398	97.12
423.621	97.12
423.843	93.12
424.066	93.12
424.288	96.12
424.511	95.12
424.733	106.12
424.956	114.12
425.178	101.12
425.401	112.12
425.623	106.12
425.846	88.12
426.068	99.12
426.291	107.12
426.513	96.12
426.735	80.12
426.958	94.12
427.18	127.12
427.402	149.12
427.625	198.12
427.847	170.12
428.069	166.12
428.292	113.12
428.514	93.12
428.736	90.12
428.958	91.12
429.181	103.12
429.403	82.12
429.625	90.12
429.847	87.12
430.069	113.12
430.292	96.12
430.514	82.12
430.736	98.12
430.958	90.12
431.18	92.12
431.402	92.12
431.624	82.12
431.846	87.12
432.068	77.12
432.29	82.12
432.512	94.12
432.734	88.12
432.956	92.12
433.178	112.12
433.4	94.12
433.622	94.12
433.844	84.12
434.066	82.12
434.287	97.12
434.509	90.12
434.731	95.12
434.953	84.12
435.175	90.12
435.397	91.12
435.618	90.12
435.84	106.12
436.062	137.12
436.284	134.12
436.505	97.12
436.727	104.12
436.949	88.12
437.17	89.12
437.392	95.12
437.614	97.12
437.835	117.12
438.057	132.12
438.278	122.12
438.5	105.12
438.721	134.12
438.943	113.12
439.165	79.12
439.386	84.12
439.608	98.12
439.829	93.12
440.05	131.12
440.272	168.12
440.493	100.12
440.715	99.12
440.936	85.12
441.158	77.12
441.379	87.12
441.6	85.12
441.822	96.12
442.043	97.12
442.264	108.12
442.486	108.12
442.707	111.12
442.928	114.12
443.149	136.12
443.371	145.12
443.592	108.12
443.813	116.12
444.034	125.12
444.255	95.12
444.476	101.12
444.698	90.12
444.919	106.12
445.14	144.12
445.361	136.12
445.582	134.12
445.803	160.12
446.024	156.12
446.245	154.12
446.466	127.12
446.687	101.12
446.908	105.12
447.129	102.12
447.35	99.12
447.571	96.12
447.792	102.12
448.013	96.12
448.234	106.12
448.455	105.12
448.675	140.12
448.896	116.12
449.117	112.12
449.338	118.12
449.559	140.12
449.779	153.12
450	89.12
450.221	98.12
450.442	97.12
450.662	98.12
450.883	92.12
451.104	108.12
451.324	113.12
451.545	94.12
451.766	106.12
451.986	90.12
452.207	81.12
452.428	104.12
452.648	98.12
452.869	106.12
453.089	134.12
453.31	124.12
453.53	102.12
453.751	92.12
453.971	107.12
454.192	112.12
454.412	91.12
454.633	92.12
454.853	102.12
455.073	92.12
455.294	106.12
455.514	102.12
455.734	97.12
455.955	96.12
456.175	92.12
456.395	91.12
456.616	85.12
456.836	90.12
457.056	93.12
457.276	85.12
457.497	77.12
457.717	87.12
457.937	85.12
458.157	82.12
458.377	98.12
458.598	118.12
458.818	171.12
459.038	185.12
459.258	135.12
459.478	98.12
459.698	84.12
459.918	94.12
460.138	97.12
460.358	72.12
460.578	78.12
460.798	82.12
461.018	95.12
461.238	84.12
461.458	80.12
461.678	90.12
461.898	98.12
462.118	90.12
462.338	82.12
462.558	92.12
462.777	81.12
462.997	89.12
463.217	97.12
463.437	93.12
463.657	94.12
463.876	90.12
464.096	98.12
464.316	92.12
464.536	100.12
464.755	108.12
464.975	104.12
465.195	179.12
465.414	180.12
465.634	102.12
465.854	98.12
466.073	89.12
466.293	80.12
466.512	80.12
466.732	93.12
466.951	97.12
467.171	104.12
467.391	106.12
467.61	111.12
467.829	107.12
468.049	217.12
468.268	298.12
468.488	127.12
468.707	101.12
468.927	96.12
469.146	92.12
469.365	100.12
469.585	84.12
469.804	105.12
470.023	101.12
470.243	90.12
470.462	114.12
470.681	124.12
470.901	97.12
471.12	92.12
471.339	92.12
471.558	91.12
471.777	110.12
471.997	145.12
472.216	379.12
472.435	793.12
472.654	238.12
472.873	108.12
473.092	78.12
473.311	95.12
473.53	102.12
473.749	109.12
473.968	100.12
474.187	104.12
474.406	107.12
474.625	82.12
474.844	92.12
475.063	94.12
475.282	97.12
475.501	84.12
475.72	93.12
475.939	86.12
476.158	89.12
476.377	80.12
476.596	98.12
476.814	102.12
477.033	102.12
477.252	86.12
477.471	85.12
477.69	96.12
477.908	80.12
478.127	88.12
478.346	78.12
478.564	95.12
478.783	85.12
479.002	90.12
479.22	101.12
479.439	92.12
479.658	104.12
479.876	104.12
480.095	96.12
480.313	113.12
480.532	103.12
480.751	149.12
480.969	361.12
481.188	1314.12
481.406	834.12
481.624	184.12
481.843	98.12
482.061	87.12
482.28	92.12
482.498	92.12
482.717	95.12
482.935	103.12
483.153	95.12
483.372	103.12
483.59	84.12
483.808	92.12
484.027	101.12
484.245	89.12
484.463	94.12
484.681	102.12
484.9	89.12
485.118	101.12
485.336	105.12
485.554	110.12
485.772	105.12
485.99	99.12
486.209	99.12
486.427	106.12
486.645	116.12
486.863	117.12
487.081	95.12
487.299	96.12
487.517	98.12
487.735	90.12
487.953	94.12
488.171	90.12
488.389	94.12
488.607	113.12
488.825	77.12
489.043	69.12
489.261	100.12
489.479	91.12
489.696	104.12
489.914	89.12
490.132	102.12
490.35	80.12
490.568	96.12
490.786	91.12
491.003	88.12
491.221	96.12
491.439	87.12
491.657	102.12
491.874	96.12
492.092	103.12
492.31	97.12
492.527	92.12
492.745	88.12
492.963	88.12
493.18	99.12
493.398	87.12
493.615	103.12
493.833	93.12
494.05	97.12
494.268	82.12
494.485	97.12
494.703	90.12
494.92	91.12
495.138	93.12
495.355	80.12
495.573	78.12
495.79	100.12
496.008	119.12
496.225	89.12
496.442	87.12
496.66	87.12
496.877	91.12
497.094	99.12
497.312	102.12
497.529	103.12
497.746	104.12
497.963	90.12
498.181	92.12
498.398	94.12
498.615	110.12
498.832	109.12
499.049	104.12
499.267	106.12
499.484	89.12
499.701	89.12
499.918	97.12
500.135	95.12
500.352	86.12
500.569	89.12
500.786	91.12
501.003	88.12
501.22	89.12
501.437	83.12
501.654	95.12
501.871	102.12
502.088	110.12
502.305	83.12
502.522	98.12
502.739	97.12
502.956	96.12
503.172	83.12
503.389	106.12
503.606	115.12
503.823	101.12
504.04	104.12
504.256	89.12
504.473	91.12
504.69	93.12
504.907	102.12
505.123	94.12
505.34	99.12
505.557	99.12
505.773	110.12
505.99	95.12
506.207	94.12
506.423	97.12
506.64	83.12
506.856	113.12
507.073	90.12
507.289	102.12
507.506	98.12
507.722	121.12
507.939	129.12
508.155	90.12
508.372	111.12
508.588	93.12
508.805	108.12
509.021	111.12
509.238	113.12
509.454	94.12
509.67	111.12
509.887	113.12
510.103	123.12
510.319	210.12
510.536	675.12
510.752	2222.12
510.968	634.12
511.184	156.12
511.401	110.12
511.617	110.12
511.833	93.12
512.049	90.12
512.265	96.12
512.481	89.12
512.698	104.12
512.914	103.12
513.13	106.12
