Data from Circ_1992_H10_HRD10591_00051.txt Node
Date: Wed Jan 03 11:47:55 EST 2024
User: Yrep
Spectrometer: HR+D1059
Trigger mode: 1
Integration Time (sec): 1.000000E-1
Scans to average: 1
Electric dark correction enabled: true
Nonlinearity correction enabled: false
Boxcar width: 0
XAxis mode: Wavelengths
Number of Pixels in Spectrum: 2048
>>>>>Begin Spectral Data<<<<<
223.165	-16
223.4	-16
223.635	-16
223.869	-11
224.104	-20
224.338	-14
224.573	-7
224.808	-20
225.042	-7
225.277	-8
225.511	-12
225.746	6
225.98	5
226.215	20
226.449	6
226.683	14
226.918	29
227.152	35
227.387	30
227.621	47
227.856	70
228.09	59
228.324	69
228.559	64
228.793	60
229.027	59
229.262	77
229.496	72
229.73	85
229.964	90
230.199	84
230.433	91
230.667	79
230.901	83
231.136	78
231.37	90
231.604	84
231.838	77
232.072	86
232.306	83
232.541	88
232.775	81
233.009	79
233.243	97
233.477	74
233.711	85
233.945	79
234.179	69
234.413	78
234.647	72
234.881	77
235.115	81
235.349	76
235.583	81
235.817	88
236.051	83
236.285	75
236.519	66
236.753	80
236.987	98
237.221	68
237.455	89
237.689	68
237.922	64
238.156	80
238.39	91
238.624	71
238.858	81
239.091	79
239.325	89
239.559	84
239.793	79
240.027	90
240.26	91
240.494	76
240.728	84
240.961	78
241.195	73
241.429	83
241.662	83
241.896	84
242.13	67
242.363	63
242.597	77
242.83	90
243.064	89
243.298	70
243.531	77
243.765	64
243.998	89
244.232	71
244.465	93
244.699	91
244.932	90
245.166	71
245.399	74
245.633	91
245.866	66
246.099	85
246.333	78
246.566	86
246.8	88
247.033	82
247.266	75
247.5	76
247.733	89
247.966	84
248.2	81
248.433	81
248.666	69
248.899	83
249.133	85
249.366	86
249.599	100
249.832	91
250.066	93
250.299	75
250.532	67
250.765	77
250.998	76
251.231	81
251.465	69
251.698	83
251.931	77
252.164	86
252.397	94
252.63	88
252.863	86
253.096	88
253.329	81
253.562	81
253.795	94
254.028	81
254.261	69
254.494	92
254.727	80
254.96	84
255.193	79
255.426	86
255.659	73
255.892	91
256.124	86
256.357	83
256.59	90
256.823	82
257.056	87
257.289	92
257.521	90
257.754	81
257.987	84
258.22	85
258.452	82
258.685	67
258.918	76
259.151	69
259.383	91
259.616	96
259.849	75
260.081	76
260.314	80
260.547	85
260.779	96
261.012	97
261.244	101
261.477	87
261.71	91
261.942	99
262.175	109
262.407	95
262.64	73
262.872	81
263.105	85
263.337	99
263.57	93
263.802	78
264.035	75
264.267	82
264.499	84
264.732	79
264.964	77
265.197	73
265.429	80
265.661	91
265.894	80
266.126	85
266.358	83
266.591	87
266.823	96
267.055	95
267.287	89
267.52	71
267.752	86
267.984	86
268.216	83
268.448	91
268.681	75
268.913	83
269.145	79
269.377	92
269.609	92
269.841	81
270.073	83
270.306	79
270.538	86
270.77	83
271.002	101
271.234	84
271.466	104
271.698	72
271.93	75
272.162	72
272.394	89
272.626	95
272.858	84
273.09	89
273.322	87
273.553	80
273.785	73
274.017	92
274.249	95
274.481	77
274.713	87
274.945	89
275.176	87
275.408	81
275.64	97
275.872	100
276.104	86
276.335	94
276.567	91
276.799	119
277.031	119
277.262	105
277.494	108
277.726	85
277.957	102
278.189	84
278.421	92
278.652	89
278.884	99
279.115	92
279.347	89
279.579	95
279.81	85
280.042	107
280.273	130
280.505	113
280.736	79
280.968	87
281.199	92
281.431	97
281.662	87
281.894	82
282.125	107
282.356	127
282.588	136
282.819	105
283.051	101
283.282	95
283.513	88
283.745	103
283.976	93
284.207	99
284.439	87
284.67	96
284.901	96
285.132	94
285.364	101
285.595	90
285.826	85
286.057	87
286.288	94
286.52	94
286.751	83
286.982	89
287.213	101
287.444	86
287.675	88
287.906	89
288.138	84
288.369	82
288.6	77
288.831	81
289.062	91
289.293	95
289.524	93
289.755	87
289.986	100
290.217	85
290.448	78
290.679	80
290.91	82
291.141	95
291.371	94
291.602	94
291.833	91
292.064	94
292.295	85
292.526	77
292.757	86
292.987	98
293.218	84
293.449	88
293.68	84
293.91	86
294.141	93
294.372	98
294.603	86
294.833	95
295.064	87
295.295	100
295.525	87
295.756	96
295.987	107
296.217	125
296.448	112
296.679	99
296.909	87
297.14	89
297.37	98
297.601	84
297.831	93
298.062	95
298.292	89
298.523	80
298.753	98
298.984	91
299.214	79
299.445	98
299.675	98
299.905	85
300.136	83
300.366	88
300.597	95
300.827	99
301.057	107
301.288	110
301.518	94
301.748	93
301.979	98
302.209	106
302.439	89
302.669	87
302.9	91
303.13	99
303.36	116
303.59	105
303.82	119
304.051	110
304.281	91
304.511	93
304.741	96
304.971	89
305.201	86
305.431	85
305.661	90
305.891	104
306.121	98
306.352	105
306.582	101
306.812	85
307.042	98
307.272	111
307.502	116
307.731	113
307.961	107
308.191	99
308.421	111
308.651	85
308.881	92
309.111	94
309.341	99
309.571	99
309.8	88
310.03	100
310.26	85
310.49	97
310.72	101
310.949	103
311.179	96
311.409	99
311.639	92
311.868	104
312.098	88
312.328	101
312.557	104
312.787	104
313.017	88
313.246	103
313.476	97
313.706	84
313.935	98
314.165	108
314.394	101
314.624	105
314.853	94
315.083	94
315.312	80
315.542	104
315.771	103
316.001	109
316.23	84
316.46	88
316.689	104
316.919	83
317.148	88
317.377	93
317.607	85
317.836	98
318.065	88
318.295	89
318.524	112
318.753	75
318.983	104
319.212	93
319.441	94
319.67	105
319.9	94
320.129	87
320.358	101
320.587	105
320.816	99
321.046	97
321.275	97
321.504	103
321.733	95
321.962	96
322.191	99
322.42	105
322.649	102
322.878	119
323.108	104
323.337	122
323.566	135
323.795	155
324.024	217
324.253	417
324.482	863
324.71	1882
324.939	2497
325.168	882
325.397	250
325.626	163
325.855	127
326.084	125
326.313	124
326.542	160
326.77	238
326.999	501
327.228	1038
327.457	1933
327.686	1521
327.914	421
328.143	288
328.372	291
328.6	190
328.829	115
329.058	133
329.287	131
329.515	132
329.744	158
329.972	225
330.201	381
330.43	501
330.658	255
330.887	155
331.115	131
331.344	93
331.572	101
331.801	111
332.03	115
332.258	110
332.486	99
332.715	100
332.943	97
333.172	111
333.4	117
333.629	136
333.857	151
334.085	192
334.314	369
334.542	647
334.771	597
334.999	211
335.227	100
335.455	113
335.684	106
335.912	106
336.14	102
336.369	108
336.597	103
336.825	98
337.053	110
337.281	100
337.51	98
337.738	106
337.966	81
338.194	88
338.422	97
338.65	105
338.878	85
339.106	87
339.334	94
339.562	92
339.79	89
340.018	104
340.246	99
340.474	85
340.702	105
340.93	98
341.158	83
341.386	96
341.614	95
341.842	88
342.07	81
342.298	99
342.526	94
342.754	97
342.981	93
343.209	89
343.437	97
343.665	95
343.893	87
344.12	86
344.348	74
344.576	93
344.804	91
345.031	88
345.259	97
345.487	81
345.714	88
345.942	87
346.17	96
346.397	90
346.625	98
346.853	88
347.08	91
347.308	89
347.535	97
347.763	104
347.99	109
348.218	103
348.445	104
348.673	100
348.9	80
349.128	88
349.355	80
349.583	99
349.81	88
350.037	91
350.265	93
350.492	100
350.72	74
350.947	92
351.174	112
351.402	109
351.629	97
351.856	100
352.083	99
352.311	100
352.538	105
352.765	92
352.992	114
353.22	113
353.447	105
353.674	99
353.901	91
354.128	101
354.355	100
354.583	104
354.81	102
355.037	95
355.264	103
355.491	88
355.718	88
355.945	94
356.172	86
356.399	102
356.626	98
356.853	85
357.08	94
357.307	93
357.534	97
357.761	85
357.988	93
358.215	94
358.441	85
358.668	105
358.895	88
359.122	81
359.349	81
359.576	87
359.802	97
360.029	105
360.256	107
360.483	103
360.709	94
360.936	84
361.163	96
361.39	94
361.616	86
361.843	102
362.07	91
362.296	94
362.523	95
362.749	92
362.976	79
363.203	81
363.429	95
363.656	100
363.882	91
364.109	89
364.335	100
364.562	79
364.788	100
365.015	94
365.241	91
365.468	111
365.694	113
365.92	104
366.147	95
366.373	89
366.599	87
366.826	81
367.052	79
367.278	95
367.505	104
367.731	111
367.957	96
368.184	101
368.41	95
368.636	112
368.862	123
369.089	104
369.315	95
369.541	88
369.767	81
369.993	98
370.219	93
370.445	95
370.672	86
370.898	85
371.124	99
371.35	95
371.576	104
371.802	100
372.028	86
372.254	96
372.48	86
372.706	97
372.932	87
373.158	95
373.384	96
373.61	93
373.835	97
374.061	92
374.287	87
374.513	88
374.739	86
374.965	101
375.191	95
375.416	95
375.642	92
375.868	100
376.094	89
376.319	95
376.545	94
376.771	86
376.997	86
377.222	93
377.448	94
377.674	101
377.899	90
378.125	91
378.35	88
378.576	94
378.802	90
379.027	94
379.253	103
379.478	94
379.704	90
379.929	89
380.155	102
380.38	88
380.606	93
380.831	96
381.057	87
381.282	92
381.507	99
381.733	94
381.958	99
382.184	99
382.409	112
382.634	95
382.86	99
383.085	85
383.31	117
383.535	94
383.761	95
383.986	109
384.211	104
384.436	111
384.662	109
384.887	106
385.112	101
385.337	102
385.562	118
385.787	96
386.013	107
386.238	120
386.463	104
386.688	115
386.913	93
387.138	104
387.363	96
387.588	106
387.813	108
388.038	111
388.263	91
388.488	111
388.713	89
388.938	96
389.163	98
389.387	104
389.612	101
389.837	86
390.062	107
390.287	105
390.512	94
390.736	91
390.961	93
391.186	115
391.411	95
391.636	71
391.86	99
392.085	101
392.31	97
392.534	94
392.759	80
392.984	92
393.208	87
393.433	88
393.658	84
393.882	81
394.107	87
394.331	71
394.556	98
394.78	84
395.005	76
395.229	79
395.454	89
395.678	78
395.903	94
396.127	87
396.352	84
396.576	80
396.801	82
397.025	85
397.249	93
397.474	89
397.698	95
397.922	89
398.147	87
398.371	105
398.595	94
398.82	104
399.044	67
399.268	104
399.492	85
399.717	92
399.941	92
400.165	102
400.389	82
400.613	84
400.837	77
401.062	101
401.286	81
401.51	90
401.734	77
401.958	102
402.182	103
402.406	139
402.63	113
402.854	91
403.078	85
403.302	84
403.526	90
403.75	82
403.974	93
404.198	78
404.422	82
404.645	96
404.869	93
405.093	117
405.317	117
405.541	110
405.765	104
405.988	112
406.212	142
406.436	183
406.66	144
406.883	100
407.107	96
407.331	93
407.555	93
407.778	96
408.002	78
408.226	90
408.449	98
408.673	93
408.896	87
409.12	104
409.344	104
409.567	88
409.791	79
410.014	99
410.238	101
410.461	92
410.685	94
410.908	93
411.132	97
411.355	95
411.578	99
411.802	81
412.025	97
412.249	92
412.472	101
412.695	122
412.919	104
413.142	107
413.365	91
413.589	96
413.812	84
414.035	99
414.258	85
414.482	94
414.705	90
414.928	93
415.151	96
415.374	88
415.597	85
415.821	97
416.044	89
416.267	95
416.49	89
416.713	96
416.936	95
417.159	93
417.382	68
417.605	97
417.828	85
418.051	96
418.274	87
418.497	83
418.72	98
418.943	88
419.166	107
419.389	92
419.611	83
419.834	76
420.057	92
420.28	85
420.503	96
420.726	97
420.948	91
421.171	96
421.394	92
421.617	92
421.839	99
422.062	82
422.285	94
422.507	115
422.73	91
422.953	87
423.175	83
423.398	96
423.621	93
423.843	87
424.066	94
424.288	83
424.511	89
424.733	108
424.956	100
425.178	99
425.401	109
425.623	105
425.846	96
426.068	91
426.291	80
426.513	85
426.735	93
426.958	100
427.18	109
427.402	140
427.625	171
427.847	172
428.069	178
428.292	113
428.514	85
428.736	94
428.958	91
429.181	92
429.403	84
429.625	90
429.847	93
430.069	88
430.292	108
430.514	91
430.736	88
430.958	75
431.18	88
431.402	83
431.624	97
431.846	75
432.068	102
432.29	99
432.512	97
432.734	94
432.956	92
433.178	99
433.4	110
433.622	99
433.844	83
434.066	80
434.287	93
434.509	84
434.731	84
434.953	84
435.175	106
435.397	91
435.618	94
435.84	102
436.062	133
436.284	123
436.505	101
436.727	92
436.949	97
437.17	84
437.392	85
437.614	103
437.835	101
438.057	115
438.278	108
438.5	111
438.721	127
438.943	99
439.165	98
439.386	99
439.608	89
439.829	105
440.05	131
440.272	143
440.493	101
440.715	94
440.936	80
441.158	84
441.379	92
441.6	82
441.822	81
442.043	102
442.264	108
442.486	102
442.707	100
442.928	116
443.149	124
443.371	124
443.592	119
443.813	103
444.034	114
444.255	102
444.476	101
444.698	89
444.919	73
445.14	124
445.361	118
445.582	119
445.803	130
446.024	134
446.245	122
446.466	111
446.687	91
446.908	80
447.129	68
447.35	90
447.571	88
447.792	99
448.013	93
448.234	98
448.455	109
448.675	128
448.896	119
449.117	92
449.338	105
449.559	123
449.779	135
450	105
450.221	85
450.442	88
450.662	87
450.883	112
451.104	101
451.324	89
451.545	81
451.766	89
451.986	93
452.207	88
452.428	90
452.648	99
452.869	107
453.089	108
453.31	107
453.53	107
453.751	96
453.971	100
454.192	116
454.412	83
454.633	67
454.853	83
455.073	79
455.294	93
455.514	84
455.734	102
455.955	94
456.175	98
456.395	78
456.616	79
456.836	82
457.056	105
457.276	97
457.497	79
457.717	84
457.937	93
458.157	91
458.377	97
458.598	109
458.818	133
459.038	133
459.258	118
459.478	91
459.698	87
459.918	78
460.138	84
460.358	83
460.578	76
460.798	84
461.018	95
461.238	91
461.458	93
461.678	92
461.898	97
462.118	87
462.338	85
462.558	96
462.777	79
462.997	91
463.217	112
463.437	102
463.657	84
463.876	87
464.096	83
464.316	87
464.536	94
464.755	93
464.975	103
465.195	163
465.414	150
465.634	93
465.854	107
466.073	96
466.293	93
466.512	97
466.732	97
466.951	99
467.171	97
467.391	105
467.61	116
467.829	125
468.049	246
468.268	337
468.488	145
468.707	104
468.927	94
469.146	98
469.365	114
469.585	82
469.804	93
470.023	101
470.243	96
470.462	100
470.681	115
470.901	95
471.12	93
471.339	95
471.558	107
471.777	107
471.997	179
472.216	430
472.435	911
472.654	251
472.873	111
473.092	89
473.311	88
473.53	82
473.749	86
473.968	92
474.187	96
474.406	98
474.625	93
474.844	90
475.063	89
475.282	92
475.501	84
475.72	85
475.939	88
476.158	96
476.377	88
476.596	105
476.814	84
477.033	103
477.252	88
477.471	96
477.69	86
477.908	89
478.127	88
478.346	93
478.564	77
478.783	93
479.002	94
479.22	87
479.439	103
479.658	97
479.876	105
480.095	116
480.313	114
480.532	105
480.751	176
480.969	439
481.188	1602
481.406	932
481.624	194
481.843	117
482.061	96
482.28	86
482.498	107
482.717	105
482.935	97
483.153	97
483.372	102
483.59	97
483.808	95
484.027	96
484.245	96
484.463	86
484.681	110
484.9	96
485.118	96
485.336	89
485.554	97
485.772	100
485.99	111
486.209	102
486.427	97
486.645	115
486.863	110
487.081	110
487.299	103
487.517	105
487.735	89
487.953	108
488.171	86
488.389	112
488.607	109
488.825	101
489.043	83
489.261	90
489.479	80
489.696	91
489.914	79
490.132	88
490.35	100
490.568	87
490.786	92
491.003	89
491.221	99
491.439	93
491.657	88
491.874	92
492.092	98
492.31	96
492.527	101
492.745	90
492.963	99
493.18	112
493.398	99
493.615	105
493.833	111
494.05	91
494.268	94
494.485	100
494.703	97
494.92	80
495.138	99
495.355	97
495.573	93
495.79	98
496.008	107
496.225	99
496.442	97
496.66	96
496.877	99
497.094	95
497.312	95
497.529	88
497.746	88
497.963	86
498.181	91
498.398	90
498.615	120
498.832	105
499.049	93
499.267	96
499.484	92
499.701	99
499.918	95
500.135	82
500.352	98
500.569	92
500.786	94
501.003	105
501.22	83
501.437	89
501.654	112
501.871	102
502.088	102
502.305	98
502.522	84
502.739	92
502.956	88
503.172	107
503.389	103
503.606	100
503.823	98
504.04	85
504.256	89
504.473	90
504.69	92
504.907	94
505.123	84
505.34	99
505.557	100
505.773	105
505.99	92
506.207	87
506.423	86
506.64	78
506.856	101
507.073	93
507.289	82
507.506	103
507.722	104
507.939	94
508.155	96
508.372	96
508.588	98
508.805	91
509.021	93
509.238	108
509.454	93
509.67	91
509.887	111
510.103	127
510.319	199
510.536	642
510.752	1937
510.968	551
511.184	156
511.401	113
511.617	107
511.833	97
512.049	103
512.265	81
512.481	90
512.698	99
512.914	91
513.13	94
513.346	103
513.562	95
513.778	99
513.994	100
514.21	105
514.426	115
514.642	125
514.858	130
515.074	157
515.29	385
515.506	1276
515.721	482
515.937	144
516.153	114
516.369	87
516.585	107
516.801	101
517.016	102
517.232	99
517.448	101
517.664	95
517.879	89
518.095	99
518.311	97
518.527	105
518.742	98
518.958	91
519.173	90
519.389	102
519.605	96
519.82	109
520.036	115
520.251	130
520.467	117
520.682	94
520.898	99
521.113	124
521.329	141
521.544	187
521.76	499
521.975	2077
522.19	1273
522.406	293
522.621	132
522.836	123
523.052	97
523.267	99
523.482	106
523.698	109
523.913	123
524.128	104
524.343	91
524.559	91
524.774	105
524.989	96
525.204	93
525.419	95
525.634	82
525.849	93
526.064	93
526.28	105
526.495	86
526.71	73
526.925	91
527.14	104
527.355	90
527.57	87
527.785	92
527.999	91
528.214	111
528.429	91
528.644	88
528.859	91
529.074	101
529.289	121
529.503	162
529.718	104
529.933	103
530.148	95
530.363	91
530.577	88
530.792	94
531.007	101
531.221	91
531.436	87
531.651	96
531.865	104
532.08	98
532.295	94
532.509	92
532.724	92
532.938	87
533.153	96
533.367	114
533.582	96
533.796	91
534.011	92
534.225	97
534.44	90
534.654	87
534.868	91
535.083	103
535.297	85
535.511	100
535.726	117
535.94	111
536.154	97
536.369	85
536.583	103
536.797	102
537.011	96
537.225	99
537.44	103
537.654	101
537.868	84
538.082	93
538.296	99
538.51	93
538.724	85
538.938	86
539.153	102
539.367	114
539.581	106
539.795	87
540.009	83
540.222	87
540.436	89
540.65	88
540.864	96
541.078	103
541.292	100
541.506	89
541.72	100
541.934	90
542.147	85
542.361	78
542.575	91
542.789	90
543.002	96
543.216	100
543.43	90
543.644	96
543.857	97
544.071	92
544.285	97
544.498	99
544.712	96
544.925	89
545.139	103
545.352	99
545.566	89
545.779	93
545.993	87
546.206	93
546.42	88
546.633	95
546.847	99
547.06	84
547.274	94
547.487	95
547.7	96
547.914	84
548.127	101
548.34	78
548.554	107
548.767	102
548.98	99
549.193	92
549.407	87
549.62	95
549.833	91
550.046	97
550.259	88
550.473	86
550.686	83
550.899	77
551.112	97
551.325	96
551.538	95
551.751	79
551.964	88
552.177	88
552.39	104
552.603	94
552.816	97
553.029	105
553.242	101
553.455	98
553.667	87
553.88	85
554.093	87
554.306	85
554.519	103
554.732	95
554.944	103
555.157	100
555.37	83
555.583	88
555.795	101
556.008	89
556.221	93
556.433	80
556.646	99
556.859	115
557.071	93
557.284	86
557.496	83
557.709	99
557.921	84
558.134	96
558.346	89
558.559	107
558.771	75
558.984	92
559.196	85
559.409	96
559.621	95
559.833	79
560.046	80
560.258	82
560.47	98
560.683	92
560.895	97
561.107	96
561.32	89
561.532	99
561.744	89
561.956	78
562.168	104
562.381	89
562.593	93
562.805	79
563.017	91
563.229	84
563.441	77
563.653	92
563.865	87
564.077	87
564.289	92
564.501	99
564.713	96
564.925	93
565.137	109
565.349	93
565.561	84
565.773	94
565.985	96
566.197	96
566.408	94
566.62	102
566.832	97
567.044	82
567.255	79
567.467	103
567.679	98
567.891	80
568.102	84
568.314	85
568.526	79
568.737	81
568.949	95
569.161	99
569.372	83
569.584	102
569.795	99
570.007	105
570.218	219
570.43	98
570.641	91
570.853	103
571.064	95
571.276	92
571.487	88
571.698	86
571.91	92
572.121	84
572.333	76
572.544	81
572.755	88
572.966	83
573.178	75
573.389	85
573.6	89
573.811	94
574.023	85
574.234	92
574.445	87
574.656	84
574.867	101
575.078	90
575.289	94
575.501	83
575.712	91
575.923	91
576.134	84
576.345	86
576.556	86
576.767	88
576.978	85
577.188	88
577.399	91
577.61	80
577.821	79
578.032	103
578.243	231
578.454	568
578.665	187
578.875	110
579.086	92
579.297	97
579.508	72
579.718	90
579.929	83
580.14	75
580.35	81
580.561	86
580.772	88
580.982	93
581.193	84
581.403	83
581.614	91
581.825	79
582.035	89
582.246	101
582.456	92
