Data from Circ_1992_H10_HRD10591_00095.txt Node
Date: Wed Jan 03 11:48:03 EST 2024
User: Yrep
Spectrometer: HR+D1059
Trigger mode: 1
Integration Time (sec): 1.000000E-1
Scans to average: 1
Electric dark correction enabled: true
Nonlinearity correction enabled: false
Boxcar width: 0
XAxis mode: Wavelengths
Number of Pixels in Spectrum: 2048
>>>>>Begin Spectral Data<<<<<
223.165	-11.31
223.4	-11.31
223.635	-11.31
223.869	-25.31
224.104	-14.31
224.338	-24.31
224.573	-25.31
224.808	-10.31
225.042	-17.31
225.277	-2.31
225.511	4.69
225.746	-4.31
225.98	19.69
226.215	12.69
226.449	9.69
226.683	15.69
226.918	34.69
227.152	37.69
227.387	18.69
227.621	39.69
227.856	46.69
228.09	49.69
228.324	60.69
228.559	60.69
228.793	53.69
229.027	71.69
229.262	64.69
229.496	70.69
229.73	90.69
229.964	92.69
230.199	82.69
230.433	81.69
230.667	74.69
230.901	81.69
231.136	76.69
231.37	88.69
231.604	78.69
231.838	96.69
232.072	69.69
232.306	68.69
232.541	67.69
232.775	84.69
233.009	85.69
233.243	88.69
233.477	87.69
233.711	82.69
233.945	83.69
234.179	78.69
234.413	83.69
234.647	78.69
234.881	78.69
235.115	80.69
235.349	78.69
235.583	76.69
235.817	83.69
236.051	79.69
236.285	77.69
236.519	70.69
236.753	77.69
236.987	86.69
237.221	91.69
237.455	83.69
237.689	73.69
237.922	82.69
238.156	85.69
238.39	71.69
238.624	62.69
238.858	73.69
239.091	84.69
239.325	79.69
239.559	89.69
239.793	81.69
240.027	79.69
240.26	83.69
240.494	92.69
240.728	74.69
240.961	73.69
241.195	102.69
241.429	78.69
241.662	77.69
241.896	77.69
242.13	77.69
242.363	89.69
242.597	81.69
242.83	72.69
243.064	61.69
243.298	71.69
243.531	79.69
243.765	84.69
243.998	82.69
244.232	80.69
244.465	80.69
244.699	74.69
244.932	67.69
245.166	90.69
245.399	82.69
245.633	76.69
245.866	92.69
246.099	82.69
246.333	67.69
246.566	69.69
246.8	70.69
247.033	96.69
247.266	71.69
247.5	76.69
247.733	78.69
247.966	75.69
248.2	80.69
248.433	75.69
248.666	72.69
248.899	85.69
249.133	86.69
249.366	95.69
249.599	103.69
249.832	84.69
250.066	83.69
250.299	87.69
250.532	66.69
250.765	83.69
250.998	78.69
251.231	73.69
251.465	78.69
251.698	85.69
251.931	82.69
252.164	91.69
252.397	81.69
252.63	81.69
252.863	84.69
253.096	82.69
253.329	66.69
253.562	73.69
253.795	85.69
254.028	89.69
254.261	76.69
254.494	67.69
254.727	91.69
254.96	68.69
255.193	80.69
255.426	77.69
255.659	80.69
255.892	95.69
256.124	83.69
256.357	92.69
256.59	83.69
256.823	77.69
257.056	84.69
257.289	98.69
257.521	73.69
257.754	74.69
257.987	87.69
258.22	93.69
258.452	77.69
258.685	91.69
258.918	106.69
259.151	76.69
259.383	85.69
259.616	87.69
259.849	81.69
260.081	75.69
260.314	100.69
260.547	66.69
260.779	89.69
261.012	101.69
261.244	100.69
261.477	81.69
261.71	96.69
261.942	130.69
262.175	135.69
262.407	89.69
262.64	85.69
262.872	86.69
263.105	92.69
263.337	73.69
263.57	76.69
263.802	69.69
264.035	86.69
264.267	78.69
264.499	75.69
264.732	83.69
264.964	83.69
265.197	87.69
265.429	93.69
265.661	81.69
265.894	77.69
266.126	95.69
266.358	84.69
266.591	83.69
266.823	80.69
267.055	78.69
267.287	90.69
267.52	93.69
267.752	101.69
267.984	93.69
268.216	86.69
268.448	79.69
268.681	102.69
268.913	91.69
269.145	77.69
269.377	81.69
269.609	86.69
269.841	86.69
270.073	88.69
270.306	77.69
270.538	73.69
270.77	79.69
271.002	78.69
271.234	86.69
271.466	84.69
271.698	90.69
271.93	88.69
272.162	87.69
272.394	90.69
272.626	77.69
272.858	81.69
273.09	81.69
273.322	90.69
273.553	81.69
273.785	73.69
274.017	82.69
274.249	87.69
274.481	97.69
274.713	79.69
274.945	100.69
275.176	88.69
275.408	97.69
275.64	107.69
275.872	106.69
276.104	106.69
276.335	97.69
276.567	106.69
276.799	120.69
277.031	122.69
277.262	151.69
277.494	111.69
277.726	95.69
277.957	97.69
278.189	82.69
278.421	98.69
278.652	83.69
278.884	87.69
279.115	96.69
279.347	84.69
279.579	92.69
279.81	110.69
280.042	133.69
280.273	168.69
280.505	133.69
280.736	102.69
280.968	83.69
281.199	98.69
281.431	87.69
281.662	82.69
281.894	87.69
282.125	101.69
282.356	126.69
282.588	154.69
282.819	115.69
283.051	84.69
283.282	84.69
283.513	85.69
283.745	84.69
283.976	91.69
284.207	94.69
284.439	97.69
284.67	86.69
284.901	86.69
285.132	79.69
285.364	85.69
285.595	75.69
285.826	93.69
286.057	78.69
286.288	99.69
286.52	98.69
286.751	87.69
286.982	91.69
287.213	90.69
287.444	87.69
287.675	94.69
287.906	82.69
288.138	76.69
288.369	107.69
288.6	98.69
288.831	78.69
289.062	90.69
289.293	87.69
289.524	106.69
289.755	114.69
289.986	100.69
290.217	95.69
290.448	105.69
290.679	86.69
290.91	100.69
291.141	79.69
291.371	85.69
291.602	98.69
291.833	101.69
292.064	108.69
292.295	92.69
292.526	75.69
292.757	76.69
292.987	101.69
293.218	82.69
293.449	101.69
293.68	101.69
293.91	89.69
294.141	96.69
294.372	95.69
294.603	89.69
294.833	99.69
295.064	91.69
295.295	89.69
295.525	90.69
295.756	101.69
295.987	109.69
296.217	141.69
296.448	134.69
296.679	81.69
296.909	92.69
297.14	79.69
297.37	75.69
297.601	90.69
297.831	86.69
298.062	86.69
298.292	101.69
298.523	78.69
298.753	95.69
298.984	92.69
299.214	97.69
299.445	96.69
299.675	95.69
299.905	103.69
300.136	92.69
300.366	95.69
300.597	91.69
300.827	91.69
301.057	105.69
301.288	100.69
301.518	86.69
301.748	94.69
301.979	98.69
302.209	96.69
302.439	101.69
302.669	99.69
302.9	89.69
303.13	105.69
303.36	97.69
303.59	124.69
303.82	114.69
304.051	87.69
304.281	81.69
304.511	89.69
304.741	99.69
304.971	92.69
305.201	95.69
305.431	98.69
305.661	92.69
305.891	86.69
306.121	97.69
306.352	110.69
306.582	113.69
306.812	93.69
307.042	117.69
307.272	129.69
307.502	134.69
307.731	147.69
307.961	118.69
308.191	104.69
308.421	95.69
308.651	87.69
308.881	90.69
309.111	94.69
309.341	90.69
309.571	97.69
309.8	99.69
310.03	97.69
310.26	90.69
310.49	95.69
310.72	97.69
310.949	112.69
311.179	93.69
311.409	87.69
311.639	107.69
311.868	112.69
312.098	100.69
312.328	107.69
312.557	99.69
312.787	121.69
313.017	118.69
313.246	80.69
313.476	87.69
313.706	98.69
313.935	97.69
314.165	101.69
314.394	100.69
314.624	105.69
314.853	102.69
315.083	104.69
315.312	86.69
315.542	76.69
315.771	90.69
316.001	101.69
316.23	105.69
316.46	103.69
316.689	93.69
316.919	92.69
317.148	91.69
317.377	85.69
317.607	99.69
317.836	87.69
318.065	78.69
318.295	86.69
318.524	91.69
318.753	102.69
318.983	97.69
319.212	101.69
319.441	114.69
319.67	98.69
319.9	95.69
320.129	87.69
320.358	86.69
320.587	107.69
320.816	98.69
321.046	110.69
321.275	92.69
321.504	101.69
321.733	100.69
321.962	107.69
322.191	103.69
322.42	106.69
322.649	117.69
322.878	116.69
323.108	109.69
323.337	126.69
323.566	138.69
323.795	167.69
324.024	232.69
324.253	475.69
324.482	1038.69
324.71	2186.69
324.939	2973.69
325.168	1045.69
325.397	290.69
325.626	162.69
325.855	130.69
326.084	135.69
326.313	139.69
326.542	171.69
326.77	250.69
326.999	540.69
327.228	1177.69
327.457	2246.69
327.686	1698.69
327.914	501.69
328.143	388.69
328.372	439.69
328.6	252.69
328.829	157.69
329.058	139.69
329.287	157.69
329.515	161.69
329.744	186.69
329.972	306.69
330.201	597.69
330.43	861.69
330.658	394.69
330.887	212.69
331.115	153.69
331.344	110.69
331.572	117.69
331.801	107.69
332.03	111.69
332.258	121.69
332.486	103.69
332.715	92.69
332.943	101.69
333.172	119.69
333.4	103.69
333.629	143.69
333.857	171.69
334.085	292.69
334.314	559.69
334.542	1084.69
334.771	1042.69
334.999	305.69
335.227	141.69
335.455	118.69
335.684	105.69
335.912	100.69
336.14	98.69
336.369	113.69
336.597	110.69
336.825	96.69
337.053	94.69
337.281	103.69
337.51	81.69
337.738	103.69
337.966	84.69
338.194	107.69
338.422	107.69
338.65	103.69
338.878	84.69
339.106	97.69
339.334	93.69
339.562	101.69
339.79	96.69
340.018	93.69
340.246	86.69
340.474	112.69
340.702	103.69
340.93	97.69
341.158	93.69
341.386	99.69
341.614	88.69
341.842	95.69
342.07	115.69
342.298	86.69
342.526	94.69
342.754	94.69
342.981	90.69
343.209	84.69
343.437	83.69
343.665	98.69
343.893	91.69
344.12	94.69
344.348	101.69
344.576	80.69
344.804	89.69
345.031	86.69
345.259	112.69
345.487	110.69
345.714	101.69
345.942	83.69
346.17	103.69
346.397	99.69
346.625	93.69
346.853	84.69
347.08	79.69
347.308	96.69
347.535	101.69
347.763	106.69
347.99	98.69
348.218	105.69
348.445	119.69
348.673	100.69
348.9	111.69
349.128	100.69
349.355	101.69
349.583	97.69
349.81	97.69
350.037	92.69
350.265	100.69
350.492	99.69
350.72	97.69
350.947	95.69
351.174	115.69
351.402	90.69
351.629	99.69
351.856	103.69
352.083	95.69
352.311	111.69
352.538	124.69
352.765	115.69
352.992	119.69
353.22	130.69
353.447	108.69
353.674	96.69
353.901	102.69
354.128	94.69
354.355	95.69
354.583	103.69
354.81	95.69
355.037	98.69
355.264	91.69
355.491	87.69
355.718	91.69
355.945	94.69
356.172	84.69
356.399	101.69
356.626	85.69
356.853	88.69
357.08	79.69
357.307	92.69
357.534	94.69
357.761	99.69
357.988	90.69
358.215	99.69
358.441	99.69
358.668	84.69
358.895	108.69
359.122	83.69
359.349	90.69
359.576	96.69
359.802	101.69
360.029	124.69
360.256	126.69
360.483	89.69
360.709	83.69
360.936	92.69
361.163	100.69
361.39	93.69
361.616	93.69
361.843	89.69
362.07	94.69
362.296	101.69
362.523	96.69
362.749	89.69
362.976	93.69
363.203	98.69
363.429	83.69
363.656	93.69
363.882	89.69
364.109	115.69
364.335	92.69
364.562	102.69
364.788	95.69
365.015	94.69
365.241	111.69
365.468	109.69
365.694	106.69
365.92	97.69
366.147	95.69
366.373	105.69
366.599	98.69
366.826	106.69
367.052	78.69
367.278	91.69
367.505	91.69
367.731	91.69
367.957	93.69
368.184	94.69
368.41	99.69
368.636	113.69
368.862	109.69
369.089	107.69
369.315	82.69
369.541	94.69
369.767	72.69
369.993	97.69
370.219	92.69
370.445	103.69
370.672	88.69
370.898	81.69
371.124	105.69
371.35	92.69
371.576	100.69
371.802	81.69
372.028	93.69
372.254	98.69
372.48	93.69
372.706	93.69
372.932	87.69
373.158	94.69
373.384	97.69
373.61	94.69
373.835	90.69
374.061	90.69
374.287	104.69
374.513	92.69
374.739	95.69
374.965	92.69
375.191	91.69
375.416	94.69
375.642	84.69
375.868	77.69
376.094	94.69
376.319	90.69
376.545	89.69
376.771	96.69
376.997	86.69
377.222	81.69
377.448	94.69
377.674	102.69
377.899	99.69
378.125	90.69
378.35	88.69
378.576	98.69
378.802	94.69
379.027	91.69
379.253	79.69
379.478	82.69
379.704	95.69
379.929	108.69
380.155	93.69
380.38	86.69
380.606	95.69
380.831	93.69
381.057	101.69
381.282	98.69
381.507	109.69
381.733	91.69
381.958	98.69
382.184	102.69
382.409	85.69
382.634	91.69
382.86	100.69
383.085	86.69
383.31	107.69
383.535	105.69
383.761	100.69
383.986	96.69
384.211	100.69
384.436	94.69
384.662	90.69
384.887	106.69
385.112	87.69
385.337	102.69
385.562	100.69
385.787	114.69
386.013	107.69
386.238	116.69
386.463	97.69
386.688	125.69
386.913	95.69
387.138	102.69
387.363	90.69
387.588	99.69
387.813	122.69
388.038	103.69
388.263	104.69
388.488	113.69
388.713	111.69
388.938	107.69
389.163	90.69
389.387	106.69
389.612	99.69
389.837	80.69
390.062	86.69
390.287	97.69
390.512	87.69
390.736	87.69
390.961	90.69
391.186	81.69
391.411	86.69
391.636	86.69
391.86	83.69
392.085	85.69
392.31	86.69
392.534	86.69
392.759	83.69
392.984	95.69
393.208	89.69
393.433	94.69
393.658	91.69
393.882	75.69
394.107	93.69
394.331	84.69
394.556	88.69
394.78	99.69
395.005	86.69
395.229	95.69
395.454	82.69
395.678	75.69
395.903	94.69
396.127	98.69
396.352	94.69
396.576	95.69
396.801	101.69
397.025	88.69
397.249	85.69
397.474	91.69
397.698	95.69
397.922	86.69
398.147	67.69
398.371	86.69
398.595	97.69
398.82	87.69
399.044	80.69
399.268	83.69
399.492	87.69
399.717	87.69
399.941	94.69
400.165	95.69
400.389	81.69
400.613	91.69
400.837	91.69
401.062	102.69
401.286	82.69
401.51	91.69
401.734	101.69
401.958	109.69
402.182	118.69
402.406	160.69
402.63	139.69
402.854	93.69
403.078	96.69
403.302	90.69
403.526	81.69
403.75	89.69
403.974	82.69
404.198	103.69
404.422	83.69
404.645	85.69
404.869	102.69
405.093	97.69
405.317	115.69
405.541	129.69
405.765	110.69
405.988	113.69
406.212	176.69
406.436	236.69
406.66	151.69
406.883	105.69
407.107	96.69
407.331	97.69
407.555	109.69
407.778	101.69
408.002	90.69
408.226	96.69
408.449	85.69
408.673	90.69
408.896	92.69
409.12	105.69
409.344	77.69
409.567	92.69
409.791	106.69
410.014	96.69
410.238	100.69
410.461	96.69
410.685	88.69
410.908	117.69
411.132	115.69
411.355	86.69
411.578	81.69
411.802	101.69
412.025	89.69
412.249	100.69
412.472	109.69
412.695	124.69
412.919	103.69
413.142	93.69
413.365	96.69
413.589	93.69
413.812	101.69
414.035	88.69
414.258	86.69
414.482	90.69
414.705	79.69
414.928	94.69
415.151	94.69
415.374	83.69
415.597	86.69
415.821	87.69
416.044	110.69
416.267	79.69
416.49	77.69
416.713	87.69
416.936	83.69
417.159	62.69
417.382	96.69
417.605	109.69
417.828	91.69
418.051	85.69
418.274	90.69
418.497	83.69
418.72	88.69
418.943	93.69
419.166	87.69
419.389	96.69
419.611	91.69
419.834	69.69
420.057	82.69
420.28	99.69
420.503	79.69
420.726	91.69
420.948	99.69
421.171	107.69
421.394	105.69
421.617	91.69
421.839	95.69
422.062	92.69
422.285	106.69
422.507	91.69
422.73	101.69
422.953	94.69
423.175	102.69
423.398	93.69
423.621	95.69
423.843	76.69
424.066	91.69
424.288	90.69
424.511	95.69
424.733	101.69
424.956	99.69
425.178	107.69
425.401	92.69
425.623	100.69
425.846	90.69
426.068	87.69
426.291	88.69
426.513	99.69
426.735	95.69
426.958	118.69
427.18	113.69
427.402	169.69
427.625	217.69
427.847	197.69
428.069	209.69
428.292	134.69
428.514	90.69
428.736	91.69
428.958	95.69
429.181	102.69
429.403	95.69
429.625	101.69
429.847	83.69
430.069	113.69
430.292	100.69
430.514	100.69
430.736	90.69
430.958	77.69
431.18	87.69
431.402	95.69
431.624	79.69
431.846	85.69
432.068	73.69
432.29	83.69
432.512	86.69
432.734	94.69
432.956	91.69
433.178	95.69
433.4	99.69
433.622	81.69
433.844	106.69
434.066	90.69
434.287	93.69
434.509	97.69
434.731	82.69
434.953	101.69
435.175	87.69
435.397	86.69
435.618	105.69
435.84	117.69
436.062	121.69
436.284	135.69
436.505	103.69
436.727	99.69
436.949	93.69
437.17	104.69
437.392	87.69
437.614	85.69
437.835	118.69
438.057	134.69
438.278	125.69
438.5	101.69
438.721	132.69
438.943	110.69
439.165	84.69
439.386	103.69
439.608	104.69
439.829	111.69
440.05	116.69
440.272	165.69
440.493	97.69
440.715	89.69
440.936	102.69
441.158	80.69
441.379	95.69
441.6	88.69
441.822	99.69
442.043	103.69
442.264	113.69
442.486	111.69
442.707	90.69
442.928	109.69
443.149	149.69
443.371	150.69
443.592	116.69
443.813	100.69
444.034	119.69
444.255	96.69
444.476	84.69
444.698	85.69
444.919	96.69
445.14	131.69
445.361	115.69
445.582	124.69
445.803	161.69
446.024	157.69
446.245	159.69
446.466	130.69
446.687	93.69
446.908	111.69
447.129	98.69
447.35	79.69
447.571	92.69
447.792	96.69
448.013	110.69
448.234	111.69
448.455	119.69
448.675	122.69
448.896	129.69
449.117	107.69
449.338	103.69
449.559	128.69
449.779	161.69
450	85.69
450.221	90.69
450.442	93.69
450.662	99.69
450.883	112.69
451.104	106.69
451.324	101.69
451.545	91.69
451.766	98.69
451.986	92.69
452.207	99.69
452.428	100.69
452.648	95.69
452.869	126.69
453.089	123.69
453.31	141.69
453.53	84.69
453.751	90.69
453.971	112.69
454.192	106.69
454.412	99.69
454.633	90.69
454.853	89.69
455.073	87.69
455.294	103.69
455.514	117.69
455.734	83.69
455.955	94.69
456.175	93.69
456.395	93.69
456.616	91.69
456.836	98.69
457.056	97.69
457.276	86.69
457.497	69.69
457.717	86.69
457.937	85.69
458.157	89.69
458.377	90.69
458.598	97.69
458.818	172.69
459.038	173.69
459.258	128.69
459.478	80.69
459.698	83.69
459.918	84.69
460.138	94.69
460.358	98.69
460.578	99.69
460.798	83.69
461.018	90.69
461.238	64.69
461.458	76.69
461.678	63.69
461.898	94.69
462.118	84.69
462.338	74.69
462.558	99.69
462.777	87.69
462.997	90.69
463.217	99.69
463.437	99.69
463.657	98.69
463.876	87.69
464.096	81.69
464.316	89.69
464.536	91.69
464.755	102.69
464.975	121.69
465.195	190.69
465.414	190.69
465.634	99.69
465.854	93.69
466.073	87.69
466.293	91.69
466.512	105.69
466.732	76.69
466.951	99.69
467.171	98.69
467.391	113.69
467.61	125.69
467.829	147.69
468.049	351.69
468.268	507.69
468.488	165.69
468.707	101.69
468.927	70.69
469.146	80.69
469.365	89.69
469.585	90.69
469.804	99.69
470.023	117.69
470.243	113.69
470.462	115.69
470.681	128.69
470.901	70.69
471.12	88.69
471.339	98.69
471.558	107.69
471.777	135.69
471.997	207.69
472.216	671.69
472.435	1541.69
472.654	398.69
472.873	118.69
473.092	109.69
473.311	93.69
473.53	95.69
473.749	96.69
473.968	84.69
474.187	122.69
474.406	99.69
474.625	93.69
474.844	93.69
475.063	98.69
475.282	96.69
475.501	80.69
475.72	98.69
475.939	79.69
476.158	79.69
476.377	90.69
476.596	94.69
476.814	100.69
477.033	107.69
477.252	100.69
477.471	95.69
477.69	93.69
477.908	94.69
478.127	97.69
478.346	81.69
478.564	107.69
478.783	103.69
479.002	101.69
479.22	94.69
479.439	108.69
479.658	116.69
479.876	97.69
480.095	107.69
480.313	106.69
480.532	146.69
480.751	212.69
480.969	671.69
481.188	2667.69
481.406	1563.69
481.624	258.69
481.843	125.69
482.061	98.69
482.28	101.69
482.498	78.69
482.717	94.69
482.935	86.69
483.153	95.69
483.372	93.69
483.59	95.69
483.808	97.69
484.027	94.69
484.245	96.69
484.463	89.69
484.681	105.69
484.9	93.69
485.118	100.69
485.336	87.69
485.554	99.69
485.772	92.69
485.99	109.69
486.209	109.69
486.427	92.69
486.645	116.69
486.863	130.69
487.081	121.69
487.299	101.69
487.517	98.69
487.735	102.69
487.953	113.69
488.171	87.69
488.389	96.69
488.607	98.69
488.825	89.69
489.043	102.69
489.261	101.69
489.479	90.69
489.696	113.69
489.914	93.69
490.132	99.69
490.35	86.69
490.568	82.69
490.786	98.69
491.003	69.69
491.221	101.69
491.439	92.69
491.657	90.69
491.874	97.69
492.092	79.69
492.31	93.69
492.527	105.69
492.745	89.69
492.963	92.69
493.18	96.69
493.398	97.69
493.615	89.69
493.833	99.69
494.05	87.69
494.268	89.69
494.485	88.69
494.703	91.69
494.92	90.69
495.138	109.69
495.355	90.69
495.573	83.69
495.79	94.69
496.008	95.69
496.225	81.69
496.442	84.69
496.66	92.69
496.877	89.69
497.094	90.69
497.312	82.69
497.529	92.69
497.746	90.69
497.963	82.69
498.181	96.69
498.398	93.69
498.615	107.69
498.832	118.69
499.049	81.69
499.267	91.69
499.484	90.69
499.701	86.69
499.918	89.69
500.135	81.69
500.352	77.69
500.569	84.69
500.786	91.69
501.003	91.69
501.22	84.69
501.437	90.69
501.654	96.69
501.871	112.69
502.088	85.69
502.305	93.69
502.522	74.69
502.739	93.69
502.956	103.69
503.172	101.69
503.389	117.69
503.606	107.69
503.823	80.69
504.04	101.69
504.256	86.69
504.473	86.69
504.69	95.69
504.907	96.69
505.123	99.69
505.34	91.69
505.557	97.69
505.773	93.69
505.99	91.69
506.207	94.69
506.423	98.69
506.64	96.69
506.856	96.69
507.073	92.69
507.289	102.69
507.506	99.69
507.722	118.69
507.939	116.69
508.155	90.69
508.372	101.69
508.588	97.69
508.805	98.69
509.021	95.69
509.238	107.69
509.454	105.69
509.67	95.69
509.887	105.69
510.103	127.69
510.319	212.69
510.536	769.69
510.752	2507.69
510.968	683.69
511.184	148.69
511.401	108.69
511.617	106.69
511.833	115.69
512.049	91.69
512.265	82.69
512.481	95.69
512.698	98.69
512.914	100.69
513.13	74.69
513.346	101.69
513.562	78.69
513.778	103.69
513.994	102.69
