Data from Circ_1992_H10_HRD10591_00036.txt Node
Date: Wed Jan 03 11:47:52 EST 2024
User: Yrep
Spectrometer: HR+D1059
Trigger mode: 1
Integration Time (sec): 1.000000E-1
Scans to average: 1
Electric dark correction enabled: true
Nonlinearity correction enabled: false
Boxcar width: 0
XAxis mode: Wavelengths
Number of Pixels in Spectrum: 2048
>>>>>Begin Spectral Data<<<<<
223.165	-30.94
223.4	-30.94
223.635	-30.94
223.869	-24.94
224.104	-28.94
224.338	-13.94
224.573	-15.94
224.808	-10.94
225.042	-12.94
225.277	7.06
225.511	14.06
225.746	2.06
225.98	2.06
226.215	6.06
226.449	22.06
226.683	12.06
226.918	32.06
227.152	41.06
227.387	44.06
227.621	39.06
227.856	46.06
228.09	52.06
228.324	50.06
228.559	58.06
228.793	63.06
229.027	61.06
229.262	80.06
229.496	61.06
229.73	82.06
229.964	86.06
230.199	81.06
230.433	60.06
230.667	100.06
230.901	70.06
231.136	69.06
231.37	76.06
231.604	76.06
231.838	76.06
232.072	77.06
232.306	83.06
232.541	81.06
232.775	78.06
233.009	88.06
233.243	70.06
233.477	80.06
233.711	91.06
233.945	70.06
234.179	86.06
234.413	81.06
234.647	72.06
234.881	84.06
235.115	83.06
235.349	60.06
235.583	86.06
235.817	92.06
236.051	85.06
236.285	75.06
236.519	77.06
236.753	79.06
236.987	96.06
237.221	86.06
237.455	86.06
237.689	76.06
237.922	78.06
238.156	81.06
238.39	74.06
238.624	86.06
238.858	91.06
239.091	69.06
239.325	77.06
239.559	78.06
239.793	87.06
240.027	80.06
240.26	85.06
240.494	84.06
240.728	82.06
240.961	84.06
241.195	72.06
241.429	67.06
241.662	78.06
241.896	82.06
242.13	66.06
242.363	77.06
242.597	78.06
242.83	86.06
243.064	79.06
243.298	79.06
243.531	72.06
243.765	84.06
243.998	87.06
244.232	87.06
244.465	90.06
244.699	95.06
244.932	70.06
245.166	62.06
245.399	96.06
245.633	80.06
245.866	82.06
246.099	67.06
246.333	76.06
246.566	74.06
246.8	64.06
247.033	82.06
247.266	74.06
247.5	84.06
247.733	87.06
247.966	92.06
248.2	81.06
248.433	90.06
248.666	84.06
248.899	74.06
249.133	88.06
249.366	114.06
249.599	91.06
249.832	77.06
250.066	82.06
250.299	81.06
250.532	69.06
250.765	71.06
250.998	75.06
251.231	76.06
251.465	84.06
251.698	80.06
251.931	82.06
252.164	86.06
252.397	84.06
252.63	91.06
252.863	79.06
253.096	69.06
253.329	94.06
253.562	78.06
253.795	78.06
254.028	79.06
254.261	88.06
254.494	100.06
254.727	76.06
254.96	75.06
255.193	71.06
255.426	78.06
255.659	82.06
255.892	79.06
256.124	89.06
256.357	88.06
256.59	84.06
256.823	96.06
257.056	76.06
257.289	88.06
257.521	85.06
257.754	82.06
257.987	96.06
258.22	83.06
258.452	92.06
258.685	101.06
258.918	80.06
259.151	83.06
259.383	94.06
259.616	82.06
259.849	82.06
260.081	78.06
260.314	79.06
260.547	80.06
260.779	78.06
261.012	105.06
261.244	83.06
261.477	89.06
261.71	97.06
261.942	118.06
262.175	110.06
262.407	103.06
262.64	80.06
262.872	80.06
263.105	86.06
263.337	95.06
263.57	69.06
263.802	82.06
264.035	79.06
264.267	80.06
264.499	79.06
264.732	94.06
264.964	80.06
265.197	74.06
265.429	84.06
265.661	84.06
265.894	94.06
266.126	90.06
266.358	88.06
266.591	79.06
266.823	81.06
267.055	86.06
267.287	83.06
267.52	84.06
267.752	71.06
267.984	88.06
268.216	81.06
268.448	82.06
268.681	92.06
268.913	98.06
269.145	72.06
269.377	82.06
269.609	66.06
269.841	83.06
270.073	104.06
270.306	87.06
270.538	103.06
270.77	88.06
271.002	84.06
271.234	92.06
271.466	81.06
271.698	90.06
271.93	88.06
272.162	90.06
272.394	88.06
272.626	106.06
272.858	75.06
273.09	106.06
273.322	94.06
273.553	74.06
273.785	80.06
274.017	76.06
274.249	87.06
274.481	82.06
274.713	98.06
274.945	104.06
275.176	89.06
275.408	102.06
275.64	101.06
275.872	103.06
276.104	91.06
276.335	97.06
276.567	92.06
276.799	100.06
277.031	105.06
277.262	119.06
277.494	122.06
277.726	91.06
277.957	83.06
278.189	87.06
278.421	82.06
278.652	82.06
278.884	86.06
279.115	67.06
279.347	91.06
279.579	86.06
279.81	107.06
280.042	119.06
280.273	145.06
280.505	126.06
280.736	96.06
280.968	105.06
281.199	96.06
281.431	91.06
281.662	89.06
281.894	84.06
282.125	99.06
282.356	112.06
282.588	133.06
282.819	110.06
283.051	94.06
283.282	94.06
283.513	100.06
283.745	78.06
283.976	74.06
284.207	81.06
284.439	75.06
284.67	100.06
284.901	92.06
285.132	83.06
285.364	99.06
285.595	94.06
285.826	84.06
286.057	82.06
286.288	93.06
286.52	89.06
286.751	87.06
286.982	78.06
287.213	75.06
287.444	82.06
287.675	94.06
287.906	89.06
288.138	84.06
288.369	80.06
288.6	104.06
288.831	99.06
289.062	87.06
289.293	107.06
289.524	87.06
289.755	87.06
289.986	85.06
290.217	73.06
290.448	65.06
290.679	87.06
290.91	91.06
291.141	99.06
291.371	89.06
291.602	80.06
291.833	90.06
292.064	106.06
292.295	82.06
292.526	98.06
292.757	82.06
292.987	84.06
293.218	95.06
293.449	92.06
293.68	98.06
293.91	81.06
294.141	87.06
294.372	95.06
294.603	96.06
294.833	77.06
295.064	90.06
295.295	87.06
295.525	90.06
295.756	104.06
295.987	110.06
296.217	141.06
296.448	133.06
296.679	107.06
296.909	99.06
297.14	91.06
297.37	86.06
297.601	87.06
297.831	88.06
298.062	93.06
298.292	86.06
298.523	87.06
298.753	87.06
298.984	97.06
299.214	99.06
299.445	103.06
299.675	93.06
299.905	97.06
300.136	103.06
300.366	78.06
300.597	98.06
300.827	92.06
301.057	107.06
301.288	109.06
301.518	93.06
301.748	96.06
301.979	97.06
302.209	98.06
302.439	87.06
302.669	88.06
302.9	86.06
303.13	103.06
303.36	104.06
303.59	114.06
303.82	101.06
304.051	102.06
304.281	87.06
304.511	93.06
304.741	88.06
304.971	100.06
305.201	96.06
305.431	98.06
305.661	94.06
305.891	90.06
306.121	108.06
306.352	109.06
306.582	103.06
306.812	101.06
307.042	99.06
307.272	109.06
307.502	127.06
307.731	117.06
307.961	113.06
308.191	117.06
308.421	79.06
308.651	86.06
308.881	81.06
309.111	106.06
309.341	94.06
309.571	102.06
309.8	95.06
310.03	92.06
310.26	93.06
310.49	85.06
310.72	114.06
310.949	117.06
311.179	104.06
311.409	96.06
311.639	113.06
311.868	88.06
312.098	94.06
312.328	95.06
312.557	102.06
312.787	98.06
313.017	104.06
313.246	102.06
313.476	95.06
313.706	107.06
313.935	98.06
314.165	100.06
314.394	101.06
314.624	110.06
314.853	98.06
315.083	104.06
315.312	94.06
315.542	104.06
315.771	100.06
316.001	100.06
316.23	93.06
316.46	98.06
316.689	90.06
316.919	101.06
317.148	102.06
317.377	95.06
317.607	99.06
317.836	104.06
318.065	87.06
318.295	80.06
318.524	87.06
318.753	84.06
318.983	105.06
319.212	96.06
319.441	112.06
319.67	109.06
319.9	94.06
320.129	92.06
320.358	104.06
320.587	103.06
320.816	98.06
321.046	94.06
321.275	95.06
321.504	108.06
321.733	99.06
321.962	104.06
322.191	105.06
322.42	107.06
322.649	122.06
322.878	116.06
323.108	122.06
323.337	130.06
323.566	136.06
323.795	167.06
324.024	207.06
324.253	425.06
324.482	885.06
324.71	1930.06
324.939	2516.06
325.168	906.06
325.397	268.06
325.626	162.06
325.855	125.06
326.084	137.06
326.313	138.06
326.542	141.06
326.77	248.06
326.999	497.06
327.228	1020.06
327.457	1902.06
327.686	1536.06
327.914	454.06
328.143	318.06
328.372	342.06
328.6	217.06
328.829	143.06
329.058	168.06
329.287	156.06
329.515	145.06
329.744	161.06
329.972	250.06
330.201	440.06
330.43	622.06
330.658	324.06
330.887	192.06
331.115	140.06
331.344	111.06
331.572	116.06
331.801	112.06
332.03	119.06
332.258	106.06
332.486	94.06
332.715	108.06
332.943	97.06
333.172	89.06
333.4	116.06
333.629	117.06
333.857	155.06
334.085	234.06
334.314	423.06
334.542	772.06
334.771	723.06
334.999	242.06
335.227	138.06
335.455	96.06
335.684	117.06
335.912	113.06
336.14	104.06
336.369	98.06
336.597	103.06
336.825	103.06
337.053	95.06
337.281	94.06
337.51	90.06
337.738	97.06
337.966	96.06
338.194	106.06
338.422	98.06
338.65	91.06
338.878	84.06
339.106	94.06
339.334	90.06
339.562	94.06
339.79	91.06
340.018	96.06
340.246	91.06
340.474	85.06
340.702	102.06
340.93	92.06
341.158	90.06
341.386	99.06
341.614	98.06
341.842	106.06
342.07	88.06
342.298	103.06
342.526	92.06
342.754	86.06
342.981	92.06
343.209	83.06
343.437	96.06
343.665	87.06
343.893	98.06
344.12	97.06
344.348	90.06
344.576	76.06
344.804	88.06
345.031	98.06
345.259	105.06
345.487	106.06
345.714	84.06
345.942	89.06
346.17	97.06
346.397	98.06
346.625	95.06
346.853	110.06
347.08	105.06
347.308	98.06
347.535	94.06
347.763	99.06
347.99	99.06
348.218	94.06
348.445	96.06
348.673	101.06
348.9	96.06
349.128	104.06
349.355	91.06
349.583	93.06
349.81	88.06
350.037	104.06
350.265	111.06
350.492	99.06
350.72	96.06
350.947	89.06
351.174	113.06
351.402	111.06
351.629	95.06
351.856	91.06
352.083	97.06
352.311	111.06
352.538	104.06
352.765	120.06
352.992	113.06
353.22	118.06
353.447	104.06
353.674	107.06
353.901	101.06
354.128	93.06
354.355	101.06
354.583	95.06
354.81	105.06
355.037	93.06
355.264	79.06
355.491	99.06
355.718	87.06
355.945	88.06
356.172	101.06
356.399	100.06
356.626	99.06
356.853	101.06
357.08	82.06
357.307	87.06
357.534	95.06
357.761	111.06
357.988	86.06
358.215	88.06
358.441	106.06
358.668	86.06
358.895	83.06
359.122	100.06
359.349	100.06
359.576	103.06
359.802	108.06
360.029	126.06
360.256	123.06
360.483	109.06
360.709	95.06
360.936	102.06
361.163	96.06
361.39	98.06
361.616	96.06
361.843	91.06
362.07	109.06
362.296	89.06
362.523	95.06
362.749	100.06
362.976	89.06
363.203	102.06
363.429	106.06
363.656	88.06
363.882	94.06
364.109	103.06
364.335	87.06
364.562	100.06
364.788	98.06
365.015	98.06
365.241	99.06
365.468	113.06
365.694	111.06
365.92	108.06
366.147	93.06
366.373	86.06
366.599	93.06
366.826	89.06
367.052	83.06
367.278	100.06
367.505	98.06
367.731	90.06
367.957	86.06
368.184	90.06
368.41	107.06
368.636	99.06
368.862	114.06
369.089	110.06
369.315	95.06
369.541	98.06
369.767	91.06
369.993	93.06
370.219	97.06
370.445	91.06
370.672	80.06
370.898	88.06
371.124	102.06
371.35	97.06
371.576	98.06
371.802	87.06
372.028	96.06
372.254	89.06
372.48	90.06
372.706	89.06
372.932	78.06
373.158	108.06
373.384	78.06
373.61	78.06
373.835	83.06
374.061	69.06
374.287	78.06
374.513	96.06
374.739	99.06
374.965	93.06
375.191	95.06
375.416	104.06
375.642	96.06
375.868	101.06
376.094	92.06
376.319	80.06
376.545	93.06
376.771	109.06
376.997	89.06
377.222	78.06
377.448	88.06
377.674	92.06
377.899	82.06
378.125	83.06
378.35	89.06
378.576	92.06
378.802	83.06
379.027	84.06
379.253	90.06
379.478	83.06
379.704	86.06
379.929	108.06
380.155	106.06
380.38	95.06
380.606	99.06
380.831	96.06
381.057	110.06
381.282	95.06
381.507	92.06
381.733	101.06
381.958	102.06
382.184	98.06
382.409	108.06
382.634	112.06
382.86	107.06
383.085	117.06
383.31	116.06
383.535	112.06
383.761	99.06
383.986	99.06
384.211	107.06
384.436	101.06
384.662	90.06
384.887	124.06
385.112	112.06
385.337	127.06
385.562	108.06
385.787	91.06
386.013	116.06
386.238	129.06
386.463	115.06
386.688	107.06
386.913	108.06
387.138	126.06
387.363	117.06
387.588	109.06
387.813	104.06
388.038	106.06
388.263	110.06
388.488	117.06
388.713	95.06
388.938	85.06
389.163	87.06
389.387	94.06
389.612	101.06
389.837	90.06
390.062	84.06
390.287	94.06
390.512	82.06
390.736	77.06
390.961	85.06
391.186	84.06
391.411	80.06
391.636	89.06
391.86	92.06
392.085	83.06
392.31	80.06
392.534	107.06
392.759	99.06
392.984	91.06
393.208	78.06
393.433	80.06
393.658	87.06
393.882	95.06
394.107	79.06
394.331	101.06
394.556	91.06
394.78	98.06
395.005	82.06
395.229	87.06
395.454	92.06
395.678	101.06
395.903	84.06
396.127	92.06
396.352	92.06
396.576	81.06
396.801	70.06
397.025	90.06
397.249	86.06
397.474	106.06
397.698	90.06
397.922	96.06
398.147	81.06
398.371	83.06
398.595	76.06
398.82	91.06
399.044	84.06
399.268	86.06
399.492	89.06
399.717	94.06
399.941	98.06
400.165	94.06
400.389	90.06
400.613	81.06
400.837	91.06
401.062	82.06
401.286	100.06
401.51	88.06
401.734	92.06
401.958	102.06
402.182	108.06
402.406	169.06
402.63	112.06
402.854	94.06
403.078	83.06
403.302	91.06
403.526	90.06
403.75	86.06
403.974	81.06
404.198	101.06
404.422	89.06
404.645	79.06
404.869	90.06
405.093	108.06
405.317	122.06
405.541	110.06
405.765	111.06
405.988	128.06
406.212	182.06
406.436	230.06
406.66	159.06
406.883	106.06
407.107	90.06
407.331	81.06
407.555	109.06
407.778	78.06
408.002	99.06
408.226	92.06
408.449	80.06
408.673	83.06
408.896	91.06
409.12	96.06
409.344	109.06
409.567	92.06
409.791	90.06
410.014	93.06
410.238	84.06
410.461	84.06
410.685	96.06
410.908	88.06
411.132	89.06
411.355	99.06
411.578	107.06
411.802	80.06
412.025	99.06
412.249	88.06
412.472	103.06
412.695	114.06
412.919	98.06
413.142	98.06
413.365	86.06
413.589	89.06
413.812	81.06
414.035	92.06
414.258	105.06
414.482	79.06
414.705	84.06
414.928	92.06
415.151	106.06
415.374	97.06
415.597	93.06
415.821	100.06
416.044	99.06
416.267	88.06
416.49	98.06
416.713	86.06
416.936	85.06
417.159	93.06
417.382	98.06
417.605	85.06
417.828	95.06
418.051	98.06
418.274	107.06
418.497	96.06
418.72	94.06
418.943	85.06
419.166	68.06
419.389	87.06
419.611	87.06
419.834	102.06
420.057	95.06
420.28	82.06
420.503	96.06
420.726	82.06
420.948	93.06
421.171	98.06
421.394	86.06
421.617	95.06
421.839	94.06
422.062	96.06
422.285	95.06
422.507	89.06
422.73	99.06
422.953	94.06
423.175	101.06
423.398	88.06
423.621	100.06
423.843	77.06
424.066	84.06
424.288	87.06
424.511	104.06
424.733	97.06
424.956	87.06
425.178	106.06
425.401	85.06
425.623	116.06
425.846	85.06
426.068	94.06
426.291	82.06
426.513	95.06
426.735	100.06
426.958	99.06
427.18	102.06
427.402	154.06
427.625	192.06
427.847	193.06
428.069	178.06
428.292	120.06
428.514	99.06
428.736	96.06
428.958	92.06
429.181	86.06
429.403	82.06
429.625	95.06
429.847	93.06
430.069	110.06
430.292	98.06
430.514	69.06
430.736	77.06
430.958	94.06
431.18	88.06
431.402	92.06
431.624	90.06
431.846	94.06
432.068	81.06
432.29	90.06
432.512	86.06
432.734	87.06
432.956	95.06
433.178	109.06
433.4	110.06
433.622	95.06
433.844	86.06
434.066	89.06
434.287	102.06
434.509	104.06
434.731	100.06
434.953	92.06
435.175	98.06
435.397	100.06
435.618	111.06
435.84	114.06
436.062	126.06
436.284	125.06
436.505	113.06
436.727	98.06
436.949	105.06
437.17	86.06
437.392	85.06
437.614	97.06
437.835	109.06
438.057	125.06
438.278	106.06
438.5	114.06
438.721	130.06
438.943	99.06
439.165	82.06
439.386	95.06
439.608	99.06
439.829	106.06
440.05	128.06
440.272	163.06
440.493	103.06
440.715	88.06
440.936	98.06
441.158	83.06
441.379	101.06
441.6	89.06
441.822	91.06
442.043	91.06
442.264	106.06
442.486	121.06
442.707	104.06
442.928	107.06
443.149	132.06
443.371	152.06
443.592	117.06
443.813	115.06
444.034	129.06
444.255	109.06
444.476	81.06
444.698	98.06
444.919	87.06
445.14	132.06
445.361	121.06
445.582	131.06
445.803	151.06
446.024	162.06
446.245	162.06
446.466	134.06
446.687	97.06
446.908	94.06
447.129	85.06
447.35	99.06
447.571	95.06
447.792	99.06
448.013	103.06
448.234	122.06
448.455	101.06
448.675	110.06
448.896	102.06
449.117	105.06
449.338	94.06
449.559	146.06
449.779	154.06
450	99.06
450.221	93.06
450.442	85.06
450.662	91.06
450.883	107.06
451.104	115.06
451.324	106.06
451.545	106.06
451.766	83.06
451.986	90.06
452.207	100.06
452.428	85.06
452.648	98.06
452.869	104.06
453.089	122.06
453.31	121.06
453.53	98.06
453.751	90.06
453.971	112.06
454.192	122.06
454.412	83.06
454.633	104.06
454.853	99.06
455.073	87.06
455.294	98.06
455.514	103.06
455.734	103.06
455.955	77.06
456.175	83.06
456.395	66.06
456.616	92.06
456.836	87.06
457.056	81.06
457.276	75.06
457.497	86.06
457.717	64.06
457.937	92.06
458.157	96.06
458.377	99.06
458.598	118.06
458.818	162.06
459.038	184.06
459.258	116.06
459.478	95.06
459.698	100.06
459.918	72.06
460.138	89.06
460.358	78.06
460.578	98.06
460.798	98.06
461.018	96.06
461.238	95.06
461.458	86.06
461.678	84.06
461.898	83.06
462.118	92.06
462.338	91.06
462.558	101.06
462.777	83.06
462.997	87.06
463.217	96.06
463.437	100.06
463.657	79.06
463.876	88.06
464.096	88.06
464.316	94.06
464.536	98.06
464.755	94.06
464.975	114.06
465.195	181.06
465.414	191.06
465.634	100.06
465.854	91.06
466.073	87.06
466.293	96.06
466.512	97.06
466.732	94.06
466.951	92.06
467.171	83.06
467.391	95.06
467.61	135.06
467.829	152.06
468.049	271.06
468.268	372.06
468.488	124.06
468.707	109.06
468.927	93.06
469.146	77.06
469.365	95.06
469.585	91.06
469.804	97.06
470.023	109.06
470.243	99.06
470.462	99.06
470.681	131.06
470.901	99.06
471.12	99.06
471.339	88.06
471.558	98.06
471.777	110.06
471.997	176.06
472.216	512.06
472.435	1075.06
472.654	298.06
472.873	110.06
473.092	82.06
473.311	84.06
473.53	104.06
473.749	94.06
473.968	96.06
474.187	103.06
474.406	96.06
474.625	89.06
474.844	91.06
475.063	89.06
475.282	80.06
475.501	74.06
475.72	88.06
475.939	78.06
476.158	80.06
476.377	91.06
476.596	102.06
476.814	113.06
477.033	99.06
477.252	90.06
477.471	90.06
477.69	90.06
477.908	95.06
478.127	94.06
478.346	93.06
478.564	100.06
478.783	96.06
479.002	90.06
479.22	85.06
479.439	108.06
479.658	118.06
479.876	97.06
480.095	90.06
480.313	99.06
480.532	122.06
480.751	167.06
480.969	473.06
481.188	1843.06
481.406	1064.06
481.624	206.06
481.843	108.06
482.061	91.06
482.28	95.06
482.498	92.06
482.717	87.06
482.935	102.06
483.153	87.06
483.372	86.06
483.59	74.06
483.808	87.06
484.027	94.06
484.245	88.06
484.463	98.06
484.681	92.06
484.9	91.06
485.118	107.06
485.336	103.06
485.554	102.06
485.772	103.06
485.99	101.06
486.209	93.06
486.427	104.06
486.645	119.06
486.863	131.06
487.081	91.06
487.299	105.06
487.517	102.06
487.735	99.06
487.953	90.06
488.171	90.06
488.389	106.06
488.607	96.06
488.825	92.06
489.043	87.06
489.261	76.06
489.479	74.06
489.696	78.06
489.914	86.06
490.132	86.06
490.35	94.06
490.568	94.06
490.786	102.06
491.003	88.06
491.221	80.06
491.439	83.06
491.657	87.06
491.874	94.06
492.092	101.06
492.31	67.06
492.527	94.06
492.745	95.06
492.963	90.06
493.18	100.06
493.398	101.06
493.615	107.06
493.833	85.06
494.05	72.06
494.268	90.06
494.485	82.06
494.703	87.06
494.92	84.06
495.138	89.06
495.355	93.06
495.573	93.06
495.79	85.06
496.008	92.06
496.225	77.06
496.442	90.06
496.66	105.06
496.877	101.06
497.094	102.06
497.312	93.06
497.529	96.06
497.746	91.06
497.963	92.06
498.181	95.06
498.398	107.06
498.615	122.06
498.832	101.06
499.049	90.06
499.267	93.06
499.484	87.06
499.701	99.06
499.918	92.06
500.135	85.06
500.352	86.06
500.569	82.06
500.786	103.06
501.003	94.06
501.22	99.06
501.437	92.06
501.654	83.06
501.871	115.06
502.088	91.06
502.305	85.06
502.522	91.06
502.739	101.06
502.956	95.06
503.172	80.06
503.389	97.06
503.606	102.06
503.823	101.06
504.04	93.06
504.256	76.06
504.473	92.06
504.69	81.06
504.907	78.06
505.123	78.06
505.34	83.06
505.557	87.06
505.773	92.06
505.99	98.06
506.207	98.06
506.423	105.06
506.64	95.06
506.856	93.06
507.073	100.06
507.289	94.06
507.506	91.06
507.722	118.06
507.939	117.06
508.155	100.06
508.372	78.06
508.588	80.06
508.805	108.06
509.021	106.06
509.238	96.06
509.454	96.06
509.67	104.06
509.887	105.06
510.103	127.06
510.319	215.06
510.536	762.06
510.752	2499.06
510.968	695.06
511.184	165.06
511.401	96.06
511.617	95.06
511.833	98.06
512.049	86.06
512.265	90.06
512.481	89.06
512.698	87.06
512.914	84.06
513.13	87.06
513.346	83.06
513.562	100.06
513.778	94.06
513.994	91.06
514.21	106.06
