Data from Circ_1992_H10_HRD10591_00012.txt Node
Date: Wed Jan 03 11:47:47 EST 2024
User: Yrep
Spectrometer: HR+D1059
Trigger mode: 1
Integration Time (sec): 1.000000E-1
Scans to average: 1
Electric dark correction enabled: true
Nonlinearity correction enabled: false
Boxcar width: 0
XAxis mode: Wavelengths
Number of Pixels in Spectrum: 2048
>>>>>Begin Spectral Data<<<<<
223.165	-23.06
223.4	-23.06
223.635	-23.06
223.869	-12.06
224.104	-16.06
224.338	-14.06
224.573	-18.06
224.808	-12.06
225.042	-15.06
225.277	-5.06
225.511	-0.06
225.746	-3.06
225.98	11.94
226.215	-0.06
226.449	5.94
226.683	30.94
226.918	28.94
227.152	40.94
227.387	33.94
227.621	32.94
227.856	40.94
228.09	45.94
228.324	30.94
228.559	60.94
228.793	64.94
229.027	69.94
229.262	56.94
229.496	77.94
229.73	82.94
229.964	94.94
230.199	84.94
230.433	91.94
230.667	104.94
230.901	72.94
231.136	73.94
231.37	66.94
231.604	76.94
231.838	77.94
232.072	87.94
232.306	91.94
232.541	73.94
232.775	74.94
233.009	67.94
233.243	101.94
233.477	95.94
233.711	84.94
233.945	68.94
234.179	66.94
234.413	68.94
234.647	92.94
234.881	78.94
235.115	72.94
235.349	83.94
235.583	81.94
235.817	74.94
236.051	61.94
236.285	86.94
236.519	76.94
236.753	72.94
236.987	73.94
237.221	92.94
237.455	81.94
237.689	78.94
237.922	70.94
238.156	81.94
238.39	76.94
238.624	74.94
238.858	73.94
239.091	79.94
239.325	77.94
239.559	113.94
239.793	81.94
240.027	77.94
240.26	79.94
240.494	73.94
240.728	76.94
240.961	82.94
241.195	80.94
241.429	81.94
241.662	81.94
241.896	65.94
242.13	69.94
242.363	80.94
242.597	64.94
242.83	95.94
243.064	76.94
243.298	83.94
243.531	72.94
243.765	81.94
243.998	77.94
244.232	73.94
244.465	84.94
244.699	70.94
244.932	68.94
245.166	93.94
245.399	70.94
245.633	89.94
245.866	92.94
246.099	74.94
246.333	72.94
246.566	79.94
246.8	82.94
247.033	95.94
247.266	83.94
247.5	72.94
247.733	75.94
247.966	95.94
248.2	85.94
248.433	78.94
248.666	86.94
248.899	86.94
249.133	78.94
249.366	93.94
249.599	93.94
249.832	83.94
250.066	81.94
250.299	68.94
250.532	72.94
250.765	88.94
250.998	84.94
251.231	83.94
251.465	72.94
251.698	90.94
251.931	69.94
252.164	83.94
252.397	84.94
252.63	66.94
252.863	80.94
253.096	74.94
253.329	75.94
253.562	89.94
253.795	70.94
254.028	81.94
254.261	78.94
254.494	70.94
254.727	77.94
254.96	73.94
255.193	79.94
255.426	90.94
255.659	90.94
255.892	77.94
256.124	72.94
256.357	69.94
256.59	76.94
256.823	78.94
257.056	83.94
257.289	89.94
257.521	83.94
257.754	90.94
257.987	90.94
258.22	79.94
258.452	83.94
258.685	82.94
258.918	79.94
259.151	85.94
259.383	89.94
259.616	90.94
259.849	88.94
260.081	86.94
260.314	92.94
260.547	73.94
260.779	84.94
261.012	99.94
261.244	94.94
261.477	93.94
261.71	93.94
261.942	106.94
262.175	124.94
262.407	87.94
262.64	83.94
262.872	87.94
263.105	80.94
263.337	87.94
263.57	78.94
263.802	92.94
264.035	90.94
264.267	82.94
264.499	76.94
264.732	75.94
264.964	82.94
265.197	78.94
265.429	91.94
265.661	78.94
265.894	88.94
266.126	73.94
266.358	75.94
266.591	77.94
266.823	99.94
267.055	91.94
267.287	72.94
267.52	83.94
267.752	78.94
267.984	73.94
268.216	73.94
268.448	98.94
268.681	89.94
268.913	96.94
269.145	69.94
269.377	85.94
269.609	86.94
269.841	97.94
270.073	92.94
270.306	88.94
270.538	78.94
270.77	84.94
271.002	95.94
271.234	71.94
271.466	96.94
271.698	89.94
271.93	81.94
272.162	81.94
272.394	97.94
272.626	76.94
272.858	88.94
273.09	84.94
273.322	80.94
273.553	77.94
273.785	76.94
274.017	78.94
274.249	91.94
274.481	84.94
274.713	89.94
274.945	102.94
275.176	74.94
275.408	90.94
275.64	90.94
275.872	87.94
276.104	97.94
276.335	90.94
276.567	107.94
276.799	123.94
277.031	115.94
277.262	118.94
277.494	90.94
277.726	106.94
277.957	96.94
278.189	96.94
278.421	97.94
278.652	86.94
278.884	84.94
279.115	93.94
279.347	80.94
279.579	92.94
279.81	96.94
280.042	108.94
280.273	123.94
280.505	98.94
280.736	77.94
280.968	92.94
281.199	81.94
281.431	94.94
281.662	77.94
281.894	83.94
282.125	100.94
282.356	120.94
282.588	131.94
282.819	115.94
283.051	80.94
283.282	81.94
283.513	96.94
283.745	90.94
283.976	97.94
284.207	93.94
284.439	86.94
284.67	83.94
284.901	86.94
285.132	80.94
285.364	82.94
285.595	84.94
285.826	84.94
286.057	87.94
286.288	90.94
286.52	82.94
286.751	77.94
286.982	88.94
287.213	76.94
287.444	100.94
287.675	81.94
287.906	92.94
288.138	90.94
288.369	87.94
288.6	83.94
288.831	80.94
289.062	86.94
289.293	96.94
289.524	84.94
289.755	79.94
289.986	83.94
290.217	89.94
290.448	83.94
290.679	84.94
290.91	84.94
291.141	79.94
291.371	83.94
291.602	80.94
291.833	93.94
292.064	90.94
292.295	83.94
292.526	97.94
292.757	80.94
292.987	83.94
293.218	85.94
293.449	92.94
293.68	93.94
293.91	80.94
294.141	91.94
294.372	91.94
294.603	86.94
294.833	83.94
295.064	92.94
295.295	98.94
295.525	79.94
295.756	84.94
295.987	120.94
296.217	123.94
296.448	120.94
296.679	93.94
296.909	107.94
297.14	72.94
297.37	83.94
297.601	90.94
297.831	96.94
298.062	89.94
298.292	86.94
298.523	94.94
298.753	87.94
298.984	97.94
299.214	89.94
299.445	99.94
299.675	88.94
299.905	88.94
300.136	81.94
300.366	89.94
300.597	101.94
300.827	98.94
301.057	88.94
301.288	100.94
301.518	90.94
301.748	66.94
301.979	97.94
302.209	88.94
302.439	103.94
302.669	89.94
302.9	101.94
303.13	93.94
303.36	85.94
303.59	104.94
303.82	113.94
304.051	97.94
304.281	79.94
304.511	85.94
304.741	81.94
304.971	97.94
305.201	96.94
305.431	85.94
305.661	90.94
305.891	86.94
306.121	107.94
306.352	113.94
306.582	99.94
306.812	99.94
307.042	87.94
307.272	88.94
307.502	108.94
307.731	97.94
307.961	89.94
308.191	93.94
308.421	97.94
308.651	85.94
308.881	98.94
309.111	97.94
309.341	99.94
309.571	94.94
309.8	99.94
310.03	94.94
310.26	93.94
310.49	92.94
310.72	96.94
310.949	108.94
311.179	99.94
311.409	90.94
311.639	76.94
311.868	96.94
312.098	103.94
312.328	106.94
312.557	108.94
312.787	100.94
313.017	108.94
313.246	92.94
313.476	87.94
313.706	94.94
313.935	95.94
314.165	108.94
314.394	93.94
314.624	103.94
314.853	101.94
315.083	100.94
315.312	74.94
315.542	91.94
315.771	69.94
316.001	97.94
316.23	81.94
316.46	97.94
316.689	84.94
316.919	92.94
317.148	83.94
317.377	84.94
317.607	98.94
317.836	86.94
318.065	85.94
318.295	88.94
318.524	91.94
318.753	93.94
318.983	94.94
319.212	96.94
319.441	94.94
319.67	105.94
319.9	102.94
320.129	84.94
320.358	95.94
320.587	101.94
320.816	91.94
321.046	86.94
321.275	105.94
321.504	89.94
321.733	100.94
321.962	90.94
322.191	109.94
322.42	97.94
322.649	111.94
322.878	119.94
323.108	102.94
323.337	121.94
323.566	125.94
323.795	152.94
324.024	208.94
324.253	396.94
324.482	835.94
324.71	1762.94
324.939	2317.94
325.168	826.94
325.397	250.94
325.626	133.94
325.855	125.94
326.084	131.94
326.313	108.94
326.542	153.94
326.77	251.94
326.999	466.94
327.228	960.94
327.457	1751.94
327.686	1406.94
327.914	423.94
328.143	268.94
328.372	270.94
328.6	185.94
328.829	129.94
329.058	140.94
329.287	153.94
329.515	111.94
329.744	117.94
329.972	200.94
330.201	321.94
330.43	452.94
330.658	252.94
330.887	172.94
331.115	130.94
331.344	95.94
331.572	92.94
331.801	101.94
332.03	107.94
332.258	93.94
332.486	101.94
332.715	97.94
332.943	98.94
333.172	99.94
333.4	92.94
333.629	113.94
333.857	137.94
334.085	184.94
334.314	308.94
334.542	522.94
334.771	518.94
334.999	179.94
335.227	107.94
335.455	99.94
335.684	104.94
335.912	105.94
336.14	104.94
336.369	107.94
336.597	99.94
336.825	90.94
337.053	94.94
337.281	82.94
337.51	78.94
337.738	101.94
337.966	93.94
338.194	94.94
338.422	102.94
338.65	94.94
338.878	98.94
339.106	104.94
339.334	96.94
339.562	92.94
339.79	100.94
340.018	92.94
340.246	106.94
340.474	103.94
340.702	91.94
340.93	92.94
341.158	84.94
341.386	85.94
341.614	90.94
341.842	100.94
342.07	101.94
342.298	91.94
342.526	87.94
342.754	87.94
342.981	92.94
343.209	97.94
343.437	102.94
343.665	81.94
343.893	79.94
344.12	97.94
344.348	94.94
344.576	85.94
344.804	92.94
345.031	93.94
345.259	92.94
345.487	96.94
345.714	93.94
345.942	99.94
346.17	111.94
346.397	96.94
346.625	104.94
346.853	86.94
347.08	86.94
347.308	89.94
347.535	97.94
347.763	101.94
347.99	105.94
348.218	95.94
348.445	110.94
348.673	106.94
348.9	83.94
349.128	87.94
349.355	93.94
349.583	98.94
349.81	93.94
350.037	82.94
350.265	102.94
350.492	85.94
350.72	85.94
350.947	99.94
351.174	101.94
351.402	100.94
351.629	101.94
351.856	109.94
352.083	106.94
352.311	106.94
352.538	110.94
352.765	112.94
352.992	118.94
353.22	107.94
353.447	91.94
353.674	88.94
353.901	102.94
354.128	102.94
354.355	102.94
354.583	103.94
354.81	91.94
355.037	105.94
355.264	74.94
355.491	101.94
355.718	90.94
355.945	91.94
356.172	85.94
356.399	111.94
356.626	107.94
356.853	84.94
357.08	85.94
357.307	83.94
357.534	86.94
357.761	97.94
357.988	97.94
358.215	112.94
358.441	107.94
358.668	94.94
358.895	86.94
359.122	84.94
359.349	108.94
359.576	88.94
359.802	100.94
360.029	122.94
360.256	107.94
360.483	98.94
360.709	111.94
360.936	102.94
361.163	91.94
361.39	116.94
361.616	97.94
361.843	97.94
362.07	94.94
362.296	107.94
362.523	81.94
362.749	94.94
362.976	89.94
363.203	83.94
363.429	91.94
363.656	77.94
363.882	88.94
364.109	86.94
364.335	99.94
364.562	101.94
364.788	85.94
365.015	102.94
365.241	103.94
365.468	94.94
365.694	100.94
365.92	92.94
366.147	97.94
366.373	89.94
366.599	84.94
366.826	97.94
367.052	84.94
367.278	93.94
367.505	85.94
367.731	88.94
367.957	96.94
368.184	85.94
368.41	102.94
368.636	107.94
368.862	112.94
369.089	110.94
369.315	91.94
369.541	83.94
369.767	88.94
369.993	94.94
370.219	106.94
370.445	91.94
370.672	89.94
370.898	91.94
371.124	99.94
371.35	82.94
371.576	84.94
371.802	89.94
372.028	74.94
372.254	88.94
372.48	72.94
372.706	90.94
372.932	74.94
373.158	76.94
373.384	86.94
373.61	65.94
373.835	93.94
374.061	95.94
374.287	93.94
374.513	101.94
374.739	74.94
374.965	74.94
375.191	87.94
375.416	89.94
375.642	84.94
375.868	88.94
376.094	102.94
376.319	100.94
376.545	93.94
376.771	91.94
376.997	103.94
377.222	99.94
377.448	99.94
377.674	105.94
377.899	101.94
378.125	100.94
378.35	97.94
378.576	98.94
378.802	90.94
379.027	86.94
379.253	91.94
379.478	98.94
379.704	102.94
379.929	119.94
380.155	91.94
380.38	110.94
380.606	105.94
380.831	96.94
381.057	102.94
381.282	118.94
381.507	100.94
381.733	94.94
381.958	110.94
382.184	115.94
382.409	117.94
382.634	117.94
382.86	120.94
383.085	110.94
383.31	102.94
383.535	117.94
383.761	105.94
383.986	115.94
384.211	107.94
384.436	95.94
384.662	136.94
384.887	131.94
385.112	126.94
385.337	127.94
385.562	149.94
385.787	139.94
386.013	155.94
386.238	159.94
386.463	122.94
386.688	132.94
386.913	136.94
387.138	151.94
387.363	118.94
387.588	114.94
387.813	107.94
388.038	125.94
388.263	154.94
388.488	138.94
388.713	96.94
388.938	95.94
389.163	98.94
389.387	101.94
389.612	96.94
389.837	83.94
390.062	95.94
390.287	102.94
390.512	93.94
390.736	92.94
390.961	91.94
391.186	92.94
391.411	105.94
391.636	85.94
391.86	85.94
392.085	82.94
392.31	85.94
392.534	84.94
392.759	88.94
392.984	79.94
393.208	86.94
393.433	104.94
393.658	92.94
393.882	96.94
394.107	93.94
394.331	91.94
394.556	82.94
394.78	74.94
395.005	82.94
395.229	85.94
395.454	96.94
395.678	88.94
395.903	86.94
396.127	92.94
396.352	93.94
396.576	90.94
396.801	88.94
397.025	77.94
397.249	85.94
397.474	102.94
397.698	95.94
397.922	89.94
398.147	87.94
398.371	83.94
398.595	85.94
398.82	91.94
399.044	97.94
399.268	82.94
399.492	97.94
399.717	90.94
399.941	83.94
400.165	97.94
400.389	79.94
400.613	86.94
400.837	74.94
401.062	104.94
401.286	83.94
401.51	81.94
401.734	103.94
401.958	106.94
402.182	108.94
402.406	172.94
402.63	104.94
402.854	93.94
403.078	91.94
403.302	88.94
403.526	84.94
403.75	85.94
403.974	91.94
404.198	94.94
404.422	85.94
404.645	93.94
404.869	99.94
405.093	114.94
405.317	124.94
405.541	100.94
405.765	94.94
405.988	109.94
406.212	160.94
406.436	242.94
406.66	165.94
406.883	107.94
407.107	96.94
407.331	102.94
407.555	99.94
407.778	80.94
408.002	102.94
408.226	97.94
408.449	86.94
408.673	99.94
408.896	84.94
409.12	102.94
409.344	95.94
409.567	103.94
409.791	103.94
410.014	99.94
410.238	94.94
410.461	84.94
410.685	103.94
410.908	94.94
411.132	110.94
411.355	101.94
411.578	101.94
411.802	92.94
412.025	94.94
412.249	100.94
412.472	82.94
412.695	110.94
412.919	99.94
413.142	104.94
413.365	88.94
413.589	89.94
413.812	83.94
414.035	86.94
414.258	96.94
414.482	96.94
414.705	87.94
414.928	86.94
415.151	92.94
415.374	93.94
415.597	82.94
415.821	90.94
416.044	89.94
416.267	99.94
416.49	94.94
416.713	87.94
416.936	89.94
417.159	96.94
417.382	101.94
417.605	86.94
417.828	88.94
418.051	108.94
418.274	86.94
418.497	73.94
418.72	88.94
418.943	86.94
419.166	93.94
419.389	83.94
419.611	103.94
419.834	79.94
420.057	77.94
420.28	91.94
420.503	91.94
420.726	102.94
420.948	95.94
421.171	96.94
421.394	89.94
421.617	93.94
421.839	92.94
422.062	80.94
422.285	90.94
422.507	95.94
422.73	96.94
422.953	91.94
423.175	104.94
423.398	88.94
423.621	86.94
423.843	83.94
424.066	99.94
424.288	90.94
424.511	98.94
424.733	89.94
424.956	117.94
425.178	99.94
425.401	96.94
425.623	115.94
425.846	94.94
426.068	99.94
426.291	109.94
426.513	102.94
426.735	106.94
426.958	101.94
427.18	116.94
427.402	148.94
427.625	192.94
427.847	171.94
428.069	144.94
428.292	95.94
428.514	83.94
428.736	86.94
428.958	111.94
429.181	67.94
429.403	82.94
429.625	84.94
429.847	113.94
430.069	107.94
430.292	100.94
430.514	82.94
430.736	89.94
430.958	91.94
431.18	85.94
431.402	85.94
431.624	95.94
431.846	90.94
432.068	65.94
432.29	77.94
432.512	82.94
432.734	90.94
432.956	82.94
433.178	108.94
433.4	94.94
433.622	86.94
433.844	100.94
434.066	101.94
434.287	82.94
434.509	95.94
434.731	102.94
434.953	86.94
435.175	94.94
435.397	94.94
435.618	96.94
435.84	98.94
436.062	125.94
436.284	114.94
436.505	110.94
436.727	98.94
436.949	96.94
437.17	94.94
437.392	108.94
437.614	89.94
437.835	107.94
438.057	118.94
438.278	121.94
438.5	111.94
438.721	122.94
438.943	99.94
439.165	104.94
439.386	89.94
439.608	101.94
439.829	102.94
440.05	134.94
440.272	130.94
440.493	100.94
440.715	96.94
440.936	80.94
441.158	83.94
441.379	85.94
441.6	84.94
441.822	76.94
442.043	108.94
442.264	100.94
442.486	95.94
442.707	97.94
442.928	95.94
443.149	143.94
443.371	141.94
443.592	105.94
443.813	110.94
444.034	97.94
444.255	84.94
444.476	97.94
444.698	81.94
444.919	104.94
445.14	130.94
445.361	109.94
445.582	112.94
445.803	152.94
446.024	145.94
446.245	136.94
446.466	116.94
446.687	93.94
446.908	87.94
447.129	93.94
447.35	94.94
447.571	96.94
447.792	89.94
448.013	106.94
448.234	111.94
448.455	111.94
448.675	112.94
448.896	121.94
449.117	90.94
449.338	106.94
449.559	109.94
449.779	140.94
450	76.94
450.221	93.94
450.442	82.94
450.662	95.94
450.883	124.94
451.104	126.94
451.324	102.94
451.545	99.94
451.766	98.94
451.986	98.94
452.207	80.94
452.428	86.94
452.648	111.94
452.869	117.94
453.089	122.94
453.31	138.94
453.53	100.94
453.751	98.94
453.971	113.94
454.192	100.94
454.412	89.94
454.633	77.94
454.853	80.94
455.073	86.94
455.294	93.94
455.514	99.94
455.734	82.94
455.955	86.94
456.175	68.94
456.395	83.94
456.616	84.94
456.836	92.94
457.056	87.94
457.276	80.94
457.497	94.94
457.717	88.94
457.937	78.94
458.157	98.94
458.377	93.94
458.598	112.94
458.818	141.94
459.038	162.94
459.258	120.94
459.478	84.94
459.698	77.94
459.918	81.94
460.138	100.94
460.358	88.94
460.578	88.94
460.798	82.94
461.018	81.94
461.238	84.94
461.458	97.94
461.678	85.94
461.898	100.94
462.118	74.94
462.338	74.94
462.558	88.94
462.777	88.94
462.997	97.94
463.217	84.94
463.437	75.94
463.657	84.94
463.876	98.94
464.096	92.94
464.316	70.94
464.536	100.94
464.755	80.94
464.975	107.94
465.195	188.94
465.414	175.94
465.634	101.94
465.854	98.94
466.073	89.94
466.293	87.94
466.512	93.94
466.732	89.94
466.951	88.94
467.171	97.94
467.391	105.94
467.61	117.94
467.829	114.94
468.049	212.94
468.268	274.94
468.488	122.94
468.707	96.94
468.927	89.94
469.146	80.94
469.365	97.94
469.585	90.94
469.804	98.94
470.023	85.94
470.243	92.94
470.462	102.94
470.681	108.94
470.901	92.94
471.12	87.94
471.339	85.94
471.558	85.94
471.777	109.94
471.997	137.94
472.216	367.94
472.435	775.94
472.654	230.94
472.873	98.94
473.092	97.94
473.311	79.94
473.53	90.94
473.749	99.94
473.968	104.94
474.187	107.94
474.406	98.94
474.625	87.94
474.844	86.94
475.063	88.94
475.282	86.94
475.501	81.94
475.72	86.94
475.939	86.94
476.158	94.94
476.377	81.94
476.596	85.94
476.814	84.94
477.033	96.94
477.252	89.94
477.471	96.94
477.69	102.94
477.908	81.94
478.127	92.94
478.346	107.94
478.564	78.94
478.783	93.94
479.002	92.94
479.22	100.94
479.439	87.94
479.658	107.94
479.876	92.94
480.095	104.94
480.313	92.94
480.532	124.94
480.751	135.94
480.969	336.94
481.188	1253.94
481.406	780.94
481.624	170.94
481.843	103.94
482.061	96.94
482.28	93.94
482.498	84.94
482.717	82.94
482.935	97.94
483.153	88.94
483.372	93.94
483.59	95.94
483.808	74.94
484.027	101.94
484.245	83.94
484.463	84.94
484.681	99.94
484.9	81.94
485.118	102.94
485.336	94.94
485.554	93.94
485.772	87.94
485.99	95.94
486.209	106.94
486.427	108.94
486.645	123.94
486.863	115.94
487.081	99.94
487.299	105.94
487.517	107.94
487.735	91.94
487.953	93.94
488.171	104.94
488.389	94.94
488.607	92.94
488.825	93.94
489.043	96.94
489.261	100.94
489.479	74.94
489.696	94.94
489.914	92.94
490.132	94.94
490.35	96.94
490.568	84.94
490.786	85.94
491.003	86.94
491.221	84.94
491.439	70.94
491.657	101.94
491.874	94.94
492.092	96.94
492.31	81.94
492.527	100.94
492.745	94.94
492.963	89.94
493.18	98.94
493.398	86.94
493.615	92.94
493.833	99.94
494.05	83.94
494.268	90.94
494.485	82.94
494.703	99.94
494.92	93.94
495.138	91.94
495.355	94.94
495.573	91.94
495.79	93.94
496.008	106.94
496.225	103.94
496.442	103.94
496.66	96.94
496.877	87.94
497.094	75.94
497.312	77.94
497.529	73.94
497.746	86.94
497.963	100.94
498.181	85.94
498.398	101.94
498.615	112.94
498.832	106.94
499.049	83.94
499.267	90.94
499.484	84.94
499.701	90.94
499.918	96.94
500.135	100.94
500.352	82.94
500.569	90.94
500.786	79.94
501.003	84.94
501.22	88.94
501.437	83.94
501.654	102.94
501.871	118.94
502.088	97.94
502.305	93.94
502.522	83.94
502.739	74.94
502.956	93.94
503.172	81.94
503.389	93.94
503.606	106.94
503.823	91.94
504.04	93.94
504.256	82.94
504.473	93.94
504.69	92.94
504.907	87.94
505.123	92.94
505.34	99.94
505.557	99.94
505.773	107.94
505.99	88.94
506.207	83.94
506.423	80.94
506.64	81.94
506.856	76.94
507.073	84.94
507.289	99.94
507.506	99.94
507.722	111.94
507.939	118.94
508.155	97.94
508.372	95.94
508.588	88.94
508.805	102.94
509.021	93.94
509.238	72.94
509.454	83.94
509.67	109.94
509.887	116.94
510.103	128.94
510.319	216.94
510.536	749.94
510.752	2435.94
510.968	652.94
511.184	142.94
511.401	108.94
511.617	100.94
511.833	108.94
512.049	102.94
512.265	88.94
512.481	97.94
512.698	91.94
512.914	108.94
513.13	85.94
513.346	93.94
513.562	112.94
513.778	108.94
513.994	95.94
514.21	114.94
514.426	114.94
514.642	141.94
