Data from Circ_1992_H10_HRD10591_00100.txt Node
Date: Wed Jan 03 11:48:04 EST 2024
User: Yrep
Spectrometer: HR+D1059
Trigger mode: 1
Integration Time (sec): 1.000000E-1
Scans to average: 1
Electric dark correction enabled: true
Nonlinearity correction enabled: false
Boxcar width: 0
XAxis mode: Wavelengths
Number of Pixels in Spectrum: 2048
>>>>>Begin Spectral Data<<<<<
223.165	-15.56
223.4	-15.56
223.635	-15.56
223.869	-16.56
224.104	-21.56
224.338	-0.56
224.573	-16.56
224.808	-17.56
225.042	-9.56
225.277	-18.56
225.511	-13.56
225.746	-0.56
225.98	10.44
226.215	10.44
226.449	19.44
226.683	22.44
226.918	28.44
227.152	39.44
227.387	32.44
227.621	38.44
227.856	38.44
228.09	48.44
228.324	39.44
228.559	45.44
228.793	54.44
229.027	54.44
229.262	63.44
229.496	70.44
229.73	90.44
229.964	92.44
230.199	64.44
230.433	61.44
230.667	80.44
230.901	61.44
231.136	66.44
231.37	76.44
231.604	73.44
231.838	74.44
232.072	68.44
232.306	92.44
232.541	88.44
232.775	78.44
233.009	81.44
233.243	79.44
233.477	52.44
233.711	82.44
233.945	88.44
234.179	78.44
234.413	73.44
234.647	71.44
234.881	89.44
235.115	64.44
235.349	73.44
235.583	72.44
235.817	77.44
236.051	74.44
236.285	73.44
236.519	79.44
236.753	72.44
236.987	86.44
237.221	80.44
237.455	83.44
237.689	74.44
237.922	81.44
238.156	83.44
238.39	52.44
238.624	65.44
238.858	74.44
239.091	86.44
239.325	90.44
239.559	74.44
239.793	74.44
240.027	67.44
240.26	77.44
240.494	74.44
240.728	86.44
240.961	69.44
241.195	75.44
241.429	74.44
241.662	66.44
241.896	77.44
242.13	86.44
242.363	75.44
242.597	74.44
242.83	75.44
243.064	78.44
243.298	80.44
243.531	71.44
243.765	90.44
243.998	76.44
244.232	89.44
244.465	86.44
244.699	86.44
244.932	74.44
245.166	81.44
245.399	79.44
245.633	64.44
245.866	65.44
246.099	75.44
246.333	87.44
246.566	66.44
246.8	77.44
247.033	82.44
247.266	77.44
247.5	54.44
247.733	83.44
247.966	75.44
248.2	81.44
248.433	90.44
248.666	72.44
248.899	71.44
249.133	83.44
249.366	90.44
249.599	90.44
249.832	79.44
250.066	92.44
250.299	87.44
250.532	74.44
250.765	86.44
250.998	98.44
251.231	92.44
251.465	86.44
251.698	73.44
251.931	76.44
252.164	76.44
252.397	75.44
252.63	79.44
252.863	77.44
253.096	81.44
253.329	82.44
253.562	85.44
253.795	80.44
254.028	83.44
254.261	86.44
254.494	76.44
254.727	72.44
254.96	65.44
255.193	77.44
255.426	84.44
255.659	85.44
255.892	78.44
256.124	94.44
256.357	78.44
256.59	75.44
256.823	86.44
257.056	89.44
257.289	97.44
257.521	64.44
257.754	88.44
257.987	91.44
258.22	89.44
258.452	91.44
258.685	76.44
258.918	91.44
259.151	95.44
259.383	84.44
259.616	84.44
259.849	88.44
260.081	83.44
260.314	96.44
260.547	76.44
260.779	88.44
261.012	91.44
261.244	95.44
261.477	89.44
261.71	102.44
261.942	108.44
262.175	121.44
262.407	86.44
262.64	90.44
262.872	74.44
263.105	75.44
263.337	80.44
263.57	80.44
263.802	86.44
264.035	92.44
264.267	73.44
264.499	77.44
264.732	86.44
264.964	74.44
265.197	71.44
265.429	93.44
265.661	74.44
265.894	73.44
266.126	90.44
266.358	75.44
266.591	78.44
266.823	85.44
267.055	73.44
267.287	91.44
267.52	77.44
267.752	96.44
267.984	91.44
268.216	79.44
268.448	80.44
268.681	76.44
268.913	92.44
269.145	83.44
269.377	97.44
269.609	92.44
269.841	86.44
270.073	97.44
270.306	70.44
270.538	73.44
270.77	70.44
271.002	75.44
271.234	82.44
271.466	91.44
271.698	90.44
271.93	86.44
272.162	68.44
272.394	87.44
272.626	87.44
272.858	79.44
273.09	90.44
273.322	80.44
273.553	90.44
273.785	87.44
274.017	80.44
274.249	87.44
274.481	82.44
274.713	79.44
274.945	92.44
275.176	75.44
275.408	73.44
275.64	92.44
275.872	99.44
276.104	86.44
276.335	83.44
276.567	110.44
276.799	127.44
277.031	131.44
277.262	151.44
277.494	129.44
277.726	93.44
277.957	89.44
278.189	90.44
278.421	71.44
278.652	83.44
278.884	78.44
279.115	83.44
279.347	77.44
279.579	88.44
279.81	113.44
280.042	153.44
280.273	179.44
280.505	123.44
280.736	90.44
280.968	82.44
281.199	95.44
281.431	92.44
281.662	92.44
281.894	84.44
282.125	107.44
282.356	123.44
282.588	138.44
282.819	123.44
283.051	90.44
283.282	74.44
283.513	74.44
283.745	97.44
283.976	72.44
284.207	82.44
284.439	89.44
284.67	74.44
284.901	77.44
285.132	71.44
285.364	101.44
285.595	81.44
285.826	86.44
286.057	82.44
286.288	80.44
286.52	80.44
286.751	83.44
286.982	68.44
287.213	76.44
287.444	83.44
287.675	88.44
287.906	95.44
288.138	99.44
288.369	80.44
288.6	100.44
288.831	93.44
289.062	86.44
289.293	94.44
289.524	79.44
289.755	91.44
289.986	81.44
290.217	83.44
290.448	78.44
290.679	71.44
290.91	76.44
291.141	87.44
291.371	79.44
291.602	87.44
291.833	95.44
292.064	81.44
292.295	87.44
292.526	74.44
292.757	81.44
292.987	82.44
293.218	94.44
293.449	78.44
293.68	78.44
293.91	95.44
294.141	96.44
294.372	96.44
294.603	87.44
294.833	86.44
295.064	88.44
295.295	88.44
295.525	97.44
295.756	97.44
295.987	116.44
296.217	143.44
296.448	138.44
296.679	98.44
296.909	86.44
297.14	76.44
297.37	99.44
297.601	92.44
297.831	90.44
298.062	87.44
298.292	87.44
298.523	86.44
298.753	78.44
298.984	84.44
299.214	90.44
299.445	76.44
299.675	89.44
299.905	103.44
300.136	96.44
300.366	94.44
300.597	97.44
300.827	95.44
301.057	99.44
301.288	109.44
301.518	107.44
301.748	84.44
301.979	95.44
302.209	89.44
302.439	82.44
302.669	91.44
302.9	94.44
303.13	86.44
303.36	103.44
303.59	101.44
303.82	123.44
304.051	102.44
304.281	95.44
304.511	83.44
304.741	80.44
304.971	76.44
305.201	71.44
305.431	88.44
305.661	103.44
305.891	95.44
306.121	86.44
306.352	102.44
306.582	102.44
306.812	99.44
307.042	99.44
307.272	143.44
307.502	139.44
307.731	150.44
307.961	92.44
308.191	89.44
308.421	91.44
308.651	97.44
308.881	82.44
309.111	95.44
309.341	97.44
309.571	96.44
309.8	102.44
310.03	111.44
310.26	99.44
310.49	72.44
310.72	102.44
310.949	100.44
311.179	97.44
311.409	92.44
311.639	100.44
311.868	109.44
312.098	104.44
312.328	94.44
312.557	110.44
312.787	103.44
313.017	100.44
313.246	98.44
313.476	91.44
313.706	90.44
313.935	92.44
314.165	90.44
314.394	104.44
314.624	103.44
314.853	100.44
315.083	98.44
315.312	110.44
315.542	99.44
315.771	89.44
316.001	90.44
316.23	88.44
316.46	91.44
316.689	82.44
316.919	92.44
317.148	99.44
317.377	89.44
317.607	95.44
317.836	101.44
318.065	102.44
318.295	83.44
318.524	94.44
318.753	86.44
318.983	95.44
319.212	103.44
319.441	122.44
319.67	104.44
319.9	97.44
320.129	92.44
320.358	83.44
320.587	81.44
320.816	104.44
321.046	104.44
321.275	101.44
321.504	99.44
321.733	99.44
321.962	101.44
322.191	99.44
322.42	123.44
322.649	126.44
322.878	122.44
323.108	112.44
323.337	125.44
323.566	148.44
323.795	150.44
324.024	237.44
324.253	443.44
324.482	986.44
324.71	2084.44
324.939	2766.44
325.168	972.44
325.397	286.44
325.626	167.44
325.855	150.44
326.084	129.44
326.313	146.44
326.542	169.44
326.77	254.44
326.999	510.44
327.228	1120.44
327.457	2066.44
327.686	1616.44
327.914	494.44
328.143	356.44
328.372	455.44
328.6	276.44
328.829	158.44
329.058	158.44
329.287	160.44
329.515	134.44
329.744	195.44
329.972	313.44
330.201	654.44
330.43	932.44
330.658	439.44
330.887	212.44
331.115	172.44
331.344	122.44
331.572	98.44
331.801	120.44
332.03	112.44
332.258	112.44
332.486	95.44
332.715	102.44
332.943	105.44
333.172	107.44
333.4	112.44
333.629	136.44
333.857	186.44
334.085	291.44
334.314	602.44
334.542	1147.44
334.771	1151.44
334.999	321.44
335.227	146.44
335.455	121.44
335.684	95.44
335.912	115.44
336.14	98.44
336.369	114.44
336.597	103.44
336.825	98.44
337.053	104.44
337.281	94.44
337.51	92.44
337.738	99.44
337.966	99.44
338.194	113.44
338.422	102.44
338.65	72.44
338.878	101.44
339.106	93.44
339.334	104.44
339.562	94.44
339.79	83.44
340.018	93.44
340.246	78.44
340.474	98.44
340.702	86.44
340.93	87.44
341.158	87.44
341.386	96.44
341.614	92.44
341.842	103.44
342.07	79.44
342.298	88.44
342.526	89.44
342.754	84.44
342.981	88.44
343.209	87.44
343.437	107.44
343.665	86.44
343.893	83.44
344.12	98.44
344.348	83.44
344.576	78.44
344.804	97.44
345.031	98.44
345.259	106.44
345.487	82.44
345.714	96.44
345.942	104.44
346.17	99.44
346.397	92.44
346.625	93.44
346.853	88.44
347.08	71.44
347.308	87.44
347.535	111.44
347.763	123.44
347.99	101.44
348.218	90.44
348.445	108.44
348.673	96.44
348.9	96.44
349.128	101.44
349.355	91.44
349.583	73.44
349.81	95.44
350.037	112.44
350.265	95.44
350.492	77.44
350.72	97.44
350.947	95.44
351.174	115.44
351.402	115.44
351.629	106.44
351.856	100.44
352.083	104.44
352.311	111.44
352.538	94.44
352.765	94.44
352.992	101.44
353.22	120.44
353.447	104.44
353.674	85.44
353.901	85.44
354.128	89.44
354.355	98.44
354.583	94.44
354.81	68.44
355.037	90.44
355.264	92.44
355.491	95.44
355.718	100.44
355.945	71.44
356.172	91.44
356.399	89.44
356.626	80.44
356.853	97.44
357.08	88.44
357.307	104.44
357.534	93.44
357.761	96.44
357.988	100.44
358.215	94.44
358.441	91.44
358.668	83.44
358.895	96.44
359.122	88.44
359.349	92.44
359.576	94.44
359.802	97.44
360.029	115.44
360.256	128.44
360.483	100.44
360.709	100.44
360.936	98.44
361.163	103.44
361.39	91.44
361.616	109.44
361.843	104.44
362.07	98.44
362.296	96.44
362.523	83.44
362.749	82.44
362.976	93.44
363.203	91.44
363.429	106.44
363.656	88.44
363.882	84.44
364.109	96.44
364.335	79.44
364.562	78.44
364.788	85.44
365.015	92.44
365.241	100.44
365.468	108.44
365.694	108.44
365.92	94.44
366.147	95.44
366.373	89.44
366.599	77.44
366.826	86.44
367.052	66.44
367.278	75.44
367.505	99.44
367.731	104.44
367.957	86.44
368.184	101.44
368.41	101.44
368.636	114.44
368.862	124.44
369.089	110.44
369.315	101.44
369.541	99.44
369.767	88.44
369.993	88.44
370.219	83.44
370.445	76.44
370.672	67.44
370.898	80.44
371.124	79.44
371.35	94.44
371.576	89.44
371.802	81.44
372.028	97.44
372.254	92.44
372.48	74.44
372.706	87.44
372.932	88.44
373.158	84.44
373.384	100.44
373.61	100.44
373.835	88.44
374.061	79.44
374.287	98.44
374.513	96.44
374.739	72.44
374.965	86.44
375.191	88.44
375.416	90.44
375.642	66.44
375.868	97.44
376.094	94.44
376.319	83.44
376.545	84.44
376.771	92.44
376.997	94.44
377.222	91.44
377.448	84.44
377.674	88.44
377.899	99.44
378.125	71.44
378.35	95.44
378.576	99.44
378.802	97.44
379.027	105.44
379.253	100.44
379.478	94.44
379.704	91.44
379.929	86.44
380.155	98.44
380.38	89.44
380.606	86.44
380.831	89.44
381.057	86.44
381.282	94.44
381.507	90.44
381.733	94.44
381.958	91.44
382.184	96.44
382.409	90.44
382.634	90.44
382.86	106.44
383.085	82.44
383.31	99.44
383.535	98.44
383.761	88.44
383.986	93.44
384.211	87.44
384.436	84.44
384.662	88.44
384.887	99.44
385.112	81.44
385.337	108.44
385.562	96.44
385.787	95.44
386.013	105.44
386.238	103.44
386.463	117.44
386.688	109.44
386.913	98.44
387.138	123.44
387.363	92.44
387.588	94.44
387.813	102.44
388.038	109.44
388.263	105.44
388.488	103.44
388.713	92.44
388.938	95.44
389.163	97.44
389.387	80.44
389.612	90.44
389.837	88.44
390.062	99.44
390.287	78.44
390.512	97.44
390.736	81.44
390.961	88.44
391.186	92.44
391.411	92.44
391.636	86.44
391.86	79.44
392.085	85.44
392.31	82.44
392.534	77.44
392.759	79.44
392.984	74.44
393.208	79.44
393.433	88.44
393.658	69.44
393.882	83.44
394.107	84.44
394.331	83.44
394.556	94.44
394.78	81.44
395.005	89.44
395.229	86.44
395.454	84.44
395.678	75.44
395.903	85.44
396.127	91.44
396.352	76.44
396.576	95.44
396.801	81.44
397.025	80.44
397.249	79.44
397.474	89.44
397.698	82.44
397.922	80.44
398.147	86.44
398.371	80.44
398.595	87.44
398.82	80.44
399.044	91.44
399.268	79.44
399.492	84.44
399.717	78.44
399.941	88.44
400.165	91.44
400.389	84.44
400.613	91.44
400.837	95.44
401.062	85.44
401.286	89.44
401.51	87.44
401.734	98.44
401.958	112.44
402.182	132.44
402.406	149.44
402.63	134.44
402.854	90.44
403.078	102.44
403.302	84.44
403.526	82.44
403.75	95.44
403.974	84.44
404.198	86.44
404.422	93.44
404.645	94.44
404.869	86.44
405.093	109.44
405.317	127.44
405.541	126.44
405.765	113.44
405.988	106.44
406.212	162.44
406.436	259.44
406.66	164.44
406.883	121.44
407.107	97.44
407.331	94.44
407.555	102.44
407.778	99.44
408.002	90.44
408.226	84.44
408.449	100.44
408.673	76.44
408.896	104.44
409.12	102.44
409.344	89.44
409.567	87.44
409.791	89.44
410.014	99.44
410.238	93.44
410.461	91.44
410.685	106.44
410.908	86.44
411.132	93.44
411.355	106.44
411.578	83.44
411.802	86.44
412.025	86.44
412.249	103.44
412.472	110.44
412.695	106.44
412.919	101.44
413.142	98.44
413.365	88.44
413.589	78.44
413.812	90.44
414.035	103.44
414.258	95.44
414.482	95.44
414.705	86.44
414.928	67.44
415.151	88.44
415.374	95.44
415.597	91.44
415.821	103.44
416.044	86.44
416.267	100.44
416.49	90.44
416.713	98.44
416.936	87.44
417.159	95.44
417.382	82.44
417.605	90.44
417.828	87.44
418.051	90.44
418.274	90.44
418.497	84.44
418.72	80.44
418.943	91.44
419.166	80.44
419.389	78.44
419.611	82.44
419.834	98.44
420.057	88.44
420.28	82.44
420.503	90.44
420.726	93.44
420.948	92.44
421.171	100.44
421.394	86.44
421.617	98.44
421.839	90.44
422.062	89.44
422.285	87.44
422.507	100.44
422.73	102.44
422.953	96.44
423.175	93.44
423.398	86.44
423.621	79.44
423.843	87.44
424.066	78.44
424.288	83.44
424.511	86.44
424.733	119.44
424.956	120.44
425.178	113.44
425.401	108.44
425.623	95.44
425.846	79.44
426.068	83.44
426.291	99.44
426.513	89.44
426.735	98.44
426.958	98.44
427.18	119.44
427.402	152.44
427.625	204.44
427.847	202.44
428.069	183.44
428.292	107.44
428.514	99.44
428.736	88.44
428.958	72.44
429.181	65.44
429.403	76.44
429.625	101.44
429.847	91.44
430.069	100.44
430.292	80.44
430.514	79.44
430.736	96.44
430.958	77.44
431.18	74.44
431.402	85.44
431.624	87.44
431.846	93.44
432.068	102.44
432.29	80.44
432.512	94.44
432.734	88.44
432.956	100.44
433.178	95.44
433.4	100.44
433.622	77.44
433.844	83.44
434.066	104.44
434.287	90.44
434.509	95.44
434.731	72.44
434.953	83.44
435.175	92.44
435.397	109.44
435.618	82.44
435.84	94.44
436.062	128.44
436.284	129.44
436.505	104.44
436.727	102.44
436.949	90.44
437.17	89.44
437.392	94.44
437.614	88.44
437.835	124.44
438.057	124.44
438.278	122.44
438.5	109.44
438.721	140.44
438.943	107.44
439.165	74.44
439.386	83.44
439.608	99.44
439.829	105.44
440.05	138.44
440.272	157.44
440.493	99.44
440.715	82.44
440.936	83.44
441.158	92.44
441.379	95.44
441.6	97.44
441.822	99.44
442.043	86.44
442.264	109.44
442.486	104.44
442.707	95.44
442.928	120.44
443.149	147.44
443.371	130.44
443.592	128.44
443.813	115.44
444.034	127.44
444.255	106.44
444.476	87.44
444.698	93.44
444.919	87.44
445.14	125.44
445.361	110.44
445.582	131.44
445.803	154.44
446.024	143.44
446.245	152.44
446.466	123.44
446.687	78.44
446.908	95.44
447.129	91.44
447.35	85.44
447.571	92.44
447.792	86.44
448.013	95.44
448.234	104.44
448.455	104.44
448.675	115.44
448.896	127.44
449.117	96.44
449.338	110.44
449.559	131.44
449.779	127.44
450	94.44
450.221	97.44
450.442	94.44
450.662	88.44
450.883	107.44
451.104	112.44
451.324	95.44
451.545	80.44
451.766	84.44
451.986	82.44
452.207	91.44
452.428	80.44
452.648	98.44
452.869	104.44
453.089	116.44
453.31	124.44
453.53	89.44
453.751	108.44
453.971	111.44
454.192	121.44
454.412	89.44
454.633	64.44
454.853	88.44
455.073	82.44
455.294	91.44
455.514	109.44
455.734	94.44
455.955	95.44
456.175	98.44
456.395	82.44
456.616	78.44
456.836	81.44
457.056	72.44
457.276	76.44
457.497	86.44
457.717	85.44
457.937	79.44
458.157	91.44
458.377	91.44
458.598	103.44
458.818	171.44
459.038	176.44
459.258	115.44
459.478	109.44
459.698	104.44
459.918	101.44
460.138	79.44
460.358	87.44
460.578	76.44
460.798	87.44
461.018	96.44
461.238	91.44
461.458	98.44
461.678	95.44
461.898	80.44
462.118	79.44
462.338	87.44
462.558	84.44
462.777	82.44
462.997	84.44
463.217	95.44
463.437	97.44
463.657	102.44
463.876	95.44
464.096	93.44
464.316	104.44
464.536	98.44
464.755	83.44
464.975	101.44
465.195	186.44
465.414	186.44
465.634	106.44
465.854	95.44
466.073	82.44
466.293	98.44
466.512	87.44
466.732	95.44
466.951	97.44
467.171	111.44
467.391	99.44
467.61	120.44
467.829	155.44
468.049	396.44
468.268	551.44
468.488	161.44
468.707	98.44
468.927	90.44
469.146	94.44
469.365	83.44
469.585	93.44
469.804	111.44
470.023	95.44
470.243	92.44
470.462	103.44
470.681	121.44
470.901	82.44
471.12	85.44
471.339	94.44
471.558	99.44
471.777	122.44
471.997	212.44
472.216	734.44
472.435	1640.44
472.654	425.44
472.873	139.44
473.092	88.44
473.311	88.44
473.53	83.44
473.749	84.44
473.968	99.44
474.187	99.44
474.406	92.44
474.625	90.44
474.844	75.44
475.063	106.44
475.282	92.44
475.501	94.44
475.72	82.44
475.939	78.44
476.158	99.44
476.377	95.44
476.596	89.44
476.814	106.44
477.033	97.44
477.252	79.44
477.471	88.44
477.69	87.44
477.908	94.44
478.127	81.44
478.346	89.44
478.564	80.44
478.783	103.44
479.002	112.44
479.22	112.44
479.439	108.44
479.658	116.44
479.876	119.44
480.095	109.44
480.313	100.44
480.532	140.44
480.751	213.44
480.969	694.44
481.188	2862.44
481.406	1690.44
481.624	272.44
481.843	113.44
482.061	92.44
482.28	90.44
482.498	93.44
482.717	97.44
482.935	90.44
483.153	90.44
483.372	90.44
483.59	81.44
483.808	90.44
484.027	89.44
484.245	90.44
484.463	83.44
484.681	93.44
484.9	88.44
485.118	83.44
485.336	89.44
485.554	102.44
485.772	94.44
485.99	101.44
486.209	110.44
486.427	96.44
486.645	106.44
486.863	114.44
487.081	104.44
487.299	97.44
487.517	94.44
487.735	88.44
487.953	88.44
488.171	95.44
488.389	108.44
488.607	110.44
488.825	92.44
489.043	82.44
489.261	76.44
489.479	82.44
489.696	75.44
489.914	75.44
490.132	92.44
490.35	96.44
490.568	80.44
490.786	96.44
491.003	84.44
491.221	102.44
491.439	89.44
491.657	84.44
491.874	84.44
492.092	96.44
492.31	96.44
492.527	94.44
492.745	98.44
492.963	92.44
493.18	87.44
493.398	85.44
493.615	94.44
493.833	109.44
494.05	95.44
494.268	87.44
494.485	93.44
494.703	79.44
494.92	88.44
495.138	86.44
495.355	86.44
495.573	85.44
495.79	78.44
496.008	92.44
496.225	99.44
496.442	94.44
496.66	78.44
496.877	87.44
497.094	80.44
497.312	99.44
497.529	81.44
497.746	97.44
497.963	81.44
498.181	92.44
498.398	86.44
498.615	100.44
498.832	103.44
499.049	74.44
499.267	102.44
499.484	83.44
499.701	87.44
499.918	88.44
500.135	77.44
500.352	67.44
500.569	80.44
500.786	84.44
501.003	82.44
501.22	93.44
501.437	87.44
501.654	90.44
501.871	110.44
502.088	87.44
502.305	89.44
502.522	86.44
502.739	87.44
502.956	82.44
503.172	91.44
503.389	111.44
503.606	100.44
503.823	91.44
504.04	86.44
504.256	91.44
504.473	79.44
504.69	110.44
504.907	96.44
505.123	90.44
505.34	78.44
505.557	85.44
505.773	96.44
505.99	89.44
506.207	83.44
506.423	76.44
506.64	81.44
506.856	90.44
507.073	90.44
507.289	93.44
507.506	111.44
507.722	115.44
507.939	120.44
508.155	98.44
508.372	72.44
508.588	86.44
508.805	96.44
509.021	86.44
509.238	89.44
509.454	96.44
509.67	83.44
509.887	106.44
510.103	117.44
510.319	211.44
510.536	750.44
510.752	2610.44
510.968	707.44
511.184	167.44
511.401	118.44
511.617	90.44
511.833	98.44
512.049	103.44
512.265	98.44
512.481	94.44
512.698	89.44
512.914	92.44
513.13	94.44
513.346	92.44
513.562	93.44
513.778	110.44
513.994	104.44
514.21	100.44
514.426	120.44
514.642	158.44
514.858	115.44
515.074	184.44
