Data from Circ_1992_H10_HRD10591_00099.txt Node
Date: Wed Jan 03 11:48:04 EST 2024
User: Yrep
Spectrometer: HR+D1059
Trigger mode: 1
Integration Time (sec): 1.000000E-1
Scans to average: 1
Electric dark correction enabled: true
Nonlinearity correction enabled: false
Boxcar width: 0
XAxis mode: Wavelengths
Number of Pixels in Spectrum: 2048
>>>>>Begin Spectral Data<<<<<
223.165	-11.19
223.4	-11.19
223.635	-11.19
223.869	-27.19
224.104	-15.19
224.338	-3.19
224.573	-1.19
224.808	-13.19
225.042	-16.19
225.277	-19.19
225.511	-9.19
225.746	3.81
225.98	0.81
226.215	7.81
226.449	25.81
226.683	18.81
226.918	31.81
227.152	26.81
227.387	21.81
227.621	40.81
227.856	47.81
228.09	30.81
228.324	46.81
228.559	60.81
228.793	61.81
229.027	60.81
229.262	63.81
229.496	52.81
229.73	80.81
229.964	89.81
230.199	84.81
230.433	84.81
230.667	86.81
230.901	82.81
231.136	81.81
231.37	87.81
231.604	80.81
231.838	82.81
232.072	74.81
232.306	91.81
232.541	88.81
232.775	80.81
233.009	80.81
233.243	88.81
233.477	90.81
233.711	59.81
233.945	76.81
234.179	87.81
234.413	81.81
234.647	75.81
234.881	91.81
235.115	75.81
235.349	72.81
235.583	75.81
235.817	67.81
236.051	73.81
236.285	82.81
236.519	74.81
236.753	83.81
236.987	69.81
237.221	83.81
237.455	82.81
237.689	72.81
237.922	75.81
238.156	75.81
238.39	66.81
238.624	64.81
238.858	73.81
239.091	82.81
239.325	67.81
239.559	88.81
239.793	77.81
240.027	65.81
240.26	90.81
240.494	68.81
240.728	85.81
240.961	76.81
241.195	92.81
241.429	74.81
241.662	71.81
241.896	73.81
242.13	61.81
242.363	67.81
242.597	81.81
242.83	77.81
243.064	75.81
243.298	79.81
243.531	71.81
243.765	63.81
243.998	84.81
244.232	80.81
244.465	82.81
244.699	86.81
244.932	78.81
245.166	51.81
245.399	65.81
245.633	76.81
245.866	72.81
246.099	73.81
246.333	78.81
246.566	75.81
246.8	82.81
247.033	87.81
247.266	84.81
247.5	79.81
247.733	91.81
247.966	75.81
248.2	82.81
248.433	72.81
248.666	86.81
248.899	90.81
249.133	89.81
249.366	89.81
249.599	91.81
249.832	76.81
250.066	78.81
250.299	92.81
250.532	79.81
250.765	82.81
250.998	65.81
251.231	85.81
251.465	83.81
251.698	85.81
251.931	74.81
252.164	75.81
252.397	82.81
252.63	77.81
252.863	73.81
253.096	82.81
253.329	85.81
253.562	75.81
253.795	76.81
254.028	73.81
254.261	81.81
254.494	81.81
254.727	89.81
254.96	87.81
255.193	88.81
255.426	77.81
255.659	73.81
255.892	77.81
256.124	95.81
256.357	80.81
256.59	89.81
256.823	68.81
257.056	89.81
257.289	69.81
257.521	78.81
257.754	83.81
257.987	81.81
258.22	84.81
258.452	78.81
258.685	80.81
258.918	90.81
259.151	79.81
259.383	82.81
259.616	83.81
259.849	92.81
260.081	77.81
260.314	91.81
260.547	85.81
260.779	83.81
261.012	101.81
261.244	96.81
261.477	89.81
261.71	107.81
261.942	113.81
262.175	107.81
262.407	85.81
262.64	84.81
262.872	77.81
263.105	80.81
263.337	83.81
263.57	77.81
263.802	86.81
264.035	76.81
264.267	65.81
264.499	80.81
264.732	89.81
264.964	86.81
265.197	91.81
265.429	73.81
265.661	87.81
265.894	90.81
266.126	74.81
266.358	67.81
266.591	76.81
266.823	82.81
267.055	83.81
267.287	88.81
267.52	93.81
267.752	83.81
267.984	83.81
268.216	91.81
268.448	90.81
268.681	83.81
268.913	89.81
269.145	80.81
269.377	94.81
269.609	84.81
269.841	80.81
270.073	84.81
270.306	81.81
270.538	78.81
270.77	95.81
271.002	98.81
271.234	69.81
271.466	94.81
271.698	95.81
271.93	93.81
272.162	75.81
272.394	82.81
272.626	82.81
272.858	83.81
273.09	85.81
273.322	91.81
273.553	83.81
273.785	89.81
274.017	91.81
274.249	76.81
274.481	87.81
274.713	72.81
274.945	94.81
275.176	84.81
275.408	98.81
275.64	95.81
275.872	98.81
276.104	105.81
276.335	87.81
276.567	76.81
276.799	123.81
277.031	127.81
277.262	152.81
277.494	115.81
277.726	88.81
277.957	89.81
278.189	91.81
278.421	76.81
278.652	87.81
278.884	83.81
279.115	87.81
279.347	96.81
279.579	87.81
279.81	100.81
280.042	138.81
280.273	160.81
280.505	136.81
280.736	100.81
280.968	86.81
281.199	87.81
281.431	85.81
281.662	79.81
281.894	90.81
282.125	110.81
282.356	116.81
282.588	135.81
282.819	111.81
283.051	87.81
283.282	92.81
283.513	83.81
283.745	87.81
283.976	78.81
284.207	90.81
284.439	87.81
284.67	72.81
284.901	93.81
285.132	79.81
285.364	82.81
285.595	88.81
285.826	98.81
286.057	82.81
286.288	83.81
286.52	83.81
286.751	72.81
286.982	81.81
287.213	92.81
287.444	80.81
287.675	71.81
287.906	74.81
288.138	84.81
288.369	80.81
288.6	92.81
288.831	99.81
289.062	91.81
289.293	88.81
289.524	73.81
289.755	88.81
289.986	93.81
290.217	87.81
290.448	87.81
290.679	83.81
290.91	74.81
291.141	105.81
291.371	86.81
291.602	100.81
291.833	82.81
292.064	86.81
292.295	92.81
292.526	95.81
292.757	75.81
292.987	75.81
293.218	79.81
293.449	85.81
293.68	79.81
293.91	93.81
294.141	94.81
294.372	86.81
294.603	89.81
294.833	94.81
295.064	88.81
295.295	99.81
295.525	94.81
295.756	104.81
295.987	117.81
296.217	140.81
296.448	144.81
296.679	112.81
296.909	100.81
297.14	81.81
297.37	88.81
297.601	81.81
297.831	92.81
298.062	92.81
298.292	89.81
298.523	97.81
298.753	70.81
298.984	76.81
299.214	95.81
299.445	90.81
299.675	83.81
299.905	83.81
300.136	95.81
300.366	88.81
300.597	91.81
300.827	88.81
301.057	91.81
301.288	100.81
301.518	96.81
301.748	95.81
301.979	114.81
302.209	102.81
302.439	101.81
302.669	97.81
302.9	73.81
303.13	90.81
303.36	107.81
303.59	87.81
303.82	121.81
304.051	88.81
304.281	100.81
304.511	85.81
304.741	89.81
304.971	83.81
305.201	85.81
305.431	103.81
305.661	84.81
305.891	92.81
306.121	91.81
306.352	122.81
306.582	108.81
306.812	116.81
307.042	100.81
307.272	112.81
307.502	151.81
307.731	129.81
307.961	107.81
308.191	96.81
308.421	89.81
308.651	93.81
308.881	97.81
309.111	90.81
309.341	104.81
309.571	98.81
309.8	104.81
310.03	84.81
310.26	91.81
310.49	100.81
310.72	99.81
310.949	106.81
311.179	105.81
311.409	86.81
311.639	93.81
311.868	104.81
312.098	83.81
312.328	87.81
312.557	106.81
312.787	103.81
313.017	115.81
313.246	95.81
313.476	96.81
313.706	98.81
313.935	100.81
314.165	106.81
314.394	109.81
314.624	100.81
314.853	97.81
315.083	87.81
315.312	95.81
315.542	96.81
315.771	93.81
316.001	91.81
316.23	84.81
316.46	89.81
316.689	89.81
316.919	82.81
317.148	86.81
317.377	87.81
317.607	107.81
317.836	99.81
318.065	91.81
318.295	96.81
318.524	89.81
318.753	84.81
318.983	77.81
319.212	92.81
319.441	99.81
319.67	96.81
319.9	79.81
320.129	95.81
320.358	95.81
320.587	98.81
320.816	112.81
321.046	92.81
321.275	103.81
321.504	94.81
321.733	82.81
321.962	86.81
322.191	114.81
322.42	100.81
322.649	116.81
322.878	93.81
323.108	105.81
323.337	128.81
323.566	139.81
323.795	151.81
324.024	203.81
324.253	411.81
324.482	921.81
324.71	1933.81
324.939	2503.81
325.168	919.81
325.397	260.81
325.626	153.81
325.855	123.81
326.084	119.81
326.313	157.81
326.542	157.81
326.77	249.81
326.999	490.81
327.228	1044.81
327.457	1918.81
327.686	1489.81
327.914	456.81
328.143	350.81
328.372	413.81
328.6	256.81
328.829	136.81
329.058	145.81
329.287	156.81
329.515	147.81
329.744	174.81
329.972	307.81
330.201	587.81
330.43	850.81
330.658	415.81
330.887	196.81
331.115	155.81
331.344	114.81
331.572	111.81
331.801	107.81
332.03	112.81
332.258	108.81
332.486	91.81
332.715	107.81
332.943	99.81
333.172	115.81
333.4	126.81
333.629	119.81
333.857	160.81
334.085	271.81
334.314	559.81
334.542	1047.81
334.771	974.81
334.999	279.81
335.227	147.81
335.455	117.81
335.684	116.81
335.912	102.81
336.14	114.81
336.369	112.81
336.597	99.81
336.825	123.81
337.053	97.81
337.281	100.81
337.51	95.81
337.738	86.81
337.966	91.81
338.194	92.81
338.422	102.81
338.65	113.81
338.878	98.81
339.106	66.81
339.334	77.81
339.562	85.81
339.79	73.81
340.018	98.81
340.246	108.81
340.474	99.81
340.702	87.81
340.93	84.81
341.158	94.81
341.386	91.81
341.614	97.81
341.842	96.81
342.07	95.81
342.298	94.81
342.526	89.81
342.754	77.81
342.981	83.81
343.209	88.81
343.437	103.81
343.665	91.81
343.893	104.81
344.12	97.81
344.348	107.81
344.576	75.81
344.804	93.81
345.031	95.81
345.259	94.81
345.487	96.81
345.714	104.81
345.942	107.81
346.17	92.81
346.397	91.81
346.625	89.81
346.853	95.81
347.08	100.81
347.308	104.81
347.535	85.81
347.763	100.81
347.99	102.81
348.218	96.81
348.445	117.81
348.673	106.81
348.9	99.81
349.128	74.81
349.355	76.81
349.583	101.81
349.81	85.81
350.037	87.81
350.265	92.81
350.492	97.81
350.72	85.81
350.947	84.81
351.174	120.81
351.402	107.81
351.629	98.81
351.856	96.81
352.083	104.81
352.311	101.81
352.538	105.81
352.765	112.81
352.992	100.81
353.22	101.81
353.447	103.81
353.674	98.81
353.901	95.81
354.128	92.81
354.355	82.81
354.583	91.81
354.81	97.81
355.037	109.81
355.264	95.81
355.491	101.81
355.718	107.81
355.945	95.81
356.172	100.81
356.399	90.81
356.626	93.81
356.853	79.81
357.08	95.81
357.307	95.81
357.534	92.81
357.761	95.81
357.988	93.81
358.215	98.81
358.441	92.81
358.668	94.81
358.895	86.81
359.122	75.81
359.349	90.81
359.576	100.81
359.802	95.81
360.029	102.81
360.256	116.81
360.483	108.81
360.709	87.81
360.936	90.81
361.163	96.81
361.39	91.81
361.616	89.81
361.843	95.81
362.07	98.81
362.296	102.81
362.523	93.81
362.749	97.81
362.976	97.81
363.203	85.81
363.429	95.81
363.656	92.81
363.882	82.81
364.109	84.81
364.335	95.81
364.562	80.81
364.788	93.81
365.015	89.81
365.241	97.81
365.468	110.81
365.694	112.81
365.92	97.81
366.147	90.81
366.373	85.81
366.599	90.81
366.826	93.81
367.052	79.81
367.278	89.81
367.505	93.81
367.731	96.81
367.957	105.81
368.184	90.81
368.41	94.81
368.636	113.81
368.862	114.81
369.089	110.81
369.315	91.81
369.541	83.81
369.767	101.81
369.993	80.81
370.219	79.81
370.445	83.81
370.672	74.81
370.898	71.81
371.124	101.81
371.35	97.81
371.576	78.81
371.802	87.81
372.028	76.81
372.254	76.81
372.48	88.81
372.706	76.81
372.932	94.81
373.158	87.81
373.384	83.81
373.61	97.81
373.835	94.81
374.061	99.81
374.287	92.81
374.513	104.81
374.739	88.81
374.965	69.81
375.191	84.81
375.416	81.81
375.642	93.81
375.868	86.81
376.094	94.81
376.319	74.81
376.545	81.81
376.771	76.81
376.997	83.81
377.222	102.81
377.448	94.81
377.674	78.81
377.899	85.81
378.125	95.81
378.35	84.81
378.576	81.81
378.802	85.81
379.027	89.81
379.253	86.81
379.478	94.81
379.704	81.81
379.929	87.81
380.155	107.81
380.38	92.81
380.606	91.81
380.831	105.81
381.057	87.81
381.282	83.81
381.507	92.81
381.733	92.81
381.958	101.81
382.184	91.81
382.409	87.81
382.634	101.81
382.86	95.81
383.085	81.81
383.31	85.81
383.535	100.81
383.761	95.81
383.986	96.81
384.211	93.81
384.436	91.81
384.662	98.81
384.887	112.81
385.112	82.81
385.337	103.81
385.562	101.81
385.787	104.81
386.013	111.81
386.238	99.81
386.463	99.81
386.688	119.81
386.913	90.81
387.138	117.81
387.363	101.81
387.588	94.81
387.813	99.81
388.038	109.81
388.263	105.81
388.488	99.81
388.713	97.81
388.938	93.81
389.163	98.81
389.387	90.81
389.612	85.81
389.837	90.81
390.062	87.81
390.287	84.81
390.512	94.81
390.736	85.81
390.961	101.81
391.186	88.81
391.411	90.81
391.636	99.81
391.86	78.81
392.085	74.81
392.31	94.81
392.534	84.81
392.759	91.81
392.984	77.81
393.208	89.81
393.433	89.81
393.658	87.81
393.882	95.81
394.107	83.81
394.331	87.81
394.556	98.81
394.78	84.81
395.005	81.81
395.229	84.81
395.454	77.81
395.678	98.81
395.903	77.81
396.127	89.81
396.352	87.81
396.576	79.81
396.801	90.81
397.025	85.81
397.249	87.81
397.474	89.81
397.698	89.81
397.922	85.81
398.147	84.81
398.371	92.81
398.595	82.81
398.82	74.81
399.044	84.81
399.268	75.81
399.492	90.81
399.717	83.81
399.941	82.81
400.165	87.81
400.389	97.81
400.613	88.81
400.837	92.81
401.062	75.81
401.286	95.81
401.51	82.81
401.734	91.81
401.958	109.81
402.182	118.81
402.406	152.81
402.63	111.81
402.854	92.81
403.078	81.81
403.302	98.81
403.526	82.81
403.75	91.81
403.974	80.81
404.198	75.81
404.422	87.81
404.645	86.81
404.869	93.81
405.093	92.81
405.317	126.81
405.541	112.81
405.765	102.81
405.988	111.81
406.212	163.81
406.436	207.81
406.66	149.81
406.883	112.81
407.107	82.81
407.331	102.81
407.555	110.81
407.778	95.81
408.002	90.81
408.226	80.81
408.449	87.81
408.673	78.81
408.896	93.81
409.12	96.81
409.344	89.81
409.567	88.81
409.791	109.81
410.014	88.81
410.238	92.81
410.461	94.81
410.685	97.81
410.908	91.81
411.132	100.81
411.355	95.81
411.578	109.81
411.802	85.81
412.025	87.81
412.249	101.81
412.472	95.81
412.695	126.81
412.919	110.81
413.142	89.81
413.365	93.81
413.589	90.81
413.812	98.81
414.035	81.81
414.258	89.81
414.482	81.81
414.705	88.81
414.928	94.81
415.151	86.81
415.374	94.81
415.597	97.81
415.821	82.81
416.044	84.81
416.267	82.81
416.49	94.81
416.713	94.81
416.936	95.81
417.159	100.81
417.382	100.81
417.605	95.81
417.828	96.81
418.051	81.81
418.274	81.81
418.497	91.81
418.72	84.81
418.943	87.81
419.166	80.81
419.389	82.81
419.611	87.81
419.834	92.81
420.057	80.81
420.28	91.81
420.503	96.81
420.726	91.81
420.948	106.81
421.171	95.81
421.394	98.81
421.617	94.81
421.839	96.81
422.062	90.81
422.285	100.81
422.507	82.81
422.73	98.81
422.953	84.81
423.175	81.81
423.398	83.81
423.621	81.81
423.843	80.81
424.066	76.81
424.288	86.81
424.511	92.81
424.733	112.81
424.956	116.81
425.178	105.81
425.401	115.81
425.623	95.81
425.846	97.81
426.068	88.81
426.291	85.81
426.513	89.81
426.735	101.81
426.958	100.81
427.18	121.81
427.402	157.81
427.625	208.81
427.847	186.81
428.069	180.81
428.292	107.81
428.514	87.81
428.736	76.81
428.958	76.81
429.181	84.81
429.403	90.81
429.625	91.81
429.847	97.81
430.069	97.81
430.292	82.81
430.514	90.81
430.736	92.81
430.958	68.81
431.18	76.81
431.402	62.81
431.624	85.81
431.846	84.81
432.068	97.81
432.29	84.81
432.512	93.81
432.734	94.81
432.956	100.81
433.178	103.81
433.4	93.81
433.622	88.81
433.844	91.81
434.066	83.81
434.287	90.81
434.509	93.81
434.731	86.81
434.953	77.81
435.175	86.81
435.397	83.81
435.618	83.81
435.84	99.81
436.062	129.81
436.284	136.81
436.505	108.81
436.727	97.81
436.949	88.81
437.17	78.81
437.392	80.81
437.614	78.81
437.835	98.81
438.057	120.81
438.278	119.81
438.5	111.81
438.721	149.81
438.943	107.81
439.165	92.81
439.386	92.81
439.608	85.81
439.829	99.81
440.05	121.81
440.272	165.81
440.493	96.81
440.715	90.81
440.936	99.81
441.158	92.81
441.379	84.81
441.6	71.81
441.822	69.81
442.043	93.81
442.264	110.81
442.486	113.81
442.707	100.81
442.928	96.81
443.149	140.81
443.371	144.81
443.592	118.81
443.813	128.81
444.034	121.81
444.255	93.81
444.476	81.81
444.698	88.81
444.919	91.81
445.14	111.81
445.361	115.81
445.582	127.81
445.803	153.81
446.024	146.81
446.245	142.81
446.466	126.81
446.687	97.81
446.908	91.81
447.129	84.81
447.35	86.81
447.571	79.81
447.792	98.81
448.013	85.81
448.234	106.81
448.455	99.81
448.675	119.81
448.896	135.81
449.117	112.81
449.338	114.81
449.559	148.81
449.779	161.81
450	112.81
450.221	86.81
450.442	81.81
450.662	89.81
450.883	106.81
451.104	111.81
451.324	88.81
451.545	83.81
451.766	79.81
451.986	93.81
452.207	101.81
452.428	92.81
452.648	91.81
452.869	95.81
453.089	107.81
453.31	97.81
453.53	94.81
453.751	101.81
453.971	91.81
454.192	108.81
454.412	89.81
454.633	91.81
454.853	86.81
455.073	68.81
455.294	87.81
455.514	104.81
455.734	89.81
455.955	72.81
456.175	87.81
456.395	92.81
456.616	85.81
456.836	90.81
457.056	71.81
457.276	79.81
457.497	85.81
457.717	79.81
457.937	84.81
458.157	88.81
458.377	79.81
458.598	117.81
458.818	155.81
459.038	186.81
459.258	140.81
459.478	104.81
459.698	81.81
459.918	85.81
460.138	88.81
460.358	78.81
460.578	92.81
460.798	92.81
461.018	93.81
461.238	68.81
461.458	97.81
461.678	77.81
461.898	85.81
462.118	85.81
462.338	77.81
462.558	91.81
462.777	85.81
462.997	85.81
463.217	90.81
463.437	84.81
463.657	83.81
463.876	88.81
464.096	88.81
464.316	92.81
464.536	96.81
464.755	90.81
464.975	107.81
465.195	172.81
465.414	155.81
465.634	97.81
465.854	90.81
466.073	79.81
466.293	90.81
466.512	90.81
466.732	89.81
466.951	84.81
467.171	88.81
467.391	108.81
467.61	125.81
467.829	146.81
468.049	361.81
468.268	471.81
468.488	131.81
468.707	91.81
468.927	86.81
469.146	95.81
469.365	87.81
469.585	86.81
469.804	94.81
470.023	92.81
470.243	92.81
470.462	100.81
470.681	110.81
470.901	95.81
471.12	104.81
471.339	107.81
471.558	104.81
471.777	143.81
471.997	207.81
472.216	657.81
472.435	1434.81
472.654	371.81
472.873	136.81
473.092	89.81
473.311	82.81
473.53	93.81
473.749	87.81
473.968	104.81
474.187	100.81
474.406	95.81
474.625	101.81
474.844	85.81
475.063	78.81
475.282	79.81
475.501	85.81
475.72	90.81
475.939	81.81
476.158	95.81
476.377	79.81
476.596	89.81
476.814	87.81
477.033	101.81
477.252	89.81
477.471	89.81
477.69	89.81
477.908	89.81
478.127	98.81
478.346	78.81
478.564	100.81
478.783	95.81
479.002	101.81
479.22	112.81
479.439	113.81
479.658	124.81
479.876	117.81
480.095	107.81
480.313	119.81
480.532	128.81
480.751	199.81
480.969	638.81
481.188	2541.81
481.406	1459.81
481.624	255.81
481.843	113.81
482.061	100.81
482.28	97.81
482.498	89.81
482.717	79.81
482.935	88.81
483.153	80.81
483.372	91.81
483.59	98.81
483.808	83.81
484.027	93.81
484.245	93.81
484.463	92.81
484.681	108.81
484.9	108.81
485.118	90.81
485.336	87.81
485.554	93.81
485.772	97.81
485.99	102.81
486.209	96.81
486.427	96.81
486.645	103.81
486.863	115.81
487.081	99.81
487.299	99.81
487.517	97.81
487.735	81.81
487.953	86.81
488.171	89.81
488.389	100.81
488.607	83.81
488.825	96.81
489.043	95.81
489.261	94.81
489.479	89.81
489.696	68.81
489.914	91.81
490.132	86.81
490.35	79.81
490.568	86.81
490.786	98.81
491.003	88.81
491.221	95.81
491.439	95.81
491.657	97.81
491.874	72.81
492.092	89.81
492.31	86.81
492.527	97.81
492.745	99.81
492.963	85.81
493.18	97.81
493.398	104.81
493.615	100.81
493.833	84.81
494.05	78.81
494.268	83.81
494.485	100.81
494.703	90.81
494.92	92.81
495.138	84.81
495.355	95.81
495.573	88.81
495.79	93.81
496.008	87.81
496.225	91.81
496.442	82.81
496.66	91.81
496.877	93.81
497.094	108.81
497.312	95.81
497.529	85.81
497.746	88.81
497.963	81.81
498.181	86.81
498.398	98.81
498.615	110.81
498.832	85.81
499.049	68.81
499.267	88.81
499.484	99.81
499.701	84.81
499.918	93.81
500.135	93.81
500.352	91.81
500.569	87.81
500.786	82.81
501.003	82.81
501.22	83.81
501.437	103.81
501.654	91.81
501.871	114.81
502.088	89.81
502.305	89.81
502.522	91.81
502.739	89.81
502.956	99.81
503.172	102.81
503.389	89.81
503.606	112.81
503.823	101.81
504.04	93.81
504.256	93.81
504.473	81.81
504.69	88.81
504.907	94.81
505.123	91.81
505.34	90.81
505.557	88.81
505.773	93.81
505.99	97.81
506.207	104.81
506.423	89.81
506.64	93.81
506.856	77.81
507.073	83.81
507.289	89.81
507.506	89.81
507.722	115.81
507.939	105.81
508.155	98.81
508.372	83.81
508.588	93.81
508.805	89.81
509.021	93.81
509.238	90.81
509.454	104.81
509.67	105.81
509.887	110.81
510.103	119.81
510.319	183.81
510.536	661.81
510.752	2203.81
510.968	611.81
511.184	137.81
511.401	112.81
511.617	116.81
511.833	105.81
512.049	89.81
512.265	105.81
512.481	96.81
512.698	77.81
512.914	77.81
513.13	103.81
513.346	84.81
513.562	91.81
513.778	87.81
513.994	91.81
514.21	102.81
514.426	106.81
514.642	142.81
514.858	135.81
515.074	176.81
