Data from Circ_1992_H10_HRD10591_00092.txt Node
Date: Wed Jan 03 11:48:03 EST 2024
User: Yrep
Spectrometer: HR+D1059
Trigger mode: 1
Integration Time (sec): 1.000000E-1
Scans to average: 1
Electric dark correction enabled: true
Nonlinearity correction enabled: false
Boxcar width: 0
XAxis mode: Wavelengths
Number of Pixels in Spectrum: 2048
>>>>>Begin Spectral Data<<<<<
223.165	-20.5
223.4	-20.5
223.635	-20.5
223.869	-18.5
224.104	-17.5
224.338	-25.5
224.573	-10.5
224.808	-29.5
225.042	5.5
225.277	-11.5
225.511	1.5
225.746	7.5
225.98	13.5
226.215	18.5
226.449	15.5
226.683	10.5
226.918	28.5
227.152	32.5
227.387	37.5
227.621	47.5
227.856	51.5
228.09	51.5
228.324	47.5
228.559	69.5
228.793	65.5
229.027	69.5
229.262	66.5
229.496	83.5
229.73	105.5
229.964	92.5
230.199	75.5
230.433	85.5
230.667	82.5
230.901	52.5
231.136	74.5
231.37	73.5
231.604	87.5
231.838	80.5
232.072	74.5
232.306	76.5
232.541	66.5
232.775	73.5
233.009	75.5
233.243	87.5
233.477	84.5
233.711	81.5
233.945	78.5
234.179	82.5
234.413	89.5
234.647	79.5
234.881	73.5
235.115	70.5
235.349	80.5
235.583	73.5
235.817	78.5
236.051	69.5
236.285	85.5
236.519	81.5
236.753	89.5
236.987	72.5
237.221	95.5
237.455	101.5
237.689	84.5
237.922	83.5
238.156	78.5
238.39	82.5
238.624	82.5
238.858	74.5
239.091	83.5
239.325	82.5
239.559	71.5
239.793	89.5
240.027	77.5
240.26	75.5
240.494	68.5
240.728	76.5
240.961	85.5
241.195	90.5
241.429	81.5
241.662	80.5
241.896	68.5
242.13	70.5
242.363	83.5
242.597	73.5
242.83	77.5
243.064	75.5
243.298	81.5
243.531	77.5
243.765	65.5
243.998	79.5
244.232	86.5
244.465	87.5
244.699	81.5
244.932	79.5
245.166	79.5
245.399	85.5
245.633	75.5
245.866	75.5
246.099	90.5
246.333	75.5
246.566	82.5
246.8	78.5
247.033	84.5
247.266	93.5
247.5	82.5
247.733	87.5
247.966	80.5
248.2	71.5
248.433	93.5
248.666	89.5
248.899	79.5
249.133	81.5
249.366	103.5
249.599	108.5
249.832	82.5
250.066	66.5
250.299	74.5
250.532	78.5
250.765	80.5
250.998	93.5
251.231	74.5
251.465	81.5
251.698	88.5
251.931	91.5
252.164	89.5
252.397	88.5
252.63	87.5
252.863	89.5
253.096	86.5
253.329	73.5
253.562	81.5
253.795	84.5
254.028	77.5
254.261	83.5
254.494	71.5
254.727	82.5
254.96	75.5
255.193	76.5
255.426	68.5
255.659	90.5
255.892	85.5
256.124	90.5
256.357	87.5
256.59	89.5
256.823	73.5
257.056	78.5
257.289	94.5
257.521	80.5
257.754	82.5
257.987	80.5
258.22	72.5
258.452	83.5
258.685	101.5
258.918	80.5
259.151	88.5
259.383	77.5
259.616	74.5
259.849	70.5
260.081	94.5
260.314	91.5
260.547	85.5
260.779	99.5
261.012	95.5
261.244	83.5
261.477	89.5
261.71	98.5
261.942	124.5
262.175	117.5
262.407	91.5
262.64	90.5
262.872	89.5
263.105	89.5
263.337	86.5
263.57	73.5
263.802	95.5
264.035	88.5
264.267	83.5
264.499	83.5
264.732	82.5
264.964	82.5
265.197	85.5
265.429	79.5
265.661	97.5
265.894	81.5
266.126	88.5
266.358	89.5
266.591	64.5
266.823	94.5
267.055	89.5
267.287	89.5
267.52	86.5
267.752	86.5
267.984	79.5
268.216	61.5
268.448	92.5
268.681	88.5
268.913	75.5
269.145	80.5
269.377	83.5
269.609	93.5
269.841	86.5
270.073	95.5
270.306	81.5
270.538	85.5
270.77	87.5
271.002	80.5
271.234	100.5
271.466	82.5
271.698	87.5
271.93	85.5
272.162	84.5
272.394	85.5
272.626	82.5
272.858	80.5
273.09	91.5
273.322	85.5
273.553	91.5
273.785	75.5
274.017	81.5
274.249	86.5
274.481	71.5
274.713	87.5
274.945	92.5
275.176	95.5
275.408	103.5
275.64	98.5
275.872	82.5
276.104	100.5
276.335	86.5
276.567	95.5
276.799	111.5
277.031	132.5
277.262	116.5
277.494	114.5
277.726	86.5
277.957	86.5
278.189	91.5
278.421	81.5
278.652	90.5
278.884	80.5
279.115	94.5
279.347	84.5
279.579	84.5
279.81	98.5
280.042	127.5
280.273	156.5
280.505	123.5
280.736	96.5
280.968	89.5
281.199	84.5
281.431	99.5
281.662	79.5
281.894	90.5
282.125	89.5
282.356	115.5
282.588	146.5
282.819	102.5
283.051	91.5
283.282	100.5
283.513	92.5
283.745	82.5
283.976	91.5
284.207	96.5
284.439	72.5
284.67	90.5
284.901	82.5
285.132	78.5
285.364	68.5
285.595	85.5
285.826	87.5
286.057	86.5
286.288	83.5
286.52	82.5
286.751	79.5
286.982	90.5
287.213	88.5
287.444	95.5
287.675	99.5
287.906	91.5
288.138	107.5
288.369	104.5
288.6	85.5
288.831	81.5
289.062	81.5
289.293	92.5
289.524	83.5
289.755	96.5
289.986	95.5
290.217	86.5
290.448	94.5
290.679	91.5
290.91	93.5
291.141	91.5
291.371	86.5
291.602	95.5
291.833	94.5
292.064	79.5
292.295	92.5
292.526	93.5
292.757	85.5
292.987	85.5
293.218	81.5
293.449	92.5
293.68	93.5
293.91	100.5
294.141	99.5
294.372	84.5
294.603	86.5
294.833	69.5
295.064	80.5
295.295	81.5
295.525	87.5
295.756	110.5
295.987	100.5
296.217	134.5
296.448	130.5
296.679	99.5
296.909	80.5
297.14	91.5
297.37	78.5
297.601	92.5
297.831	73.5
298.062	91.5
298.292	89.5
298.523	101.5
298.753	85.5
298.984	84.5
299.214	89.5
299.445	71.5
299.675	92.5
299.905	103.5
300.136	91.5
300.366	77.5
300.597	91.5
300.827	97.5
301.057	93.5
301.288	112.5
301.518	102.5
301.748	94.5
301.979	107.5
302.209	93.5
302.439	84.5
302.669	85.5
302.9	85.5
303.13	87.5
303.36	100.5
303.59	106.5
303.82	115.5
304.051	102.5
304.281	86.5
304.511	93.5
304.741	95.5
304.971	87.5
305.201	89.5
305.431	94.5
305.661	99.5
305.891	105.5
306.121	98.5
306.352	101.5
306.582	110.5
306.812	91.5
307.042	106.5
307.272	143.5
307.502	138.5
307.731	144.5
307.961	117.5
308.191	93.5
308.421	94.5
308.651	79.5
308.881	86.5
309.111	104.5
309.341	87.5
309.571	111.5
309.8	89.5
310.03	102.5
310.26	96.5
310.49	99.5
310.72	100.5
310.949	103.5
311.179	110.5
311.409	85.5
311.639	92.5
311.868	99.5
312.098	98.5
312.328	98.5
312.557	101.5
312.787	100.5
313.017	97.5
313.246	100.5
313.476	86.5
313.706	95.5
313.935	104.5
314.165	107.5
314.394	103.5
314.624	99.5
314.853	99.5
315.083	95.5
315.312	97.5
315.542	98.5
315.771	87.5
316.001	107.5
316.23	97.5
316.46	100.5
316.689	69.5
316.919	89.5
317.148	99.5
317.377	93.5
317.607	85.5
317.836	104.5
318.065	81.5
318.295	98.5
318.524	91.5
318.753	90.5
318.983	87.5
319.212	95.5
319.441	122.5
319.67	99.5
319.9	94.5
320.129	98.5
320.358	89.5
320.587	91.5
320.816	99.5
321.046	106.5
321.275	100.5
321.504	82.5
321.733	89.5
321.962	89.5
322.191	109.5
322.42	109.5
322.649	115.5
322.878	113.5
323.108	119.5
323.337	120.5
323.566	131.5
323.795	155.5
324.024	222.5
324.253	378.5
324.482	834.5
324.71	1741.5
324.939	2301.5
325.168	839.5
325.397	249.5
325.626	130.5
325.855	146.5
326.084	121.5
326.313	141.5
326.542	154.5
326.77	214.5
326.999	446.5
327.228	955.5
327.457	1683.5
327.686	1345.5
327.914	410.5
328.143	313.5
328.372	372.5
328.6	233.5
328.829	144.5
329.058	138.5
329.287	143.5
329.515	131.5
329.744	176.5
329.972	282.5
330.201	496.5
330.43	729.5
330.658	347.5
330.887	192.5
331.115	128.5
331.344	107.5
331.572	114.5
331.801	108.5
332.03	99.5
332.258	95.5
332.486	106.5
332.715	108.5
332.943	116.5
333.172	110.5
333.4	114.5
333.629	122.5
333.857	155.5
334.085	274.5
334.314	488.5
334.542	904.5
334.771	865.5
334.999	254.5
335.227	128.5
335.455	109.5
335.684	105.5
335.912	113.5
336.14	101.5
336.369	107.5
336.597	101.5
336.825	116.5
337.053	99.5
337.281	94.5
337.51	85.5
337.738	100.5
337.966	99.5
338.194	86.5
338.422	94.5
338.65	104.5
338.878	93.5
339.106	89.5
339.334	85.5
339.562	89.5
339.79	89.5
340.018	87.5
340.246	86.5
340.474	94.5
340.702	101.5
340.93	81.5
341.158	89.5
341.386	96.5
341.614	91.5
341.842	99.5
342.07	90.5
342.298	95.5
342.526	102.5
342.754	103.5
342.981	93.5
343.209	89.5
343.437	103.5
343.665	102.5
343.893	89.5
344.12	110.5
344.348	89.5
344.576	88.5
344.804	94.5
345.031	94.5
345.259	90.5
345.487	111.5
345.714	102.5
345.942	85.5
346.17	98.5
346.397	86.5
346.625	99.5
346.853	93.5
347.08	93.5
347.308	106.5
347.535	97.5
347.763	100.5
347.99	100.5
348.218	98.5
348.445	106.5
348.673	93.5
348.9	95.5
349.128	93.5
349.355	89.5
349.583	103.5
349.81	96.5
350.037	91.5
350.265	100.5
350.492	82.5
350.72	86.5
350.947	103.5
351.174	103.5
351.402	115.5
351.629	102.5
351.856	97.5
352.083	92.5
352.311	99.5
352.538	115.5
352.765	102.5
352.992	113.5
353.22	108.5
353.447	107.5
353.674	85.5
353.901	90.5
354.128	96.5
354.355	101.5
354.583	94.5
354.81	88.5
355.037	102.5
355.264	98.5
355.491	95.5
355.718	103.5
355.945	96.5
356.172	82.5
356.399	86.5
356.626	95.5
356.853	88.5
357.08	91.5
357.307	86.5
357.534	85.5
357.761	77.5
357.988	94.5
358.215	93.5
358.441	90.5
358.668	99.5
358.895	102.5
359.122	89.5
359.349	98.5
359.576	95.5
359.802	94.5
360.029	126.5
360.256	109.5
360.483	107.5
360.709	93.5
360.936	90.5
361.163	95.5
361.39	94.5
361.616	100.5
361.843	90.5
362.07	92.5
362.296	95.5
362.523	85.5
362.749	86.5
362.976	92.5
363.203	87.5
363.429	81.5
363.656	95.5
363.882	94.5
364.109	91.5
364.335	89.5
364.562	104.5
364.788	90.5
365.015	103.5
365.241	89.5
365.468	121.5
365.694	96.5
365.92	99.5
366.147	93.5
366.373	79.5
366.599	88.5
366.826	90.5
367.052	91.5
367.278	96.5
367.505	99.5
367.731	101.5
367.957	95.5
368.184	100.5
368.41	109.5
368.636	108.5
368.862	116.5
369.089	111.5
369.315	90.5
369.541	97.5
369.767	87.5
369.993	94.5
370.219	91.5
370.445	87.5
370.672	90.5
370.898	88.5
371.124	87.5
371.35	94.5
371.576	90.5
371.802	88.5
372.028	90.5
372.254	95.5
372.48	77.5
372.706	77.5
372.932	78.5
373.158	96.5
373.384	95.5
373.61	98.5
373.835	83.5
374.061	94.5
374.287	89.5
374.513	95.5
374.739	92.5
374.965	86.5
375.191	89.5
375.416	97.5
375.642	84.5
375.868	105.5
376.094	89.5
376.319	96.5
376.545	84.5
376.771	84.5
376.997	88.5
377.222	69.5
377.448	84.5
377.674	95.5
377.899	107.5
378.125	103.5
378.35	97.5
378.576	105.5
378.802	89.5
379.027	87.5
379.253	89.5
379.478	91.5
379.704	110.5
379.929	102.5
380.155	95.5
380.38	93.5
380.606	90.5
380.831	91.5
381.057	89.5
381.282	102.5
381.507	95.5
381.733	92.5
381.958	94.5
382.184	85.5
382.409	84.5
382.634	90.5
382.86	94.5
383.085	95.5
383.31	103.5
383.535	90.5
383.761	107.5
383.986	99.5
384.211	100.5
384.436	116.5
384.662	91.5
384.887	102.5
385.112	108.5
385.337	91.5
385.562	103.5
385.787	101.5
386.013	105.5
386.238	103.5
386.463	114.5
386.688	123.5
386.913	101.5
387.138	107.5
387.363	97.5
387.588	98.5
387.813	100.5
388.038	101.5
388.263	110.5
388.488	114.5
388.713	98.5
388.938	91.5
389.163	106.5
389.387	100.5
389.612	98.5
389.837	92.5
390.062	87.5
390.287	93.5
390.512	88.5
390.736	93.5
390.961	93.5
391.186	80.5
391.411	97.5
391.636	92.5
391.86	84.5
392.085	102.5
392.31	93.5
392.534	97.5
392.759	85.5
392.984	83.5
393.208	73.5
393.433	99.5
393.658	84.5
393.882	83.5
394.107	78.5
394.331	91.5
394.556	104.5
394.78	91.5
395.005	94.5
395.229	97.5
395.454	90.5
395.678	77.5
395.903	96.5
396.127	81.5
396.352	93.5
396.576	77.5
396.801	80.5
397.025	93.5
397.249	85.5
397.474	94.5
397.698	94.5
397.922	87.5
398.147	96.5
398.371	81.5
398.595	87.5
398.82	75.5
399.044	85.5
399.268	102.5
399.492	73.5
399.717	97.5
399.941	89.5
400.165	91.5
400.389	99.5
400.613	92.5
400.837	87.5
401.062	94.5
401.286	91.5
401.51	89.5
401.734	97.5
401.958	108.5
402.182	128.5
402.406	161.5
402.63	106.5
402.854	93.5
403.078	79.5
403.302	88.5
403.526	94.5
403.75	92.5
403.974	91.5
404.198	93.5
404.422	73.5
404.645	97.5
404.869	92.5
405.093	109.5
405.317	125.5
405.541	115.5
405.765	102.5
405.988	114.5
406.212	158.5
406.436	229.5
406.66	164.5
406.883	100.5
407.107	97.5
407.331	94.5
407.555	93.5
407.778	99.5
408.002	95.5
408.226	96.5
408.449	95.5
408.673	75.5
408.896	84.5
409.12	103.5
409.344	98.5
409.567	83.5
409.791	92.5
410.014	90.5
410.238	95.5
410.461	89.5
410.685	96.5
410.908	100.5
411.132	112.5
411.355	100.5
411.578	92.5
411.802	91.5
412.025	95.5
412.249	85.5
412.472	97.5
412.695	118.5
412.919	111.5
413.142	100.5
413.365	95.5
413.589	83.5
413.812	97.5
414.035	89.5
414.258	87.5
414.482	102.5
414.705	94.5
414.928	84.5
415.151	85.5
415.374	90.5
415.597	87.5
415.821	80.5
416.044	93.5
416.267	75.5
416.49	82.5
416.713	73.5
416.936	88.5
417.159	101.5
417.382	100.5
417.605	98.5
417.828	93.5
418.051	97.5
418.274	73.5
418.497	93.5
418.72	85.5
418.943	92.5
419.166	93.5
419.389	85.5
419.611	86.5
419.834	84.5
420.057	93.5
420.28	84.5
420.503	92.5
420.726	96.5
420.948	91.5
421.171	99.5
421.394	94.5
421.617	84.5
421.839	94.5
422.062	88.5
422.285	93.5
422.507	95.5
422.73	106.5
422.953	91.5
423.175	98.5
423.398	76.5
423.621	93.5
423.843	89.5
424.066	87.5
424.288	69.5
424.511	99.5
424.733	109.5
424.956	87.5
425.178	98.5
425.401	93.5
425.623	100.5
425.846	101.5
426.068	84.5
426.291	95.5
426.513	98.5
426.735	89.5
426.958	100.5
427.18	116.5
427.402	167.5
427.625	184.5
427.847	175.5
428.069	176.5
428.292	104.5
428.514	95.5
428.736	87.5
428.958	87.5
429.181	84.5
429.403	85.5
429.625	91.5
429.847	84.5
430.069	122.5
430.292	98.5
430.514	98.5
430.736	85.5
430.958	91.5
431.18	83.5
431.402	94.5
431.624	89.5
431.846	80.5
432.068	90.5
432.29	79.5
432.512	79.5
432.734	85.5
432.956	97.5
433.178	114.5
433.4	100.5
433.622	79.5
433.844	93.5
434.066	85.5
434.287	91.5
434.509	96.5
434.731	106.5
434.953	95.5
435.175	90.5
435.397	82.5
435.618	100.5
435.84	95.5
436.062	127.5
436.284	111.5
436.505	104.5
436.727	111.5
436.949	98.5
437.17	90.5
437.392	85.5
437.614	89.5
437.835	103.5
438.057	123.5
438.278	110.5
438.5	103.5
438.721	127.5
438.943	99.5
439.165	89.5
439.386	94.5
439.608	91.5
439.829	93.5
440.05	133.5
440.272	150.5
440.493	106.5
440.715	97.5
440.936	101.5
441.158	101.5
441.379	86.5
441.6	98.5
441.822	89.5
442.043	97.5
442.264	116.5
442.486	99.5
442.707	92.5
442.928	109.5
443.149	119.5
443.371	140.5
443.592	108.5
443.813	114.5
444.034	113.5
444.255	79.5
444.476	96.5
444.698	90.5
444.919	87.5
445.14	129.5
445.361	127.5
445.582	118.5
445.803	160.5
446.024	137.5
446.245	144.5
446.466	113.5
446.687	90.5
446.908	99.5
447.129	99.5
447.35	70.5
447.571	88.5
447.792	92.5
448.013	90.5
448.234	119.5
448.455	118.5
448.675	112.5
448.896	113.5
449.117	98.5
449.338	102.5
449.559	125.5
449.779	123.5
450	99.5
450.221	89.5
450.442	92.5
450.662	99.5
450.883	102.5
451.104	125.5
451.324	95.5
451.545	87.5
451.766	90.5
451.986	89.5
452.207	87.5
452.428	94.5
452.648	89.5
452.869	113.5
453.089	111.5
453.31	119.5
453.53	95.5
453.751	96.5
453.971	99.5
454.192	110.5
454.412	94.5
454.633	85.5
454.853	77.5
455.073	81.5
455.294	82.5
455.514	97.5
455.734	97.5
455.955	81.5
456.175	83.5
456.395	86.5
456.616	93.5
456.836	68.5
457.056	69.5
457.276	89.5
457.497	89.5
457.717	68.5
457.937	82.5
458.157	92.5
458.377	103.5
458.598	102.5
458.818	131.5
459.038	175.5
459.258	117.5
459.478	90.5
459.698	94.5
459.918	81.5
460.138	86.5
460.358	90.5
460.578	87.5
460.798	90.5
461.018	86.5
461.238	81.5
461.458	88.5
461.678	85.5
461.898	72.5
462.118	78.5
462.338	89.5
462.558	99.5
462.777	82.5
462.997	97.5
463.217	89.5
463.437	100.5
463.657	79.5
463.876	105.5
464.096	77.5
464.316	88.5
464.536	86.5
464.755	82.5
464.975	119.5
465.195	158.5
465.414	150.5
465.634	99.5
465.854	103.5
466.073	96.5
466.293	93.5
466.512	96.5
466.732	78.5
466.951	89.5
467.171	95.5
467.391	91.5
467.61	89.5
467.829	140.5
468.049	295.5
468.268	446.5
468.488	150.5
468.707	100.5
468.927	77.5
469.146	91.5
469.365	82.5
469.585	114.5
469.804	91.5
470.023	106.5
470.243	93.5
470.462	106.5
470.681	108.5
470.901	91.5
471.12	81.5
471.339	87.5
471.558	99.5
471.777	108.5
471.997	199.5
472.216	589.5
472.435	1327.5
472.654	332.5
472.873	127.5
473.092	104.5
473.311	96.5
473.53	89.5
473.749	98.5
473.968	106.5
474.187	114.5
474.406	112.5
474.625	82.5
474.844	110.5
475.063	90.5
475.282	95.5
475.501	91.5
475.72	96.5
475.939	94.5
476.158	70.5
476.377	94.5
476.596	90.5
476.814	79.5
477.033	94.5
477.252	89.5
477.471	90.5
477.69	86.5
477.908	91.5
478.127	70.5
478.346	82.5
478.564	85.5
478.783	104.5
479.002	100.5
479.22	100.5
479.439	106.5
479.658	107.5
479.876	109.5
480.095	106.5
480.313	105.5
480.532	129.5
480.751	172.5
480.969	565.5
481.188	2255.5
481.406	1331.5
481.624	238.5
481.843	109.5
482.061	99.5
482.28	93.5
482.498	80.5
482.717	94.5
482.935	82.5
483.153	103.5
483.372	92.5
483.59	93.5
483.808	97.5
484.027	91.5
484.245	87.5
484.463	92.5
484.681	91.5
484.9	107.5
485.118	100.5
485.336	95.5
485.554	100.5
485.772	103.5
485.99	107.5
486.209	120.5
486.427	96.5
486.645	95.5
486.863	112.5
487.081	114.5
487.299	104.5
487.517	97.5
487.735	105.5
487.953	82.5
488.171	98.5
488.389	103.5
488.607	101.5
488.825	79.5
489.043	97.5
489.261	82.5
489.479	86.5
489.696	76.5
489.914	80.5
490.132	81.5
490.35	102.5
490.568	90.5
490.786	75.5
491.003	90.5
491.221	85.5
491.439	97.5
491.657	89.5
491.874	86.5
492.092	101.5
492.31	80.5
492.527	94.5
492.745	101.5
492.963	91.5
493.18	91.5
493.398	86.5
493.615	95.5
493.833	93.5
494.05	92.5
494.268	91.5
494.485	97.5
494.703	90.5
494.92	70.5
495.138	87.5
495.355	83.5
495.573	99.5
495.79	80.5
496.008	93.5
496.225	91.5
496.442	91.5
496.66	104.5
496.877	78.5
497.094	96.5
497.312	92.5
497.529	102.5
497.746	99.5
497.963	87.5
498.181	98.5
498.398	119.5
498.615	113.5
498.832	119.5
499.049	87.5
499.267	95.5
499.484	95.5
499.701	90.5
499.918	99.5
500.135	93.5
500.352	82.5
500.569	79.5
500.786	97.5
501.003	89.5
501.22	87.5
501.437	101.5
501.654	105.5
501.871	109.5
502.088	92.5
502.305	88.5
502.522	97.5
502.739	87.5
502.956	99.5
503.172	95.5
503.389	101.5
503.606	90.5
503.823	96.5
504.04	105.5
504.256	100.5
504.473	89.5
504.69	75.5
504.907	102.5
505.123	73.5
505.34	96.5
505.557	93.5
505.773	95.5
505.99	89.5
506.207	92.5
506.423	86.5
506.64	86.5
506.856	99.5
507.073	91.5
507.289	89.5
507.506	88.5
507.722	99.5
507.939	104.5
508.155	88.5
508.372	91.5
508.588	95.5
508.805	91.5
509.021	93.5
509.238	89.5
509.454	107.5
509.67	90.5
509.887	114.5
510.103	125.5
510.319	194.5
510.536	689.5
510.752	2210.5
510.968	633.5
511.184	153.5
511.401	102.5
511.617	96.5
511.833	77.5
512.049	97.5
512.265	86.5
512.481	68.5
512.698	81.5
512.914	81.5
513.13	112.5
513.346	81.5
513.562	97.5
513.778	110.5
513.994	94.5
514.21	109.5
514.426	134.5
514.642	134.5
514.858	111.5
515.074	159.5
515.29	444.5
515.506	1500.5
515.721	554.5
515.937	163.5
516.153	113.5
516.369	105.5
516.585	78.5
516.801	75.5
517.016	97.5
517.232	96.5
517.448	96.5
517.664	103.5
517.879	79.5
518.095	103.5
518.311	104.5
518.527	98.5
518.742	83.5
518.958	83.5
519.173	102.5
519.389	93.5
519.605	102.5
519.82	103.5
520.036	107.5
520.251	131.5
520.467	109.5
520.682	99.5
520.898	102.5
521.113	126.5
521.329	148.5
521.544	214.5
521.76	543.5
521.975	2475.5
522.19	1517.5
522.406	333.5
522.621	118.5
522.836	115.5
523.052	87.5
523.267	93.5
523.482	97.5
523.698	97.5
523.913	111.5
524.128	119.5
524.343	82.5
524.559	105.5
524.774	94.5
524.989	99.5
525.204	92.5
525.419	98.5
525.634	91.5
525.849	89.5
526.064	80.5
526.28	85.5
526.495	85.5
526.71	100.5
526.925	87.5
527.14	95.5
527.355	82.5
527.57	85.5
527.785	92.5
527.999	94.5
528.214	85.5
528.429	98.5
528.644	93.5
528.859	93.5
529.074	95.5
529.289	124.5
529.503	191.5
529.718	93.5
529.933	90.5
530.148	87.5
530.363	86.5
530.577	90.5
530.792	92.5
531.007	89.5
531.221	89.5
531.436	80.5
531.651	87.5
531.865	78.5
532.08	86.5
532.295	81.5
532.509	86.5
532.724	103.5
532.938	108.5
533.153	97.5
533.367	88.5
533.582	85.5
533.796	86.5
534.011	88.5
534.225	77.5
