Data from Circ_1992_H10_HRD10591_00037.txt Node
Date: Wed Jan 03 11:47:52 EST 2024
User: Yrep
Spectrometer: HR+D1059
Trigger mode: 1
Integration Time (sec): 1.000000E-1
Scans to average: 1
Electric dark correction enabled: true
Nonlinearity correction enabled: false
Boxcar width: 0
XAxis mode: Wavelengths
Number of Pixels in Spectrum: 2048
>>>>>Begin Spectral Data<<<<<
223.165	-15.75
223.4	-15.75
223.635	-15.75
223.869	-20.75
224.104	-33.75
224.338	-13.75
224.573	-10.75
224.808	-6.75
225.042	-20.75
225.277	-4.75
225.511	-0.75
225.746	4.25
225.98	15.25
226.215	13.25
226.449	22.25
226.683	8.25
226.918	23.25
227.152	41.25
227.387	38.25
227.621	40.25
227.856	35.25
228.09	55.25
228.324	63.25
228.559	59.25
228.793	60.25
229.027	61.25
229.262	58.25
229.496	79.25
229.73	82.25
229.964	87.25
230.199	70.25
230.433	70.25
230.667	75.25
230.901	64.25
231.136	88.25
231.37	79.25
231.604	81.25
231.838	76.25
232.072	80.25
232.306	93.25
232.541	77.25
232.775	74.25
233.009	76.25
233.243	71.25
233.477	69.25
233.711	82.25
233.945	78.25
234.179	81.25
234.413	80.25
234.647	82.25
234.881	72.25
235.115	78.25
235.349	70.25
235.583	76.25
235.817	67.25
236.051	76.25
236.285	86.25
236.519	76.25
236.753	86.25
236.987	84.25
237.221	93.25
237.455	74.25
237.689	77.25
237.922	72.25
238.156	79.25
238.39	74.25
238.624	73.25
238.858	74.25
239.091	74.25
239.325	71.25
239.559	72.25
239.793	76.25
240.027	76.25
240.26	66.25
240.494	69.25
240.728	67.25
240.961	77.25
241.195	67.25
241.429	64.25
241.662	67.25
241.896	74.25
242.13	68.25
242.363	82.25
242.597	66.25
242.83	87.25
243.064	76.25
243.298	73.25
243.531	63.25
243.765	64.25
243.998	68.25
244.232	74.25
244.465	82.25
244.699	88.25
244.932	64.25
245.166	62.25
245.399	79.25
245.633	82.25
245.866	81.25
246.099	86.25
246.333	84.25
246.566	82.25
246.8	89.25
247.033	74.25
247.266	78.25
247.5	76.25
247.733	71.25
247.966	66.25
248.2	62.25
248.433	78.25
248.666	77.25
248.899	93.25
249.133	91.25
249.366	98.25
249.599	88.25
249.832	89.25
250.066	76.25
250.299	78.25
250.532	83.25
250.765	62.25
250.998	72.25
251.231	82.25
251.465	82.25
251.698	83.25
251.931	76.25
252.164	62.25
252.397	76.25
252.63	80.25
252.863	79.25
253.096	75.25
253.329	89.25
253.562	78.25
253.795	76.25
254.028	74.25
254.261	63.25
254.494	76.25
254.727	68.25
254.96	86.25
255.193	67.25
255.426	86.25
255.659	85.25
255.892	74.25
256.124	78.25
256.357	70.25
256.59	67.25
256.823	76.25
257.056	84.25
257.289	66.25
257.521	89.25
257.754	78.25
257.987	98.25
258.22	81.25
258.452	81.25
258.685	89.25
258.918	76.25
259.151	90.25
259.383	70.25
259.616	78.25
259.849	74.25
260.081	70.25
260.314	82.25
260.547	75.25
260.779	85.25
261.012	80.25
261.244	100.25
261.477	98.25
261.71	86.25
261.942	108.25
262.175	115.25
262.407	68.25
262.64	75.25
262.872	88.25
263.105	82.25
263.337	80.25
263.57	94.25
263.802	79.25
264.035	91.25
264.267	82.25
264.499	86.25
264.732	75.25
264.964	69.25
265.197	67.25
265.429	70.25
265.661	90.25
265.894	99.25
266.126	80.25
266.358	83.25
266.591	61.25
266.823	78.25
267.055	80.25
267.287	90.25
267.52	94.25
267.752	76.25
267.984	86.25
268.216	90.25
268.448	76.25
268.681	82.25
268.913	91.25
269.145	80.25
269.377	75.25
269.609	94.25
269.841	95.25
270.073	68.25
270.306	85.25
270.538	75.25
270.77	74.25
271.002	83.25
271.234	74.25
271.466	80.25
271.698	78.25
271.93	66.25
272.162	78.25
272.394	90.25
272.626	82.25
272.858	88.25
273.09	77.25
273.322	86.25
273.553	83.25
273.785	82.25
274.017	82.25
274.249	83.25
274.481	94.25
274.713	74.25
274.945	94.25
275.176	80.25
275.408	82.25
275.64	101.25
275.872	107.25
276.104	76.25
276.335	81.25
276.567	88.25
276.799	103.25
277.031	111.25
277.262	113.25
277.494	90.25
277.726	95.25
277.957	76.25
278.189	75.25
278.421	76.25
278.652	87.25
278.884	84.25
279.115	90.25
279.347	93.25
279.579	84.25
279.81	99.25
280.042	126.25
280.273	133.25
280.505	111.25
280.736	83.25
280.968	76.25
281.199	82.25
281.431	87.25
281.662	78.25
281.894	82.25
282.125	93.25
282.356	113.25
282.588	137.25
282.819	104.25
283.051	95.25
283.282	66.25
283.513	97.25
283.745	80.25
283.976	84.25
284.207	85.25
284.439	87.25
284.67	85.25
284.901	101.25
285.132	80.25
285.364	86.25
285.595	75.25
285.826	97.25
286.057	90.25
286.288	82.25
286.52	84.25
286.751	86.25
286.982	84.25
287.213	83.25
287.444	74.25
287.675	88.25
287.906	81.25
288.138	87.25
288.369	96.25
288.6	82.25
288.831	70.25
289.062	79.25
289.293	94.25
289.524	88.25
289.755	78.25
289.986	90.25
290.217	90.25
290.448	78.25
290.679	76.25
290.91	80.25
291.141	84.25
291.371	80.25
291.602	93.25
291.833	81.25
292.064	87.25
292.295	90.25
292.526	87.25
292.757	90.25
292.987	93.25
293.218	86.25
293.449	95.25
293.68	72.25
293.91	92.25
294.141	99.25
294.372	91.25
294.603	85.25
294.833	79.25
295.064	92.25
295.295	81.25
295.525	84.25
295.756	105.25
295.987	105.25
296.217	135.25
296.448	118.25
296.679	82.25
296.909	92.25
297.14	104.25
297.37	87.25
297.601	83.25
297.831	88.25
298.062	87.25
298.292	94.25
298.523	82.25
298.753	86.25
298.984	65.25
299.214	76.25
299.445	94.25
299.675	83.25
299.905	100.25
300.136	84.25
300.366	93.25
300.597	86.25
300.827	81.25
301.057	93.25
301.288	88.25
301.518	79.25
301.748	95.25
301.979	100.25
302.209	88.25
302.439	71.25
302.669	81.25
302.9	87.25
303.13	82.25
303.36	78.25
303.59	109.25
303.82	111.25
304.051	94.25
304.281	83.25
304.511	102.25
304.741	78.25
304.971	100.25
305.201	84.25
305.431	76.25
305.661	95.25
305.891	87.25
306.121	102.25
306.352	105.25
306.582	88.25
306.812	101.25
307.042	91.25
307.272	98.25
307.502	133.25
307.731	117.25
307.961	94.25
308.191	77.25
308.421	96.25
308.651	83.25
308.881	78.25
309.111	95.25
309.341	84.25
309.571	87.25
309.8	95.25
310.03	85.25
310.26	106.25
310.49	96.25
310.72	98.25
310.949	113.25
311.179	95.25
311.409	86.25
311.639	79.25
311.868	97.25
312.098	94.25
312.328	90.25
312.557	94.25
312.787	115.25
313.017	95.25
313.246	79.25
313.476	98.25
313.706	77.25
313.935	91.25
314.165	90.25
314.394	100.25
314.624	92.25
314.853	80.25
315.083	89.25
315.312	89.25
315.542	94.25
315.771	90.25
316.001	83.25
316.23	97.25
316.46	99.25
316.689	91.25
316.919	94.25
317.148	78.25
317.377	97.25
317.607	93.25
317.836	114.25
318.065	78.25
318.295	92.25
318.524	96.25
318.753	90.25
318.983	90.25
319.212	90.25
319.441	115.25
319.67	96.25
319.9	92.25
320.129	88.25
320.358	105.25
320.587	106.25
320.816	87.25
321.046	93.25
321.275	101.25
321.504	105.25
321.733	97.25
321.962	99.25
322.191	96.25
322.42	97.25
322.649	107.25
322.878	102.25
323.108	106.25
323.337	118.25
323.566	130.25
323.795	140.25
324.024	191.25
324.253	357.25
324.482	776.25
324.71	1568.25
324.939	2066.25
325.168	749.25
325.397	227.25
325.626	147.25
325.855	129.25
326.084	129.25
326.313	124.25
326.542	133.25
326.77	197.25
326.999	423.25
327.228	856.25
327.457	1540.25
327.686	1239.25
327.914	379.25
328.143	274.25
328.372	274.25
328.6	194.25
328.829	130.25
329.058	130.25
329.287	134.25
329.515	114.25
329.744	151.25
329.972	214.25
330.201	386.25
330.43	548.25
330.658	289.25
330.887	176.25
331.115	129.25
331.344	105.25
331.572	99.25
331.801	113.25
332.03	106.25
332.258	106.25
332.486	95.25
332.715	96.25
332.943	100.25
333.172	108.25
333.4	101.25
333.629	123.25
333.857	158.25
334.085	224.25
334.314	382.25
334.542	677.25
334.771	652.25
334.999	212.25
335.227	108.25
335.455	105.25
335.684	98.25
335.912	95.25
336.14	86.25
336.369	98.25
336.597	98.25
336.825	100.25
337.053	97.25
337.281	82.25
337.51	100.25
337.738	89.25
337.966	94.25
338.194	96.25
338.422	89.25
338.65	96.25
338.878	85.25
339.106	88.25
339.334	88.25
339.562	79.25
339.79	80.25
340.018	74.25
340.246	98.25
340.474	93.25
340.702	86.25
340.93	95.25
341.158	92.25
341.386	86.25
341.614	91.25
341.842	98.25
342.07	100.25
342.298	94.25
342.526	90.25
342.754	88.25
342.981	73.25
343.209	95.25
343.437	97.25
343.665	83.25
343.893	89.25
344.12	90.25
344.348	85.25
344.576	104.25
344.804	82.25
345.031	102.25
345.259	91.25
345.487	80.25
345.714	90.25
345.942	81.25
346.17	85.25
346.397	94.25
346.625	93.25
346.853	83.25
347.08	88.25
347.308	92.25
347.535	103.25
347.763	90.25
347.99	97.25
348.218	109.25
348.445	107.25
348.673	96.25
348.9	94.25
349.128	96.25
349.355	79.25
349.583	92.25
349.81	97.25
350.037	91.25
350.265	81.25
350.492	91.25
350.72	96.25
350.947	88.25
351.174	107.25
351.402	92.25
351.629	74.25
351.856	95.25
352.083	92.25
352.311	108.25
352.538	106.25
352.765	115.25
352.992	107.25
353.22	101.25
353.447	114.25
353.674	96.25
353.901	90.25
354.128	89.25
354.355	94.25
354.583	84.25
354.81	100.25
355.037	92.25
355.264	98.25
355.491	92.25
355.718	86.25
355.945	89.25
356.172	78.25
356.399	95.25
356.626	87.25
356.853	94.25
357.08	75.25
357.307	79.25
357.534	81.25
357.761	91.25
357.988	91.25
358.215	89.25
358.441	93.25
358.668	88.25
358.895	90.25
359.122	84.25
359.349	85.25
359.576	91.25
359.802	87.25
360.029	93.25
360.256	113.25
360.483	109.25
360.709	104.25
360.936	91.25
361.163	96.25
361.39	96.25
361.616	98.25
361.843	87.25
362.07	95.25
362.296	99.25
362.523	79.25
362.749	96.25
362.976	90.25
363.203	100.25
363.429	87.25
363.656	89.25
363.882	72.25
364.109	88.25
364.335	90.25
364.562	84.25
364.788	86.25
365.015	95.25
365.241	88.25
365.468	98.25
365.694	107.25
365.92	88.25
366.147	104.25
366.373	104.25
366.599	86.25
366.826	86.25
367.052	86.25
367.278	74.25
367.505	93.25
367.731	92.25
367.957	87.25
368.184	90.25
368.41	110.25
368.636	84.25
368.862	112.25
369.089	99.25
369.315	94.25
369.541	74.25
369.767	95.25
369.993	85.25
370.219	91.25
370.445	87.25
370.672	89.25
370.898	82.25
371.124	88.25
371.35	78.25
371.576	84.25
371.802	87.25
372.028	89.25
372.254	88.25
372.48	80.25
372.706	79.25
372.932	91.25
373.158	81.25
373.384	87.25
373.61	98.25
373.835	80.25
374.061	80.25
374.287	77.25
374.513	80.25
374.739	98.25
374.965	92.25
375.191	73.25
375.416	95.25
375.642	105.25
375.868	95.25
376.094	94.25
376.319	81.25
376.545	90.25
376.771	74.25
376.997	74.25
377.222	88.25
377.448	86.25
377.674	79.25
377.899	90.25
378.125	93.25
378.35	95.25
378.576	90.25
378.802	86.25
379.027	81.25
379.253	78.25
379.478	87.25
379.704	89.25
379.929	91.25
380.155	102.25
380.38	83.25
380.606	81.25
380.831	96.25
381.057	99.25
381.282	107.25
381.507	113.25
381.733	97.25
381.958	100.25
382.184	94.25
382.409	87.25
382.634	96.25
382.86	103.25
383.085	98.25
383.31	106.25
383.535	93.25
383.761	99.25
383.986	87.25
384.211	102.25
384.436	96.25
384.662	91.25
384.887	93.25
385.112	91.25
385.337	109.25
385.562	114.25
385.787	89.25
386.013	98.25
386.238	119.25
386.463	111.25
386.688	103.25
386.913	109.25
387.138	107.25
387.363	111.25
387.588	95.25
387.813	104.25
388.038	121.25
388.263	116.25
388.488	105.25
388.713	91.25
388.938	93.25
389.163	87.25
389.387	89.25
389.612	89.25
389.837	98.25
390.062	82.25
390.287	72.25
390.512	76.25
390.736	82.25
390.961	87.25
391.186	96.25
391.411	91.25
391.636	84.25
391.86	93.25
392.085	92.25
392.31	80.25
392.534	82.25
392.759	81.25
392.984	92.25
393.208	89.25
393.433	94.25
393.658	76.25
393.882	80.25
394.107	84.25
394.331	92.25
394.556	85.25
394.78	82.25
395.005	81.25
395.229	78.25
395.454	75.25
395.678	89.25
395.903	86.25
396.127	103.25
396.352	75.25
396.576	88.25
396.801	82.25
397.025	90.25
397.249	93.25
397.474	90.25
397.698	86.25
397.922	86.25
398.147	79.25
398.371	83.25
398.595	80.25
398.82	84.25
399.044	81.25
399.268	83.25
399.492	87.25
399.717	78.25
399.941	88.25
400.165	76.25
400.389	94.25
400.613	86.25
400.837	91.25
401.062	85.25
401.286	89.25
401.51	97.25
401.734	83.25
401.958	101.25
402.182	116.25
402.406	143.25
402.63	108.25
402.854	91.25
403.078	89.25
403.302	83.25
403.526	78.25
403.75	82.25
403.974	94.25
404.198	87.25
404.422	67.25
404.645	99.25
404.869	97.25
405.093	97.25
405.317	119.25
405.541	107.25
405.765	95.25
405.988	104.25
406.212	161.25
406.436	216.25
406.66	146.25
406.883	90.25
407.107	92.25
407.331	102.25
407.555	91.25
407.778	99.25
408.002	93.25
408.226	88.25
408.449	95.25
408.673	93.25
408.896	81.25
409.12	82.25
409.344	79.25
409.567	98.25
409.791	81.25
410.014	101.25
410.238	80.25
410.461	89.25
410.685	103.25
410.908	92.25
411.132	92.25
411.355	107.25
411.578	94.25
411.802	89.25
412.025	75.25
412.249	104.25
412.472	115.25
412.695	118.25
412.919	100.25
413.142	84.25
413.365	80.25
413.589	97.25
413.812	81.25
414.035	95.25
414.258	82.25
414.482	85.25
414.705	97.25
414.928	88.25
415.151	87.25
415.374	100.25
415.597	88.25
415.821	79.25
416.044	84.25
416.267	83.25
416.49	85.25
416.713	100.25
416.936	75.25
417.159	84.25
417.382	90.25
417.605	85.25
417.828	98.25
418.051	84.25
418.274	103.25
418.497	94.25
418.72	74.25
418.943	88.25
419.166	81.25
419.389	83.25
419.611	89.25
419.834	87.25
420.057	89.25
420.28	96.25
420.503	80.25
420.726	80.25
420.948	107.25
421.171	81.25
421.394	89.25
421.617	96.25
421.839	79.25
422.062	98.25
422.285	83.25
422.507	85.25
422.73	98.25
422.953	95.25
423.175	89.25
423.398	83.25
423.621	94.25
423.843	89.25
424.066	83.25
424.288	82.25
424.511	88.25
424.733	98.25
424.956	96.25
425.178	92.25
425.401	108.25
425.623	96.25
425.846	84.25
426.068	84.25
426.291	96.25
426.513	87.25
426.735	100.25
426.958	87.25
427.18	100.25
427.402	144.25
427.625	186.25
427.847	163.25
428.069	150.25
428.292	98.25
428.514	90.25
428.736	84.25
428.958	81.25
429.181	98.25
429.403	75.25
429.625	83.25
429.847	86.25
430.069	90.25
430.292	95.25
430.514	91.25
430.736	79.25
430.958	79.25
431.18	83.25
431.402	83.25
431.624	92.25
431.846	68.25
432.068	95.25
432.29	75.25
432.512	77.25
432.734	78.25
432.956	86.25
433.178	106.25
433.4	94.25
433.622	94.25
433.844	106.25
434.066	80.25
434.287	89.25
434.509	91.25
434.731	89.25
434.953	86.25
435.175	82.25
435.397	83.25
435.618	84.25
435.84	93.25
436.062	119.25
436.284	112.25
436.505	99.25
436.727	98.25
436.949	80.25
437.17	75.25
437.392	83.25
437.614	83.25
437.835	111.25
438.057	112.25
438.278	103.25
438.5	106.25
438.721	122.25
438.943	93.25
439.165	89.25
439.386	79.25
439.608	79.25
439.829	91.25
440.05	117.25
440.272	138.25
440.493	107.25
440.715	82.25
440.936	76.25
441.158	82.25
441.379	74.25
441.6	86.25
441.822	98.25
442.043	100.25
442.264	115.25
442.486	105.25
442.707	88.25
442.928	112.25
443.149	120.25
443.371	111.25
443.592	104.25
443.813	113.25
444.034	106.25
444.255	84.25
444.476	95.25
444.698	91.25
444.919	84.25
445.14	120.25
445.361	118.25
445.582	99.25
445.803	144.25
446.024	153.25
446.245	137.25
446.466	112.25
446.687	93.25
446.908	90.25
447.129	101.25
447.35	81.25
447.571	91.25
447.792	73.25
448.013	96.25
448.234	102.25
448.455	86.25
448.675	109.25
448.896	117.25
449.117	92.25
449.338	96.25
449.559	129.25
449.779	131.25
450	98.25
450.221	85.25
450.442	88.25
450.662	96.25
450.883	110.25
451.104	99.25
451.324	105.25
451.545	106.25
451.766	82.25
451.986	73.25
452.207	84.25
452.428	88.25
452.648	94.25
452.869	105.25
453.089	100.25
453.31	118.25
453.53	86.25
453.751	81.25
453.971	111.25
454.192	107.25
454.412	97.25
454.633	95.25
454.853	90.25
455.073	79.25
455.294	89.25
455.514	99.25
455.734	94.25
455.955	92.25
456.175	99.25
456.395	74.25
456.616	84.25
456.836	68.25
457.056	82.25
457.276	94.25
457.497	85.25
457.717	80.25
457.937	88.25
458.157	97.25
458.377	87.25
458.598	95.25
458.818	158.25
459.038	169.25
459.258	125.25
459.478	90.25
459.698	73.25
459.918	81.25
460.138	79.25
460.358	65.25
460.578	93.25
460.798	84.25
461.018	86.25
461.238	83.25
461.458	91.25
461.678	95.25
461.898	86.25
462.118	84.25
462.338	100.25
462.558	82.25
462.777	80.25
462.997	95.25
463.217	101.25
463.437	74.25
463.657	89.25
463.876	87.25
464.096	85.25
464.316	86.25
464.536	89.25
464.755	89.25
464.975	96.25
465.195	162.25
465.414	158.25
465.634	81.25
465.854	84.25
466.073	92.25
466.293	93.25
466.512	92.25
466.732	90.25
466.951	86.25
467.171	93.25
467.391	98.25
467.61	116.25
467.829	128.25
468.049	242.25
468.268	302.25
468.488	99.25
468.707	86.25
468.927	84.25
469.146	88.25
469.365	96.25
469.585	101.25
469.804	87.25
470.023	99.25
470.243	85.25
470.462	93.25
470.681	114.25
470.901	93.25
471.12	98.25
471.339	83.25
471.558	104.25
471.777	116.25
471.997	168.25
472.216	442.25
472.435	902.25
472.654	251.25
472.873	115.25
473.092	92.25
473.311	84.25
473.53	62.25
473.749	93.25
473.968	100.25
474.187	106.25
474.406	106.25
474.625	91.25
474.844	86.25
475.063	87.25
475.282	80.25
475.501	83.25
475.72	82.25
475.939	77.25
476.158	63.25
476.377	76.25
476.596	83.25
476.814	92.25
477.033	82.25
477.252	85.25
477.471	92.25
477.69	90.25
477.908	82.25
478.127	92.25
478.346	92.25
478.564	84.25
478.783	84.25
479.002	101.25
479.22	96.25
479.439	99.25
479.658	94.25
479.876	98.25
480.095	97.25
480.313	104.25
480.532	118.25
480.751	146.25
480.969	412.25
481.188	1548.25
481.406	932.25
481.624	184.25
481.843	83.25
482.061	93.25
482.28	87.25
482.498	92.25
482.717	83.25
482.935	79.25
483.153	87.25
483.372	80.25
483.59	92.25
483.808	83.25
484.027	76.25
484.245	80.25
484.463	75.25
484.681	88.25
484.9	74.25
485.118	84.25
485.336	98.25
485.554	103.25
485.772	102.25
485.99	99.25
486.209	108.25
486.427	106.25
486.645	107.25
486.863	118.25
487.081	83.25
487.299	89.25
487.517	90.25
487.735	99.25
487.953	90.25
488.171	83.25
488.389	95.25
488.607	103.25
488.825	84.25
489.043	96.25
489.261	100.25
489.479	87.25
489.696	94.25
489.914	91.25
490.132	83.25
490.35	89.25
490.568	94.25
490.786	84.25
491.003	84.25
491.221	93.25
491.439	85.25
491.657	88.25
491.874	94.25
492.092	103.25
492.31	96.25
492.527	90.25
492.745	77.25
492.963	82.25
493.18	93.25
493.398	81.25
493.615	88.25
493.833	94.25
494.05	78.25
494.268	79.25
494.485	103.25
494.703	79.25
494.92	88.25
495.138	81.25
495.355	84.25
495.573	90.25
495.79	90.25
496.008	88.25
496.225	84.25
496.442	78.25
496.66	76.25
496.877	87.25
497.094	89.25
497.312	98.25
497.529	81.25
497.746	90.25
497.963	105.25
498.181	82.25
498.398	85.25
498.615	104.25
498.832	98.25
499.049	95.25
499.267	94.25
499.484	66.25
499.701	74.25
499.918	89.25
500.135	83.25
500.352	90.25
500.569	94.25
500.786	94.25
501.003	89.25
501.22	87.25
501.437	83.25
501.654	95.25
501.871	113.25
502.088	82.25
502.305	100.25
502.522	90.25
502.739	81.25
502.956	77.25
503.172	96.25
503.389	78.25
503.606	90.25
503.823	90.25
504.04	98.25
504.256	61.25
504.473	92.25
504.69	92.25
504.907	82.25
505.123	82.25
505.34	91.25
505.557	90.25
505.773	102.25
505.99	96.25
506.207	86.25
506.423	83.25
506.64	100.25
506.856	95.25
507.073	102.25
507.289	78.25
507.506	88.25
507.722	106.25
507.939	110.25
508.155	91.25
508.372	90.25
508.588	75.25
508.805	83.25
509.021	92.25
509.238	92.25
509.454	84.25
509.67	91.25
509.887	93.25
510.103	116.25
510.319	192.25
510.536	719.25
510.752	2294.25
510.968	611.25
511.184	151.25
511.401	103.25
511.617	114.25
511.833	83.25
512.049	76.25
512.265	78.25
512.481	92.25
512.698	84.25
512.914	87.25
513.13	106.25
513.346	82.25
513.562	88.25
513.778	89.25
513.994	97.25
514.21	99.25
514.426	113.25
514.642	137.25
514.858	126.25
515.074	168.25
515.29	427.25
515.506	1460.25
515.721	583.25
515.937	154.25
516.153	107.25
