Data from Circ_1992_H10_HRD10591_00054.txt Node
Date: Wed Jan 03 11:47:55 EST 2024
User: Yrep
Spectrometer: HR+D1059
Trigger mode: 1
Integration Time (sec): 1.000000E-1
Scans to average: 1
Electric dark correction enabled: true
Nonlinearity correction enabled: false
Boxcar width: 0
XAxis mode: Wavelengths
Number of Pixels in Spectrum: 2048
>>>>>Begin Spectral Data<<<<<
223.165	-9.62
223.4	-9.62
223.635	-9.62
223.869	-12.62
224.104	-17.62
224.338	-22.62
224.573	-10.62
224.808	-15.62
225.042	-6.62
225.277	0.38
225.511	0.38
225.746	4.38
225.98	-3.62
226.215	2.38
226.449	19.38
226.683	20.38
226.918	18.38
227.152	33.38
227.387	43.38
227.621	56.38
227.856	50.38
228.09	57.38
228.324	59.38
228.559	63.38
228.793	55.38
229.027	60.38
229.262	65.38
229.496	65.38
229.73	77.38
229.964	86.38
230.199	80.38
230.433	70.38
230.667	89.38
230.901	77.38
231.136	81.38
231.37	82.38
231.604	84.38
231.838	74.38
232.072	91.38
232.306	84.38
232.541	69.38
232.775	79.38
233.009	99.38
233.243	72.38
233.477	71.38
233.711	70.38
233.945	66.38
234.179	85.38
234.413	95.38
234.647	78.38
234.881	79.38
235.115	77.38
235.349	70.38
235.583	81.38
235.817	88.38
236.051	85.38
236.285	64.38
236.519	88.38
236.753	76.38
236.987	78.38
237.221	90.38
237.455	82.38
237.689	82.38
237.922	89.38
238.156	82.38
238.39	85.38
238.624	78.38
238.858	87.38
239.091	65.38
239.325	85.38
239.559	87.38
239.793	66.38
240.027	75.38
240.26	83.38
240.494	68.38
240.728	84.38
240.961	80.38
241.195	73.38
241.429	67.38
241.662	80.38
241.896	71.38
242.13	61.38
242.363	73.38
242.597	90.38
242.83	84.38
243.064	85.38
243.298	84.38
243.531	76.38
243.765	79.38
243.998	88.38
244.232	85.38
244.465	100.38
244.699	83.38
244.932	71.38
245.166	75.38
245.399	60.38
245.633	63.38
245.866	91.38
246.099	84.38
246.333	64.38
246.566	79.38
246.8	63.38
247.033	81.38
247.266	86.38
247.5	77.38
247.733	78.38
247.966	86.38
248.2	76.38
248.433	86.38
248.666	74.38
248.899	81.38
249.133	98.38
249.366	100.38
249.599	102.38
249.832	88.38
250.066	81.38
250.299	64.38
250.532	84.38
250.765	93.38
250.998	91.38
251.231	85.38
251.465	71.38
251.698	87.38
251.931	105.38
252.164	102.38
252.397	76.38
252.63	89.38
252.863	87.38
253.096	79.38
253.329	80.38
253.562	67.38
253.795	78.38
254.028	86.38
254.261	94.38
254.494	81.38
254.727	70.38
254.96	75.38
255.193	59.38
255.426	73.38
255.659	92.38
255.892	81.38
256.124	85.38
256.357	81.38
256.59	77.38
256.823	81.38
257.056	71.38
257.289	79.38
257.521	78.38
257.754	83.38
257.987	85.38
258.22	81.38
258.452	98.38
258.685	89.38
258.918	83.38
259.151	84.38
259.383	82.38
259.616	81.38
259.849	98.38
260.081	93.38
260.314	75.38
260.547	68.38
260.779	83.38
261.012	93.38
261.244	89.38
261.477	80.38
261.71	93.38
261.942	117.38
262.175	126.38
262.407	96.38
262.64	84.38
262.872	95.38
263.105	91.38
263.337	89.38
263.57	89.38
263.802	69.38
264.035	91.38
264.267	73.38
264.499	78.38
264.732	91.38
264.964	89.38
265.197	85.38
265.429	91.38
265.661	86.38
265.894	68.38
266.126	94.38
266.358	94.38
266.591	82.38
266.823	96.38
267.055	101.38
267.287	83.38
267.52	78.38
267.752	82.38
267.984	81.38
268.216	87.38
268.448	96.38
268.681	85.38
268.913	76.38
269.145	95.38
269.377	84.38
269.609	90.38
269.841	85.38
270.073	84.38
270.306	94.38
270.538	81.38
270.77	83.38
271.002	82.38
271.234	95.38
271.466	86.38
271.698	87.38
271.93	83.38
272.162	94.38
272.394	90.38
272.626	84.38
272.858	81.38
273.09	85.38
273.322	86.38
273.553	77.38
273.785	95.38
274.017	87.38
274.249	83.38
274.481	73.38
274.713	83.38
274.945	84.38
275.176	91.38
275.408	88.38
275.64	90.38
275.872	77.38
276.104	90.38
276.335	95.38
276.567	95.38
276.799	121.38
277.031	123.38
277.262	109.38
277.494	111.38
277.726	90.38
277.957	83.38
278.189	86.38
278.421	77.38
278.652	85.38
278.884	86.38
279.115	90.38
279.347	78.38
279.579	91.38
279.81	110.38
280.042	131.38
280.273	129.38
280.505	120.38
280.736	91.38
280.968	91.38
281.199	107.38
281.431	84.38
281.662	85.38
281.894	79.38
282.125	108.38
282.356	117.38
282.588	129.38
282.819	110.38
283.051	85.38
283.282	94.38
283.513	95.38
283.745	87.38
283.976	81.38
284.207	89.38
284.439	84.38
284.67	81.38
284.901	90.38
285.132	80.38
285.364	91.38
285.595	82.38
285.826	91.38
286.057	97.38
286.288	82.38
286.52	89.38
286.751	93.38
286.982	102.38
287.213	89.38
287.444	91.38
287.675	89.38
287.906	83.38
288.138	99.38
288.369	98.38
288.6	91.38
288.831	104.38
289.062	94.38
289.293	93.38
289.524	88.38
289.755	90.38
289.986	73.38
290.217	100.38
290.448	77.38
290.679	85.38
290.91	90.38
291.141	97.38
291.371	84.38
291.602	88.38
291.833	94.38
292.064	89.38
292.295	88.38
292.526	92.38
292.757	98.38
292.987	99.38
293.218	93.38
293.449	94.38
293.68	93.38
293.91	86.38
294.141	79.38
294.372	86.38
294.603	84.38
294.833	92.38
295.064	85.38
295.295	87.38
295.525	89.38
295.756	111.38
295.987	113.38
296.217	128.38
296.448	118.38
296.679	79.38
296.909	94.38
297.14	92.38
297.37	101.38
297.601	83.38
297.831	92.38
298.062	93.38
298.292	86.38
298.523	100.38
298.753	85.38
298.984	87.38
299.214	92.38
299.445	89.38
299.675	90.38
299.905	88.38
300.136	93.38
300.366	93.38
300.597	82.38
300.827	90.38
301.057	109.38
301.288	101.38
301.518	99.38
301.748	96.38
301.979	97.38
302.209	100.38
302.439	89.38
302.669	92.38
302.9	89.38
303.13	100.38
303.36	100.38
303.59	116.38
303.82	113.38
304.051	92.38
304.281	101.38
304.511	89.38
304.741	90.38
304.971	89.38
305.201	89.38
305.431	93.38
305.661	91.38
305.891	74.38
306.121	98.38
306.352	110.38
306.582	108.38
306.812	95.38
307.042	85.38
307.272	110.38
307.502	126.38
307.731	115.38
307.961	110.38
308.191	94.38
308.421	81.38
308.651	94.38
308.881	90.38
309.111	99.38
309.341	93.38
309.571	88.38
309.8	95.38
310.03	102.38
310.26	101.38
310.49	99.38
310.72	104.38
310.949	120.38
311.179	93.38
311.409	106.38
311.639	89.38
311.868	93.38
312.098	102.38
312.328	100.38
312.557	100.38
312.787	99.38
313.017	103.38
313.246	102.38
313.476	98.38
313.706	103.38
313.935	97.38
314.165	108.38
314.394	95.38
314.624	98.38
314.853	100.38
315.083	115.38
315.312	93.38
315.542	91.38
315.771	84.38
316.001	87.38
316.23	98.38
316.46	93.38
316.689	87.38
316.919	80.38
317.148	114.38
317.377	106.38
317.607	103.38
317.836	92.38
318.065	81.38
318.295	79.38
318.524	96.38
318.753	92.38
318.983	83.38
319.212	111.38
319.441	89.38
319.67	117.38
319.9	102.38
320.129	86.38
320.358	90.38
320.587	106.38
320.816	98.38
321.046	107.38
321.275	111.38
321.504	94.38
321.733	89.38
321.962	87.38
322.191	94.38
322.42	108.38
322.649	103.38
322.878	108.38
323.108	121.38
323.337	117.38
323.566	137.38
323.795	163.38
324.024	224.38
324.253	413.38
324.482	887.38
324.71	1891.38
324.939	2580.38
325.168	893.38
325.397	242.38
325.626	166.38
325.855	145.38
326.084	126.38
326.313	137.38
326.542	163.38
326.77	262.38
326.999	499.38
327.228	1014.38
327.457	1970.38
327.686	1549.38
327.914	455.38
328.143	303.38
328.372	305.38
328.6	217.38
328.829	129.38
329.058	122.38
329.287	141.38
329.515	126.38
329.744	157.38
329.972	225.38
330.201	394.38
330.43	559.38
330.658	289.38
330.887	173.38
331.115	148.38
331.344	114.38
331.572	103.38
331.801	99.38
332.03	109.38
332.258	107.38
332.486	91.38
332.715	100.38
332.943	90.38
333.172	100.38
333.4	93.38
333.629	107.38
333.857	158.38
334.085	204.38
334.314	390.38
334.542	693.38
334.771	673.38
334.999	223.38
335.227	127.38
335.455	106.38
335.684	109.38
335.912	95.38
336.14	106.38
336.369	114.38
336.597	99.38
336.825	104.38
337.053	86.38
337.281	87.38
337.51	84.38
337.738	84.38
337.966	98.38
338.194	99.38
338.422	95.38
338.65	88.38
338.878	85.38
339.106	94.38
339.334	89.38
339.562	92.38
339.79	74.38
340.018	92.38
340.246	74.38
340.474	86.38
340.702	102.38
340.93	84.38
341.158	79.38
341.386	97.38
341.614	93.38
341.842	102.38
342.07	97.38
342.298	99.38
342.526	90.38
342.754	93.38
342.981	90.38
343.209	87.38
343.437	98.38
343.665	89.38
343.893	84.38
344.12	98.38
344.348	87.38
344.576	92.38
344.804	95.38
345.031	102.38
345.259	108.38
345.487	97.38
345.714	86.38
345.942	87.38
346.17	105.38
346.397	86.38
346.625	91.38
346.853	88.38
347.08	93.38
347.308	81.38
347.535	106.38
347.763	99.38
347.99	83.38
348.218	101.38
348.445	99.38
348.673	94.38
348.9	77.38
349.128	97.38
349.355	95.38
349.583	91.38
349.81	92.38
350.037	101.38
350.265	92.38
350.492	101.38
350.72	101.38
350.947	94.38
351.174	107.38
351.402	105.38
351.629	103.38
351.856	101.38
352.083	102.38
352.311	98.38
352.538	110.38
352.765	108.38
352.992	105.38
353.22	103.38
353.447	108.38
353.674	113.38
353.901	96.38
354.128	93.38
354.355	104.38
354.583	95.38
354.81	99.38
355.037	94.38
355.264	101.38
355.491	103.38
355.718	84.38
355.945	94.38
356.172	98.38
356.399	86.38
356.626	91.38
356.853	92.38
357.08	106.38
357.307	82.38
357.534	87.38
357.761	80.38
357.988	94.38
358.215	99.38
358.441	93.38
358.668	100.38
358.895	91.38
359.122	87.38
359.349	96.38
359.576	79.38
359.802	110.38
360.029	124.38
360.256	111.38
360.483	89.38
360.709	106.38
360.936	95.38
361.163	81.38
361.39	98.38
361.616	87.38
361.843	96.38
362.07	86.38
362.296	82.38
362.523	87.38
362.749	99.38
362.976	82.38
363.203	90.38
363.429	78.38
363.656	93.38
363.882	87.38
364.109	93.38
364.335	102.38
364.562	93.38
364.788	69.38
365.015	107.38
365.241	95.38
365.468	104.38
365.694	108.38
365.92	98.38
366.147	90.38
366.373	73.38
366.599	86.38
366.826	94.38
367.052	83.38
367.278	91.38
367.505	91.38
367.731	95.38
367.957	97.38
368.184	92.38
368.41	95.38
368.636	92.38
368.862	109.38
369.089	108.38
369.315	91.38
369.541	98.38
369.767	107.38
369.993	91.38
370.219	91.38
370.445	91.38
370.672	82.38
370.898	93.38
371.124	83.38
371.35	81.38
371.576	80.38
371.802	93.38
372.028	89.38
372.254	97.38
372.48	81.38
372.706	96.38
372.932	87.38
373.158	87.38
373.384	89.38
373.61	92.38
373.835	79.38
374.061	85.38
374.287	97.38
374.513	85.38
374.739	92.38
374.965	89.38
375.191	93.38
375.416	86.38
375.642	88.38
375.868	98.38
376.094	65.38
376.319	107.38
376.545	82.38
376.771	88.38
376.997	77.38
377.222	90.38
377.448	90.38
377.674	74.38
377.899	81.38
378.125	85.38
378.35	87.38
378.576	84.38
378.802	84.38
379.027	92.38
379.253	109.38
379.478	101.38
379.704	98.38
379.929	95.38
380.155	97.38
380.38	92.38
380.606	92.38
380.831	90.38
381.057	91.38
381.282	98.38
381.507	96.38
381.733	98.38
381.958	87.38
382.184	91.38
382.409	111.38
382.634	100.38
382.86	104.38
383.085	94.38
383.31	101.38
383.535	91.38
383.761	105.38
383.986	82.38
384.211	92.38
384.436	100.38
384.662	99.38
384.887	98.38
385.112	100.38
385.337	115.38
385.562	94.38
385.787	95.38
386.013	108.38
386.238	117.38
386.463	101.38
386.688	110.38
386.913	96.38
387.138	109.38
387.363	111.38
387.588	99.38
387.813	103.38
388.038	94.38
388.263	104.38
388.488	105.38
388.713	94.38
388.938	95.38
389.163	96.38
389.387	99.38
389.612	81.38
389.837	100.38
390.062	82.38
390.287	89.38
390.512	86.38
390.736	86.38
390.961	89.38
391.186	92.38
391.411	91.38
391.636	89.38
391.86	85.38
392.085	76.38
392.31	79.38
392.534	85.38
392.759	90.38
392.984	90.38
393.208	93.38
393.433	90.38
393.658	91.38
393.882	87.38
394.107	85.38
394.331	78.38
394.556	77.38
394.78	89.38
395.005	89.38
395.229	89.38
395.454	93.38
395.678	85.38
395.903	81.38
396.127	78.38
396.352	94.38
396.576	74.38
396.801	98.38
397.025	97.38
397.249	93.38
397.474	71.38
397.698	82.38
397.922	74.38
398.147	89.38
398.371	85.38
398.595	84.38
398.82	88.38
399.044	80.38
399.268	81.38
399.492	87.38
399.717	85.38
399.941	92.38
400.165	87.38
400.389	93.38
400.613	92.38
400.837	91.38
401.062	89.38
401.286	93.38
401.51	85.38
401.734	85.38
401.958	104.38
402.182	121.38
402.406	153.38
402.63	112.38
402.854	102.38
403.078	99.38
403.302	73.38
403.526	77.38
403.75	98.38
403.974	96.38
404.198	98.38
404.422	86.38
404.645	95.38
404.869	91.38
405.093	116.38
405.317	101.38
405.541	113.38
405.765	94.38
405.988	108.38
406.212	158.38
406.436	225.38
406.66	157.38
406.883	102.38
407.107	83.38
407.331	96.38
407.555	83.38
407.778	107.38
408.002	87.38
408.226	100.38
408.449	91.38
408.673	102.38
408.896	64.38
409.12	95.38
409.344	97.38
409.567	91.38
409.791	95.38
410.014	108.38
410.238	93.38
410.461	83.38
410.685	85.38
410.908	91.38
411.132	114.38
411.355	92.38
411.578	89.38
411.802	81.38
412.025	97.38
412.249	94.38
412.472	93.38
412.695	117.38
412.919	106.38
413.142	107.38
413.365	89.38
413.589	101.38
413.812	90.38
414.035	107.38
414.258	91.38
414.482	83.38
414.705	83.38
414.928	78.38
415.151	101.38
415.374	88.38
415.597	96.38
415.821	96.38
416.044	100.38
416.267	99.38
416.49	90.38
416.713	89.38
416.936	69.38
417.159	79.38
417.382	101.38
417.605	92.38
417.828	85.38
418.051	95.38
418.274	97.38
418.497	75.38
418.72	83.38
418.943	86.38
419.166	86.38
419.389	77.38
419.611	98.38
419.834	94.38
420.057	99.38
420.28	83.38
420.503	98.38
420.726	88.38
420.948	78.38
421.171	87.38
421.394	95.38
421.617	79.38
421.839	97.38
422.062	93.38
422.285	73.38
422.507	85.38
422.73	107.38
422.953	91.38
423.175	82.38
423.398	75.38
423.621	82.38
423.843	83.38
424.066	98.38
424.288	93.38
424.511	87.38
424.733	101.38
424.956	117.38
425.178	90.38
425.401	97.38
425.623	83.38
425.846	83.38
426.068	86.38
426.291	105.38
426.513	88.38
426.735	87.38
426.958	73.38
427.18	92.38
427.402	148.38
427.625	201.38
427.847	158.38
428.069	168.38
428.292	99.38
428.514	97.38
428.736	79.38
428.958	87.38
429.181	103.38
429.403	93.38
429.625	71.38
429.847	91.38
430.069	102.38
430.292	90.38
430.514	82.38
430.736	83.38
430.958	82.38
431.18	73.38
431.402	87.38
431.624	99.38
431.846	81.38
432.068	96.38
432.29	86.38
432.512	88.38
432.734	95.38
432.956	92.38
433.178	95.38
433.4	93.38
433.622	91.38
433.844	88.38
434.066	87.38
434.287	88.38
434.509	87.38
434.731	87.38
434.953	85.38
435.175	79.38
435.397	84.38
435.618	93.38
435.84	112.38
436.062	121.38
436.284	99.38
436.505	86.38
436.727	97.38
436.949	95.38
437.17	95.38
437.392	88.38
437.614	97.38
437.835	101.38
438.057	110.38
438.278	113.38
438.5	110.38
438.721	107.38
438.943	93.38
439.165	98.38
439.386	91.38
439.608	97.38
439.829	89.38
440.05	112.38
440.272	137.38
440.493	99.38
440.715	78.38
440.936	96.38
441.158	90.38
441.379	98.38
441.6	94.38
441.822	96.38
442.043	93.38
442.264	95.38
442.486	105.38
442.707	90.38
442.928	96.38
443.149	133.38
443.371	142.38
443.592	107.38
443.813	116.38
444.034	101.38
444.255	89.38
444.476	84.38
444.698	94.38
444.919	89.38
445.14	115.38
445.361	122.38
445.582	107.38
445.803	126.38
446.024	144.38
446.245	151.38
446.466	115.38
446.687	90.38
446.908	87.38
447.129	78.38
447.35	89.38
447.571	94.38
447.792	94.38
448.013	87.38
448.234	115.38
448.455	96.38
448.675	110.38
448.896	109.38
449.117	94.38
449.338	90.38
449.559	115.38
449.779	127.38
450	94.38
450.221	87.38
450.442	90.38
450.662	86.38
450.883	93.38
451.104	107.38
451.324	91.38
451.545	93.38
451.766	90.38
451.986	85.38
452.207	92.38
452.428	85.38
452.648	82.38
452.869	98.38
453.089	118.38
453.31	117.38
453.53	83.38
453.751	96.38
453.971	105.38
454.192	103.38
454.412	100.38
454.633	76.38
454.853	80.38
455.073	76.38
455.294	99.38
455.514	94.38
455.734	86.38
455.955	86.38
456.175	92.38
456.395	86.38
456.616	79.38
456.836	84.38
457.056	85.38
457.276	75.38
457.497	78.38
457.717	81.38
457.937	85.38
458.157	82.38
458.377	94.38
458.598	103.38
458.818	129.38
459.038	159.38
459.258	110.38
459.478	97.38
459.698	75.38
459.918	80.38
460.138	87.38
460.358	91.38
460.578	90.38
460.798	85.38
461.018	89.38
461.238	87.38
461.458	100.38
461.678	90.38
461.898	86.38
462.118	67.38
462.338	80.38
462.558	81.38
462.777	93.38
462.997	82.38
463.217	86.38
463.437	85.38
463.657	81.38
463.876	86.38
464.096	75.38
464.316	83.38
464.536	96.38
464.755	95.38
464.975	109.38
465.195	173.38
465.414	141.38
465.634	75.38
465.854	91.38
466.073	86.38
466.293	89.38
466.512	79.38
466.732	101.38
466.951	93.38
467.171	81.38
467.391	78.38
467.61	105.38
467.829	122.38
468.049	269.38
468.268	345.38
468.488	116.38
468.707	94.38
468.927	97.38
469.146	87.38
469.365	77.38
469.585	86.38
469.804	110.38
470.023	91.38
470.243	87.38
470.462	88.38
470.681	111.38
470.901	93.38
471.12	104.38
471.339	80.38
471.558	92.38
471.777	115.38
471.997	149.38
472.216	480.38
472.435	972.38
472.654	275.38
472.873	118.38
473.092	92.38
473.311	84.38
473.53	84.38
473.749	90.38
473.968	86.38
474.187	99.38
474.406	93.38
474.625	82.38
474.844	94.38
475.063	96.38
475.282	95.38
475.501	81.38
475.72	88.38
475.939	86.38
476.158	84.38
476.377	92.38
476.596	85.38
476.814	91.38
477.033	100.38
477.252	77.38
477.471	76.38
477.69	80.38
477.908	79.38
478.127	94.38
478.346	92.38
478.564	106.38
478.783	100.38
479.002	90.38
479.22	108.38
479.439	99.38
479.658	111.38
479.876	101.38
480.095	86.38
480.313	101.38
480.532	121.38
480.751	170.38
480.969	459.38
481.188	1712.38
481.406	998.38
481.624	201.38
481.843	109.38
482.061	108.38
482.28	91.38
482.498	94.38
482.717	100.38
482.935	82.38
483.153	95.38
483.372	98.38
483.59	94.38
483.808	90.38
484.027	100.38
484.245	92.38
484.463	97.38
484.681	105.38
484.9	97.38
485.118	92.38
485.336	89.38
485.554	93.38
485.772	111.38
485.99	99.38
486.209	106.38
486.427	97.38
486.645	84.38
486.863	113.38
487.081	100.38
487.299	78.38
487.517	96.38
487.735	85.38
487.953	76.38
488.171	90.38
488.389	82.38
488.607	94.38
488.825	77.38
489.043	97.38
489.261	90.38
489.479	88.38
489.696	90.38
489.914	84.38
490.132	96.38
490.35	92.38
490.568	100.38
490.786	78.38
491.003	98.38
491.221	82.38
491.439	91.38
491.657	98.38
491.874	95.38
492.092	86.38
492.31	83.38
492.527	86.38
492.745	90.38
492.963	99.38
493.18	79.38
493.398	65.38
493.615	92.38
493.833	98.38
494.05	85.38
494.268	79.38
494.485	95.38
494.703	80.38
494.92	89.38
495.138	110.38
495.355	93.38
495.573	80.38
495.79	90.38
496.008	82.38
496.225	95.38
496.442	83.38
496.66	91.38
496.877	93.38
497.094	94.38
497.312	90.38
497.529	87.38
497.746	97.38
497.963	89.38
498.181	93.38
498.398	92.38
498.615	108.38
498.832	105.38
499.049	101.38
499.267	106.38
499.484	84.38
499.701	92.38
499.918	86.38
500.135	99.38
500.352	97.38
500.569	89.38
500.786	98.38
501.003	91.38
501.22	91.38
501.437	86.38
501.654	89.38
501.871	105.38
502.088	80.38
502.305	95.38
502.522	80.38
502.739	89.38
502.956	91.38
503.172	108.38
503.389	93.38
503.606	105.38
503.823	103.38
504.04	105.38
504.256	91.38
504.473	85.38
504.69	90.38
504.907	86.38
505.123	91.38
505.34	84.38
505.557	108.38
505.773	85.38
505.99	78.38
506.207	97.38
506.423	86.38
506.64	95.38
506.856	85.38
507.073	80.38
507.289	89.38
507.506	93.38
507.722	114.38
507.939	107.38
508.155	101.38
508.372	83.38
508.588	94.38
508.805	96.38
509.021	92.38
509.238	97.38
509.454	106.38
509.67	99.38
509.887	110.38
510.103	100.38
510.319	206.38
510.536	733.38
510.752	2262.38
510.968	618.38
511.184	150.38
511.401	95.38
511.617	95.38
511.833	100.38
512.049	85.38
512.265	90.38
512.481	82.38
512.698	77.38
512.914	81.38
513.13	90.38
513.346	111.38
513.562	118.38
513.778	89.38
513.994	105.38
514.21	95.38
514.426	113.38
514.642	125.38
514.858	134.38
515.074	170.38
515.29	445.38
515.506	1430.38
