Data from Circ_1992_H10_HRD10591_00080.txt Node
Date: Wed Jan 03 11:48:00 EST 2024
User: Yrep
Spectrometer: HR+D1059
Trigger mode: 1
Integration Time (sec): 1.000000E-1
Scans to average: 1
Electric dark correction enabled: true
Nonlinearity correction enabled: false
Boxcar width: 0
XAxis mode: Wavelengths
Number of Pixels in Spectrum: 2048
>>>>>Begin Spectral Data<<<<<
223.165	-16.94
223.4	-16.94
223.635	-16.94
223.869	-16.94
224.104	-19.94
224.338	-20.94
224.573	-15.94
224.808	-14.94
225.042	-15.94
225.277	-6.94
225.511	12.06
225.746	10.06
225.98	13.06
226.215	20.06
226.449	9.06
226.683	23.06
226.918	23.06
227.152	18.06
227.387	38.06
227.621	55.06
227.856	53.06
228.09	47.06
228.324	55.06
228.559	64.06
228.793	65.06
229.027	58.06
229.262	70.06
229.496	75.06
229.73	70.06
229.964	86.06
230.199	83.06
230.433	64.06
230.667	69.06
230.901	83.06
231.136	81.06
231.37	87.06
231.604	89.06
231.838	67.06
232.072	85.06
232.306	80.06
232.541	83.06
232.775	85.06
233.009	64.06
233.243	92.06
233.477	95.06
233.711	77.06
233.945	87.06
234.179	79.06
234.413	91.06
234.647	105.06
234.881	78.06
235.115	85.06
235.349	84.06
235.583	78.06
235.817	87.06
236.051	74.06
236.285	71.06
236.519	102.06
236.753	86.06
236.987	91.06
237.221	90.06
237.455	83.06
237.689	84.06
237.922	79.06
238.156	72.06
238.39	66.06
238.624	80.06
238.858	81.06
239.091	81.06
239.325	68.06
239.559	82.06
239.793	82.06
240.027	103.06
240.26	70.06
240.494	80.06
240.728	79.06
240.961	70.06
241.195	90.06
241.429	78.06
241.662	64.06
241.896	83.06
242.13	84.06
242.363	69.06
242.597	93.06
242.83	71.06
243.064	75.06
243.298	83.06
243.531	86.06
243.765	83.06
243.998	72.06
244.232	87.06
244.465	81.06
244.699	75.06
244.932	85.06
245.166	86.06
245.399	62.06
245.633	75.06
245.866	79.06
246.099	94.06
246.333	75.06
246.566	86.06
246.8	74.06
247.033	76.06
247.266	89.06
247.5	85.06
247.733	87.06
247.966	93.06
248.2	81.06
248.433	71.06
248.666	77.06
248.899	86.06
249.133	84.06
249.366	91.06
249.599	95.06
249.832	90.06
250.066	89.06
250.299	84.06
250.532	88.06
250.765	86.06
250.998	88.06
251.231	95.06
251.465	82.06
251.698	82.06
251.931	76.06
252.164	86.06
252.397	88.06
252.63	81.06
252.863	91.06
253.096	86.06
253.329	82.06
253.562	82.06
253.795	86.06
254.028	77.06
254.261	75.06
254.494	93.06
254.727	78.06
254.96	72.06
255.193	91.06
255.426	74.06
255.659	91.06
255.892	71.06
256.124	91.06
256.357	80.06
256.59	92.06
256.823	97.06
257.056	91.06
257.289	101.06
257.521	87.06
257.754	90.06
257.987	83.06
258.22	79.06
258.452	85.06
258.685	88.06
258.918	86.06
259.151	86.06
259.383	86.06
259.616	84.06
259.849	92.06
260.081	88.06
260.314	93.06
260.547	92.06
260.779	83.06
261.012	100.06
261.244	97.06
261.477	79.06
261.71	93.06
261.942	116.06
262.175	121.06
262.407	88.06
262.64	89.06
262.872	82.06
263.105	87.06
263.337	77.06
263.57	78.06
263.802	81.06
264.035	87.06
264.267	70.06
264.499	81.06
264.732	86.06
264.964	82.06
265.197	73.06
265.429	75.06
265.661	89.06
265.894	81.06
266.126	97.06
266.358	95.06
266.591	81.06
266.823	70.06
267.055	87.06
267.287	89.06
267.52	90.06
267.752	78.06
267.984	96.06
268.216	77.06
268.448	74.06
268.681	103.06
268.913	95.06
269.145	75.06
269.377	94.06
269.609	80.06
269.841	103.06
270.073	90.06
270.306	75.06
270.538	100.06
270.77	82.06
271.002	89.06
271.234	81.06
271.466	101.06
271.698	82.06
271.93	83.06
272.162	88.06
272.394	84.06
272.626	102.06
272.858	90.06
273.09	92.06
273.322	97.06
273.553	89.06
273.785	83.06
274.017	92.06
274.249	104.06
274.481	96.06
274.713	98.06
274.945	103.06
275.176	95.06
275.408	95.06
275.64	102.06
275.872	102.06
276.104	107.06
276.335	85.06
276.567	90.06
276.799	125.06
277.031	115.06
277.262	130.06
277.494	118.06
277.726	105.06
277.957	85.06
278.189	89.06
278.421	96.06
278.652	105.06
278.884	93.06
279.115	91.06
279.347	83.06
279.579	88.06
279.81	97.06
280.042	124.06
280.273	157.06
280.505	119.06
280.736	95.06
280.968	79.06
281.199	92.06
281.431	88.06
281.662	94.06
281.894	96.06
282.125	99.06
282.356	125.06
282.588	141.06
282.819	124.06
283.051	110.06
283.282	101.06
283.513	91.06
283.745	87.06
283.976	84.06
284.207	89.06
284.439	84.06
284.67	79.06
284.901	91.06
285.132	91.06
285.364	88.06
285.595	101.06
285.826	97.06
286.057	98.06
286.288	95.06
286.52	88.06
286.751	97.06
286.982	91.06
287.213	91.06
287.444	93.06
287.675	78.06
287.906	84.06
288.138	93.06
288.369	91.06
288.6	94.06
288.831	103.06
289.062	84.06
289.293	95.06
289.524	88.06
289.755	81.06
289.986	97.06
290.217	78.06
290.448	99.06
290.679	97.06
290.91	93.06
291.141	84.06
291.371	96.06
291.602	96.06
291.833	77.06
292.064	87.06
292.295	82.06
292.526	83.06
292.757	73.06
292.987	97.06
293.218	84.06
293.449	86.06
293.68	83.06
293.91	94.06
294.141	97.06
294.372	92.06
294.603	98.06
294.833	103.06
295.064	94.06
295.295	79.06
295.525	86.06
295.756	96.06
295.987	126.06
296.217	124.06
296.448	127.06
296.679	98.06
296.909	98.06
297.14	101.06
297.37	90.06
297.601	97.06
297.831	98.06
298.062	91.06
298.292	87.06
298.523	92.06
298.753	78.06
298.984	91.06
299.214	104.06
299.445	95.06
299.675	92.06
299.905	91.06
300.136	90.06
300.366	80.06
300.597	104.06
300.827	92.06
301.057	109.06
301.288	118.06
301.518	102.06
301.748	96.06
301.979	107.06
302.209	88.06
302.439	94.06
302.669	89.06
302.9	88.06
303.13	91.06
303.36	107.06
303.59	111.06
303.82	123.06
304.051	103.06
304.281	100.06
304.511	85.06
304.741	92.06
304.971	91.06
305.201	95.06
305.431	105.06
305.661	101.06
305.891	98.06
306.121	106.06
306.352	112.06
306.582	109.06
306.812	106.06
307.042	114.06
307.272	118.06
307.502	128.06
307.731	130.06
307.961	106.06
308.191	110.06
308.421	82.06
308.651	94.06
308.881	84.06
309.111	92.06
309.341	95.06
309.571	100.06
309.8	106.06
310.03	110.06
310.26	96.06
310.49	104.06
310.72	102.06
310.949	92.06
311.179	107.06
311.409	97.06
311.639	98.06
311.868	104.06
312.098	80.06
312.328	100.06
312.557	119.06
312.787	108.06
313.017	112.06
313.246	112.06
313.476	107.06
313.706	84.06
313.935	96.06
314.165	102.06
314.394	104.06
314.624	87.06
314.853	101.06
315.083	104.06
315.312	91.06
315.542	98.06
315.771	86.06
316.001	105.06
316.23	99.06
316.46	97.06
316.689	91.06
316.919	103.06
317.148	89.06
317.377	107.06
317.607	107.06
317.836	100.06
318.065	80.06
318.295	89.06
318.524	96.06
318.753	88.06
318.983	99.06
319.212	107.06
319.441	109.06
319.67	127.06
319.9	100.06
320.129	97.06
320.358	109.06
320.587	88.06
320.816	100.06
321.046	116.06
321.275	115.06
321.504	95.06
321.733	96.06
321.962	95.06
322.191	111.06
322.42	107.06
322.649	112.06
322.878	113.06
323.108	116.06
323.337	142.06
323.566	140.06
323.795	164.06
324.024	219.06
324.253	449.06
324.482	991.06
324.71	2154.06
324.939	2873.06
325.168	1008.06
325.397	275.06
325.626	171.06
325.855	124.06
326.084	124.06
326.313	146.06
326.542	163.06
326.77	277.06
326.999	532.06
327.228	1140.06
327.457	2192.06
327.686	1699.06
327.914	492.06
328.143	336.06
328.372	366.06
328.6	242.06
328.829	151.06
329.058	149.06
329.287	163.06
329.515	134.06
329.744	179.06
329.972	261.06
330.201	502.06
330.43	722.06
330.658	352.06
330.887	193.06
331.115	153.06
331.344	114.06
331.572	113.06
331.801	112.06
332.03	105.06
332.258	103.06
332.486	112.06
332.715	115.06
332.943	109.06
333.172	94.06
333.4	111.06
333.629	132.06
333.857	153.06
334.085	239.06
334.314	482.06
334.542	918.06
334.771	855.06
334.999	267.06
335.227	135.06
335.455	105.06
335.684	104.06
335.912	93.06
336.14	100.06
336.369	111.06
336.597	99.06
336.825	92.06
337.053	91.06
337.281	98.06
337.51	119.06
337.738	96.06
337.966	86.06
338.194	111.06
338.422	92.06
338.65	95.06
338.878	116.06
339.106	93.06
339.334	109.06
339.562	100.06
339.79	103.06
340.018	92.06
340.246	92.06
340.474	97.06
340.702	93.06
340.93	107.06
341.158	99.06
341.386	92.06
341.614	104.06
341.842	116.06
342.07	88.06
342.298	96.06
342.526	87.06
342.754	91.06
342.981	91.06
343.209	96.06
343.437	108.06
343.665	80.06
343.893	94.06
344.12	95.06
344.348	93.06
344.576	102.06
344.804	89.06
345.031	92.06
345.259	114.06
345.487	105.06
345.714	92.06
345.942	96.06
346.17	86.06
346.397	96.06
346.625	92.06
346.853	93.06
347.08	85.06
347.308	104.06
347.535	101.06
347.763	82.06
347.99	95.06
348.218	93.06
348.445	113.06
348.673	101.06
348.9	104.06
349.128	102.06
349.355	93.06
349.583	103.06
349.81	104.06
350.037	92.06
350.265	111.06
350.492	98.06
350.72	113.06
350.947	103.06
351.174	107.06
351.402	114.06
351.629	106.06
351.856	116.06
352.083	104.06
352.311	116.06
352.538	105.06
352.765	111.06
352.992	115.06
353.22	104.06
353.447	104.06
353.674	105.06
353.901	100.06
354.128	93.06
354.355	102.06
354.583	98.06
354.81	99.06
355.037	102.06
355.264	101.06
355.491	109.06
355.718	94.06
355.945	91.06
356.172	84.06
356.399	104.06
356.626	99.06
356.853	97.06
357.08	104.06
357.307	103.06
357.534	91.06
357.761	97.06
357.988	100.06
358.215	114.06
358.441	97.06
358.668	86.06
358.895	91.06
359.122	101.06
359.349	95.06
359.576	97.06
359.802	107.06
360.029	128.06
360.256	111.06
360.483	101.06
360.709	91.06
360.936	92.06
361.163	106.06
361.39	97.06
361.616	94.06
361.843	90.06
362.07	108.06
362.296	102.06
362.523	95.06
362.749	96.06
362.976	89.06
363.203	79.06
363.429	92.06
363.656	85.06
363.882	83.06
364.109	96.06
364.335	95.06
364.562	104.06
364.788	82.06
365.015	98.06
365.241	100.06
365.468	123.06
365.694	99.06
365.92	86.06
366.147	87.06
366.373	103.06
366.599	89.06
366.826	83.06
367.052	98.06
367.278	83.06
367.505	99.06
367.731	115.06
367.957	93.06
368.184	104.06
368.41	102.06
368.636	102.06
368.862	114.06
369.089	116.06
369.315	97.06
369.541	102.06
369.767	95.06
369.993	88.06
370.219	86.06
370.445	90.06
370.672	84.06
370.898	84.06
371.124	94.06
371.35	86.06
371.576	94.06
371.802	85.06
372.028	92.06
372.254	90.06
372.48	110.06
372.706	89.06
372.932	91.06
373.158	89.06
373.384	109.06
373.61	87.06
373.835	92.06
374.061	82.06
374.287	88.06
374.513	93.06
374.739	94.06
374.965	95.06
375.191	104.06
375.416	87.06
375.642	83.06
375.868	87.06
376.094	88.06
376.319	91.06
376.545	85.06
376.771	79.06
376.997	103.06
377.222	104.06
377.448	108.06
377.674	91.06
377.899	97.06
378.125	79.06
378.35	95.06
378.576	89.06
378.802	110.06
379.027	94.06
379.253	85.06
379.478	87.06
379.704	99.06
379.929	88.06
380.155	88.06
380.38	96.06
380.606	96.06
380.831	93.06
381.057	119.06
381.282	102.06
381.507	94.06
381.733	105.06
381.958	97.06
382.184	114.06
382.409	113.06
382.634	108.06
382.86	112.06
383.085	108.06
383.31	90.06
383.535	102.06
383.761	96.06
383.986	107.06
384.211	94.06
384.436	98.06
384.662	102.06
384.887	100.06
385.112	103.06
385.337	118.06
385.562	104.06
385.787	116.06
386.013	103.06
386.238	116.06
386.463	107.06
386.688	100.06
386.913	98.06
387.138	101.06
387.363	105.06
387.588	93.06
387.813	114.06
388.038	110.06
388.263	102.06
388.488	110.06
388.713	115.06
388.938	104.06
389.163	91.06
389.387	97.06
389.612	93.06
389.837	98.06
390.062	94.06
390.287	96.06
390.512	83.06
390.736	89.06
390.961	86.06
391.186	87.06
391.411	94.06
391.636	97.06
391.86	89.06
392.085	87.06
392.31	85.06
392.534	83.06
392.759	85.06
392.984	87.06
393.208	79.06
393.433	100.06
393.658	84.06
393.882	78.06
394.107	105.06
394.331	89.06
394.556	101.06
394.78	88.06
395.005	92.06
395.229	80.06
395.454	86.06
395.678	85.06
395.903	99.06
396.127	101.06
396.352	86.06
396.576	91.06
396.801	99.06
397.025	98.06
397.249	85.06
397.474	113.06
397.698	100.06
397.922	101.06
398.147	104.06
398.371	84.06
398.595	102.06
398.82	95.06
399.044	80.06
399.268	83.06
399.492	81.06
399.717	88.06
399.941	88.06
400.165	115.06
400.389	79.06
400.613	87.06
400.837	93.06
401.062	92.06
401.286	97.06
401.51	90.06
401.734	98.06
401.958	107.06
402.182	112.06
402.406	145.06
402.63	126.06
402.854	100.06
403.078	71.06
403.302	98.06
403.526	92.06
403.75	88.06
403.974	76.06
404.198	97.06
404.422	84.06
404.645	88.06
404.869	97.06
405.093	114.06
405.317	117.06
405.541	111.06
405.765	117.06
405.988	124.06
406.212	173.06
406.436	223.06
406.66	150.06
406.883	97.06
407.107	91.06
407.331	101.06
407.555	105.06
407.778	107.06
408.002	92.06
408.226	100.06
408.449	94.06
408.673	89.06
408.896	103.06
409.12	114.06
409.344	85.06
409.567	98.06
409.791	88.06
410.014	98.06
410.238	106.06
410.461	91.06
410.685	107.06
410.908	95.06
411.132	108.06
411.355	121.06
411.578	104.06
411.802	101.06
412.025	97.06
412.249	89.06
412.472	112.06
412.695	130.06
412.919	99.06
413.142	92.06
413.365	99.06
413.589	77.06
413.812	86.06
414.035	97.06
414.258	98.06
414.482	96.06
414.705	96.06
414.928	87.06
415.151	87.06
415.374	90.06
415.597	79.06
415.821	96.06
416.044	81.06
416.267	94.06
416.49	86.06
416.713	87.06
416.936	103.06
417.159	95.06
417.382	107.06
417.605	91.06
417.828	104.06
418.051	96.06
418.274	79.06
418.497	92.06
418.72	84.06
418.943	97.06
419.166	88.06
419.389	94.06
419.611	82.06
419.834	88.06
420.057	91.06
420.28	81.06
420.503	85.06
420.726	99.06
420.948	97.06
421.171	91.06
421.394	97.06
421.617	103.06
421.839	79.06
422.062	102.06
422.285	101.06
422.507	108.06
422.73	115.06
422.953	97.06
423.175	81.06
423.398	87.06
423.621	104.06
423.843	91.06
424.066	89.06
424.288	96.06
424.511	98.06
424.733	96.06
424.956	118.06
425.178	99.06
425.401	116.06
425.623	102.06
425.846	100.06
426.068	107.06
426.291	88.06
426.513	81.06
426.735	95.06
426.958	101.06
427.18	101.06
427.402	153.06
427.625	216.06
427.847	196.06
428.069	186.06
428.292	133.06
428.514	85.06
428.736	89.06
428.958	88.06
429.181	96.06
429.403	93.06
429.625	82.06
429.847	93.06
430.069	105.06
430.292	101.06
430.514	85.06
430.736	88.06
430.958	81.06
431.18	76.06
431.402	90.06
431.624	86.06
431.846	96.06
432.068	92.06
432.29	81.06
432.512	98.06
432.734	84.06
432.956	108.06
433.178	102.06
433.4	95.06
433.622	96.06
433.844	86.06
434.066	105.06
434.287	85.06
434.509	92.06
434.731	107.06
434.953	72.06
435.175	81.06
435.397	94.06
435.618	88.06
435.84	105.06
436.062	134.06
436.284	137.06
436.505	98.06
436.727	108.06
436.949	93.06
437.17	88.06
437.392	91.06
437.614	83.06
437.835	100.06
438.057	124.06
438.278	108.06
438.5	103.06
438.721	142.06
438.943	99.06
439.165	90.06
439.386	93.06
439.608	99.06
439.829	95.06
440.05	136.06
440.272	173.06
440.493	103.06
440.715	92.06
440.936	98.06
441.158	100.06
441.379	100.06
441.6	97.06
441.822	88.06
442.043	97.06
442.264	122.06
442.486	104.06
442.707	101.06
442.928	112.06
443.149	145.06
443.371	146.06
443.592	125.06
443.813	134.06
444.034	123.06
444.255	102.06
444.476	93.06
444.698	72.06
444.919	91.06
445.14	128.06
445.361	148.06
445.582	128.06
445.803	152.06
446.024	156.06
446.245	140.06
446.466	124.06
446.687	92.06
446.908	99.06
447.129	96.06
447.35	74.06
447.571	91.06
447.792	95.06
448.013	96.06
448.234	109.06
448.455	106.06
448.675	111.06
448.896	128.06
449.117	101.06
449.338	120.06
449.559	152.06
449.779	146.06
450	98.06
450.221	85.06
450.442	84.06
450.662	109.06
450.883	114.06
451.104	120.06
451.324	98.06
451.545	92.06
451.766	97.06
451.986	101.06
452.207	96.06
452.428	84.06
452.648	104.06
452.869	101.06
453.089	107.06
453.31	127.06
453.53	96.06
453.751	102.06
453.971	97.06
454.192	108.06
454.412	104.06
454.633	76.06
454.853	85.06
455.073	91.06
455.294	80.06
455.514	111.06
455.734	77.06
455.955	86.06
456.175	77.06
456.395	92.06
456.616	95.06
456.836	95.06
457.056	92.06
457.276	87.06
457.497	77.06
457.717	112.06
457.937	89.06
458.157	91.06
458.377	83.06
458.598	109.06
458.818	148.06
459.038	181.06
459.258	131.06
459.478	99.06
459.698	89.06
459.918	83.06
460.138	93.06
460.358	93.06
460.578	87.06
460.798	87.06
461.018	96.06
461.238	90.06
461.458	80.06
461.678	80.06
461.898	82.06
462.118	79.06
462.338	85.06
462.558	91.06
462.777	93.06
462.997	95.06
463.217	85.06
463.437	80.06
463.657	86.06
463.876	102.06
464.096	96.06
464.316	98.06
464.536	111.06
464.755	103.06
464.975	117.06
465.195	152.06
465.414	175.06
465.634	110.06
465.854	99.06
466.073	97.06
466.293	75.06
466.512	94.06
466.732	101.06
466.951	88.06
467.171	103.06
467.391	92.06
467.61	118.06
467.829	154.06
468.049	322.06
468.268	463.06
468.488	137.06
468.707	88.06
468.927	89.06
469.146	96.06
469.365	83.06
469.585	101.06
469.804	108.06
470.023	102.06
470.243	98.06
470.462	109.06
470.681	120.06
470.901	95.06
471.12	93.06
471.339	111.06
471.558	109.06
471.777	100.06
471.997	204.06
472.216	592.06
472.435	1263.06
472.654	298.06
472.873	123.06
473.092	105.06
473.311	98.06
473.53	87.06
473.749	96.06
473.968	95.06
474.187	107.06
474.406	113.06
474.625	93.06
474.844	86.06
475.063	86.06
475.282	102.06
475.501	93.06
475.72	93.06
475.939	88.06
476.158	102.06
476.377	89.06
476.596	95.06
476.814	76.06
477.033	95.06
477.252	87.06
477.471	92.06
477.69	93.06
477.908	104.06
478.127	84.06
478.346	100.06
478.564	84.06
478.783	107.06
479.002	104.06
479.22	99.06
479.439	104.06
479.658	106.06
479.876	114.06
480.095	113.06
480.313	99.06
480.532	123.06
480.751	192.06
480.969	573.06
481.188	2235.06
481.406	1313.06
481.624	237.06
481.843	111.06
482.061	93.06
482.28	81.06
482.498	90.06
482.717	97.06
482.935	96.06
483.153	87.06
483.372	94.06
483.59	96.06
483.808	82.06
484.027	102.06
484.245	95.06
484.463	103.06
484.681	99.06
484.9	94.06
485.118	87.06
485.336	92.06
485.554	94.06
485.772	92.06
485.99	104.06
486.209	118.06
486.427	110.06
486.645	108.06
486.863	121.06
487.081	109.06
487.299	101.06
487.517	99.06
487.735	80.06
487.953	108.06
488.171	97.06
488.389	103.06
488.607	100.06
488.825	89.06
489.043	94.06
489.261	89.06
489.479	79.06
489.696	107.06
489.914	85.06
490.132	78.06
490.35	93.06
490.568	78.06
490.786	103.06
491.003	102.06
491.221	104.06
491.439	105.06
491.657	99.06
491.874	94.06
492.092	92.06
492.31	84.06
492.527	89.06
492.745	99.06
492.963	88.06
493.18	78.06
493.398	109.06
493.615	102.06
493.833	95.06
494.05	99.06
494.268	93.06
494.485	81.06
494.703	92.06
494.92	97.06
495.138	83.06
495.355	88.06
495.573	93.06
495.79	95.06
496.008	99.06
496.225	98.06
496.442	87.06
496.66	84.06
496.877	96.06
497.094	92.06
497.312	81.06
497.529	85.06
497.746	70.06
497.963	92.06
498.181	106.06
498.398	94.06
498.615	119.06
498.832	105.06
499.049	77.06
499.267	95.06
499.484	87.06
499.701	83.06
499.918	99.06
500.135	86.06
500.352	92.06
500.569	89.06
500.786	109.06
501.003	88.06
501.22	95.06
501.437	99.06
501.654	101.06
501.871	96.06
502.088	95.06
502.305	97.06
502.522	112.06
502.739	94.06
502.956	86.06
503.172	84.06
503.389	102.06
503.606	106.06
503.823	102.06
504.04	99.06
504.256	97.06
504.473	88.06
504.69	86.06
504.907	91.06
505.123	93.06
505.34	95.06
505.557	90.06
505.773	107.06
505.99	90.06
506.207	104.06
506.423	94.06
506.64	96.06
506.856	101.06
507.073	83.06
507.289	95.06
507.506	97.06
507.722	109.06
507.939	121.06
508.155	108.06
508.372	97.06
508.588	96.06
508.805	102.06
509.021	104.06
509.238	108.06
509.454	104.06
509.67	101.06
509.887	107.06
510.103	133.06
510.319	201.06
510.536	732.06
510.752	2285.06
510.968	643.06
511.184	135.06
511.401	129.06
511.617	101.06
511.833	99.06
512.049	100.06
512.265	98.06
512.481	85.06
512.698	95.06
512.914	99.06
513.13	97.06
513.346	103.06
