Data from Circ_1992_H10_HRD10591_00056.txt Node
Date: Wed Jan 03 11:47:56 EST 2024
User: Yrep
Spectrometer: HR+D1059
Trigger mode: 1
Integration Time (sec): 1.000000E-1
Scans to average: 1
Electric dark correction enabled: true
Nonlinearity correction enabled: false
Boxcar width: 0
XAxis mode: Wavelengths
Number of Pixels in Spectrum: 2048
>>>>>Begin Spectral Data<<<<<
223.165	-19
223.4	-19
223.635	-19
223.869	-14
224.104	-30
224.338	2
224.573	-18
224.808	-20
225.042	-7
225.277	-2
225.511	2
225.746	-1
225.98	10
226.215	9
226.449	24
226.683	12
226.918	25
227.152	27
227.387	35
227.621	46
227.856	43
228.09	42
228.324	45
228.559	64
228.793	57
229.027	62
229.262	77
229.496	71
229.73	98
229.964	83
230.199	70
230.433	79
230.667	66
230.901	79
231.136	85
231.37	81
231.604	74
231.838	79
232.072	84
232.306	98
232.541	78
232.775	75
233.009	91
233.243	82
233.477	89
233.711	89
233.945	76
234.179	83
234.413	76
234.647	89
234.881	76
235.115	83
235.349	86
235.583	83
235.817	79
236.051	74
236.285	81
236.519	75
236.753	81
236.987	80
237.221	79
237.455	95
237.689	76
237.922	74
238.156	79
238.39	75
238.624	81
238.858	85
239.091	69
239.325	91
239.559	82
239.793	71
240.027	68
240.26	89
240.494	86
240.728	79
240.961	89
241.195	82
241.429	75
241.662	71
241.896	77
242.13	69
242.363	74
242.597	73
242.83	65
243.064	75
243.298	62
243.531	78
243.765	81
243.998	75
244.232	74
244.465	87
244.699	70
244.932	76
245.166	83
245.399	77
245.633	86
245.866	81
246.099	70
246.333	75
246.566	79
246.8	87
247.033	84
247.266	94
247.5	80
247.733	86
247.966	87
248.2	86
248.433	82
248.666	67
248.899	70
249.133	81
249.366	99
249.599	99
249.832	80
250.066	81
250.299	77
250.532	79
250.765	75
250.998	73
251.231	77
251.465	68
251.698	81
251.931	81
252.164	75
252.397	85
252.63	94
252.863	90
253.096	79
253.329	79
253.562	80
253.795	74
254.028	74
254.261	85
254.494	89
254.727	98
254.96	92
255.193	90
255.426	86
255.659	73
255.892	85
256.124	86
256.357	83
256.59	87
256.823	75
257.056	89
257.289	73
257.521	82
257.754	103
257.987	82
258.22	90
258.452	97
258.685	99
258.918	96
259.151	70
259.383	99
259.616	73
259.849	84
260.081	76
260.314	83
260.547	92
260.779	84
261.012	93
261.244	77
261.477	100
261.71	89
261.942	107
262.175	126
262.407	93
262.64	88
262.872	77
263.105	80
263.337	86
263.57	87
263.802	82
264.035	92
264.267	97
264.499	88
264.732	81
264.964	82
265.197	90
265.429	85
265.661	87
265.894	75
266.126	79
266.358	83
266.591	88
266.823	82
267.055	88
267.287	92
267.52	75
267.752	91
267.984	86
268.216	81
268.448	86
268.681	74
268.913	98
269.145	91
269.377	107
269.609	72
269.841	80
270.073	96
270.306	81
270.538	106
270.77	81
271.002	85
271.234	90
271.466	83
271.698	92
271.93	70
272.162	84
272.394	81
272.626	77
272.858	102
273.09	100
273.322	81
273.553	77
273.785	81
274.017	76
274.249	77
274.481	91
274.713	74
274.945	80
275.176	85
275.408	101
275.64	95
275.872	100
276.104	106
276.335	106
276.567	106
276.799	113
277.031	123
277.262	134
277.494	125
277.726	99
277.957	86
278.189	80
278.421	81
278.652	93
278.884	86
279.115	89
279.347	93
279.579	101
279.81	106
280.042	111
280.273	144
280.505	117
280.736	95
280.968	86
281.199	91
281.431	87
281.662	82
281.894	87
282.125	93
282.356	117
282.588	141
282.819	127
283.051	83
283.282	81
283.513	81
283.745	82
283.976	77
284.207	92
284.439	87
284.67	83
284.901	77
285.132	84
285.364	86
285.595	95
285.826	83
286.057	82
286.288	88
286.52	84
286.751	90
286.982	76
287.213	87
287.444	87
287.675	86
287.906	86
288.138	92
288.369	95
288.6	96
288.831	99
289.062	104
289.293	79
289.524	91
289.755	98
289.986	95
290.217	84
290.448	73
290.679	75
290.91	95
291.141	91
291.371	104
291.602	79
291.833	85
292.064	93
292.295	97
292.526	79
292.757	85
292.987	76
293.218	82
293.449	80
293.68	90
293.91	93
294.141	82
294.372	93
294.603	89
294.833	95
295.064	92
295.295	82
295.525	99
295.756	97
295.987	121
296.217	135
296.448	140
296.679	81
296.909	90
297.14	90
297.37	97
297.601	94
297.831	93
298.062	89
298.292	93
298.523	90
298.753	84
298.984	89
299.214	89
299.445	93
299.675	89
299.905	98
300.136	80
300.366	87
300.597	98
300.827	79
301.057	100
301.288	116
301.518	97
301.748	84
301.979	93
302.209	86
302.439	97
302.669	84
302.9	83
303.13	95
303.36	106
303.59	103
303.82	97
304.051	93
304.281	94
304.511	85
304.741	81
304.971	83
305.201	94
305.431	90
305.661	89
305.891	99
306.121	97
306.352	115
306.582	121
306.812	110
307.042	97
307.272	124
307.502	117
307.731	123
307.961	109
308.191	91
308.421	93
308.651	92
308.881	85
309.111	99
309.341	110
309.571	96
309.8	95
310.03	104
310.26	87
310.49	98
310.72	106
310.949	99
311.179	115
311.409	108
311.639	84
311.868	101
312.098	106
312.328	94
312.557	101
312.787	106
313.017	105
313.246	108
313.476	106
313.706	98
313.935	95
314.165	94
314.394	112
314.624	94
314.853	95
315.083	92
315.312	108
315.542	97
315.771	97
316.001	99
316.23	97
316.46	79
316.689	95
316.919	95
317.148	92
317.377	87
317.607	90
317.836	93
318.065	96
318.295	89
318.524	109
318.753	97
318.983	90
319.212	100
319.441	108
319.67	110
319.9	87
320.129	91
320.358	92
320.587	102
320.816	93
321.046	97
321.275	112
321.504	85
321.733	99
321.962	101
322.191	94
322.42	111
322.649	89
322.878	100
323.108	118
323.337	123
323.566	129
323.795	174
324.024	222
324.253	407
324.482	902
324.71	1913
324.939	2639
325.168	944
325.397	271
325.626	165
325.855	117
326.084	123
326.313	150
326.542	169
326.77	261
326.999	487
327.228	1046
327.457	1982
327.686	1565
327.914	441
328.143	309
328.372	323
328.6	232
328.829	132
329.058	137
329.287	157
329.515	146
329.744	163
329.972	239
330.201	466
330.43	657
330.658	333
330.887	182
331.115	155
331.344	107
331.572	99
331.801	121
332.03	100
332.258	105
332.486	110
332.715	98
332.943	104
333.172	98
333.4	108
333.629	134
333.857	156
334.085	243
334.314	432
334.542	787
334.771	777
334.999	243
335.227	139
335.455	113
335.684	109
335.912	101
336.14	90
336.369	93
336.597	91
336.825	106
337.053	108
337.281	97
337.51	92
337.738	92
337.966	85
338.194	110
338.422	103
338.65	98
338.878	97
339.106	90
339.334	90
339.562	88
339.79	93
340.018	90
340.246	97
340.474	104
340.702	95
340.93	82
341.158	94
341.386	102
341.614	108
341.842	107
342.07	95
342.298	85
342.526	92
342.754	81
342.981	77
343.209	98
343.437	119
343.665	96
343.893	98
344.12	103
344.348	103
344.576	86
344.804	84
345.031	90
345.259	98
345.487	103
345.714	82
345.942	94
346.17	95
346.397	98
346.625	97
346.853	81
347.08	74
347.308	103
347.535	93
347.763	95
347.99	99
348.218	113
348.445	95
348.673	98
348.9	107
349.128	93
349.355	91
349.583	92
349.81	99
350.037	85
350.265	99
350.492	93
350.72	97
350.947	98
351.174	109
351.402	112
351.629	89
351.856	102
352.083	86
352.311	112
352.538	98
352.765	107
352.992	123
353.22	113
353.447	108
353.674	101
353.901	89
354.128	96
354.355	106
354.583	99
354.81	96
355.037	97
355.264	105
355.491	94
355.718	90
355.945	86
356.172	103
356.399	90
356.626	90
356.853	91
357.08	92
357.307	93
357.534	97
357.761	92
357.988	98
358.215	103
358.441	96
358.668	92
358.895	92
359.122	97
359.349	81
359.576	79
359.802	93
360.029	126
360.256	114
360.483	91
360.709	92
360.936	89
361.163	94
361.39	85
361.616	101
361.843	89
362.07	97
362.296	99
362.523	91
362.749	103
362.976	77
363.203	92
363.429	78
363.656	96
363.882	93
364.109	79
364.335	81
364.562	97
364.788	85
365.015	94
365.241	99
365.468	106
365.694	95
365.92	100
366.147	98
366.373	79
366.599	102
366.826	93
367.052	92
367.278	97
367.505	86
367.731	96
367.957	81
368.184	91
368.41	94
368.636	123
368.862	127
369.089	119
369.315	102
369.541	86
369.767	100
369.993	100
370.219	95
370.445	72
370.672	83
370.898	81
371.124	88
371.35	91
371.576	83
371.802	86
372.028	76
372.254	97
372.48	90
372.706	96
372.932	81
373.158	84
373.384	98
373.61	86
373.835	79
374.061	77
374.287	95
374.513	84
374.739	102
374.965	93
375.191	80
375.416	95
375.642	99
375.868	89
376.094	91
376.319	83
376.545	89
376.771	113
376.997	94
377.222	89
377.448	97
377.674	102
377.899	93
378.125	86
378.35	101
378.576	95
378.802	87
379.027	86
379.253	86
379.478	89
379.704	97
379.929	78
380.155	96
380.38	106
380.606	91
380.831	85
381.057	81
381.282	98
381.507	93
381.733	100
381.958	83
382.184	108
382.409	96
382.634	103
382.86	88
383.085	98
383.31	99
383.535	97
383.761	88
383.986	103
384.211	93
384.436	89
384.662	94
384.887	110
385.112	96
385.337	93
385.562	83
385.787	120
386.013	115
386.238	122
386.463	121
386.688	115
386.913	90
387.138	103
387.363	91
387.588	101
387.813	87
388.038	89
388.263	106
388.488	129
388.713	90
388.938	81
389.163	87
389.387	96
389.612	101
389.837	96
390.062	93
390.287	83
390.512	89
390.736	91
390.961	103
391.186	85
391.411	97
391.636	86
391.86	87
392.085	81
392.31	95
392.534	83
392.759	111
392.984	86
393.208	95
393.433	99
393.658	92
393.882	84
394.107	78
394.331	80
394.556	82
394.78	99
395.005	92
395.229	85
395.454	86
395.678	100
395.903	89
396.127	84
396.352	102
396.576	97
396.801	90
397.025	86
397.249	90
397.474	98
397.698	89
397.922	87
398.147	78
398.371	79
398.595	79
398.82	91
399.044	81
399.268	90
399.492	70
399.717	110
399.941	85
400.165	97
400.389	93
400.613	77
400.837	86
401.062	82
401.286	90
401.51	87
401.734	102
401.958	103
402.182	132
402.406	171
402.63	132
402.854	101
403.078	81
403.302	102
403.526	69
403.75	81
403.974	95
404.198	102
404.422	84
404.645	87
404.869	79
405.093	113
405.317	117
405.541	107
405.765	117
405.988	121
406.212	173
406.436	246
406.66	174
406.883	108
407.107	107
407.331	94
407.555	104
407.778	88
408.002	90
408.226	89
408.449	105
408.673	97
408.896	103
409.12	97
409.344	82
409.567	102
409.791	95
410.014	98
410.238	95
410.461	88
410.685	88
410.908	89
411.132	106
411.355	101
411.578	100
411.802	94
412.025	89
412.249	94
412.472	105
412.695	121
412.919	119
413.142	91
413.365	100
413.589	83
413.812	82
414.035	88
414.258	91
414.482	86
414.705	98
414.928	103
415.151	91
415.374	83
415.597	86
415.821	101
416.044	98
416.267	89
416.49	97
416.713	102
416.936	97
417.159	102
417.382	92
417.605	85
417.828	106
418.051	85
418.274	82
418.497	86
418.72	79
418.943	92
419.166	82
419.389	88
419.611	116
419.834	97
420.057	103
420.28	78
420.503	89
420.726	86
420.948	94
421.171	84
421.394	93
421.617	90
421.839	96
422.062	85
422.285	97
422.507	102
422.73	95
422.953	86
423.175	98
423.398	97
423.621	86
423.843	79
424.066	75
424.288	87
424.511	89
424.733	100
424.956	103
425.178	94
425.401	99
425.623	94
425.846	82
426.068	95
426.291	101
426.513	99
426.735	100
426.958	84
427.18	95
427.402	156
427.625	212
427.847	185
428.069	167
428.292	111
428.514	91
428.736	89
428.958	94
429.181	83
429.403	89
429.625	90
429.847	100
430.069	97
430.292	105
430.514	98
430.736	93
430.958	91
431.18	73
431.402	96
431.624	87
431.846	90
432.068	81
432.29	85
432.512	89
432.734	85
432.956	100
433.178	95
433.4	105
433.622	85
433.844	85
434.066	90
434.287	76
434.509	96
434.731	96
434.953	78
435.175	82
435.397	81
435.618	95
435.84	100
436.062	123
436.284	133
436.505	111
436.727	92
436.949	99
437.17	94
437.392	81
437.614	95
437.835	110
438.057	132
438.278	111
438.5	120
438.721	140
438.943	100
439.165	101
439.386	85
439.608	95
439.829	106
440.05	134
440.272	165
440.493	111
440.715	95
440.936	81
441.158	102
441.379	81
441.6	96
441.822	103
442.043	101
442.264	117
442.486	95
442.707	89
442.928	122
443.149	142
443.371	140
443.592	130
443.813	115
444.034	118
444.255	89
444.476	81
444.698	82
444.919	95
445.14	124
445.361	138
445.582	122
445.803	153
446.024	143
446.245	137
446.466	124
446.687	87
446.908	83
447.129	99
447.35	82
447.571	91
447.792	115
448.013	103
448.234	112
448.455	87
448.675	92
448.896	124
449.117	98
449.338	105
449.559	148
449.779	133
450	99
450.221	83
450.442	88
450.662	104
450.883	111
451.104	122
451.324	107
451.545	84
451.766	82
451.986	74
452.207	89
452.428	94
452.648	97
452.869	120
453.089	122
453.31	108
453.53	89
453.751	98
453.971	102
454.192	121
454.412	98
454.633	79
454.853	96
455.073	78
455.294	88
455.514	107
455.734	99
455.955	91
456.175	84
456.395	93
456.616	84
456.836	95
457.056	80
457.276	79
457.497	90
457.717	89
457.937	75
458.157	88
458.377	102
458.598	110
458.818	167
459.038	179
459.258	129
459.478	89
459.698	93
459.918	87
460.138	81
460.358	96
460.578	92
460.798	94
461.018	94
461.238	97
461.458	85
461.678	93
461.898	94
462.118	102
462.338	95
462.558	98
462.777	81
462.997	99
463.217	92
463.437	96
463.657	82
463.876	96
464.096	83
464.316	81
464.536	103
464.755	98
464.975	102
465.195	167
465.414	183
465.634	109
465.854	91
466.073	82
466.293	102
466.512	83
466.732	85
466.951	96
467.171	85
467.391	106
467.61	109
467.829	138
468.049	283
468.268	423
468.488	130
468.707	94
468.927	86
469.146	78
469.365	98
469.585	86
469.804	101
470.023	95
470.243	99
470.462	109
470.681	132
470.901	91
471.12	103
471.339	86
471.558	109
471.777	127
471.997	171
472.216	532
472.435	1131
472.654	315
472.873	111
473.092	99
473.311	97
473.53	96
473.749	101
473.968	98
474.187	123
474.406	85
474.625	89
474.844	81
475.063	95
475.282	96
475.501	89
475.72	86
475.939	78
476.158	84
476.377	79
476.596	104
476.814	83
477.033	105
477.252	88
477.471	81
477.69	106
477.908	91
478.127	101
478.346	89
478.564	81
478.783	96
479.002	89
479.22	103
479.439	103
479.658	109
479.876	90
480.095	117
480.313	124
480.532	145
480.751	187
480.969	525
481.188	1971
481.406	1182
481.624	228
481.843	109
482.061	103
482.28	86
482.498	90
482.717	87
482.935	83
483.153	88
483.372	79
483.59	80
483.808	102
484.027	87
484.245	100
484.463	95
484.681	90
484.9	106
485.118	106
485.336	98
485.554	90
485.772	103
485.99	98
486.209	104
486.427	102
486.645	115
486.863	109
487.081	97
487.299	83
487.517	100
487.735	95
487.953	97
488.171	107
488.389	94
488.607	108
488.825	103
489.043	89
489.261	96
489.479	83
489.696	92
489.914	88
490.132	102
490.35	94
490.568	90
490.786	86
491.003	91
491.221	87
491.439	81
491.657	86
491.874	97
492.092	102
492.31	91
492.527	99
492.745	103
492.963	100
493.18	84
493.398	101
493.615	93
493.833	96
494.05	90
494.268	84
494.485	82
494.703	88
494.92	99
495.138	84
495.355	77
495.573	84
495.79	102
496.008	99
496.225	91
496.442	87
496.66	77
496.877	90
497.094	94
497.312	83
497.529	80
497.746	91
497.963	86
498.181	96
498.398	95
498.615	122
498.832	113
499.049	98
499.267	84
499.484	85
499.701	94
499.918	92
500.135	72
500.352	81
500.569	89
500.786	92
501.003	93
501.22	80
501.437	90
501.654	102
501.871	98
502.088	83
502.305	99
502.522	96
502.739	84
502.956	95
503.172	93
503.389	103
503.606	102
503.823	100
504.04	82
504.256	81
504.473	89
504.69	100
504.907	102
505.123	88
505.34	85
505.557	102
505.773	103
505.99	91
506.207	99
506.423	99
506.64	94
506.856	96
507.073	95
507.289	93
507.506	89
507.722	121
507.939	117
508.155	98
508.372	89
508.588	92
508.805	86
509.021	84
509.238	98
509.454	97
509.67	91
509.887	107
510.103	137
510.319	207
510.536	724
510.752	2488
510.968	687
511.184	156
511.401	113
511.617	98
511.833	102
512.049	101
512.265	96
512.481	98
512.698	94
512.914	97
513.13	97
513.346	104
513.562	101
513.778	91
513.994	93
514.21	98
514.426	127
514.642	156
514.858	131
515.074	164
515.29	493
515.506	1730
515.721	630
515.937	181
516.153	119
516.369	107
516.585	88
516.801	95
517.016	102
517.232	93
517.448	77
517.664	83
517.879	89
518.095	91
518.311	103
518.527	109
518.742	84
518.958	83
519.173	104
519.389	101
519.605	98
519.82	87
520.036	96
520.251	126
520.467	113
520.682	107
520.898	118
521.113	114
521.329	140
521.544	224
521.76	637
521.975	2851
522.19	1750
522.406	357
522.621	135
522.836	108
523.052	97
523.267	101
523.482	106
523.698	119
523.913	128
524.128	103
524.343	94
524.559	98
524.774	100
524.989	94
525.204	110
525.419	101
525.634	97
525.849	85
526.064	89
526.28	97
526.495	91
526.71	84
526.925	75
527.14	95
527.355	94
527.57	92
527.785	99
527.999	99
528.214	91
528.429	85
528.644	92
528.859	96
529.074	94
529.289	129
529.503	194
529.718	97
529.933	96
530.148	98
530.363	97
530.577	79
530.792	76
531.007	75
531.221	77
531.436	101
531.651	76
531.865	96
532.08	84
532.295	98
532.509	87
532.724	103
532.938	98
533.153	104
533.367	86
533.582	88
533.796	97
534.011	91
534.225	95
534.44	98
534.654	91
534.868	92
535.083	105
535.297	84
535.511	100
535.726	101
535.94	113
536.154	106
536.369	95
536.583	93
536.797	90
537.011	92
537.225	88
537.44	93
537.654	93
537.868	99
538.082	90
538.296	86
538.51	89
538.724	93
538.938	87
539.153	95
539.367	102
539.581	106
539.795	101
540.009	87
540.222	84
540.436	92
540.65	95
540.864	95
541.078	93
541.292	95
541.506	94
541.72	89
541.934	81
542.147	81
542.361	82
542.575	101
542.789	92
543.002	83
543.216	86
543.43	99
543.644	87
543.857	83
544.071	96
544.285	81
544.498	70
544.712	73
544.925	87
545.139	85
545.352	84
545.566	95
545.779	100
545.993	95
546.206	92
546.42	91
546.633	91
546.847	85
547.06	77
547.274	89
547.487	93
547.7	76
547.914	85
548.127	92
548.34	94
548.554	94
548.767	91
548.98	89
549.193	76
549.407	67
549.62	85
549.833	86
550.046	91
550.259	90
550.473	93
550.686	79
550.899	89
551.112	101
551.325	89
551.538	106
551.751	97
551.964	90
552.177	82
552.39	94
552.603	101
552.816	93
553.029	99
553.242	102
553.455	98
553.667	97
553.88	107
554.093	100
554.306	121
554.519	105
554.732	110
554.944	77
555.157	80
555.37	78
555.583	103
555.795	82
556.008	75
556.221	93
556.433	101
556.646	95
556.859	94
557.071	93
557.284	89
557.496	81
557.709	84
557.921	95
558.134	83
558.346	92
558.559	91
558.771	89
558.984	105
559.196	93
559.409	86
559.621	93
559.833	107
560.046	94
560.258	107
560.47	103
560.683	87
560.895	92
561.107	85
561.32	85
561.532	96
561.744	93
561.956	91
562.168	91
562.381	96
562.593	87
562.805	86
563.017	103
563.229	88
563.441	83
563.653	83
563.865	85
564.077	89
564.289	89
564.501	79
564.713	95
564.925	92
565.137	118
565.349	90
565.561	97
565.773	91
565.985	79
566.197	86
566.408	82
566.62	84
566.832	98
567.044	74
567.255	98
567.467	95
567.679	83
567.891	93
568.102	80
568.314	79
568.526	88
568.737	86
568.949	86
569.161	97
569.372	106
569.584	86
569.795	88
570.007	121
570.218	239
570.43	137
570.641	104
570.853	81
571.064	89
571.276	89
571.487	78
571.698	86
571.91	85
572.121	85
572.333	90
572.544	89
572.755	98
572.966	92
573.178	74
573.389	95
573.6	93
573.811	83
574.023	90
574.234	95
574.445	99
574.656	83
574.867	78
575.078	83
575.289	78
575.501	92
575.712	75
575.923	85
576.134	92
576.345	105
576.556	92
576.767	96
576.978	99
577.188	104
577.399	93
577.61	103
577.821	100
578.032	106
578.243	262
578.454	757
578.665	193
578.875	105
579.086	85
579.297	82
579.508	85
579.718	84
579.929	96
580.14	89
580.35	86
580.561	91
580.772	86
580.982	77
581.193	59
581.403	97
581.614	89
581.825	84
582.035	92
582.246	84
582.456	77
582.667	83
