Data from Circ_1992_H10_HRD10591_00042.txt Node
Date: Wed Jan 03 11:47:53 EST 2024
User: Yrep
Spectrometer: HR+D1059
Trigger mode: 1
Integration Time (sec): 1.000000E-1
Scans to average: 1
Electric dark correction enabled: true
Nonlinearity correction enabled: false
Boxcar width: 0
XAxis mode: Wavelengths
Number of Pixels in Spectrum: 2048
>>>>>Begin Spectral Data<<<<<
223.165	-12.38
223.4	-12.38
223.635	-12.38
223.869	-14.38
224.104	-5.38
224.338	-23.38
224.573	-11.38
224.808	-21.38
225.042	-23.38
225.277	-7.38
225.511	2.62
225.746	18.62
225.98	2.62
226.215	16.62
226.449	3.62
226.683	15.62
226.918	21.62
227.152	37.62
227.387	47.62
227.621	27.62
227.856	56.62
228.09	54.62
228.324	54.62
228.559	44.62
228.793	67.62
229.027	74.62
229.262	57.62
229.496	79.62
229.73	92.62
229.964	86.62
230.199	76.62
230.433	70.62
230.667	77.62
230.901	76.62
231.136	88.62
231.37	78.62
231.604	63.62
231.838	80.62
232.072	77.62
232.306	91.62
232.541	86.62
232.775	84.62
233.009	72.62
233.243	79.62
233.477	86.62
233.711	74.62
233.945	85.62
234.179	84.62
234.413	86.62
234.647	63.62
234.881	78.62
235.115	74.62
235.349	63.62
235.583	74.62
235.817	82.62
236.051	84.62
236.285	76.62
236.519	80.62
236.753	78.62
236.987	81.62
237.221	91.62
237.455	98.62
237.689	66.62
237.922	72.62
238.156	62.62
238.39	78.62
238.624	81.62
238.858	82.62
239.091	57.62
239.325	78.62
239.559	90.62
239.793	82.62
240.027	60.62
240.26	78.62
240.494	66.62
240.728	88.62
240.961	79.62
241.195	84.62
241.429	76.62
241.662	77.62
241.896	71.62
242.13	76.62
242.363	76.62
242.597	82.62
242.83	77.62
243.064	71.62
243.298	80.62
243.531	81.62
243.765	72.62
243.998	87.62
244.232	69.62
244.465	87.62
244.699	91.62
244.932	87.62
245.166	84.62
245.399	80.62
245.633	92.62
245.866	65.62
246.099	76.62
246.333	88.62
246.566	87.62
246.8	67.62
247.033	78.62
247.266	93.62
247.5	80.62
247.733	75.62
247.966	84.62
248.2	69.62
248.433	76.62
248.666	91.62
248.899	83.62
249.133	93.62
249.366	98.62
249.599	94.62
249.832	73.62
250.066	86.62
250.299	81.62
250.532	88.62
250.765	75.62
250.998	78.62
251.231	92.62
251.465	85.62
251.698	100.62
251.931	80.62
252.164	81.62
252.397	71.62
252.63	81.62
252.863	82.62
253.096	84.62
253.329	77.62
253.562	76.62
253.795	96.62
254.028	78.62
254.261	67.62
254.494	76.62
254.727	97.62
254.96	101.62
255.193	83.62
255.426	85.62
255.659	93.62
255.892	99.62
256.124	84.62
256.357	91.62
256.59	81.62
256.823	89.62
257.056	92.62
257.289	81.62
257.521	78.62
257.754	84.62
257.987	92.62
258.22	90.62
258.452	97.62
258.685	87.62
258.918	96.62
259.151	90.62
259.383	91.62
259.616	85.62
259.849	86.62
260.081	88.62
260.314	86.62
260.547	90.62
260.779	96.62
261.012	96.62
261.244	82.62
261.477	96.62
261.71	84.62
261.942	127.62
262.175	120.62
262.407	88.62
262.64	90.62
262.872	76.62
263.105	78.62
263.337	86.62
263.57	77.62
263.802	83.62
264.035	82.62
264.267	80.62
264.499	88.62
264.732	83.62
264.964	75.62
265.197	82.62
265.429	72.62
265.661	78.62
265.894	82.62
266.126	77.62
266.358	84.62
266.591	80.62
266.823	62.62
267.055	100.62
267.287	82.62
267.52	85.62
267.752	83.62
267.984	82.62
268.216	91.62
268.448	88.62
268.681	91.62
268.913	86.62
269.145	94.62
269.377	92.62
269.609	84.62
269.841	79.62
270.073	87.62
270.306	89.62
270.538	78.62
270.77	92.62
271.002	79.62
271.234	92.62
271.466	94.62
271.698	88.62
271.93	89.62
272.162	84.62
272.394	97.62
272.626	77.62
272.858	85.62
273.09	77.62
273.322	96.62
273.553	91.62
273.785	73.62
274.017	95.62
274.249	84.62
274.481	99.62
274.713	81.62
274.945	99.62
275.176	90.62
275.408	95.62
275.64	93.62
275.872	98.62
276.104	112.62
276.335	107.62
276.567	120.62
276.799	119.62
277.031	132.62
277.262	136.62
277.494	113.62
277.726	88.62
277.957	84.62
278.189	89.62
278.421	87.62
278.652	69.62
278.884	86.62
279.115	88.62
279.347	75.62
279.579	93.62
279.81	106.62
280.042	128.62
280.273	157.62
280.505	118.62
280.736	89.62
280.968	86.62
281.199	99.62
281.431	87.62
281.662	93.62
281.894	90.62
282.125	104.62
282.356	119.62
282.588	162.62
282.819	133.62
283.051	110.62
283.282	99.62
283.513	91.62
283.745	91.62
283.976	94.62
284.207	90.62
284.439	77.62
284.67	78.62
284.901	83.62
285.132	96.62
285.364	103.62
285.595	99.62
285.826	89.62
286.057	99.62
286.288	98.62
286.52	88.62
286.751	93.62
286.982	76.62
287.213	78.62
287.444	99.62
287.675	90.62
287.906	94.62
288.138	89.62
288.369	98.62
288.6	101.62
288.831	89.62
289.062	95.62
289.293	98.62
289.524	85.62
289.755	90.62
289.986	87.62
290.217	78.62
290.448	82.62
290.679	79.62
290.91	90.62
291.141	101.62
291.371	85.62
291.602	95.62
291.833	93.62
292.064	79.62
292.295	94.62
292.526	87.62
292.757	95.62
292.987	81.62
293.218	90.62
293.449	97.62
293.68	79.62
293.91	95.62
294.141	78.62
294.372	89.62
294.603	81.62
294.833	100.62
295.064	95.62
295.295	87.62
295.525	80.62
295.756	121.62
295.987	122.62
296.217	155.62
296.448	141.62
296.679	95.62
296.909	95.62
297.14	100.62
297.37	93.62
297.601	98.62
297.831	90.62
298.062	102.62
298.292	96.62
298.523	91.62
298.753	70.62
298.984	91.62
299.214	82.62
299.445	94.62
299.675	102.62
299.905	90.62
300.136	94.62
300.366	87.62
300.597	92.62
300.827	92.62
301.057	92.62
301.288	109.62
301.518	110.62
301.748	110.62
301.979	96.62
302.209	107.62
302.439	86.62
302.669	93.62
302.9	97.62
303.13	98.62
303.36	108.62
303.59	124.62
303.82	113.62
304.051	93.62
304.281	104.62
304.511	86.62
304.741	94.62
304.971	93.62
305.201	98.62
305.431	80.62
305.661	94.62
305.891	87.62
306.121	92.62
306.352	103.62
306.582	93.62
306.812	95.62
307.042	122.62
307.272	128.62
307.502	143.62
307.731	124.62
307.961	105.62
308.191	83.62
308.421	85.62
308.651	107.62
308.881	98.62
309.111	97.62
309.341	83.62
309.571	87.62
309.8	77.62
310.03	91.62
310.26	95.62
310.49	84.62
310.72	100.62
310.949	107.62
311.179	107.62
311.409	97.62
311.639	104.62
311.868	90.62
312.098	101.62
312.328	90.62
312.557	106.62
312.787	109.62
313.017	104.62
313.246	97.62
313.476	95.62
313.706	98.62
313.935	93.62
314.165	85.62
314.394	99.62
314.624	102.62
314.853	95.62
315.083	103.62
315.312	90.62
315.542	78.62
315.771	104.62
316.001	90.62
316.23	86.62
316.46	94.62
316.689	99.62
316.919	98.62
317.148	94.62
317.377	109.62
317.607	111.62
317.836	98.62
318.065	84.62
318.295	104.62
318.524	87.62
318.753	87.62
318.983	96.62
319.212	99.62
319.441	101.62
319.67	119.62
319.9	94.62
320.129	95.62
320.358	96.62
320.587	93.62
320.816	100.62
321.046	99.62
321.275	112.62
321.504	93.62
321.733	113.62
321.962	93.62
322.191	100.62
322.42	119.62
322.649	108.62
322.878	124.62
323.108	122.62
323.337	137.62
323.566	121.62
323.795	159.62
324.024	197.62
324.253	421.62
324.482	831.62
324.71	1765.62
324.939	2381.62
325.168	871.62
325.397	269.62
325.626	144.62
325.855	131.62
326.084	131.62
326.313	129.62
326.542	148.62
326.77	227.62
326.999	454.62
327.228	936.62
327.457	1725.62
327.686	1402.62
327.914	442.62
328.143	305.62
328.372	348.62
328.6	230.62
328.829	147.62
329.058	144.62
329.287	158.62
329.515	133.62
329.744	162.62
329.972	246.62
330.201	463.62
330.43	688.62
330.658	334.62
330.887	196.62
331.115	162.62
331.344	116.62
331.572	110.62
331.801	118.62
332.03	108.62
332.258	108.62
332.486	94.62
332.715	102.62
332.943	115.62
333.172	103.62
333.4	111.62
333.629	127.62
333.857	153.62
334.085	232.62
334.314	450.62
334.542	858.62
334.771	816.62
334.999	247.62
335.227	129.62
335.455	98.62
335.684	109.62
335.912	90.62
336.14	99.62
336.369	111.62
336.597	95.62
336.825	110.62
337.053	103.62
337.281	90.62
337.51	100.62
337.738	99.62
337.966	103.62
338.194	104.62
338.422	106.62
338.65	98.62
338.878	98.62
339.106	95.62
339.334	95.62
339.562	106.62
339.79	103.62
340.018	92.62
340.246	87.62
340.474	95.62
340.702	93.62
340.93	85.62
341.158	90.62
341.386	100.62
341.614	92.62
341.842	107.62
342.07	103.62
342.298	100.62
342.526	101.62
342.754	88.62
342.981	92.62
343.209	95.62
343.437	93.62
343.665	101.62
343.893	82.62
344.12	98.62
344.348	87.62
344.576	105.62
344.804	90.62
345.031	96.62
345.259	99.62
345.487	114.62
345.714	88.62
345.942	104.62
346.17	88.62
346.397	81.62
346.625	84.62
346.853	109.62
347.08	103.62
347.308	94.62
347.535	97.62
347.763	87.62
347.99	80.62
348.218	87.62
348.445	109.62
348.673	103.62
348.9	90.62
349.128	105.62
349.355	98.62
349.583	91.62
349.81	99.62
350.037	97.62
350.265	99.62
350.492	82.62
350.72	101.62
350.947	111.62
351.174	105.62
351.402	122.62
351.629	93.62
351.856	103.62
352.083	93.62
352.311	99.62
352.538	125.62
352.765	111.62
352.992	117.62
353.22	108.62
353.447	108.62
353.674	107.62
353.901	88.62
354.128	86.62
354.355	100.62
354.583	116.62
354.81	90.62
355.037	86.62
355.264	97.62
355.491	88.62
355.718	92.62
355.945	90.62
356.172	83.62
356.399	87.62
356.626	96.62
356.853	93.62
357.08	102.62
357.307	94.62
357.534	97.62
357.761	93.62
357.988	100.62
358.215	85.62
358.441	85.62
358.668	99.62
358.895	100.62
359.122	105.62
359.349	80.62
359.576	83.62
359.802	101.62
360.029	109.62
360.256	114.62
360.483	111.62
360.709	95.62
360.936	95.62
361.163	94.62
361.39	100.62
361.616	101.62
361.843	99.62
362.07	96.62
362.296	104.62
362.523	87.62
362.749	102.62
362.976	93.62
363.203	85.62
363.429	89.62
363.656	88.62
363.882	86.62
364.109	90.62
364.335	85.62
364.562	79.62
364.788	107.62
365.015	104.62
365.241	102.62
365.468	125.62
365.694	126.62
365.92	103.62
366.147	84.62
366.373	94.62
366.599	100.62
366.826	92.62
367.052	91.62
367.278	100.62
367.505	86.62
367.731	91.62
367.957	86.62
368.184	81.62
368.41	98.62
368.636	118.62
368.862	128.62
369.089	111.62
369.315	100.62
369.541	105.62
369.767	101.62
369.993	89.62
370.219	100.62
370.445	93.62
370.672	75.62
370.898	96.62
371.124	79.62
371.35	93.62
371.576	108.62
371.802	98.62
372.028	87.62
372.254	96.62
372.48	91.62
372.706	84.62
372.932	103.62
373.158	99.62
373.384	79.62
373.61	79.62
373.835	97.62
374.061	93.62
374.287	99.62
374.513	106.62
374.739	81.62
374.965	86.62
375.191	77.62
375.416	77.62
375.642	97.62
375.868	78.62
376.094	86.62
376.319	79.62
376.545	94.62
376.771	84.62
376.997	90.62
377.222	89.62
377.448	95.62
377.674	82.62
377.899	84.62
378.125	91.62
378.35	91.62
378.576	78.62
378.802	94.62
379.027	84.62
379.253	86.62
379.478	104.62
379.704	99.62
379.929	107.62
380.155	100.62
380.38	101.62
380.606	88.62
380.831	103.62
381.057	117.62
381.282	94.62
381.507	85.62
381.733	94.62
381.958	86.62
382.184	92.62
382.409	109.62
382.634	102.62
382.86	94.62
383.085	103.62
383.31	92.62
383.535	103.62
383.761	102.62
383.986	101.62
384.211	111.62
384.436	102.62
384.662	103.62
384.887	100.62
385.112	113.62
385.337	112.62
385.562	100.62
385.787	104.62
386.013	112.62
386.238	114.62
386.463	99.62
386.688	109.62
386.913	112.62
387.138	103.62
387.363	106.62
387.588	104.62
387.813	87.62
388.038	103.62
388.263	109.62
388.488	103.62
388.713	104.62
388.938	104.62
389.163	101.62
389.387	105.62
389.612	96.62
389.837	90.62
390.062	94.62
390.287	85.62
390.512	88.62
390.736	83.62
390.961	97.62
391.186	91.62
391.411	100.62
391.636	94.62
391.86	96.62
392.085	92.62
392.31	81.62
392.534	86.62
392.759	97.62
392.984	95.62
393.208	100.62
393.433	100.62
393.658	92.62
393.882	75.62
394.107	87.62
394.331	84.62
394.556	89.62
394.78	114.62
395.005	98.62
395.229	91.62
395.454	93.62
395.678	77.62
395.903	95.62
396.127	91.62
396.352	75.62
396.576	76.62
396.801	84.62
397.025	115.62
397.249	71.62
397.474	107.62
397.698	83.62
397.922	99.62
398.147	92.62
398.371	75.62
398.595	91.62
398.82	92.62
399.044	71.62
399.268	76.62
399.492	94.62
399.717	87.62
399.941	82.62
400.165	98.62
400.389	103.62
400.613	97.62
400.837	90.62
401.062	94.62
401.286	84.62
401.51	93.62
401.734	95.62
401.958	106.62
402.182	126.62
402.406	162.62
402.63	122.62
402.854	107.62
403.078	95.62
403.302	95.62
403.526	74.62
403.75	86.62
403.974	85.62
404.198	107.62
404.422	96.62
404.645	90.62
404.869	98.62
405.093	116.62
405.317	116.62
405.541	112.62
405.765	108.62
405.988	123.62
406.212	191.62
406.436	264.62
406.66	172.62
406.883	109.62
407.107	96.62
407.331	107.62
407.555	79.62
407.778	88.62
408.002	84.62
408.226	93.62
408.449	93.62
408.673	96.62
408.896	97.62
409.12	92.62
409.344	87.62
409.567	83.62
409.791	98.62
410.014	92.62
410.238	91.62
410.461	88.62
410.685	108.62
410.908	105.62
411.132	114.62
411.355	89.62
411.578	97.62
411.802	94.62
412.025	84.62
412.249	93.62
412.472	116.62
412.695	116.62
412.919	100.62
413.142	91.62
413.365	92.62
413.589	87.62
413.812	84.62
414.035	73.62
414.258	87.62
414.482	85.62
414.705	95.62
414.928	83.62
415.151	108.62
415.374	110.62
415.597	92.62
415.821	92.62
416.044	93.62
416.267	88.62
416.49	91.62
416.713	92.62
416.936	90.62
417.159	90.62
417.382	91.62
417.605	95.62
417.828	103.62
418.051	100.62
418.274	91.62
418.497	97.62
418.72	98.62
418.943	89.62
419.166	103.62
419.389	78.62
419.611	84.62
419.834	91.62
420.057	94.62
420.28	95.62
420.503	88.62
420.726	94.62
420.948	88.62
421.171	90.62
421.394	102.62
421.617	92.62
421.839	99.62
422.062	72.62
422.285	104.62
422.507	99.62
422.73	107.62
422.953	99.62
423.175	99.62
423.398	90.62
423.621	99.62
423.843	79.62
424.066	98.62
424.288	98.62
424.511	100.62
424.733	104.62
424.956	93.62
425.178	94.62
425.401	100.62
425.623	106.62
425.846	80.62
426.068	110.62
426.291	89.62
426.513	103.62
426.735	101.62
426.958	99.62
427.18	120.62
427.402	136.62
427.625	207.62
427.847	176.62
428.069	175.62
428.292	116.62
428.514	92.62
428.736	82.62
428.958	93.62
429.181	88.62
429.403	91.62
429.625	90.62
429.847	104.62
430.069	99.62
430.292	102.62
430.514	92.62
430.736	90.62
430.958	77.62
431.18	87.62
431.402	89.62
431.624	82.62
431.846	79.62
432.068	93.62
432.29	84.62
432.512	88.62
432.734	97.62
432.956	93.62
433.178	93.62
433.4	96.62
433.622	99.62
433.844	111.62
434.066	104.62
434.287	106.62
434.509	100.62
434.731	85.62
434.953	85.62
435.175	77.62
435.397	91.62
435.618	90.62
435.84	97.62
436.062	114.62
436.284	113.62
436.505	113.62
436.727	112.62
436.949	108.62
437.17	86.62
437.392	82.62
437.614	92.62
437.835	115.62
438.057	126.62
438.278	140.62
438.5	109.62
438.721	122.62
438.943	99.62
439.165	86.62
439.386	81.62
439.608	87.62
439.829	107.62
440.05	143.62
440.272	161.62
440.493	107.62
440.715	92.62
440.936	86.62
441.158	89.62
441.379	88.62
441.6	98.62
441.822	94.62
442.043	102.62
442.264	112.62
442.486	108.62
442.707	82.62
442.928	117.62
443.149	142.62
443.371	143.62
443.592	115.62
443.813	128.62
444.034	98.62
444.255	96.62
444.476	86.62
444.698	92.62
444.919	88.62
445.14	127.62
445.361	115.62
445.582	133.62
445.803	154.62
446.024	136.62
446.245	144.62
446.466	119.62
446.687	72.62
446.908	78.62
447.129	96.62
447.35	92.62
447.571	95.62
447.792	107.62
448.013	95.62
448.234	115.62
448.455	104.62
448.675	112.62
448.896	113.62
449.117	117.62
449.338	104.62
449.559	129.62
449.779	148.62
450	85.62
450.221	90.62
450.442	94.62
450.662	87.62
450.883	118.62
451.104	111.62
451.324	98.62
451.545	98.62
451.766	83.62
451.986	93.62
452.207	80.62
452.428	87.62
452.648	91.62
452.869	115.62
453.089	135.62
453.31	129.62
453.53	110.62
453.751	95.62
453.971	100.62
454.192	117.62
454.412	93.62
454.633	82.62
454.853	82.62
455.073	110.62
455.294	72.62
455.514	96.62
455.734	111.62
455.955	94.62
456.175	90.62
456.395	83.62
456.616	84.62
456.836	83.62
457.056	84.62
457.276	93.62
457.497	80.62
457.717	99.62
457.937	90.62
458.157	80.62
458.377	86.62
458.598	118.62
458.818	158.62
459.038	174.62
459.258	133.62
459.478	90.62
459.698	98.62
459.918	94.62
460.138	84.62
460.358	86.62
460.578	80.62
460.798	89.62
461.018	84.62
461.238	87.62
461.458	88.62
461.678	101.62
461.898	96.62
462.118	79.62
462.338	80.62
462.558	84.62
462.777	87.62
462.997	106.62
463.217	107.62
463.437	93.62
463.657	97.62
463.876	108.62
464.096	83.62
464.316	94.62
464.536	96.62
464.755	90.62
464.975	120.62
465.195	195.62
465.414	188.62
465.634	103.62
465.854	92.62
466.073	78.62
466.293	94.62
466.512	81.62
466.732	94.62
466.951	89.62
467.171	94.62
467.391	109.62
467.61	124.62
467.829	134.62
468.049	265.62
468.268	407.62
468.488	151.62
468.707	101.62
468.927	95.62
469.146	82.62
469.365	93.62
469.585	81.62
469.804	93.62
470.023	103.62
470.243	106.62
470.462	117.62
470.681	113.62
470.901	101.62
471.12	87.62
471.339	101.62
471.558	102.62
471.777	107.62
471.997	167.62
472.216	540.62
472.435	1167.62
472.654	324.62
472.873	122.62
473.092	108.62
473.311	99.62
473.53	82.62
473.749	99.62
473.968	97.62
474.187	110.62
474.406	90.62
474.625	87.62
474.844	76.62
475.063	92.62
475.282	82.62
475.501	91.62
475.72	90.62
475.939	80.62
476.158	80.62
476.377	98.62
476.596	92.62
476.814	96.62
477.033	99.62
477.252	83.62
477.471	83.62
477.69	88.62
477.908	104.62
478.127	95.62
478.346	92.62
478.564	88.62
478.783	94.62
479.002	98.62
479.22	97.62
479.439	109.62
479.658	120.62
479.876	110.62
480.095	109.62
480.313	109.62
480.532	133.62
480.751	194.62
480.969	502.62
481.188	2059.62
481.406	1224.62
481.624	218.62
481.843	108.62
482.061	90.62
482.28	99.62
482.498	90.62
482.717	85.62
482.935	91.62
483.153	95.62
483.372	103.62
483.59	100.62
483.808	91.62
484.027	90.62
484.245	108.62
484.463	87.62
484.681	99.62
484.9	100.62
485.118	104.62
485.336	108.62
485.554	90.62
485.772	99.62
485.99	112.62
486.209	109.62
486.427	110.62
486.645	108.62
486.863	113.62
487.081	102.62
487.299	87.62
487.517	95.62
487.735	85.62
487.953	94.62
488.171	86.62
488.389	95.62
488.607	90.62
488.825	99.62
489.043	81.62
489.261	86.62
489.479	97.62
489.696	94.62
489.914	96.62
490.132	78.62
490.35	86.62
490.568	86.62
490.786	85.62
491.003	88.62
491.221	87.62
491.439	103.62
491.657	94.62
491.874	78.62
492.092	85.62
492.31	94.62
492.527	101.62
492.745	92.62
492.963	84.62
493.18	87.62
493.398	87.62
493.615	102.62
493.833	102.62
494.05	95.62
494.268	98.62
494.485	90.62
494.703	89.62
494.92	85.62
495.138	86.62
495.355	95.62
495.573	103.62
495.79	98.62
496.008	101.62
496.225	100.62
496.442	94.62
496.66	94.62
496.877	98.62
497.094	100.62
497.312	92.62
497.529	93.62
497.746	96.62
497.963	97.62
498.181	96.62
498.398	117.62
498.615	119.62
498.832	128.62
499.049	90.62
499.267	97.62
499.484	90.62
499.701	92.62
499.918	86.62
500.135	94.62
500.352	89.62
500.569	103.62
500.786	106.62
501.003	86.62
501.22	90.62
501.437	90.62
501.654	93.62
501.871	116.62
502.088	98.62
502.305	99.62
502.522	100.62
502.739	105.62
502.956	83.62
503.172	98.62
503.389	101.62
503.606	126.62
503.823	101.62
504.04	98.62
504.256	101.62
504.473	79.62
504.69	95.62
504.907	90.62
505.123	90.62
505.34	77.62
505.557	93.62
505.773	100.62
505.99	88.62
506.207	91.62
506.423	90.62
506.64	90.62
506.856	105.62
507.073	92.62
507.289	90.62
507.506	103.62
507.722	120.62
507.939	112.62
508.155	98.62
508.372	71.62
508.588	93.62
508.805	99.62
509.021	109.62
509.238	98.62
509.454	90.62
509.67	103.62
509.887	119.62
510.103	143.62
510.319	205.62
510.536	772.62
510.752	2685.62
510.968	751.62
511.184	160.62
511.401	118.62
511.617	108.62
511.833	90.62
512.049	96.62
512.265	94.62
512.481	91.62
512.698	82.62
512.914	112.62
513.13	102.62
513.346	98.62
513.562	98.62
513.778	85.62
513.994	107.62
