Data from Circ_1992_H10_HRD10591_00055.txt Node
Date: Wed Jan 03 11:47:55 EST 2024
User: Yrep
Spectrometer: HR+D1059
Trigger mode: 1
Integration Time (sec): 1.000000E-1
Scans to average: 1
Electric dark correction enabled: true
Nonlinearity correction enabled: false
Boxcar width: 0
XAxis mode: Wavelengths
Number of Pixels in Spectrum: 2048
>>>>>Begin Spectral Data<<<<<
223.165	-26.19
223.4	-26.19
223.635	-26.19
223.869	-18.19
224.104	-18.19
224.338	-8.19
224.573	-17.19
224.808	-12.19
225.042	-12.19
225.277	-3.19
225.511	4.81
225.746	4.81
225.98	7.81
226.215	8.81
226.449	15.81
226.683	33.81
226.918	22.81
227.152	16.81
227.387	43.81
227.621	38.81
227.856	49.81
228.09	42.81
228.324	50.81
228.559	57.81
228.793	65.81
229.027	65.81
229.262	62.81
229.496	73.81
229.73	95.81
229.964	91.81
230.199	78.81
230.433	66.81
230.667	88.81
230.901	76.81
231.136	75.81
231.37	79.81
231.604	88.81
231.838	86.81
232.072	82.81
232.306	77.81
232.541	85.81
232.775	79.81
233.009	80.81
233.243	88.81
233.477	86.81
233.711	85.81
233.945	75.81
234.179	83.81
234.413	92.81
234.647	77.81
234.881	100.81
235.115	97.81
235.349	74.81
235.583	95.81
235.817	78.81
236.051	67.81
236.285	78.81
236.519	79.81
236.753	78.81
236.987	97.81
237.221	83.81
237.455	97.81
237.689	93.81
237.922	64.81
238.156	80.81
238.39	81.81
238.624	77.81
238.858	89.81
239.091	87.81
239.325	81.81
239.559	66.81
239.793	81.81
240.027	87.81
240.26	77.81
240.494	93.81
240.728	86.81
240.961	93.81
241.195	88.81
241.429	83.81
241.662	84.81
241.896	81.81
242.13	87.81
242.363	85.81
242.597	79.81
242.83	83.81
243.064	93.81
243.298	94.81
243.531	83.81
243.765	77.81
243.998	77.81
244.232	90.81
244.465	91.81
244.699	81.81
244.932	87.81
245.166	87.81
245.399	71.81
245.633	77.81
245.866	98.81
246.099	84.81
246.333	90.81
246.566	73.81
246.8	87.81
247.033	87.81
247.266	79.81
247.5	82.81
247.733	86.81
247.966	96.81
248.2	88.81
248.433	67.81
248.666	69.81
248.899	80.81
249.133	89.81
249.366	114.81
249.599	99.81
249.832	80.81
250.066	94.81
250.299	85.81
250.532	85.81
250.765	84.81
250.998	83.81
251.231	103.81
251.465	81.81
251.698	90.81
251.931	84.81
252.164	95.81
252.397	93.81
252.63	82.81
252.863	68.81
253.096	89.81
253.329	94.81
253.562	86.81
253.795	93.81
254.028	86.81
254.261	89.81
254.494	72.81
254.727	85.81
254.96	81.81
255.193	77.81
255.426	73.81
255.659	94.81
255.892	94.81
256.124	75.81
256.357	82.81
256.59	94.81
256.823	88.81
257.056	88.81
257.289	93.81
257.521	89.81
257.754	81.81
257.987	72.81
258.22	84.81
258.452	84.81
258.685	98.81
258.918	98.81
259.151	100.81
259.383	90.81
259.616	70.81
259.849	100.81
260.081	93.81
260.314	83.81
260.547	85.81
260.779	85.81
261.012	89.81
261.244	99.81
261.477	107.81
261.71	92.81
261.942	105.81
262.175	103.81
262.407	74.81
262.64	97.81
262.872	88.81
263.105	87.81
263.337	100.81
263.57	82.81
263.802	91.81
264.035	90.81
264.267	90.81
264.499	94.81
264.732	86.81
264.964	89.81
265.197	97.81
265.429	101.81
265.661	88.81
265.894	84.81
266.126	97.81
266.358	86.81
266.591	84.81
266.823	96.81
267.055	95.81
267.287	91.81
267.52	78.81
267.752	84.81
267.984	96.81
268.216	78.81
268.448	85.81
268.681	75.81
268.913	89.81
269.145	98.81
269.377	90.81
269.609	86.81
269.841	78.81
270.073	98.81
270.306	93.81
270.538	102.81
270.77	87.81
271.002	100.81
271.234	91.81
271.466	101.81
271.698	90.81
271.93	87.81
272.162	85.81
272.394	96.81
272.626	85.81
272.858	92.81
273.09	84.81
273.322	89.81
273.553	82.81
273.785	78.81
274.017	88.81
274.249	87.81
274.481	82.81
274.713	86.81
274.945	78.81
275.176	89.81
275.408	99.81
275.64	109.81
275.872	97.81
276.104	95.81
276.335	98.81
276.567	104.81
276.799	109.81
277.031	122.81
277.262	114.81
277.494	113.81
277.726	113.81
277.957	95.81
278.189	100.81
278.421	93.81
278.652	92.81
278.884	94.81
279.115	97.81
279.347	101.81
279.579	83.81
279.81	107.81
280.042	122.81
280.273	134.81
280.505	113.81
280.736	86.81
280.968	97.81
281.199	95.81
281.431	94.81
281.662	84.81
281.894	102.81
282.125	105.81
282.356	124.81
282.588	142.81
282.819	105.81
283.051	81.81
283.282	83.81
283.513	109.81
283.745	107.81
283.976	85.81
284.207	86.81
284.439	86.81
284.67	111.81
284.901	79.81
285.132	83.81
285.364	73.81
285.595	83.81
285.826	83.81
286.057	98.81
286.288	88.81
286.52	90.81
286.751	93.81
286.982	86.81
287.213	87.81
287.444	96.81
287.675	102.81
287.906	90.81
288.138	100.81
288.369	90.81
288.6	95.81
288.831	100.81
289.062	95.81
289.293	87.81
289.524	84.81
289.755	91.81
289.986	94.81
290.217	82.81
290.448	94.81
290.679	85.81
290.91	91.81
291.141	87.81
291.371	88.81
291.602	95.81
291.833	85.81
292.064	98.81
292.295	107.81
292.526	95.81
292.757	95.81
292.987	90.81
293.218	94.81
293.449	105.81
293.68	93.81
293.91	100.81
294.141	94.81
294.372	92.81
294.603	88.81
294.833	93.81
295.064	85.81
295.295	86.81
295.525	97.81
295.756	100.81
295.987	105.81
296.217	141.81
296.448	158.81
296.679	111.81
296.909	93.81
297.14	94.81
297.37	99.81
297.601	86.81
297.831	92.81
298.062	85.81
298.292	90.81
298.523	98.81
298.753	96.81
298.984	92.81
299.214	87.81
299.445	96.81
299.675	91.81
299.905	97.81
300.136	85.81
300.366	86.81
300.597	103.81
300.827	99.81
301.057	82.81
301.288	91.81
301.518	102.81
301.748	79.81
301.979	98.81
302.209	106.81
302.439	84.81
302.669	87.81
302.9	100.81
303.13	99.81
303.36	90.81
303.59	113.81
303.82	128.81
304.051	101.81
304.281	95.81
304.511	104.81
304.741	100.81
304.971	105.81
305.201	94.81
305.431	77.81
305.661	109.81
305.891	110.81
306.121	96.81
306.352	102.81
306.582	108.81
306.812	95.81
307.042	107.81
307.272	115.81
307.502	129.81
307.731	132.81
307.961	99.81
308.191	101.81
308.421	97.81
308.651	96.81
308.881	90.81
309.111	90.81
309.341	94.81
309.571	95.81
309.8	104.81
310.03	98.81
310.26	111.81
310.49	103.81
310.72	100.81
310.949	107.81
311.179	105.81
311.409	104.81
311.639	101.81
311.868	105.81
312.098	94.81
312.328	109.81
312.557	110.81
312.787	111.81
313.017	101.81
313.246	99.81
313.476	97.81
313.706	102.81
313.935	110.81
314.165	102.81
314.394	104.81
314.624	85.81
314.853	103.81
315.083	86.81
315.312	82.81
315.542	88.81
315.771	94.81
316.001	104.81
316.23	95.81
316.46	83.81
316.689	89.81
316.919	100.81
317.148	104.81
317.377	98.81
317.607	100.81
317.836	98.81
318.065	95.81
318.295	95.81
318.524	97.81
318.753	82.81
318.983	97.81
319.212	112.81
319.441	110.81
319.67	106.81
319.9	103.81
320.129	111.81
320.358	114.81
320.587	100.81
320.816	122.81
321.046	88.81
321.275	111.81
321.504	110.81
321.733	92.81
321.962	101.81
322.191	114.81
322.42	125.81
322.649	130.81
322.878	105.81
323.108	124.81
323.337	129.81
323.566	130.81
323.795	167.81
324.024	233.81
324.253	423.81
324.482	962.81
324.71	1984.81
324.939	2644.81
325.168	944.81
325.397	297.81
325.626	179.81
325.855	139.81
326.084	125.81
326.313	149.81
326.542	188.81
326.77	235.81
326.999	499.81
327.228	1096.81
327.457	1983.81
327.686	1605.81
327.914	445.81
328.143	297.81
328.372	323.81
328.6	210.81
328.829	160.81
329.058	150.81
329.287	135.81
329.515	146.81
329.744	158.81
329.972	234.81
330.201	431.81
330.43	577.81
330.658	322.81
330.887	177.81
331.115	145.81
331.344	113.81
331.572	104.81
331.801	108.81
332.03	109.81
332.258	105.81
332.486	89.81
332.715	96.81
332.943	100.81
333.172	117.81
333.4	104.81
333.629	135.81
333.857	146.81
334.085	227.81
334.314	422.81
334.542	756.81
334.771	704.81
334.999	238.81
335.227	132.81
335.455	114.81
335.684	115.81
335.912	110.81
336.14	115.81
336.369	118.81
336.597	107.81
336.825	104.81
337.053	104.81
337.281	104.81
337.51	97.81
337.738	104.81
337.966	105.81
338.194	106.81
338.422	119.81
338.65	95.81
338.878	93.81
339.106	95.81
339.334	95.81
339.562	99.81
339.79	94.81
340.018	97.81
340.246	105.81
340.474	99.81
340.702	102.81
340.93	98.81
341.158	96.81
341.386	98.81
341.614	103.81
341.842	104.81
342.07	107.81
342.298	81.81
342.526	90.81
342.754	96.81
342.981	89.81
343.209	93.81
343.437	119.81
343.665	90.81
343.893	108.81
344.12	97.81
344.348	93.81
344.576	104.81
344.804	98.81
345.031	95.81
345.259	103.81
345.487	107.81
345.714	100.81
345.942	94.81
346.17	111.81
346.397	105.81
346.625	105.81
346.853	89.81
347.08	89.81
347.308	110.81
347.535	101.81
347.763	90.81
347.99	102.81
348.218	109.81
348.445	113.81
348.673	103.81
348.9	104.81
349.128	94.81
349.355	86.81
349.583	99.81
349.81	99.81
350.037	104.81
350.265	103.81
350.492	97.81
350.72	116.81
350.947	105.81
351.174	122.81
351.402	107.81
351.629	107.81
351.856	106.81
352.083	113.81
352.311	110.81
352.538	120.81
352.765	110.81
352.992	102.81
353.22	108.81
353.447	117.81
353.674	116.81
353.901	89.81
354.128	110.81
354.355	87.81
354.583	96.81
354.81	98.81
355.037	111.81
355.264	96.81
355.491	101.81
355.718	107.81
355.945	111.81
356.172	94.81
356.399	103.81
356.626	102.81
356.853	87.81
357.08	97.81
357.307	96.81
357.534	88.81
357.761	97.81
357.988	90.81
358.215	100.81
358.441	117.81
358.668	100.81
358.895	98.81
359.122	106.81
359.349	99.81
359.576	106.81
359.802	98.81
360.029	111.81
360.256	102.81
360.483	93.81
360.709	95.81
360.936	85.81
361.163	96.81
361.39	94.81
361.616	117.81
361.843	101.81
362.07	95.81
362.296	99.81
362.523	100.81
362.749	107.81
362.976	108.81
363.203	92.81
363.429	102.81
363.656	88.81
363.882	87.81
364.109	89.81
364.335	96.81
364.562	95.81
364.788	97.81
365.015	106.81
365.241	98.81
365.468	108.81
365.694	102.81
365.92	97.81
366.147	110.81
366.373	98.81
366.599	96.81
366.826	92.81
367.052	91.81
367.278	82.81
367.505	94.81
367.731	93.81
367.957	120.81
368.184	104.81
368.41	101.81
368.636	113.81
368.862	120.81
369.089	120.81
369.315	89.81
369.541	103.81
369.767	75.81
369.993	98.81
370.219	109.81
370.445	85.81
370.672	80.81
370.898	95.81
371.124	87.81
371.35	88.81
371.576	104.81
371.802	101.81
372.028	88.81
372.254	101.81
372.48	96.81
372.706	74.81
372.932	88.81
373.158	89.81
373.384	105.81
373.61	102.81
373.835	97.81
374.061	88.81
374.287	104.81
374.513	82.81
374.739	81.81
374.965	100.81
375.191	74.81
375.416	90.81
375.642	104.81
375.868	89.81
376.094	94.81
376.319	79.81
376.545	98.81
376.771	77.81
376.997	97.81
377.222	97.81
377.448	92.81
377.674	96.81
377.899	110.81
378.125	105.81
378.35	97.81
378.576	94.81
378.802	105.81
379.027	85.81
379.253	98.81
379.478	93.81
379.704	106.81
379.929	104.81
380.155	97.81
380.38	101.81
380.606	97.81
380.831	87.81
381.057	102.81
381.282	105.81
381.507	106.81
381.733	103.81
381.958	99.81
382.184	100.81
382.409	113.81
382.634	101.81
382.86	99.81
383.085	106.81
383.31	115.81
383.535	112.81
383.761	98.81
383.986	100.81
384.211	107.81
384.436	95.81
384.662	105.81
384.887	97.81
385.112	94.81
385.337	102.81
385.562	103.81
385.787	100.81
386.013	118.81
386.238	128.81
386.463	103.81
386.688	125.81
386.913	112.81
387.138	97.81
387.363	110.81
387.588	90.81
387.813	102.81
388.038	120.81
388.263	118.81
388.488	115.81
388.713	114.81
388.938	94.81
389.163	102.81
389.387	97.81
389.612	102.81
389.837	89.81
390.062	99.81
390.287	100.81
390.512	74.81
390.736	103.81
390.961	106.81
391.186	104.81
391.411	110.81
391.636	99.81
391.86	88.81
392.085	107.81
392.31	75.81
392.534	84.81
392.759	77.81
392.984	99.81
393.208	94.81
393.433	94.81
393.658	88.81
393.882	90.81
394.107	88.81
394.331	84.81
394.556	94.81
394.78	98.81
395.005	90.81
395.229	95.81
395.454	100.81
395.678	106.81
395.903	89.81
396.127	93.81
396.352	81.81
396.576	84.81
396.801	95.81
397.025	95.81
397.249	90.81
397.474	95.81
397.698	84.81
397.922	95.81
398.147	106.81
398.371	94.81
398.595	89.81
398.82	86.81
399.044	85.81
399.268	82.81
399.492	81.81
399.717	94.81
399.941	87.81
400.165	94.81
400.389	94.81
400.613	89.81
400.837	105.81
401.062	102.81
401.286	106.81
401.51	99.81
401.734	103.81
401.958	108.81
402.182	127.81
402.406	142.81
402.63	119.81
402.854	100.81
403.078	101.81
403.302	92.81
403.526	95.81
403.75	81.81
403.974	92.81
404.198	101.81
404.422	85.81
404.645	96.81
404.869	104.81
405.093	117.81
405.317	137.81
405.541	114.81
405.765	107.81
405.988	131.81
406.212	168.81
406.436	237.81
406.66	137.81
406.883	89.81
407.107	108.81
407.331	101.81
407.555	110.81
407.778	106.81
408.002	96.81
408.226	90.81
408.449	97.81
408.673	91.81
408.896	113.81
409.12	110.81
409.344	86.81
409.567	98.81
409.791	82.81
410.014	102.81
410.238	86.81
410.461	87.81
410.685	101.81
410.908	111.81
411.132	101.81
411.355	105.81
411.578	86.81
411.802	101.81
412.025	89.81
412.249	105.81
412.472	114.81
412.695	125.81
412.919	101.81
413.142	93.81
413.365	97.81
413.589	89.81
413.812	79.81
414.035	83.81
414.258	107.81
414.482	94.81
414.705	89.81
414.928	94.81
415.151	97.81
415.374	94.81
415.597	89.81
415.821	93.81
416.044	77.81
416.267	77.81
416.49	93.81
416.713	106.81
416.936	97.81
417.159	90.81
417.382	97.81
417.605	97.81
417.828	93.81
418.051	89.81
418.274	89.81
418.497	95.81
418.72	98.81
418.943	100.81
419.166	89.81
419.389	104.81
419.611	114.81
419.834	109.81
420.057	100.81
420.28	90.81
420.503	95.81
420.726	86.81
420.948	109.81
421.171	98.81
421.394	103.81
421.617	91.81
421.839	104.81
422.062	95.81
422.285	90.81
422.507	109.81
422.73	104.81
422.953	107.81
423.175	86.81
423.398	82.81
423.621	90.81
423.843	86.81
424.066	75.81
424.288	94.81
424.511	106.81
424.733	105.81
424.956	105.81
425.178	115.81
425.401	102.81
425.623	95.81
425.846	80.81
426.068	89.81
426.291	88.81
426.513	88.81
426.735	101.81
426.958	100.81
427.18	117.81
427.402	146.81
427.625	183.81
427.847	180.81
428.069	177.81
428.292	117.81
428.514	111.81
428.736	99.81
428.958	81.81
429.181	87.81
429.403	89.81
429.625	94.81
429.847	82.81
430.069	114.81
430.292	98.81
430.514	86.81
430.736	87.81
430.958	95.81
431.18	94.81
431.402	98.81
431.624	94.81
431.846	78.81
432.068	93.81
432.29	95.81
432.512	82.81
432.734	91.81
432.956	102.81
433.178	82.81
433.4	109.81
433.622	100.81
433.844	90.81
434.066	91.81
434.287	82.81
434.509	102.81
434.731	99.81
434.953	91.81
435.175	74.81
435.397	97.81
435.618	94.81
435.84	107.81
436.062	148.81
436.284	131.81
436.505	104.81
436.727	106.81
436.949	100.81
437.17	86.81
437.392	94.81
437.614	95.81
437.835	121.81
438.057	109.81
438.278	123.81
438.5	120.81
438.721	156.81
438.943	101.81
439.165	98.81
439.386	90.81
439.608	96.81
439.829	103.81
440.05	130.81
440.272	165.81
440.493	94.81
440.715	88.81
440.936	90.81
441.158	97.81
441.379	91.81
441.6	87.81
441.822	107.81
442.043	113.81
442.264	121.81
442.486	103.81
442.707	115.81
442.928	120.81
443.149	136.81
443.371	137.81
443.592	147.81
443.813	137.81
444.034	121.81
444.255	97.81
444.476	96.81
444.698	89.81
444.919	82.81
445.14	130.81
445.361	130.81
445.582	127.81
445.803	166.81
446.024	170.81
446.245	148.81
446.466	127.81
446.687	107.81
446.908	93.81
447.129	86.81
447.35	71.81
447.571	90.81
447.792	91.81
448.013	92.81
448.234	87.81
448.455	110.81
448.675	126.81
448.896	122.81
449.117	107.81
449.338	101.81
449.559	157.81
449.779	137.81
450	98.81
450.221	83.81
450.442	98.81
450.662	107.81
450.883	121.81
451.104	121.81
451.324	102.81
451.545	86.81
451.766	72.81
451.986	84.81
452.207	101.81
452.428	92.81
452.648	104.81
452.869	112.81
453.089	119.81
453.31	130.81
453.53	104.81
453.751	83.81
453.971	117.81
454.192	117.81
454.412	98.81
454.633	94.81
454.853	98.81
455.073	86.81
455.294	83.81
455.514	106.81
455.734	88.81
455.955	96.81
456.175	87.81
456.395	93.81
456.616	86.81
456.836	89.81
457.056	89.81
457.276	90.81
457.497	83.81
457.717	84.81
457.937	91.81
458.157	82.81
458.377	95.81
458.598	117.81
458.818	156.81
459.038	158.81
459.258	131.81
459.478	104.81
459.698	90.81
459.918	80.81
460.138	87.81
460.358	99.81
460.578	99.81
460.798	87.81
461.018	85.81
461.238	70.81
461.458	89.81
461.678	96.81
461.898	95.81
462.118	93.81
462.338	82.81
462.558	102.81
462.777	88.81
462.997	91.81
463.217	82.81
463.437	92.81
463.657	89.81
463.876	103.81
464.096	89.81
464.316	93.81
464.536	102.81
464.755	94.81
464.975	104.81
465.195	157.81
465.414	179.81
465.634	105.81
465.854	89.81
466.073	89.81
466.293	88.81
466.512	86.81
466.732	88.81
466.951	87.81
467.171	91.81
467.391	106.81
467.61	109.81
467.829	138.81
468.049	254.81
468.268	371.81
468.488	121.81
468.707	90.81
468.927	90.81
469.146	97.81
469.365	99.81
469.585	103.81
469.804	88.81
470.023	84.81
470.243	90.81
470.462	102.81
470.681	107.81
470.901	88.81
471.12	113.81
471.339	93.81
471.558	101.81
471.777	126.81
471.997	180.81
472.216	483.81
472.435	1031.81
472.654	271.81
472.873	116.81
473.092	102.81
473.311	101.81
473.53	95.81
473.749	95.81
473.968	112.81
474.187	116.81
474.406	114.81
474.625	106.81
474.844	102.81
475.063	81.81
475.282	82.81
475.501	88.81
475.72	82.81
475.939	94.81
476.158	104.81
476.377	98.81
476.596	87.81
476.814	104.81
477.033	114.81
477.252	101.81
477.471	105.81
477.69	85.81
477.908	93.81
478.127	99.81
478.346	96.81
478.564	100.81
478.783	111.81
479.002	100.81
479.22	87.81
479.439	105.81
479.658	118.81
479.876	90.81
480.095	105.81
480.313	105.81
480.532	131.81
480.751	177.81
480.969	475.81
481.188	1783.81
481.406	1073.81
481.624	209.81
481.843	106.81
482.061	117.81
482.28	98.81
482.498	99.81
482.717	104.81
482.935	107.81
483.153	104.81
483.372	93.81
483.59	103.81
483.808	87.81
484.027	101.81
484.245	85.81
484.463	100.81
484.681	81.81
484.9	104.81
485.118	98.81
485.336	89.81
485.554	99.81
485.772	120.81
485.99	107.81
486.209	111.81
486.427	104.81
486.645	106.81
486.863	132.81
487.081	103.81
487.299	107.81
487.517	101.81
487.735	97.81
487.953	92.81
488.171	100.81
488.389	92.81
488.607	101.81
488.825	95.81
489.043	102.81
489.261	102.81
489.479	82.81
489.696	85.81
489.914	105.81
490.132	96.81
490.35	89.81
490.568	81.81
490.786	85.81
491.003	89.81
491.221	79.81
491.439	94.81
491.657	83.81
491.874	91.81
492.092	101.81
492.31	89.81
492.527	96.81
492.745	83.81
492.963	112.81
493.18	80.81
493.398	91.81
493.615	88.81
493.833	102.81
494.05	79.81
494.268	92.81
494.485	92.81
494.703	99.81
494.92	100.81
495.138	87.81
495.355	86.81
495.573	97.81
495.79	101.81
496.008	99.81
496.225	98.81
496.442	86.81
496.66	86.81
496.877	96.81
497.094	106.81
497.312	98.81
497.529	94.81
497.746	98.81
497.963	97.81
498.181	102.81
498.398	97.81
498.615	107.81
498.832	120.81
499.049	102.81
499.267	103.81
499.484	87.81
499.701	91.81
499.918	91.81
500.135	83.81
500.352	97.81
500.569	90.81
500.786	91.81
501.003	90.81
501.22	96.81
501.437	95.81
501.654	100.81
501.871	106.81
502.088	106.81
502.305	108.81
502.522	80.81
502.739	83.81
502.956	88.81
503.172	87.81
503.389	93.81
503.606	122.81
503.823	110.81
504.04	79.81
504.256	91.81
504.473	89.81
504.69	82.81
504.907	102.81
505.123	100.81
505.34	91.81
505.557	86.81
505.773	86.81
505.99	90.81
506.207	87.81
506.423	90.81
506.64	96.81
506.856	87.81
507.073	85.81
507.289	95.81
507.506	114.81
507.722	126.81
507.939	119.81
508.155	102.81
508.372	100.81
508.588	90.81
508.805	99.81
509.021	106.81
509.238	95.81
509.454	114.81
509.67	107.81
509.887	107.81
510.103	125.81
510.319	177.81
510.536	657.81
510.752	2061.81
510.968	593.81
511.184	168.81
511.401	109.81
511.617	89.81
511.833	109.81
512.049	99.81
512.265	97.81
512.481	86.81
