Data from Circ_1992_H10_HRD10591_00088.txt Node
Date: Wed Jan 03 11:48:02 EST 2024
User: Yrep
Spectrometer: HR+D1059
Trigger mode: 1
Integration Time (sec): 1.000000E-1
Scans to average: 1
Electric dark correction enabled: true
Nonlinearity correction enabled: false
Boxcar width: 0
XAxis mode: Wavelengths
Number of Pixels in Spectrum: 2048
>>>>>Begin Spectral Data<<<<<
223.165	-4.06
223.4	-4.06
223.635	-4.06
223.869	-18.06
224.104	-28.06
224.338	-23.06
224.573	-18.06
224.808	-37.06
225.042	-8.06
225.277	-1.06
225.511	7.94
225.746	11.94
225.98	15.94
226.215	12.94
226.449	13.94
226.683	21.94
226.918	26.94
227.152	25.94
227.387	23.94
227.621	44.94
227.856	34.94
228.09	37.94
228.324	45.94
228.559	33.94
228.793	71.94
229.027	51.94
229.262	69.94
229.496	86.94
229.73	87.94
229.964	89.94
230.199	72.94
230.433	64.94
230.667	64.94
230.901	66.94
231.136	72.94
231.37	79.94
231.604	70.94
231.838	77.94
232.072	80.94
232.306	84.94
232.541	80.94
232.775	78.94
233.009	81.94
233.243	83.94
233.477	69.94
233.711	80.94
233.945	65.94
234.179	73.94
234.413	69.94
234.647	77.94
234.881	54.94
235.115	64.94
235.349	79.94
235.583	88.94
235.817	79.94
236.051	89.94
236.285	75.94
236.519	79.94
236.753	71.94
236.987	91.94
237.221	83.94
237.455	90.94
237.689	82.94
237.922	73.94
238.156	69.94
238.39	73.94
238.624	70.94
238.858	74.94
239.091	86.94
239.325	71.94
239.559	76.94
239.793	83.94
240.027	73.94
240.26	84.94
240.494	86.94
240.728	73.94
240.961	57.94
241.195	74.94
241.429	87.94
241.662	87.94
241.896	77.94
242.13	67.94
242.363	63.94
242.597	73.94
242.83	77.94
243.064	75.94
243.298	69.94
243.531	89.94
243.765	76.94
243.998	78.94
244.232	74.94
244.465	74.94
244.699	82.94
244.932	71.94
245.166	73.94
245.399	73.94
245.633	77.94
245.866	76.94
246.099	77.94
246.333	78.94
246.566	77.94
246.8	80.94
247.033	74.94
247.266	78.94
247.5	83.94
247.733	82.94
247.966	80.94
248.2	68.94
248.433	90.94
248.666	74.94
248.899	75.94
249.133	91.94
249.366	90.94
249.599	88.94
249.832	92.94
250.066	81.94
250.299	73.94
250.532	81.94
250.765	94.94
250.998	77.94
251.231	77.94
251.465	81.94
251.698	92.94
251.931	73.94
252.164	75.94
252.397	80.94
252.63	76.94
252.863	71.94
253.096	82.94
253.329	56.94
253.562	90.94
253.795	83.94
254.028	80.94
254.261	78.94
254.494	73.94
254.727	87.94
254.96	66.94
255.193	83.94
255.426	73.94
255.659	81.94
255.892	88.94
256.124	75.94
256.357	97.94
256.59	81.94
256.823	89.94
257.056	80.94
257.289	85.94
257.521	89.94
257.754	89.94
257.987	87.94
258.22	93.94
258.452	93.94
258.685	81.94
258.918	77.94
259.151	81.94
259.383	73.94
259.616	83.94
259.849	73.94
260.081	87.94
260.314	74.94
260.547	79.94
260.779	103.94
261.012	96.94
261.244	92.94
261.477	91.94
261.71	91.94
261.942	106.94
262.175	117.94
262.407	87.94
262.64	70.94
262.872	87.94
263.105	83.94
263.337	77.94
263.57	85.94
263.802	81.94
264.035	81.94
264.267	82.94
264.499	81.94
264.732	79.94
264.964	84.94
265.197	83.94
265.429	79.94
265.661	79.94
265.894	75.94
266.126	75.94
266.358	70.94
266.591	88.94
266.823	80.94
267.055	69.94
267.287	78.94
267.52	57.94
267.752	75.94
267.984	72.94
268.216	74.94
268.448	83.94
268.681	93.94
268.913	73.94
269.145	87.94
269.377	87.94
269.609	78.94
269.841	81.94
270.073	71.94
270.306	82.94
270.538	105.94
270.77	77.94
271.002	80.94
271.234	77.94
271.466	79.94
271.698	68.94
271.93	76.94
272.162	84.94
272.394	76.94
272.626	83.94
272.858	92.94
273.09	88.94
273.322	92.94
273.553	77.94
273.785	82.94
274.017	96.94
274.249	78.94
274.481	95.94
274.713	72.94
274.945	87.94
275.176	74.94
275.408	95.94
275.64	88.94
275.872	102.94
276.104	95.94
276.335	85.94
276.567	98.94
276.799	120.94
277.031	124.94
277.262	120.94
277.494	104.94
277.726	78.94
277.957	89.94
278.189	74.94
278.421	89.94
278.652	69.94
278.884	83.94
279.115	95.94
279.347	93.94
279.579	78.94
279.81	109.94
280.042	120.94
280.273	155.94
280.505	113.94
280.736	92.94
280.968	87.94
281.199	91.94
281.431	77.94
281.662	75.94
281.894	92.94
282.125	89.94
282.356	111.94
282.588	137.94
282.819	103.94
283.051	82.94
283.282	94.94
283.513	91.94
283.745	104.94
283.976	93.94
284.207	89.94
284.439	94.94
284.67	80.94
284.901	82.94
285.132	96.94
285.364	88.94
285.595	74.94
285.826	80.94
286.057	95.94
286.288	82.94
286.52	64.94
286.751	89.94
286.982	90.94
287.213	80.94
287.444	87.94
287.675	94.94
287.906	79.94
288.138	85.94
288.369	85.94
288.6	85.94
288.831	82.94
289.062	78.94
289.293	86.94
289.524	71.94
289.755	83.94
289.986	73.94
290.217	78.94
290.448	81.94
290.679	88.94
290.91	82.94
291.141	62.94
291.371	83.94
291.602	80.94
291.833	83.94
292.064	86.94
292.295	87.94
292.526	100.94
292.757	81.94
292.987	72.94
293.218	83.94
293.449	98.94
293.68	84.94
293.91	82.94
294.141	71.94
294.372	97.94
294.603	98.94
294.833	85.94
295.064	86.94
295.295	70.94
295.525	86.94
295.756	93.94
295.987	96.94
296.217	113.94
296.448	123.94
296.679	96.94
296.909	79.94
297.14	87.94
297.37	86.94
297.601	89.94
297.831	69.94
298.062	88.94
298.292	71.94
298.523	91.94
298.753	89.94
298.984	75.94
299.214	97.94
299.445	75.94
299.675	92.94
299.905	91.94
300.136	98.94
300.366	89.94
300.597	78.94
300.827	83.94
301.057	90.94
301.288	100.94
301.518	81.94
301.748	90.94
301.979	102.94
302.209	85.94
302.439	80.94
302.669	85.94
302.9	94.94
303.13	89.94
303.36	89.94
303.59	111.94
303.82	108.94
304.051	73.94
304.281	83.94
304.511	79.94
304.741	90.94
304.971	89.94
305.201	90.94
305.431	93.94
305.661	73.94
305.891	97.94
306.121	81.94
306.352	100.94
306.582	107.94
306.812	93.94
307.042	103.94
307.272	121.94
307.502	135.94
307.731	124.94
307.961	103.94
308.191	81.94
308.421	81.94
308.651	82.94
308.881	89.94
309.111	93.94
309.341	99.94
309.571	88.94
309.8	96.94
310.03	106.94
310.26	97.94
310.49	76.94
310.72	89.94
310.949	95.94
311.179	105.94
311.409	97.94
311.639	93.94
311.868	108.94
312.098	104.94
312.328	72.94
312.557	99.94
312.787	99.94
313.017	99.94
313.246	98.94
313.476	92.94
313.706	110.94
313.935	99.94
314.165	81.94
314.394	95.94
314.624	105.94
314.853	87.94
315.083	85.94
315.312	75.94
315.542	87.94
315.771	95.94
316.001	68.94
316.23	97.94
316.46	96.94
316.689	93.94
316.919	102.94
317.148	82.94
317.377	85.94
317.607	94.94
317.836	89.94
318.065	91.94
318.295	77.94
318.524	82.94
318.753	98.94
318.983	95.94
319.212	84.94
319.441	95.94
319.67	105.94
319.9	99.94
320.129	82.94
320.358	92.94
320.587	83.94
320.816	91.94
321.046	89.94
321.275	103.94
321.504	87.94
321.733	103.94
321.962	90.94
322.191	86.94
322.42	97.94
322.649	105.94
322.878	112.94
323.108	116.94
323.337	130.94
323.566	141.94
323.795	154.94
324.024	218.94
324.253	427.94
324.482	940.94
324.71	2029.94
324.939	2769.94
325.168	985.94
325.397	280.94
325.626	163.94
325.855	127.94
326.084	110.94
326.313	140.94
326.542	155.94
326.77	251.94
326.999	514.94
327.228	1105.94
327.457	2143.94
327.686	1689.94
327.914	475.94
328.143	320.94
328.372	363.94
328.6	222.94
328.829	159.94
329.058	143.94
329.287	137.94
329.515	119.94
329.744	167.94
329.972	270.94
330.201	511.94
330.43	729.94
330.658	343.94
330.887	178.94
331.115	135.94
331.344	112.94
331.572	102.94
331.801	98.94
332.03	102.94
332.258	96.94
332.486	89.94
332.715	95.94
332.943	101.94
333.172	92.94
333.4	102.94
333.629	121.94
333.857	175.94
334.085	257.94
334.314	510.94
334.542	933.94
334.771	893.94
334.999	266.94
335.227	136.94
335.455	109.94
335.684	96.94
335.912	97.94
336.14	99.94
336.369	95.94
336.597	92.94
336.825	84.94
337.053	73.94
337.281	89.94
337.51	90.94
337.738	92.94
337.966	97.94
338.194	79.94
338.422	101.94
338.65	94.94
338.878	95.94
339.106	90.94
339.334	97.94
339.562	86.94
339.79	95.94
340.018	86.94
340.246	96.94
340.474	93.94
340.702	87.94
340.93	97.94
341.158	88.94
341.386	99.94
341.614	98.94
341.842	104.94
342.07	99.94
342.298	93.94
342.526	90.94
342.754	67.94
342.981	72.94
343.209	94.94
343.437	90.94
343.665	77.94
343.893	91.94
344.12	92.94
344.348	87.94
344.576	82.94
344.804	89.94
345.031	83.94
345.259	96.94
345.487	87.94
345.714	100.94
345.942	90.94
346.17	86.94
346.397	82.94
346.625	84.94
346.853	73.94
347.08	91.94
347.308	89.94
347.535	87.94
347.763	99.94
347.99	92.94
348.218	93.94
348.445	107.94
348.673	108.94
348.9	99.94
349.128	97.94
349.355	81.94
349.583	85.94
349.81	81.94
350.037	102.94
350.265	85.94
350.492	108.94
350.72	103.94
350.947	102.94
351.174	107.94
351.402	107.94
351.629	105.94
351.856	103.94
352.083	103.94
352.311	88.94
352.538	119.94
352.765	111.94
352.992	99.94
353.22	100.94
353.447	107.94
353.674	110.94
353.901	89.94
354.128	92.94
354.355	100.94
354.583	94.94
354.81	90.94
355.037	99.94
355.264	89.94
355.491	96.94
355.718	98.94
355.945	96.94
356.172	97.94
356.399	85.94
356.626	88.94
356.853	92.94
357.08	89.94
357.307	86.94
357.534	95.94
357.761	87.94
357.988	89.94
358.215	82.94
358.441	84.94
358.668	81.94
358.895	75.94
359.122	85.94
359.349	78.94
359.576	105.94
359.802	98.94
360.029	106.94
360.256	104.94
360.483	104.94
360.709	82.94
360.936	94.94
361.163	81.94
361.39	99.94
361.616	85.94
361.843	93.94
362.07	88.94
362.296	83.94
362.523	74.94
362.749	86.94
362.976	94.94
363.203	81.94
363.429	104.94
363.656	74.94
363.882	86.94
364.109	87.94
364.335	98.94
364.562	71.94
364.788	78.94
365.015	94.94
365.241	95.94
365.468	82.94
365.694	96.94
365.92	86.94
366.147	90.94
366.373	77.94
366.599	103.94
366.826	97.94
367.052	101.94
367.278	83.94
367.505	89.94
367.731	89.94
367.957	92.94
368.184	86.94
368.41	88.94
368.636	92.94
368.862	116.94
369.089	106.94
369.315	83.94
369.541	89.94
369.767	77.94
369.993	73.94
370.219	104.94
370.445	85.94
370.672	96.94
370.898	86.94
371.124	75.94
371.35	82.94
371.576	91.94
371.802	80.94
372.028	88.94
372.254	89.94
372.48	71.94
372.706	82.94
372.932	98.94
373.158	99.94
373.384	85.94
373.61	89.94
373.835	83.94
374.061	96.94
374.287	80.94
374.513	74.94
374.739	85.94
374.965	90.94
375.191	71.94
375.416	84.94
375.642	82.94
375.868	83.94
376.094	62.94
376.319	75.94
376.545	77.94
376.771	91.94
376.997	88.94
377.222	89.94
377.448	72.94
377.674	88.94
377.899	85.94
378.125	86.94
378.35	102.94
378.576	89.94
378.802	95.94
379.027	82.94
379.253	91.94
379.478	87.94
379.704	92.94
379.929	102.94
380.155	73.94
380.38	83.94
380.606	88.94
380.831	103.94
381.057	102.94
381.282	95.94
381.507	96.94
381.733	95.94
381.958	95.94
382.184	83.94
382.409	96.94
382.634	95.94
382.86	80.94
383.085	105.94
383.31	102.94
383.535	92.94
383.761	87.94
383.986	100.94
384.211	85.94
384.436	83.94
384.662	93.94
384.887	92.94
385.112	99.94
385.337	97.94
385.562	88.94
385.787	86.94
386.013	90.94
386.238	103.94
386.463	105.94
386.688	96.94
386.913	94.94
387.138	87.94
387.363	86.94
387.588	85.94
387.813	96.94
388.038	85.94
388.263	101.94
388.488	92.94
388.713	89.94
388.938	86.94
389.163	76.94
389.387	88.94
389.612	81.94
389.837	82.94
390.062	93.94
390.287	74.94
390.512	79.94
390.736	87.94
390.961	75.94
391.186	79.94
391.411	94.94
391.636	91.94
391.86	80.94
392.085	75.94
392.31	89.94
392.534	69.94
392.759	75.94
392.984	87.94
393.208	84.94
393.433	79.94
393.658	93.94
393.882	96.94
394.107	74.94
394.331	70.94
394.556	80.94
394.78	86.94
395.005	82.94
395.229	88.94
395.454	79.94
395.678	94.94
395.903	78.94
396.127	78.94
396.352	75.94
396.576	85.94
396.801	80.94
397.025	73.94
397.249	93.94
397.474	82.94
397.698	78.94
397.922	89.94
398.147	87.94
398.371	58.94
398.595	90.94
398.82	91.94
399.044	77.94
399.268	71.94
399.492	92.94
399.717	91.94
399.941	94.94
400.165	84.94
400.389	71.94
400.613	75.94
400.837	75.94
401.062	82.94
401.286	91.94
401.51	77.94
401.734	65.94
401.958	90.94
402.182	130.94
402.406	153.94
402.63	122.94
402.854	96.94
403.078	86.94
403.302	80.94
403.526	75.94
403.75	83.94
403.974	87.94
404.198	79.94
404.422	86.94
404.645	90.94
404.869	97.94
405.093	97.94
405.317	126.94
405.541	121.94
405.765	94.94
405.988	119.94
406.212	150.94
406.436	201.94
406.66	148.94
406.883	103.94
407.107	98.94
407.331	109.94
407.555	102.94
407.778	90.94
408.002	81.94
408.226	74.94
408.449	83.94
408.673	86.94
408.896	98.94
409.12	99.94
409.344	80.94
409.567	75.94
409.791	91.94
410.014	82.94
410.238	91.94
410.461	94.94
410.685	102.94
410.908	98.94
411.132	101.94
411.355	94.94
411.578	92.94
411.802	95.94
412.025	86.94
412.249	101.94
412.472	101.94
412.695	116.94
412.919	85.94
413.142	85.94
413.365	77.94
413.589	86.94
413.812	85.94
414.035	94.94
414.258	90.94
414.482	91.94
414.705	80.94
414.928	88.94
415.151	84.94
415.374	92.94
415.597	86.94
415.821	91.94
416.044	100.94
416.267	94.94
416.49	87.94
416.713	87.94
416.936	85.94
417.159	82.94
417.382	76.94
417.605	85.94
417.828	96.94
418.051	90.94
418.274	88.94
418.497	79.94
418.72	80.94
418.943	76.94
419.166	88.94
419.389	87.94
419.611	80.94
419.834	80.94
420.057	94.94
420.28	91.94
420.503	96.94
420.726	80.94
420.948	81.94
421.171	104.94
421.394	86.94
421.617	83.94
421.839	85.94
422.062	92.94
422.285	90.94
422.507	87.94
422.73	97.94
422.953	94.94
423.175	93.94
423.398	93.94
423.621	90.94
423.843	93.94
424.066	85.94
424.288	84.94
424.511	97.94
424.733	83.94
424.956	118.94
425.178	88.94
425.401	98.94
425.623	104.94
425.846	103.94
426.068	103.94
426.291	93.94
426.513	72.94
426.735	85.94
426.958	99.94
427.18	111.94
427.402	160.94
427.625	187.94
427.847	199.94
428.069	205.94
428.292	111.94
428.514	90.94
428.736	80.94
428.958	89.94
429.181	75.94
429.403	74.94
429.625	92.94
429.847	91.94
430.069	93.94
430.292	91.94
430.514	73.94
430.736	73.94
430.958	87.94
431.18	77.94
431.402	90.94
431.624	76.94
431.846	73.94
432.068	88.94
432.29	83.94
432.512	99.94
432.734	74.94
432.956	103.94
433.178	99.94
433.4	95.94
433.622	91.94
433.844	75.94
434.066	95.94
434.287	85.94
434.509	80.94
434.731	73.94
434.953	92.94
435.175	90.94
435.397	89.94
435.618	99.94
435.84	105.94
436.062	140.94
436.284	118.94
436.505	103.94
436.727	90.94
436.949	88.94
437.17	92.94
437.392	86.94
437.614	86.94
437.835	103.94
438.057	125.94
438.278	120.94
438.5	99.94
438.721	118.94
438.943	103.94
439.165	92.94
439.386	94.94
439.608	84.94
439.829	94.94
440.05	114.94
440.272	165.94
440.493	107.94
440.715	85.94
440.936	97.94
441.158	87.94
441.379	80.94
441.6	99.94
441.822	103.94
442.043	85.94
442.264	98.94
442.486	91.94
442.707	89.94
442.928	98.94
443.149	139.94
443.371	142.94
443.592	99.94
443.813	113.94
444.034	112.94
444.255	102.94
444.476	71.94
444.698	88.94
444.919	92.94
445.14	134.94
445.361	112.94
445.582	117.94
445.803	149.94
446.024	157.94
446.245	161.94
446.466	108.94
446.687	82.94
446.908	88.94
447.129	91.94
447.35	73.94
447.571	87.94
447.792	98.94
448.013	97.94
448.234	98.94
448.455	99.94
448.675	112.94
448.896	111.94
449.117	112.94
449.338	107.94
449.559	144.94
449.779	146.94
450	111.94
450.221	85.94
450.442	89.94
450.662	80.94
450.883	88.94
451.104	127.94
451.324	88.94
451.545	95.94
451.766	90.94
451.986	78.94
452.207	77.94
452.428	94.94
452.648	94.94
452.869	99.94
453.089	104.94
453.31	92.94
453.53	79.94
453.751	88.94
453.971	96.94
454.192	115.94
454.412	101.94
454.633	83.94
454.853	76.94
455.073	78.94
455.294	86.94
455.514	95.94
455.734	94.94
455.955	88.94
456.175	82.94
456.395	76.94
456.616	91.94
456.836	87.94
457.056	88.94
457.276	85.94
457.497	67.94
457.717	82.94
457.937	80.94
458.157	65.94
458.377	82.94
458.598	95.94
458.818	143.94
459.038	169.94
459.258	126.94
459.478	77.94
459.698	82.94
459.918	86.94
460.138	65.94
460.358	82.94
460.578	78.94
460.798	87.94
461.018	83.94
461.238	81.94
461.458	82.94
461.678	76.94
461.898	78.94
462.118	81.94
462.338	96.94
462.558	83.94
462.777	76.94
462.997	99.94
463.217	100.94
463.437	91.94
463.657	77.94
463.876	82.94
464.096	82.94
464.316	82.94
464.536	82.94
464.755	82.94
464.975	114.94
465.195	163.94
465.414	170.94
465.634	94.94
465.854	85.94
466.073	85.94
466.293	87.94
466.512	95.94
466.732	86.94
466.951	79.94
467.171	83.94
467.391	97.94
467.61	105.94
467.829	143.94
468.049	283.94
468.268	427.94
468.488	149.94
468.707	92.94
468.927	81.94
469.146	81.94
469.365	66.94
469.585	77.94
469.804	89.94
470.023	92.94
470.243	88.94
470.462	99.94
470.681	110.94
470.901	86.94
471.12	89.94
471.339	88.94
471.558	94.94
471.777	111.94
471.997	184.94
472.216	608.94
472.435	1280.94
472.654	329.94
472.873	121.94
473.092	97.94
473.311	101.94
473.53	88.94
473.749	86.94
473.968	98.94
474.187	105.94
474.406	92.94
474.625	96.94
474.844	66.94
475.063	84.94
475.282	83.94
475.501	103.94
475.72	92.94
475.939	89.94
476.158	74.94
476.377	79.94
476.596	85.94
476.814	70.94
477.033	83.94
477.252	102.94
477.471	85.94
477.69	85.94
477.908	86.94
478.127	81.94
478.346	97.94
478.564	78.94
478.783	89.94
479.002	92.94
479.22	96.94
479.439	109.94
479.658	109.94
479.876	98.94
480.095	105.94
480.313	110.94
480.532	117.94
480.751	178.94
480.969	553.94
481.188	2283.94
481.406	1285.94
481.624	221.94
481.843	104.94
482.061	93.94
482.28	88.94
482.498	94.94
482.717	82.94
482.935	79.94
483.153	95.94
483.372	82.94
483.59	90.94
483.808	89.94
484.027	85.94
484.245	93.94
484.463	93.94
484.681	94.94
484.9	102.94
485.118	87.94
485.336	88.94
485.554	96.94
485.772	97.94
485.99	94.94
486.209	94.94
486.427	106.94
486.645	92.94
486.863	99.94
487.081	101.94
487.299	95.94
487.517	94.94
487.735	94.94
487.953	86.94
488.171	90.94
488.389	99.94
488.607	105.94
488.825	92.94
489.043	78.94
489.261	86.94
489.479	86.94
489.696	81.94
489.914	94.94
490.132	85.94
490.35	85.94
490.568	77.94
490.786	78.94
491.003	89.94
491.221	94.94
491.439	101.94
491.657	85.94
491.874	87.94
492.092	81.94
492.31	60.94
492.527	89.94
492.745	96.94
492.963	93.94
493.18	86.94
493.398	74.94
493.615	92.94
493.833	85.94
494.05	90.94
494.268	81.94
494.485	79.94
494.703	74.94
494.92	98.94
495.138	85.94
495.355	90.94
495.573	97.94
495.79	83.94
496.008	99.94
496.225	77.94
496.442	81.94
496.66	86.94
496.877	91.94
497.094	79.94
497.312	88.94
497.529	85.94
497.746	82.94
497.963	78.94
498.181	79.94
498.398	79.94
498.615	102.94
498.832	105.94
499.049	88.94
499.267	89.94
499.484	93.94
499.701	80.94
499.918	90.94
500.135	92.94
500.352	97.94
500.569	81.94
500.786	89.94
501.003	87.94
501.22	80.94
501.437	75.94
501.654	87.94
501.871	108.94
502.088	93.94
502.305	84.94
502.522	90.94
502.739	83.94
502.956	91.94
503.172	102.94
503.389	99.94
503.606	103.94
503.823	99.94
504.04	94.94
504.256	103.94
504.473	82.94
504.69	78.94
504.907	88.94
505.123	78.94
505.34	82.94
505.557	98.94
505.773	97.94
505.99	97.94
506.207	101.94
506.423	93.94
506.64	86.94
506.856	81.94
507.073	89.94
507.289	86.94
507.506	109.94
507.722	108.94
507.939	82.94
508.155	98.94
508.372	93.94
508.588	89.94
508.805	94.94
509.021	95.94
509.238	86.94
509.454	102.94
509.67	95.94
509.887	99.94
510.103	131.94
510.319	170.94
510.536	636.94
510.752	1943.94
510.968	539.94
511.184	130.94
511.401	101.94
511.617	112.94
511.833	97.94
512.049	91.94
512.265	80.94
512.481	90.94
512.698	84.94
512.914	88.94
513.13	81.94
513.346	83.94
513.562	89.94
513.778	93.94
513.994	86.94
514.21	107.94
514.426	118.94
514.642	127.94
514.858	114.94
515.074	155.94
515.29	425.94
515.506	1344.94
515.721	519.94
515.937	151.94
516.153	108.94
516.369	96.94
