Data from Circ_1992_H10_HRD10591_00016.txt Node
Date: Wed Jan 03 11:47:48 EST 2024
User: Yrep
Spectrometer: HR+D1059
Trigger mode: 1
Integration Time (sec): 1.000000E-1
Scans to average: 1
Electric dark correction enabled: true
Nonlinearity correction enabled: false
Boxcar width: 0
XAxis mode: Wavelengths
Number of Pixels in Spectrum: 2048
>>>>>Begin Spectral Data<<<<<
223.165	-20.56
223.4	-20.56
223.635	-20.56
223.869	-17.56
224.104	-31.56
224.338	-34.56
224.573	-10.56
224.808	-14.56
225.042	3.44
225.277	-2.56
225.511	-1.56
225.746	9.44
225.98	11.44
226.215	-3.56
226.449	12.44
226.683	26.44
226.918	39.44
227.152	34.44
227.387	35.44
227.621	25.44
227.856	47.44
228.09	47.44
228.324	35.44
228.559	53.44
228.793	40.44
229.027	56.44
229.262	55.44
229.496	64.44
229.73	84.44
229.964	91.44
230.199	79.44
230.433	51.44
230.667	68.44
230.901	68.44
231.136	75.44
231.37	69.44
231.604	74.44
231.838	85.44
232.072	76.44
232.306	89.44
232.541	72.44
232.775	77.44
233.009	78.44
233.243	75.44
233.477	79.44
233.711	84.44
233.945	93.44
234.179	71.44
234.413	77.44
234.647	83.44
234.881	77.44
235.115	74.44
235.349	67.44
235.583	69.44
235.817	56.44
236.051	69.44
236.285	74.44
236.519	75.44
236.753	71.44
236.987	87.44
237.221	81.44
237.455	76.44
237.689	62.44
237.922	68.44
238.156	69.44
238.39	81.44
238.624	69.44
238.858	74.44
239.091	74.44
239.325	72.44
239.559	76.44
239.793	80.44
240.027	67.44
240.26	76.44
240.494	65.44
240.728	60.44
240.961	58.44
241.195	74.44
241.429	69.44
241.662	69.44
241.896	60.44
242.13	77.44
242.363	79.44
242.597	74.44
242.83	73.44
243.064	78.44
243.298	69.44
243.531	71.44
243.765	84.44
243.998	89.44
244.232	71.44
244.465	79.44
244.699	71.44
244.932	74.44
245.166	68.44
245.399	75.44
245.633	66.44
245.866	68.44
246.099	74.44
246.333	77.44
246.566	50.44
246.8	76.44
247.033	73.44
247.266	73.44
247.5	67.44
247.733	60.44
247.966	79.44
248.2	74.44
248.433	95.44
248.666	58.44
248.899	84.44
249.133	76.44
249.366	94.44
249.599	86.44
249.832	79.44
250.066	69.44
250.299	56.44
250.532	72.44
250.765	81.44
250.998	64.44
251.231	87.44
251.465	70.44
251.698	74.44
251.931	69.44
252.164	76.44
252.397	75.44
252.63	79.44
252.863	85.44
253.096	71.44
253.329	66.44
253.562	84.44
253.795	75.44
254.028	80.44
254.261	79.44
254.494	72.44
254.727	87.44
254.96	69.44
255.193	75.44
255.426	84.44
255.659	88.44
255.892	78.44
256.124	80.44
256.357	83.44
256.59	76.44
256.823	78.44
257.056	58.44
257.289	85.44
257.521	67.44
257.754	70.44
257.987	60.44
258.22	79.44
258.452	77.44
258.685	69.44
258.918	78.44
259.151	71.44
259.383	76.44
259.616	74.44
259.849	79.44
260.081	88.44
260.314	87.44
260.547	76.44
260.779	85.44
261.012	84.44
261.244	79.44
261.477	86.44
261.71	93.44
261.942	92.44
262.175	110.44
262.407	92.44
262.64	72.44
262.872	76.44
263.105	77.44
263.337	76.44
263.57	68.44
263.802	77.44
264.035	73.44
264.267	86.44
264.499	96.44
264.732	84.44
264.964	80.44
265.197	87.44
265.429	83.44
265.661	87.44
265.894	76.44
266.126	78.44
266.358	60.44
266.591	75.44
266.823	86.44
267.055	75.44
267.287	75.44
267.52	72.44
267.752	76.44
267.984	73.44
268.216	77.44
268.448	82.44
268.681	79.44
268.913	92.44
269.145	77.44
269.377	85.44
269.609	79.44
269.841	75.44
270.073	85.44
270.306	69.44
270.538	77.44
270.77	97.44
271.002	81.44
271.234	73.44
271.466	85.44
271.698	73.44
271.93	76.44
272.162	95.44
272.394	78.44
272.626	87.44
272.858	89.44
273.09	63.44
273.322	75.44
273.553	85.44
273.785	83.44
274.017	80.44
274.249	79.44
274.481	75.44
274.713	67.44
274.945	85.44
275.176	83.44
275.408	81.44
275.64	84.44
275.872	89.44
276.104	84.44
276.335	89.44
276.567	92.44
276.799	95.44
277.031	97.44
277.262	92.44
277.494	91.44
277.726	84.44
277.957	75.44
278.189	87.44
278.421	69.44
278.652	74.44
278.884	80.44
279.115	82.44
279.347	85.44
279.579	82.44
279.81	88.44
280.042	106.44
280.273	127.44
280.505	99.44
280.736	90.44
280.968	95.44
281.199	86.44
281.431	92.44
281.662	81.44
281.894	84.44
282.125	97.44
282.356	133.44
282.588	138.44
282.819	110.44
283.051	90.44
283.282	79.44
283.513	88.44
283.745	62.44
283.976	70.44
284.207	79.44
284.439	84.44
284.67	68.44
284.901	84.44
285.132	88.44
285.364	90.44
285.595	80.44
285.826	85.44
286.057	84.44
286.288	84.44
286.52	84.44
286.751	92.44
286.982	80.44
287.213	86.44
287.444	84.44
287.675	78.44
287.906	91.44
288.138	84.44
288.369	93.44
288.6	89.44
288.831	78.44
289.062	85.44
289.293	80.44
289.524	80.44
289.755	93.44
289.986	82.44
290.217	79.44
290.448	85.44
290.679	82.44
290.91	91.44
291.141	91.44
291.371	94.44
291.602	83.44
291.833	76.44
292.064	94.44
292.295	83.44
292.526	78.44
292.757	83.44
292.987	76.44
293.218	79.44
293.449	79.44
293.68	79.44
293.91	83.44
294.141	85.44
294.372	90.44
294.603	83.44
294.833	81.44
295.064	87.44
295.295	90.44
295.525	87.44
295.756	93.44
295.987	104.44
296.217	139.44
296.448	131.44
296.679	88.44
296.909	103.44
297.14	87.44
297.37	88.44
297.601	92.44
297.831	79.44
298.062	89.44
298.292	87.44
298.523	79.44
298.753	71.44
298.984	80.44
299.214	80.44
299.445	93.44
299.675	91.44
299.905	92.44
300.136	93.44
300.366	92.44
300.597	76.44
300.827	86.44
301.057	75.44
301.288	92.44
301.518	100.44
301.748	87.44
301.979	84.44
302.209	64.44
302.439	81.44
302.669	91.44
302.9	78.44
303.13	94.44
303.36	69.44
303.59	85.44
303.82	104.44
304.051	87.44
304.281	91.44
304.511	92.44
304.741	78.44
304.971	90.44
305.201	87.44
305.431	88.44
305.661	87.44
305.891	70.44
306.121	104.44
306.352	92.44
306.582	84.44
306.812	97.44
307.042	86.44
307.272	97.44
307.502	97.44
307.731	95.44
307.961	101.44
308.191	93.44
308.421	88.44
308.651	95.44
308.881	101.44
309.111	85.44
309.341	92.44
309.571	92.44
309.8	94.44
310.03	87.44
310.26	94.44
310.49	92.44
310.72	89.44
310.949	106.44
311.179	107.44
311.409	94.44
311.639	88.44
311.868	88.44
312.098	95.44
312.328	101.44
312.557	98.44
312.787	105.44
313.017	101.44
313.246	80.44
313.476	89.44
313.706	74.44
313.935	90.44
314.165	88.44
314.394	86.44
314.624	91.44
314.853	88.44
315.083	86.44
315.312	88.44
315.542	85.44
315.771	94.44
316.001	95.44
316.23	96.44
316.46	80.44
316.689	78.44
316.919	90.44
317.148	100.44
317.377	101.44
317.607	69.44
317.836	80.44
318.065	84.44
318.295	73.44
318.524	89.44
318.753	97.44
318.983	92.44
319.212	98.44
319.441	112.44
319.67	96.44
319.9	83.44
320.129	75.44
320.358	96.44
320.587	96.44
320.816	89.44
321.046	93.44
321.275	95.44
321.504	89.44
321.733	94.44
321.962	93.44
322.191	103.44
322.42	98.44
322.649	97.44
322.878	101.44
323.108	104.44
323.337	132.44
323.566	140.44
323.795	140.44
324.024	189.44
324.253	374.44
324.482	791.44
324.71	1677.44
324.939	2205.44
325.168	807.44
325.397	247.44
325.626	156.44
325.855	123.44
326.084	107.44
326.313	120.44
326.542	152.44
326.77	217.44
326.999	456.44
327.228	905.44
327.457	1755.44
327.686	1413.44
327.914	407.44
328.143	256.44
328.372	259.44
328.6	157.44
328.829	112.44
329.058	131.44
329.287	131.44
329.515	126.44
329.744	134.44
329.972	187.44
330.201	277.44
330.43	379.44
330.658	218.44
330.887	156.44
331.115	124.44
331.344	103.44
331.572	97.44
331.801	90.44
332.03	96.44
332.258	98.44
332.486	87.44
332.715	93.44
332.943	89.44
333.172	87.44
333.4	89.44
333.629	109.44
333.857	114.44
334.085	154.44
334.314	270.44
334.542	463.44
334.771	435.44
334.999	172.44
335.227	100.44
335.455	111.44
335.684	103.44
335.912	86.44
336.14	95.44
336.369	103.44
336.597	92.44
336.825	101.44
337.053	85.44
337.281	99.44
337.51	72.44
337.738	90.44
337.966	89.44
338.194	85.44
338.422	93.44
338.65	95.44
338.878	89.44
339.106	84.44
339.334	86.44
339.562	88.44
339.79	79.44
340.018	82.44
340.246	83.44
340.474	81.44
340.702	90.44
340.93	77.44
341.158	101.44
341.386	104.44
341.614	100.44
341.842	105.44
342.07	82.44
342.298	92.44
342.526	78.44
342.754	102.44
342.981	71.44
343.209	77.44
343.437	107.44
343.665	80.44
343.893	71.44
344.12	80.44
344.348	76.44
344.576	84.44
344.804	79.44
345.031	87.44
345.259	105.44
345.487	85.44
345.714	101.44
345.942	84.44
346.17	72.44
346.397	84.44
346.625	88.44
346.853	99.44
347.08	85.44
347.308	104.44
347.535	96.44
347.763	98.44
347.99	95.44
348.218	89.44
348.445	102.44
348.673	93.44
348.9	96.44
349.128	89.44
349.355	99.44
349.583	84.44
349.81	98.44
350.037	87.44
350.265	89.44
350.492	86.44
350.72	97.44
350.947	95.44
351.174	96.44
351.402	112.44
351.629	99.44
351.856	104.44
352.083	91.44
352.311	94.44
352.538	101.44
352.765	113.44
352.992	105.44
353.22	98.44
353.447	102.44
353.674	103.44
353.901	100.44
354.128	92.44
354.355	101.44
354.583	102.44
354.81	84.44
355.037	103.44
355.264	85.44
355.491	95.44
355.718	88.44
355.945	108.44
356.172	78.44
356.399	95.44
356.626	77.44
356.853	95.44
357.08	79.44
357.307	85.44
357.534	96.44
357.761	82.44
357.988	90.44
358.215	104.44
358.441	74.44
358.668	88.44
358.895	89.44
359.122	80.44
359.349	76.44
359.576	96.44
359.802	101.44
360.029	105.44
360.256	92.44
360.483	94.44
360.709	85.44
360.936	97.44
361.163	96.44
361.39	85.44
361.616	90.44
361.843	91.44
362.07	87.44
362.296	81.44
362.523	87.44
362.749	93.44
362.976	89.44
363.203	84.44
363.429	81.44
363.656	93.44
363.882	72.44
364.109	84.44
364.335	97.44
364.562	87.44
364.788	108.44
365.015	100.44
365.241	98.44
365.468	99.44
365.694	83.44
365.92	97.44
366.147	85.44
366.373	89.44
366.599	80.44
366.826	85.44
367.052	73.44
367.278	103.44
367.505	80.44
367.731	85.44
367.957	93.44
368.184	74.44
368.41	100.44
368.636	106.44
368.862	103.44
369.089	99.44
369.315	93.44
369.541	79.44
369.767	71.44
369.993	89.44
370.219	81.44
370.445	82.44
370.672	76.44
370.898	81.44
371.124	87.44
371.35	80.44
371.576	76.44
371.802	87.44
372.028	78.44
372.254	71.44
372.48	87.44
372.706	79.44
372.932	90.44
373.158	67.44
373.384	86.44
373.61	100.44
373.835	85.44
374.061	97.44
374.287	91.44
374.513	85.44
374.739	91.44
374.965	72.44
375.191	79.44
375.416	90.44
375.642	90.44
375.868	72.44
376.094	98.44
376.319	73.44
376.545	97.44
376.771	65.44
376.997	101.44
377.222	91.44
377.448	93.44
377.674	89.44
377.899	95.44
378.125	106.44
378.35	99.44
378.576	88.44
378.802	99.44
379.027	85.44
379.253	78.44
379.478	102.44
379.704	107.44
379.929	94.44
380.155	111.44
380.38	102.44
380.606	96.44
380.831	94.44
381.057	102.44
381.282	89.44
381.507	89.44
381.733	100.44
381.958	101.44
382.184	95.44
382.409	100.44
382.634	96.44
382.86	96.44
383.085	103.44
383.31	115.44
383.535	104.44
383.761	107.44
383.986	90.44
384.211	108.44
384.436	103.44
384.662	88.44
384.887	94.44
385.112	108.44
385.337	117.44
385.562	115.44
385.787	112.44
386.013	115.44
386.238	118.44
386.463	120.44
386.688	111.44
386.913	116.44
387.138	127.44
387.363	108.44
387.588	101.44
387.813	116.44
388.038	118.44
388.263	124.44
388.488	113.44
388.713	99.44
388.938	101.44
389.163	93.44
389.387	85.44
389.612	86.44
389.837	81.44
390.062	85.44
390.287	86.44
390.512	88.44
390.736	93.44
390.961	75.44
391.186	76.44
391.411	95.44
391.636	81.44
391.86	88.44
392.085	91.44
392.31	75.44
392.534	80.44
392.759	77.44
392.984	78.44
393.208	86.44
393.433	75.44
393.658	78.44
393.882	87.44
394.107	78.44
394.331	77.44
394.556	71.44
394.78	75.44
395.005	93.44
395.229	92.44
395.454	85.44
395.678	76.44
395.903	80.44
396.127	76.44
396.352	70.44
396.576	83.44
396.801	78.44
397.025	77.44
397.249	70.44
397.474	79.44
397.698	57.44
397.922	78.44
398.147	84.44
398.371	75.44
398.595	89.44
398.82	84.44
399.044	72.44
399.268	78.44
399.492	77.44
399.717	89.44
399.941	85.44
400.165	95.44
400.389	87.44
400.613	92.44
400.837	76.44
401.062	79.44
401.286	85.44
401.51	82.44
401.734	86.44
401.958	94.44
402.182	124.44
402.406	135.44
402.63	105.44
402.854	93.44
403.078	87.44
403.302	80.44
403.526	79.44
403.75	82.44
403.974	83.44
404.198	92.44
404.422	82.44
404.645	85.44
404.869	91.44
405.093	81.44
405.317	117.44
405.541	115.44
405.765	87.44
405.988	112.44
406.212	145.44
406.436	208.44
406.66	134.44
406.883	87.44
407.107	91.44
407.331	88.44
407.555	103.44
407.778	83.44
408.002	85.44
408.226	78.44
408.449	92.44
408.673	97.44
408.896	86.44
409.12	82.44
409.344	89.44
409.567	91.44
409.791	78.44
410.014	88.44
410.238	96.44
410.461	93.44
410.685	88.44
410.908	95.44
411.132	94.44
411.355	85.44
411.578	89.44
411.802	67.44
412.025	87.44
412.249	95.44
412.472	80.44
412.695	116.44
412.919	93.44
413.142	76.44
413.365	82.44
413.589	93.44
413.812	81.44
414.035	86.44
414.258	84.44
414.482	97.44
414.705	95.44
414.928	75.44
415.151	92.44
415.374	71.44
415.597	88.44
415.821	89.44
416.044	85.44
416.267	88.44
416.49	80.44
416.713	68.44
416.936	76.44
417.159	70.44
417.382	84.44
417.605	86.44
417.828	88.44
418.051	92.44
418.274	86.44
418.497	79.44
418.72	73.44
418.943	83.44
419.166	83.44
419.389	81.44
419.611	101.44
419.834	87.44
420.057	81.44
420.28	91.44
420.503	63.44
420.726	81.44
420.948	93.44
421.171	91.44
421.394	87.44
421.617	92.44
421.839	97.44
422.062	94.44
422.285	75.44
422.507	101.44
422.73	100.44
422.953	91.44
423.175	82.44
423.398	78.44
423.621	73.44
423.843	76.44
424.066	87.44
424.288	82.44
424.511	97.44
424.733	83.44
424.956	81.44
425.178	102.44
425.401	92.44
425.623	92.44
425.846	91.44
426.068	95.44
426.291	81.44
426.513	92.44
426.735	78.44
426.958	99.44
427.18	108.44
427.402	148.44
427.625	191.44
427.847	151.44
428.069	145.44
428.292	84.44
428.514	93.44
428.736	75.44
428.958	75.44
429.181	71.44
429.403	86.44
429.625	69.44
429.847	89.44
430.069	99.44
430.292	85.44
430.514	77.44
430.736	94.44
430.958	80.44
431.18	81.44
431.402	71.44
431.624	88.44
431.846	75.44
432.068	83.44
432.29	83.44
432.512	89.44
432.734	76.44
432.956	77.44
433.178	101.44
433.4	104.44
433.622	85.44
433.844	80.44
434.066	82.44
434.287	74.44
434.509	88.44
434.731	89.44
434.953	83.44
435.175	90.44
435.397	93.44
435.618	89.44
435.84	95.44
436.062	124.44
436.284	99.44
436.505	86.44
436.727	95.44
436.949	84.44
437.17	79.44
437.392	67.44
437.614	76.44
437.835	113.44
438.057	103.44
438.278	101.44
438.5	104.44
438.721	119.44
438.943	91.44
439.165	82.44
439.386	89.44
439.608	83.44
439.829	108.44
440.05	123.44
440.272	124.44
440.493	91.44
440.715	79.44
440.936	75.44
441.158	82.44
441.379	71.44
441.6	97.44
441.822	84.44
442.043	96.44
442.264	92.44
442.486	101.44
442.707	84.44
442.928	100.44
443.149	117.44
443.371	106.44
443.592	108.44
443.813	113.44
444.034	103.44
444.255	94.44
444.476	84.44
444.698	77.44
444.919	64.44
445.14	123.44
445.361	109.44
445.582	115.44
445.803	134.44
446.024	147.44
446.245	126.44
446.466	93.44
446.687	83.44
446.908	65.44
447.129	86.44
447.35	86.44
447.571	92.44
447.792	90.44
448.013	97.44
448.234	92.44
448.455	90.44
448.675	117.44
448.896	121.44
449.117	95.44
449.338	102.44
449.559	121.44
449.779	121.44
450	77.44
450.221	65.44
450.442	67.44
450.662	91.44
450.883	91.44
451.104	104.44
451.324	88.44
451.545	83.44
451.766	81.44
451.986	88.44
452.207	81.44
452.428	84.44
452.648	94.44
452.869	97.44
453.089	102.44
453.31	104.44
453.53	93.44
453.751	83.44
453.971	83.44
454.192	99.44
454.412	81.44
454.633	85.44
454.853	78.44
455.073	73.44
455.294	79.44
455.514	88.44
455.734	86.44
455.955	62.44
456.175	81.44
456.395	72.44
456.616	73.44
456.836	74.44
457.056	83.44
457.276	70.44
457.497	73.44
457.717	79.44
457.937	92.44
458.157	86.44
458.377	90.44
458.598	91.44
458.818	135.44
459.038	144.44
459.258	112.44
459.478	79.44
459.698	64.44
459.918	85.44
460.138	65.44
460.358	85.44
460.578	87.44
460.798	79.44
461.018	83.44
461.238	68.44
461.458	88.44
461.678	90.44
461.898	74.44
462.118	89.44
462.338	77.44
462.558	83.44
462.777	85.44
462.997	84.44
463.217	91.44
463.437	75.44
463.657	72.44
463.876	81.44
464.096	93.44
464.316	87.44
464.536	79.44
464.755	84.44
464.975	99.44
465.195	155.44
465.414	140.44
465.634	89.44
465.854	81.44
466.073	88.44
466.293	84.44
466.512	83.44
466.732	78.44
466.951	83.44
467.171	72.44
467.391	86.44
467.61	110.44
467.829	103.44
468.049	158.44
468.268	230.44
468.488	110.44
468.707	81.44
468.927	73.44
469.146	61.44
469.365	79.44
469.585	92.44
469.804	97.44
470.023	86.44
470.243	79.44
470.462	92.44
470.681	106.44
470.901	88.44
471.12	68.44
471.339	93.44
471.558	79.44
471.777	94.44
471.997	119.44
472.216	315.44
472.435	584.44
472.654	189.44
472.873	109.44
473.092	76.44
473.311	75.44
473.53	93.44
473.749	78.44
473.968	101.44
474.187	107.44
474.406	79.44
474.625	75.44
474.844	83.44
475.063	90.44
475.282	84.44
475.501	89.44
475.72	81.44
475.939	74.44
476.158	75.44
476.377	88.44
476.596	78.44
476.814	99.44
477.033	92.44
477.252	73.44
477.471	78.44
477.69	72.44
477.908	85.44
478.127	90.44
478.346	72.44
478.564	88.44
478.783	96.44
479.002	75.44
479.22	80.44
479.439	105.44
479.658	103.44
479.876	91.44
480.095	97.44
480.313	92.44
480.532	79.44
480.751	133.44
480.969	305.44
481.188	1022.44
481.406	629.44
481.624	140.44
481.843	87.44
482.061	93.44
482.28	81.44
482.498	94.44
482.717	81.44
482.935	81.44
483.153	83.44
483.372	92.44
483.59	81.44
483.808	81.44
484.027	94.44
484.245	89.44
484.463	95.44
484.681	90.44
484.9	96.44
485.118	80.44
485.336	82.44
485.554	99.44
485.772	101.44
485.99	106.44
486.209	94.44
486.427	99.44
486.645	105.44
486.863	107.44
487.081	103.44
487.299	91.44
487.517	95.44
487.735	90.44
487.953	79.44
488.171	86.44
488.389	79.44
488.607	79.44
488.825	78.44
489.043	76.44
489.261	82.44
489.479	100.44
489.696	95.44
489.914	88.44
490.132	84.44
490.35	85.44
490.568	77.44
490.786	83.44
491.003	70.44
491.221	84.44
491.439	78.44
491.657	84.44
491.874	77.44
492.092	88.44
492.31	76.44
492.527	89.44
492.745	78.44
492.963	83.44
493.18	84.44
493.398	95.44
493.615	89.44
493.833	86.44
494.05	93.44
494.268	75.44
494.485	61.44
494.703	90.44
494.92	90.44
495.138	84.44
495.355	83.44
495.573	89.44
495.79	73.44
496.008	97.44
496.225	75.44
496.442	82.44
496.66	82.44
496.877	77.44
497.094	73.44
497.312	85.44
497.529	95.44
497.746	96.44
497.963	84.44
498.181	85.44
498.398	68.44
498.615	101.44
498.832	83.44
499.049	82.44
499.267	67.44
499.484	88.44
499.701	72.44
499.918	99.44
500.135	71.44
500.352	86.44
500.569	97.44
500.786	92.44
501.003	74.44
501.22	83.44
501.437	87.44
501.654	77.44
501.871	111.44
502.088	85.44
502.305	91.44
502.522	92.44
502.739	84.44
502.956	71.44
503.172	95.44
503.389	84.44
503.606	111.44
503.823	91.44
504.04	79.44
504.256	88.44
504.473	90.44
504.69	87.44
504.907	69.44
505.123	76.44
505.34	86.44
505.557	87.44
505.773	77.44
505.99	79.44
506.207	80.44
506.423	96.44
506.64	79.44
506.856	79.44
507.073	84.44
507.289	76.44
507.506	95.44
507.722	93.44
507.939	94.44
508.155	90.44
508.372	85.44
508.588	85.44
508.805	102.44
509.021	92.44
509.238	79.44
509.454	81.44
509.67	89.44
509.887	85.44
510.103	116.44
510.319	190.44
510.536	642.44
510.752	2027.44
510.968	600.44
511.184	133.44
511.401	102.44
511.617	80.44
511.833	87.44
512.049	78.44
512.265	71.44
512.481	75.44
512.698	85.44
512.914	88.44
513.13	94.44
513.346	81.44
513.562	79.44
513.778	92.44
513.994	85.44
514.21	79.44
514.426	110.44
514.642	124.44
514.858	124.44
515.074	133.44
515.29	406.44
515.506	1303.44
515.721	480.44
515.937	140.44
516.153	104.44
516.369	97.44
516.585	87.44
