Data from Circ_1992_H10_HRD10591_00074.txt Node
Date: Wed Jan 03 11:47:59 EST 2024
User: Yrep
Spectrometer: HR+D1059
Trigger mode: 1
Integration Time (sec): 1.000000E-1
Scans to average: 1
Electric dark correction enabled: true
Nonlinearity correction enabled: false
Boxcar width: 0
XAxis mode: Wavelengths
Number of Pixels in Spectrum: 2048
>>>>>Begin Spectral Data<<<<<
223.165	-20.75
223.4	-20.75
223.635	-20.75
223.869	-35.75
224.104	-15.75
224.338	-8.75
224.573	-18.75
224.808	-22.75
225.042	-19.75
225.277	-8.75
225.511	5.25
225.746	7.25
225.98	-1.75
226.215	31.25
226.449	25.25
226.683	25.25
226.918	34.25
227.152	24.25
227.387	33.25
227.621	26.25
227.856	32.25
228.09	43.25
228.324	60.25
228.559	56.25
228.793	51.25
229.027	66.25
229.262	48.25
229.496	61.25
229.73	81.25
229.964	84.25
230.199	73.25
230.433	66.25
230.667	61.25
230.901	79.25
231.136	80.25
231.37	75.25
231.604	84.25
231.838	75.25
232.072	75.25
232.306	80.25
232.541	78.25
232.775	82.25
233.009	94.25
233.243	71.25
233.477	79.25
233.711	71.25
233.945	80.25
234.179	82.25
234.413	76.25
234.647	81.25
234.881	76.25
235.115	72.25
235.349	75.25
235.583	79.25
235.817	82.25
236.051	68.25
236.285	71.25
236.519	81.25
236.753	80.25
236.987	76.25
237.221	88.25
237.455	87.25
237.689	90.25
237.922	80.25
238.156	82.25
238.39	84.25
238.624	83.25
238.858	63.25
239.091	75.25
239.325	75.25
239.559	87.25
239.793	98.25
240.027	86.25
240.26	79.25
240.494	72.25
240.728	78.25
240.961	87.25
241.195	72.25
241.429	82.25
241.662	64.25
241.896	75.25
242.13	69.25
242.363	74.25
242.597	84.25
242.83	73.25
243.064	74.25
243.298	71.25
243.531	73.25
243.765	64.25
243.998	74.25
244.232	65.25
244.465	83.25
244.699	84.25
244.932	66.25
245.166	76.25
245.399	97.25
245.633	84.25
245.866	90.25
246.099	81.25
246.333	73.25
246.566	75.25
246.8	82.25
247.033	78.25
247.266	87.25
247.5	69.25
247.733	84.25
247.966	85.25
248.2	82.25
248.433	77.25
248.666	77.25
248.899	83.25
249.133	75.25
249.366	110.25
249.599	91.25
249.832	89.25
250.066	99.25
250.299	65.25
250.532	73.25
250.765	86.25
250.998	82.25
251.231	72.25
251.465	85.25
251.698	76.25
251.931	79.25
252.164	72.25
252.397	75.25
252.63	89.25
252.863	75.25
253.096	91.25
253.329	69.25
253.562	78.25
253.795	85.25
254.028	74.25
254.261	76.25
254.494	93.25
254.727	74.25
254.96	92.25
255.193	76.25
255.426	76.25
255.659	93.25
255.892	89.25
256.124	87.25
256.357	78.25
256.59	89.25
256.823	82.25
257.056	73.25
257.289	79.25
257.521	86.25
257.754	80.25
257.987	77.25
258.22	93.25
258.452	85.25
258.685	88.25
258.918	61.25
259.151	90.25
259.383	86.25
259.616	79.25
259.849	73.25
260.081	77.25
260.314	69.25
260.547	84.25
260.779	87.25
261.012	100.25
261.244	95.25
261.477	85.25
261.71	91.25
261.942	130.25
262.175	123.25
262.407	81.25
262.64	87.25
262.872	71.25
263.105	89.25
263.337	88.25
263.57	90.25
263.802	87.25
264.035	79.25
264.267	75.25
264.499	75.25
264.732	60.25
264.964	72.25
265.197	78.25
265.429	80.25
265.661	69.25
265.894	81.25
266.126	83.25
266.358	84.25
266.591	68.25
266.823	75.25
267.055	94.25
267.287	77.25
267.52	83.25
267.752	82.25
267.984	86.25
268.216	80.25
268.448	83.25
268.681	90.25
268.913	67.25
269.145	86.25
269.377	79.25
269.609	81.25
269.841	92.25
270.073	92.25
270.306	76.25
270.538	75.25
270.77	79.25
271.002	85.25
271.234	99.25
271.466	91.25
271.698	79.25
271.93	80.25
272.162	74.25
272.394	82.25
272.626	76.25
272.858	83.25
273.09	71.25
273.322	80.25
273.553	91.25
273.785	76.25
274.017	79.25
274.249	89.25
274.481	83.25
274.713	75.25
274.945	88.25
275.176	88.25
275.408	82.25
275.64	93.25
275.872	106.25
276.104	84.25
276.335	86.25
276.567	111.25
276.799	120.25
277.031	131.25
277.262	132.25
277.494	121.25
277.726	93.25
277.957	87.25
278.189	86.25
278.421	79.25
278.652	96.25
278.884	86.25
279.115	79.25
279.347	93.25
279.579	97.25
279.81	111.25
280.042	140.25
280.273	189.25
280.505	136.25
280.736	95.25
280.968	87.25
281.199	92.25
281.431	78.25
281.662	90.25
281.894	93.25
282.125	105.25
282.356	121.25
282.588	147.25
282.819	113.25
283.051	79.25
283.282	87.25
283.513	78.25
283.745	96.25
283.976	89.25
284.207	81.25
284.439	90.25
284.67	78.25
284.901	87.25
285.132	70.25
285.364	98.25
285.595	89.25
285.826	90.25
286.057	91.25
286.288	84.25
286.52	93.25
286.751	63.25
286.982	96.25
287.213	95.25
287.444	81.25
287.675	88.25
287.906	89.25
288.138	96.25
288.369	85.25
288.6	92.25
288.831	90.25
289.062	105.25
289.293	80.25
289.524	91.25
289.755	92.25
289.986	102.25
290.217	89.25
290.448	87.25
290.679	83.25
290.91	83.25
291.141	77.25
291.371	80.25
291.602	96.25
291.833	91.25
292.064	76.25
292.295	73.25
292.526	84.25
292.757	99.25
292.987	77.25
293.218	82.25
293.449	86.25
293.68	79.25
293.91	84.25
294.141	92.25
294.372	91.25
294.603	87.25
294.833	93.25
295.064	95.25
295.295	96.25
295.525	92.25
295.756	105.25
295.987	116.25
296.217	148.25
296.448	142.25
296.679	93.25
296.909	94.25
297.14	80.25
297.37	90.25
297.601	88.25
297.831	84.25
298.062	96.25
298.292	91.25
298.523	81.25
298.753	85.25
298.984	80.25
299.214	101.25
299.445	93.25
299.675	84.25
299.905	60.25
300.136	100.25
300.366	87.25
300.597	95.25
300.827	87.25
301.057	99.25
301.288	98.25
301.518	115.25
301.748	84.25
301.979	86.25
302.209	109.25
302.439	96.25
302.669	76.25
302.9	100.25
303.13	86.25
303.36	91.25
303.59	114.25
303.82	116.25
304.051	95.25
304.281	93.25
304.511	97.25
304.741	93.25
304.971	82.25
305.201	80.25
305.431	79.25
305.661	86.25
305.891	81.25
306.121	80.25
306.352	101.25
306.582	117.25
306.812	109.25
307.042	99.25
307.272	136.25
307.502	133.25
307.731	136.25
307.961	105.25
308.191	103.25
308.421	88.25
308.651	98.25
308.881	97.25
309.111	99.25
309.341	108.25
309.571	96.25
309.8	101.25
310.03	108.25
310.26	94.25
310.49	99.25
310.72	92.25
310.949	123.25
311.179	110.25
311.409	100.25
311.639	92.25
311.868	93.25
312.098	89.25
312.328	104.25
312.557	106.25
312.787	110.25
313.017	105.25
313.246	83.25
313.476	82.25
313.706	87.25
313.935	95.25
314.165	115.25
314.394	105.25
314.624	93.25
314.853	103.25
315.083	95.25
315.312	93.25
315.542	89.25
315.771	84.25
316.001	83.25
316.23	111.25
316.46	79.25
316.689	77.25
316.919	92.25
317.148	99.25
317.377	88.25
317.607	88.25
317.836	83.25
318.065	80.25
318.295	89.25
318.524	91.25
318.753	101.25
318.983	96.25
319.212	89.25
319.441	95.25
319.67	116.25
319.9	105.25
320.129	100.25
320.358	96.25
320.587	108.25
320.816	92.25
321.046	97.25
321.275	116.25
321.504	101.25
321.733	104.25
321.962	96.25
322.191	105.25
322.42	108.25
322.649	102.25
322.878	116.25
323.108	130.25
323.337	122.25
323.566	147.25
323.795	175.25
324.024	210.25
324.253	465.25
324.482	983.25
324.71	1999.25
324.939	2709.25
325.168	958.25
325.397	273.25
325.626	165.25
325.855	135.25
326.084	146.25
326.313	146.25
326.542	158.25
326.77	245.25
326.999	512.25
327.228	1093.25
327.457	2017.25
327.686	1574.25
327.914	476.25
328.143	369.25
328.372	446.25
328.6	248.25
328.829	161.25
329.058	156.25
329.287	178.25
329.515	146.25
329.744	209.25
329.972	312.25
330.201	608.25
330.43	881.25
330.658	426.25
330.887	226.25
331.115	164.25
331.344	104.25
331.572	126.25
331.801	112.25
332.03	109.25
332.258	119.25
332.486	99.25
332.715	96.25
332.943	102.25
333.172	106.25
333.4	99.25
333.629	132.25
333.857	173.25
334.085	300.25
334.314	587.25
334.542	1116.25
334.771	1053.25
334.999	304.25
335.227	147.25
335.455	120.25
335.684	105.25
335.912	100.25
336.14	104.25
336.369	111.25
336.597	112.25
336.825	91.25
337.053	91.25
337.281	98.25
337.51	95.25
337.738	102.25
337.966	95.25
338.194	93.25
338.422	103.25
338.65	103.25
338.878	102.25
339.106	92.25
339.334	101.25
339.562	105.25
339.79	97.25
340.018	100.25
340.246	93.25
340.474	99.25
340.702	100.25
340.93	108.25
341.158	107.25
341.386	91.25
341.614	95.25
341.842	102.25
342.07	87.25
342.298	99.25
342.526	82.25
342.754	76.25
342.981	94.25
343.209	83.25
343.437	89.25
343.665	84.25
343.893	95.25
344.12	90.25
344.348	93.25
344.576	93.25
344.804	79.25
345.031	92.25
345.259	95.25
345.487	92.25
345.714	95.25
345.942	91.25
346.17	99.25
346.397	93.25
346.625	94.25
346.853	114.25
347.08	86.25
347.308	85.25
347.535	98.25
347.763	65.25
347.99	96.25
348.218	92.25
348.445	112.25
348.673	119.25
348.9	85.25
349.128	98.25
349.355	100.25
349.583	85.25
349.81	94.25
350.037	93.25
350.265	81.25
350.492	87.25
350.72	103.25
350.947	112.25
351.174	112.25
351.402	98.25
351.629	102.25
351.856	99.25
352.083	121.25
352.311	111.25
352.538	118.25
352.765	96.25
352.992	118.25
353.22	103.25
353.447	108.25
353.674	108.25
353.901	97.25
354.128	85.25
354.355	82.25
354.583	105.25
354.81	87.25
355.037	93.25
355.264	93.25
355.491	91.25
355.718	81.25
355.945	92.25
356.172	93.25
356.399	91.25
356.626	99.25
356.853	79.25
357.08	100.25
357.307	94.25
357.534	91.25
357.761	93.25
357.988	108.25
358.215	108.25
358.441	85.25
358.668	84.25
358.895	97.25
359.122	92.25
359.349	91.25
359.576	101.25
359.802	106.25
360.029	138.25
360.256	110.25
360.483	112.25
360.709	97.25
360.936	89.25
361.163	81.25
361.39	100.25
361.616	100.25
361.843	106.25
362.07	111.25
362.296	97.25
362.523	99.25
362.749	103.25
362.976	105.25
363.203	75.25
363.429	91.25
363.656	96.25
363.882	95.25
364.109	101.25
364.335	89.25
364.562	93.25
364.788	84.25
365.015	89.25
365.241	105.25
365.468	112.25
365.694	127.25
365.92	108.25
366.147	90.25
366.373	91.25
366.599	88.25
366.826	97.25
367.052	81.25
367.278	77.25
367.505	96.25
367.731	81.25
367.957	93.25
368.184	96.25
368.41	93.25
368.636	98.25
368.862	125.25
369.089	114.25
369.315	104.25
369.541	99.25
369.767	85.25
369.993	105.25
370.219	97.25
370.445	96.25
370.672	71.25
370.898	90.25
371.124	91.25
371.35	89.25
371.576	97.25
371.802	85.25
372.028	84.25
372.254	85.25
372.48	84.25
372.706	95.25
372.932	84.25
373.158	87.25
373.384	91.25
373.61	92.25
373.835	85.25
374.061	77.25
374.287	87.25
374.513	96.25
374.739	78.25
374.965	102.25
375.191	86.25
375.416	79.25
375.642	89.25
375.868	83.25
376.094	111.25
376.319	68.25
376.545	93.25
376.771	83.25
376.997	90.25
377.222	87.25
377.448	97.25
377.674	84.25
377.899	76.25
378.125	82.25
378.35	88.25
378.576	97.25
378.802	96.25
379.027	79.25
379.253	90.25
379.478	78.25
379.704	88.25
379.929	99.25
380.155	88.25
380.38	89.25
380.606	95.25
380.831	93.25
381.057	109.25
381.282	89.25
381.507	85.25
381.733	89.25
381.958	92.25
382.184	105.25
382.409	108.25
382.634	109.25
382.86	110.25
383.085	77.25
383.31	95.25
383.535	93.25
383.761	99.25
383.986	114.25
384.211	97.25
384.436	89.25
384.662	90.25
384.887	97.25
385.112	106.25
385.337	104.25
385.562	97.25
385.787	98.25
386.013	118.25
386.238	131.25
386.463	102.25
386.688	109.25
386.913	94.25
387.138	98.25
387.363	84.25
387.588	92.25
387.813	97.25
388.038	128.25
388.263	111.25
388.488	89.25
388.713	95.25
388.938	99.25
389.163	94.25
389.387	88.25
389.612	92.25
389.837	79.25
390.062	86.25
390.287	95.25
390.512	85.25
390.736	100.25
390.961	96.25
391.186	92.25
391.411	89.25
391.636	88.25
391.86	79.25
392.085	80.25
392.31	85.25
392.534	94.25
392.759	84.25
392.984	87.25
393.208	89.25
393.433	87.25
393.658	88.25
393.882	81.25
394.107	96.25
394.331	84.25
394.556	71.25
394.78	83.25
395.005	104.25
395.229	86.25
395.454	84.25
395.678	93.25
395.903	86.25
396.127	96.25
396.352	97.25
396.576	87.25
396.801	81.25
397.025	82.25
397.249	85.25
397.474	84.25
397.698	80.25
397.922	93.25
398.147	80.25
398.371	89.25
398.595	96.25
398.82	82.25
399.044	90.25
399.268	94.25
399.492	74.25
399.717	87.25
399.941	89.25
400.165	90.25
400.389	100.25
400.613	104.25
400.837	85.25
401.062	81.25
401.286	62.25
401.51	92.25
401.734	95.25
401.958	111.25
402.182	130.25
402.406	171.25
402.63	115.25
402.854	85.25
403.078	85.25
403.302	101.25
403.526	87.25
403.75	92.25
403.974	96.25
404.198	76.25
404.422	74.25
404.645	93.25
404.869	89.25
405.093	85.25
405.317	146.25
405.541	120.25
405.765	124.25
405.988	113.25
406.212	169.25
406.436	267.25
406.66	164.25
406.883	112.25
407.107	111.25
407.331	99.25
407.555	105.25
407.778	91.25
408.002	77.25
408.226	101.25
408.449	94.25
408.673	89.25
408.896	101.25
409.12	88.25
409.344	83.25
409.567	89.25
409.791	89.25
410.014	108.25
410.238	83.25
410.461	84.25
410.685	90.25
410.908	108.25
411.132	91.25
411.355	95.25
411.578	83.25
411.802	97.25
412.025	98.25
412.249	94.25
412.472	110.25
412.695	122.25
412.919	110.25
413.142	93.25
413.365	91.25
413.589	86.25
413.812	88.25
414.035	97.25
414.258	92.25
414.482	80.25
414.705	80.25
414.928	89.25
415.151	85.25
415.374	84.25
415.597	79.25
415.821	83.25
416.044	89.25
416.267	92.25
416.49	90.25
416.713	94.25
416.936	84.25
417.159	75.25
417.382	88.25
417.605	93.25
417.828	99.25
418.051	94.25
418.274	92.25
418.497	87.25
418.72	94.25
418.943	90.25
419.166	89.25
419.389	83.25
419.611	91.25
419.834	96.25
420.057	95.25
420.28	85.25
420.503	94.25
420.726	95.25
420.948	96.25
421.171	107.25
421.394	100.25
421.617	94.25
421.839	98.25
422.062	91.25
422.285	101.25
422.507	107.25
422.73	103.25
422.953	88.25
423.175	82.25
423.398	76.25
423.621	104.25
423.843	89.25
424.066	75.25
424.288	85.25
424.511	96.25
424.733	96.25
424.956	109.25
425.178	96.25
425.401	107.25
425.623	105.25
425.846	93.25
426.068	97.25
426.291	100.25
426.513	88.25
426.735	88.25
426.958	87.25
427.18	121.25
427.402	151.25
427.625	221.25
427.847	203.25
428.069	174.25
428.292	99.25
428.514	83.25
428.736	97.25
428.958	95.25
429.181	85.25
429.403	88.25
429.625	97.25
429.847	97.25
430.069	100.25
430.292	92.25
430.514	88.25
430.736	87.25
430.958	90.25
431.18	74.25
431.402	92.25
431.624	87.25
431.846	75.25
432.068	78.25
432.29	89.25
432.512	77.25
432.734	85.25
432.956	88.25
433.178	105.25
433.4	87.25
433.622	110.25
433.844	104.25
434.066	77.25
434.287	84.25
434.509	101.25
434.731	94.25
434.953	99.25
435.175	82.25
435.397	79.25
435.618	96.25
435.84	108.25
436.062	114.25
436.284	100.25
436.505	97.25
436.727	102.25
436.949	83.25
437.17	99.25
437.392	85.25
437.614	100.25
437.835	115.25
438.057	127.25
438.278	110.25
438.5	118.25
438.721	123.25
438.943	112.25
439.165	91.25
439.386	83.25
439.608	90.25
439.829	107.25
440.05	136.25
440.272	155.25
440.493	106.25
440.715	99.25
440.936	97.25
441.158	96.25
441.379	98.25
441.6	96.25
441.822	92.25
442.043	98.25
442.264	101.25
442.486	117.25
442.707	112.25
442.928	104.25
443.149	163.25
443.371	149.25
443.592	123.25
443.813	120.25
444.034	117.25
444.255	97.25
444.476	96.25
444.698	89.25
444.919	90.25
445.14	144.25
445.361	136.25
445.582	117.25
445.803	171.25
446.024	173.25
446.245	173.25
446.466	115.25
446.687	98.25
446.908	88.25
447.129	89.25
447.35	93.25
447.571	91.25
447.792	99.25
448.013	99.25
448.234	107.25
448.455	101.25
448.675	119.25
448.896	128.25
449.117	104.25
449.338	104.25
449.559	143.25
449.779	145.25
450	96.25
450.221	85.25
450.442	92.25
450.662	109.25
450.883	106.25
451.104	115.25
451.324	99.25
451.545	88.25
451.766	94.25
451.986	86.25
452.207	89.25
452.428	80.25
452.648	95.25
452.869	111.25
453.089	99.25
453.31	118.25
453.53	87.25
453.751	96.25
453.971	105.25
454.192	122.25
454.412	87.25
454.633	97.25
454.853	83.25
455.073	95.25
455.294	89.25
455.514	100.25
455.734	85.25
455.955	93.25
456.175	94.25
456.395	90.25
456.616	91.25
456.836	90.25
457.056	88.25
457.276	72.25
457.497	92.25
457.717	81.25
457.937	81.25
458.157	83.25
458.377	101.25
458.598	112.25
458.818	163.25
459.038	201.25
459.258	124.25
459.478	90.25
459.698	94.25
459.918	93.25
460.138	86.25
460.358	97.25
460.578	97.25
460.798	97.25
461.018	88.25
461.238	87.25
461.458	84.25
461.678	96.25
461.898	90.25
462.118	83.25
462.338	101.25
462.558	92.25
462.777	92.25
462.997	87.25
463.217	108.25
463.437	95.25
463.657	82.25
463.876	88.25
464.096	91.25
464.316	82.25
464.536	96.25
464.755	108.25
464.975	110.25
465.195	217.25
465.414	189.25
465.634	101.25
465.854	93.25
466.073	95.25
466.293	79.25
466.512	74.25
466.732	86.25
466.951	79.25
467.171	91.25
467.391	95.25
467.61	118.25
467.829	168.25
468.049	363.25
468.268	529.25
468.488	159.25
468.707	89.25
468.927	96.25
469.146	84.25
469.365	97.25
469.585	85.25
469.804	92.25
470.023	114.25
470.243	97.25
470.462	120.25
470.681	117.25
470.901	88.25
471.12	79.25
471.339	89.25
471.558	106.25
471.777	125.25
471.997	194.25
472.216	676.25
472.435	1536.25
472.654	374.25
472.873	119.25
473.092	81.25
473.311	100.25
473.53	77.25
473.749	97.25
473.968	96.25
474.187	108.25
474.406	94.25
474.625	95.25
474.844	88.25
475.063	95.25
475.282	78.25
475.501	91.25
475.72	89.25
475.939	88.25
476.158	81.25
476.377	99.25
476.596	88.25
476.814	101.25
477.033	104.25
477.252	87.25
477.471	84.25
477.69	82.25
477.908	90.25
478.127	83.25
478.346	90.25
478.564	103.25
478.783	89.25
479.002	108.25
479.22	102.25
479.439	107.25
479.658	111.25
479.876	113.25
480.095	114.25
480.313	116.25
480.532	131.25
480.751	209.25
480.969	634.25
481.188	2668.25
481.406	1526.25
481.624	237.25
481.843	109.25
482.061	97.25
482.28	97.25
482.498	84.25
482.717	92.25
482.935	83.25
483.153	84.25
483.372	88.25
483.59	106.25
483.808	81.25
484.027	87.25
484.245	92.25
484.463	93.25
484.681	104.25
484.9	88.25
485.118	99.25
485.336	100.25
485.554	93.25
485.772	108.25
485.99	107.25
486.209	104.25
486.427	101.25
486.645	117.25
486.863	123.25
487.081	98.25
487.299	96.25
487.517	90.25
487.735	93.25
487.953	86.25
488.171	91.25
488.389	99.25
488.607	99.25
488.825	88.25
489.043	78.25
489.261	100.25
489.479	88.25
489.696	89.25
489.914	88.25
490.132	88.25
490.35	100.25
490.568	80.25
490.786	88.25
491.003	79.25
491.221	87.25
491.439	99.25
491.657	101.25
491.874	93.25
492.092	87.25
492.31	90.25
492.527	100.25
492.745	101.25
492.963	87.25
493.18	100.25
493.398	95.25
493.615	91.25
493.833	112.25
494.05	93.25
494.268	95.25
494.485	94.25
494.703	95.25
494.92	85.25
495.138	89.25
495.355	91.25
495.573	93.25
495.79	83.25
496.008	89.25
496.225	85.25
496.442	85.25
496.66	92.25
496.877	94.25
497.094	91.25
497.312	96.25
497.529	88.25
497.746	87.25
497.963	94.25
498.181	106.25
498.398	103.25
498.615	111.25
498.832	105.25
499.049	99.25
499.267	104.25
499.484	80.25
499.701	91.25
499.918	84.25
500.135	87.25
500.352	85.25
500.569	83.25
500.786	92.25
501.003	87.25
501.22	97.25
501.437	80.25
501.654	94.25
501.871	113.25
502.088	97.25
502.305	83.25
502.522	87.25
502.739	80.25
502.956	87.25
503.172	108.25
503.389	102.25
503.606	116.25
503.823	107.25
504.04	96.25
504.256	103.25
504.473	84.25
504.69	90.25
504.907	88.25
505.123	80.25
505.34	90.25
505.557	89.25
505.773	81.25
505.99	97.25
506.207	96.25
506.423	97.25
506.64	80.25
506.856	68.25
507.073	85.25
507.289	87.25
507.506	97.25
507.722	114.25
507.939	119.25
508.155	103.25
508.372	99.25
508.588	96.25
508.805	92.25
509.021	94.25
509.238	97.25
509.454	112.25
509.67	96.25
509.887	112.25
510.103	132.25
510.319	212.25
510.536	769.25
510.752	2521.25
510.968	705.25
511.184	160.25
511.401	121.25
511.617	103.25
511.833	83.25
512.049	97.25
512.265	97.25
512.481	98.25
512.698	86.25
512.914	81.25
513.13	92.25
513.346	83.25
513.562	88.25
513.778	103.25
513.994	108.25
514.21	100.25
514.426	123.25
514.642	140.25
