Data from Circ_1992_H10_HRD10591_00022.txt Node
Date: Wed Jan 03 11:47:49 EST 2024
User: Yrep
Spectrometer: HR+D1059
Trigger mode: 1
Integration Time (sec): 1.000000E-1
Scans to average: 1
Electric dark correction enabled: true
Nonlinearity correction enabled: false
Boxcar width: 0
XAxis mode: Wavelengths
Number of Pixels in Spectrum: 2048
>>>>>Begin Spectral Data<<<<<
223.165	-19.62
223.4	-19.62
223.635	-19.62
223.869	-28.62
224.104	-7.62
224.338	-20.62
224.573	-11.62
224.808	-4.62
225.042	-2.62
225.277	-8.62
225.511	-12.62
225.746	4.38
225.98	11.38
226.215	13.38
226.449	11.38
226.683	21.38
226.918	29.38
227.152	25.38
227.387	40.38
227.621	26.38
227.856	38.38
228.09	43.38
228.324	36.38
228.559	48.38
228.793	53.38
229.027	67.38
229.262	65.38
229.496	74.38
229.73	101.38
229.964	85.38
230.199	82.38
230.433	69.38
230.667	61.38
230.901	77.38
231.136	77.38
231.37	80.38
231.604	84.38
231.838	68.38
232.072	83.38
232.306	77.38
232.541	86.38
232.775	81.38
233.009	79.38
233.243	68.38
233.477	81.38
233.711	85.38
233.945	78.38
234.179	81.38
234.413	83.38
234.647	93.38
234.881	71.38
235.115	66.38
235.349	67.38
235.583	71.38
235.817	79.38
236.051	68.38
236.285	82.38
236.519	77.38
236.753	82.38
236.987	77.38
237.221	90.38
237.455	91.38
237.689	85.38
237.922	72.38
238.156	77.38
238.39	72.38
238.624	76.38
238.858	78.38
239.091	59.38
239.325	66.38
239.559	86.38
239.793	79.38
240.027	88.38
240.26	81.38
240.494	87.38
240.728	82.38
240.961	71.38
241.195	75.38
241.429	82.38
241.662	79.38
241.896	71.38
242.13	70.38
242.363	77.38
242.597	88.38
242.83	82.38
243.064	75.38
243.298	88.38
243.531	76.38
243.765	66.38
243.998	76.38
244.232	86.38
244.465	81.38
244.699	84.38
244.932	67.38
245.166	78.38
245.399	83.38
245.633	82.38
245.866	73.38
246.099	83.38
246.333	65.38
246.566	73.38
246.8	73.38
247.033	77.38
247.266	79.38
247.5	82.38
247.733	87.38
247.966	84.38
248.2	92.38
248.433	89.38
248.666	85.38
248.899	77.38
249.133	82.38
249.366	87.38
249.599	93.38
249.832	91.38
250.066	60.38
250.299	68.38
250.532	86.38
250.765	71.38
250.998	87.38
251.231	80.38
251.465	87.38
251.698	81.38
251.931	73.38
252.164	89.38
252.397	80.38
252.63	81.38
252.863	84.38
253.096	75.38
253.329	89.38
253.562	80.38
253.795	81.38
254.028	87.38
254.261	72.38
254.494	82.38
254.727	79.38
254.96	79.38
255.193	90.38
255.426	72.38
255.659	74.38
255.892	84.38
256.124	93.38
256.357	98.38
256.59	95.38
256.823	92.38
257.056	86.38
257.289	78.38
257.521	88.38
257.754	57.38
257.987	90.38
258.22	77.38
258.452	95.38
258.685	91.38
258.918	83.38
259.151	75.38
259.383	82.38
259.616	82.38
259.849	62.38
260.081	81.38
260.314	85.38
260.547	83.38
260.779	82.38
261.012	75.38
261.244	98.38
261.477	87.38
261.71	105.38
261.942	108.38
262.175	116.38
262.407	80.38
262.64	102.38
262.872	100.38
263.105	89.38
263.337	87.38
263.57	90.38
263.802	86.38
264.035	82.38
264.267	79.38
264.499	81.38
264.732	90.38
264.964	84.38
265.197	87.38
265.429	87.38
265.661	100.38
265.894	78.38
266.126	77.38
266.358	77.38
266.591	81.38
266.823	70.38
267.055	79.38
267.287	82.38
267.52	82.38
267.752	78.38
267.984	80.38
268.216	75.38
268.448	81.38
268.681	76.38
268.913	89.38
269.145	93.38
269.377	84.38
269.609	71.38
269.841	82.38
270.073	92.38
270.306	72.38
270.538	80.38
270.77	69.38
271.002	81.38
271.234	89.38
271.466	89.38
271.698	81.38
271.93	79.38
272.162	78.38
272.394	81.38
272.626	78.38
272.858	88.38
273.09	72.38
273.322	75.38
273.553	71.38
273.785	81.38
274.017	80.38
274.249	82.38
274.481	85.38
274.713	89.38
274.945	79.38
275.176	94.38
275.408	89.38
275.64	80.38
275.872	88.38
276.104	75.38
276.335	93.38
276.567	105.38
276.799	123.38
277.031	122.38
277.262	134.38
277.494	101.38
277.726	91.38
277.957	88.38
278.189	93.38
278.421	88.38
278.652	90.38
278.884	83.38
279.115	91.38
279.347	103.38
279.579	86.38
279.81	83.38
280.042	111.38
280.273	123.38
280.505	114.38
280.736	93.38
280.968	78.38
281.199	88.38
281.431	97.38
281.662	84.38
281.894	78.38
282.125	96.38
282.356	121.38
282.588	148.38
282.819	129.38
283.051	85.38
283.282	85.38
283.513	94.38
283.745	85.38
283.976	72.38
284.207	82.38
284.439	83.38
284.67	89.38
284.901	81.38
285.132	91.38
285.364	80.38
285.595	79.38
285.826	72.38
286.057	81.38
286.288	67.38
286.52	79.38
286.751	80.38
286.982	96.38
287.213	82.38
287.444	103.38
287.675	97.38
287.906	92.38
288.138	82.38
288.369	91.38
288.6	81.38
288.831	86.38
289.062	98.38
289.293	89.38
289.524	95.38
289.755	85.38
289.986	94.38
290.217	67.38
290.448	85.38
290.679	84.38
290.91	87.38
291.141	90.38
291.371	79.38
291.602	82.38
291.833	78.38
292.064	83.38
292.295	85.38
292.526	94.38
292.757	97.38
292.987	85.38
293.218	82.38
293.449	89.38
293.68	92.38
293.91	81.38
294.141	75.38
294.372	76.38
294.603	85.38
294.833	91.38
295.064	84.38
295.295	85.38
295.525	96.38
295.756	100.38
295.987	105.38
296.217	151.38
296.448	132.38
296.679	91.38
296.909	98.38
297.14	89.38
297.37	73.38
297.601	84.38
297.831	88.38
298.062	79.38
298.292	90.38
298.523	94.38
298.753	97.38
298.984	91.38
299.214	99.38
299.445	83.38
299.675	100.38
299.905	80.38
300.136	83.38
300.366	94.38
300.597	81.38
300.827	91.38
301.057	107.38
301.288	92.38
301.518	94.38
301.748	97.38
301.979	100.38
302.209	93.38
302.439	103.38
302.669	82.38
302.9	87.38
303.13	93.38
303.36	105.38
303.59	131.38
303.82	126.38
304.051	97.38
304.281	82.38
304.511	100.38
304.741	83.38
304.971	83.38
305.201	79.38
305.431	79.38
305.661	93.38
305.891	74.38
306.121	86.38
306.352	105.38
306.582	99.38
306.812	94.38
307.042	100.38
307.272	115.38
307.502	124.38
307.731	106.38
307.961	104.38
308.191	93.38
308.421	89.38
308.651	88.38
308.881	93.38
309.111	82.38
309.341	89.38
309.571	108.38
309.8	91.38
310.03	96.38
310.26	96.38
310.49	99.38
310.72	100.38
310.949	107.38
311.179	109.38
311.409	92.38
311.639	88.38
311.868	100.38
312.098	96.38
312.328	90.38
312.557	108.38
312.787	96.38
313.017	100.38
313.246	84.38
313.476	82.38
313.706	100.38
313.935	92.38
314.165	107.38
314.394	96.38
314.624	98.38
314.853	103.38
315.083	95.38
315.312	95.38
315.542	92.38
315.771	86.38
316.001	84.38
316.23	89.38
316.46	98.38
316.689	81.38
316.919	95.38
317.148	84.38
317.377	79.38
317.607	89.38
317.836	97.38
318.065	87.38
318.295	86.38
318.524	98.38
318.753	77.38
318.983	93.38
319.212	104.38
319.441	126.38
319.67	108.38
319.9	99.38
320.129	76.38
320.358	98.38
320.587	96.38
320.816	84.38
321.046	89.38
321.275	98.38
321.504	104.38
321.733	92.38
321.962	107.38
322.191	92.38
322.42	96.38
322.649	100.38
322.878	109.38
323.108	116.38
323.337	125.38
323.566	128.38
323.795	147.38
324.024	219.38
324.253	405.38
324.482	875.38
324.71	1808.38
324.939	2385.38
325.168	881.38
325.397	258.38
325.626	147.38
325.855	128.38
326.084	125.38
326.313	127.38
326.542	132.38
326.77	247.38
326.999	466.38
327.228	949.38
327.457	1722.38
327.686	1374.38
327.914	409.38
328.143	291.38
328.372	333.38
328.6	220.38
328.829	147.38
329.058	157.38
329.287	141.38
329.515	132.38
329.744	161.38
329.972	224.38
330.201	405.38
330.43	569.38
330.658	307.38
330.887	207.38
331.115	149.38
331.344	99.38
331.572	113.38
331.801	99.38
332.03	106.38
332.258	102.38
332.486	96.38
332.715	107.38
332.943	107.38
333.172	101.38
333.4	107.38
333.629	121.38
333.857	162.38
334.085	233.38
334.314	387.38
334.542	721.38
334.771	725.38
334.999	225.38
335.227	109.38
335.455	99.38
335.684	107.38
335.912	90.38
336.14	102.38
336.369	105.38
336.597	101.38
336.825	96.38
337.053	83.38
337.281	92.38
337.51	97.38
337.738	94.38
337.966	82.38
338.194	97.38
338.422	97.38
338.65	90.38
338.878	79.38
339.106	89.38
339.334	106.38
339.562	104.38
339.79	99.38
340.018	92.38
340.246	97.38
340.474	84.38
340.702	98.38
340.93	95.38
341.158	91.38
341.386	98.38
341.614	107.38
341.842	87.38
342.07	96.38
342.298	88.38
342.526	102.38
342.754	79.38
342.981	106.38
343.209	81.38
343.437	96.38
343.665	79.38
343.893	89.38
344.12	92.38
344.348	85.38
344.576	83.38
344.804	78.38
345.031	113.38
345.259	96.38
345.487	103.38
345.714	94.38
345.942	80.38
346.17	84.38
346.397	89.38
346.625	88.38
346.853	98.38
347.08	96.38
347.308	99.38
347.535	97.38
347.763	108.38
347.99	100.38
348.218	110.38
348.445	92.38
348.673	94.38
348.9	93.38
349.128	103.38
349.355	110.38
349.583	89.38
349.81	107.38
350.037	92.38
350.265	87.38
350.492	91.38
350.72	98.38
350.947	97.38
351.174	113.38
351.402	115.38
351.629	95.38
351.856	103.38
352.083	111.38
352.311	104.38
352.538	119.38
352.765	110.38
352.992	114.38
353.22	114.38
353.447	107.38
353.674	95.38
353.901	95.38
354.128	104.38
354.355	96.38
354.583	80.38
354.81	94.38
355.037	96.38
355.264	92.38
355.491	96.38
355.718	85.38
355.945	81.38
356.172	87.38
356.399	96.38
356.626	102.38
356.853	96.38
357.08	84.38
357.307	91.38
357.534	87.38
357.761	88.38
357.988	90.38
358.215	99.38
358.441	80.38
358.668	98.38
358.895	90.38
359.122	99.38
359.349	79.38
359.576	88.38
359.802	113.38
360.029	115.38
360.256	137.38
360.483	123.38
360.709	92.38
360.936	92.38
361.163	100.38
361.39	99.38
361.616	83.38
361.843	87.38
362.07	100.38
362.296	87.38
362.523	84.38
362.749	94.38
362.976	90.38
363.203	91.38
363.429	92.38
363.656	98.38
363.882	90.38
364.109	72.38
364.335	93.38
364.562	80.38
364.788	92.38
365.015	92.38
365.241	100.38
365.468	98.38
365.694	104.38
365.92	92.38
366.147	103.38
366.373	98.38
366.599	88.38
366.826	93.38
367.052	94.38
367.278	99.38
367.505	78.38
367.731	91.38
367.957	96.38
368.184	68.38
368.41	93.38
368.636	114.38
368.862	113.38
369.089	116.38
369.315	103.38
369.541	96.38
369.767	99.38
369.993	86.38
370.219	99.38
370.445	95.38
370.672	87.38
370.898	89.38
371.124	90.38
371.35	95.38
371.576	86.38
371.802	101.38
372.028	83.38
372.254	71.38
372.48	89.38
372.706	78.38
372.932	90.38
373.158	98.38
373.384	98.38
373.61	87.38
373.835	80.38
374.061	88.38
374.287	102.38
374.513	83.38
374.739	91.38
374.965	88.38
375.191	93.38
375.416	98.38
375.642	95.38
375.868	86.38
376.094	94.38
376.319	101.38
376.545	98.38
376.771	86.38
376.997	81.38
377.222	84.38
377.448	91.38
377.674	91.38
377.899	99.38
378.125	89.38
378.35	96.38
378.576	95.38
378.802	88.38
379.027	87.38
379.253	93.38
379.478	102.38
379.704	79.38
379.929	96.38
380.155	93.38
380.38	95.38
380.606	116.38
380.831	113.38
381.057	104.38
381.282	97.38
381.507	102.38
381.733	101.38
381.958	96.38
382.184	105.38
382.409	115.38
382.634	107.38
382.86	101.38
383.085	97.38
383.31	98.38
383.535	105.38
383.761	112.38
383.986	108.38
384.211	111.38
384.436	87.38
384.662	109.38
384.887	125.38
385.112	120.38
385.337	124.38
385.562	125.38
385.787	124.38
386.013	124.38
386.238	126.38
386.463	110.38
386.688	120.38
386.913	114.38
387.138	119.38
387.363	104.38
387.588	100.38
387.813	113.38
388.038	116.38
388.263	121.38
388.488	121.38
388.713	87.38
388.938	83.38
389.163	103.38
389.387	95.38
389.612	97.38
389.837	86.38
390.062	83.38
390.287	88.38
390.512	83.38
390.736	91.38
390.961	90.38
391.186	90.38
391.411	97.38
391.636	88.38
391.86	78.38
392.085	80.38
392.31	71.38
392.534	69.38
392.759	91.38
392.984	84.38
393.208	77.38
393.433	96.38
393.658	88.38
393.882	72.38
394.107	66.38
394.331	77.38
394.556	75.38
394.78	95.38
395.005	87.38
395.229	82.38
395.454	90.38
395.678	87.38
395.903	92.38
396.127	91.38
396.352	89.38
396.576	75.38
396.801	72.38
397.025	88.38
397.249	97.38
397.474	92.38
397.698	96.38
397.922	90.38
398.147	87.38
398.371	98.38
398.595	92.38
398.82	92.38
399.044	86.38
399.268	91.38
399.492	89.38
399.717	83.38
399.941	89.38
400.165	94.38
400.389	93.38
400.613	85.38
400.837	91.38
401.062	88.38
401.286	91.38
401.51	86.38
401.734	96.38
401.958	90.38
402.182	132.38
402.406	161.38
402.63	133.38
402.854	99.38
403.078	104.38
403.302	90.38
403.526	92.38
403.75	81.38
403.974	63.38
404.198	84.38
404.422	88.38
404.645	106.38
404.869	75.38
405.093	99.38
405.317	121.38
405.541	120.38
405.765	108.38
405.988	126.38
406.212	186.38
406.436	274.38
406.66	164.38
406.883	111.38
407.107	101.38
407.331	87.38
407.555	93.38
407.778	88.38
408.002	93.38
408.226	92.38
408.449	81.38
408.673	91.38
408.896	93.38
409.12	88.38
409.344	87.38
409.567	97.38
409.791	92.38
410.014	89.38
410.238	92.38
410.461	90.38
410.685	82.38
410.908	87.38
411.132	100.38
411.355	91.38
411.578	96.38
411.802	77.38
412.025	75.38
412.249	83.38
412.472	85.38
412.695	119.38
412.919	90.38
413.142	97.38
413.365	91.38
413.589	82.38
413.812	89.38
414.035	104.38
414.258	87.38
414.482	103.38
414.705	93.38
414.928	85.38
415.151	100.38
415.374	91.38
415.597	76.38
415.821	85.38
416.044	90.38
416.267	87.38
416.49	96.38
416.713	99.38
416.936	95.38
417.159	87.38
417.382	99.38
417.605	96.38
417.828	95.38
418.051	98.38
418.274	101.38
418.497	90.38
418.72	81.38
418.943	84.38
419.166	71.38
419.389	84.38
419.611	77.38
419.834	92.38
420.057	92.38
420.28	88.38
420.503	88.38
420.726	99.38
420.948	88.38
421.171	93.38
421.394	87.38
421.617	84.38
421.839	90.38
422.062	101.38
422.285	94.38
422.507	91.38
422.73	96.38
422.953	96.38
423.175	90.38
423.398	75.38
423.621	92.38
423.843	89.38
424.066	75.38
424.288	87.38
424.511	89.38
424.733	103.38
424.956	102.38
425.178	103.38
425.401	92.38
425.623	107.38
425.846	72.38
426.068	87.38
426.291	103.38
426.513	95.38
426.735	76.38
426.958	85.38
427.18	102.38
427.402	155.38
427.625	207.38
427.847	196.38
428.069	166.38
428.292	109.38
428.514	97.38
428.736	92.38
428.958	96.38
429.181	84.38
429.403	76.38
429.625	95.38
429.847	101.38
430.069	108.38
430.292	96.38
430.514	90.38
430.736	88.38
430.958	97.38
431.18	75.38
431.402	101.38
431.624	91.38
431.846	78.38
432.068	82.38
432.29	79.38
432.512	87.38
432.734	91.38
432.956	105.38
433.178	101.38
433.4	110.38
433.622	81.38
433.844	93.38
434.066	83.38
434.287	91.38
434.509	82.38
434.731	91.38
434.953	90.38
435.175	89.38
435.397	79.38
435.618	94.38
435.84	94.38
436.062	130.38
436.284	112.38
436.505	101.38
436.727	103.38
436.949	100.38
437.17	87.38
437.392	96.38
437.614	87.38
437.835	108.38
438.057	130.38
438.278	108.38
438.5	107.38
438.721	131.38
438.943	97.38
439.165	98.38
439.386	92.38
439.608	99.38
439.829	96.38
440.05	134.38
440.272	145.38
440.493	96.38
440.715	89.38
440.936	100.38
441.158	96.38
441.379	82.38
441.6	86.38
441.822	97.38
442.043	102.38
442.264	105.38
442.486	121.38
442.707	101.38
442.928	96.38
443.149	126.38
443.371	145.38
443.592	113.38
443.813	113.38
444.034	113.38
444.255	88.38
444.476	101.38
444.698	91.38
444.919	96.38
445.14	122.38
445.361	120.38
445.582	132.38
445.803	151.38
446.024	160.38
446.245	155.38
446.466	115.38
446.687	81.38
446.908	83.38
447.129	103.38
447.35	87.38
447.571	104.38
447.792	105.38
448.013	100.38
448.234	98.38
448.455	109.38
448.675	113.38
448.896	115.38
449.117	101.38
449.338	97.38
449.559	126.38
449.779	142.38
450	91.38
450.221	89.38
450.442	100.38
450.662	90.38
450.883	103.38
451.104	118.38
451.324	100.38
451.545	93.38
451.766	85.38
451.986	83.38
452.207	87.38
452.428	82.38
452.648	103.38
452.869	104.38
453.089	110.38
453.31	126.38
453.53	92.38
453.751	97.38
453.971	103.38
454.192	137.38
454.412	87.38
454.633	87.38
454.853	86.38
455.073	93.38
455.294	100.38
455.514	94.38
455.734	108.38
455.955	99.38
456.175	95.38
456.395	89.38
456.616	76.38
456.836	87.38
457.056	82.38
457.276	89.38
457.497	83.38
457.717	83.38
457.937	83.38
458.157	80.38
458.377	81.38
458.598	117.38
458.818	179.38
459.038	194.38
459.258	131.38
459.478	96.38
459.698	89.38
459.918	98.38
460.138	81.38
460.358	75.38
460.578	83.38
460.798	79.38
461.018	90.38
461.238	92.38
461.458	101.38
461.678	95.38
461.898	85.38
462.118	88.38
462.338	83.38
462.558	77.38
462.777	81.38
462.997	83.38
463.217	84.38
463.437	96.38
463.657	79.38
463.876	88.38
464.096	96.38
464.316	96.38
464.536	87.38
464.755	82.38
464.975	104.38
465.195	192.38
465.414	181.38
465.634	97.38
465.854	75.38
466.073	89.38
466.293	82.38
466.512	85.38
466.732	85.38
466.951	96.38
467.171	93.38
467.391	99.38
467.61	128.38
467.829	143.38
468.049	246.38
468.268	338.38
468.488	121.38
468.707	106.38
468.927	92.38
469.146	80.38
469.365	82.38
469.585	84.38
469.804	92.38
470.023	107.38
470.243	79.38
470.462	114.38
470.681	113.38
470.901	92.38
471.12	97.38
471.339	90.38
471.558	94.38
471.777	106.38
471.997	164.38
472.216	474.38
472.435	988.38
472.654	282.38
472.873	115.38
473.092	99.38
473.311	102.38
473.53	107.38
473.749	79.38
473.968	103.38
474.187	112.38
474.406	94.38
474.625	81.38
474.844	85.38
475.063	88.38
475.282	93.38
475.501	84.38
475.72	87.38
475.939	87.38
476.158	82.38
476.377	72.38
476.596	90.38
476.814	87.38
477.033	87.38
477.252	85.38
477.471	78.38
477.69	81.38
477.908	84.38
478.127	82.38
478.346	85.38
478.564	91.38
478.783	97.38
479.002	101.38
479.22	104.38
479.439	100.38
479.658	109.38
479.876	111.38
480.095	87.38
480.313	109.38
480.532	117.38
480.751	177.38
480.969	429.38
481.188	1693.38
481.406	1048.38
481.624	199.38
481.843	116.38
482.061	79.38
482.28	101.38
482.498	95.38
482.717	93.38
482.935	100.38
483.153	89.38
483.372	95.38
483.59	99.38
483.808	90.38
484.027	92.38
484.245	98.38
484.463	83.38
484.681	98.38
484.9	85.38
485.118	75.38
485.336	87.38
485.554	91.38
485.772	105.38
485.99	109.38
486.209	108.38
486.427	113.38
486.645	112.38
486.863	108.38
487.081	107.38
487.299	111.38
487.517	103.38
487.735	85.38
487.953	85.38
488.171	76.38
488.389	89.38
488.607	101.38
488.825	93.38
489.043	83.38
489.261	88.38
489.479	91.38
489.696	89.38
489.914	91.38
490.132	97.38
490.35	89.38
490.568	83.38
490.786	86.38
491.003	105.38
491.221	81.38
491.439	93.38
491.657	97.38
491.874	110.38
492.092	90.38
492.31	92.38
492.527	98.38
492.745	88.38
492.963	96.38
493.18	88.38
493.398	94.38
493.615	106.38
493.833	98.38
494.05	92.38
494.268	97.38
494.485	108.38
494.703	101.38
494.92	90.38
495.138	87.38
495.355	81.38
495.573	96.38
495.79	90.38
496.008	99.38
496.225	100.38
496.442	80.38
496.66	82.38
496.877	83.38
497.094	93.38
497.312	88.38
497.529	90.38
497.746	84.38
497.963	99.38
498.181	89.38
498.398	109.38
498.615	107.38
498.832	90.38
499.049	89.38
499.267	84.38
499.484	92.38
499.701	106.38
499.918	98.38
500.135	86.38
500.352	83.38
500.569	81.38
500.786	91.38
501.003	89.38
501.22	100.38
501.437	71.38
501.654	81.38
501.871	122.38
502.088	97.38
502.305	78.38
502.522	91.38
502.739	97.38
502.956	100.38
503.172	89.38
503.389	98.38
503.606	101.38
503.823	100.38
504.04	106.38
504.256	89.38
504.473	91.38
504.69	80.38
504.907	97.38
505.123	92.38
505.34	87.38
505.557	91.38
505.773	80.38
505.99	97.38
506.207	85.38
506.423	88.38
506.64	99.38
506.856	98.38
507.073	82.38
507.289	98.38
507.506	101.38
507.722	145.38
507.939	119.38
508.155	92.38
508.372	77.38
508.588	90.38
508.805	92.38
509.021	96.38
509.238	105.38
509.454	101.38
509.67	93.38
509.887	115.38
510.103	144.38
510.319	228.38
510.536	860.38
510.752	2832.38
510.968	774.38
511.184	175.38
511.401	108.38
511.617	108.38
511.833	80.38
512.049	75.38
512.265	90.38
512.481	84.38
512.698	87.38
512.914	94.38
513.13	88.38
513.346	79.38
513.562	94.38
513.778	109.38
513.994	112.38
514.21	110.38
514.426	126.38
514.642	151.38
514.858	128.38
