Data from Circ_1992_H10_HRD10591_00084.txt Node
Date: Wed Jan 03 11:48:01 EST 2024
User: Yrep
Spectrometer: HR+D1059
Trigger mode: 1
Integration Time (sec): 1.000000E-1
Scans to average: 1
Electric dark correction enabled: true
Nonlinearity correction enabled: false
Boxcar width: 0
XAxis mode: Wavelengths
Number of Pixels in Spectrum: 2048
>>>>>Begin Spectral Data<<<<<
223.165	-7.5
223.4	-7.5
223.635	-7.5
223.869	-16.5
224.104	-24.5
224.338	-11.5
224.573	-20.5
224.808	-18.5
225.042	-8.5
225.277	-0.5
225.511	8.5
225.746	2.5
225.98	-2.5
226.215	8.5
226.449	13.5
226.683	17.5
226.918	22.5
227.152	37.5
227.387	36.5
227.621	32.5
227.856	37.5
228.09	61.5
228.324	37.5
228.559	57.5
228.793	46.5
229.027	72.5
229.262	75.5
229.496	70.5
229.73	98.5
229.964	82.5
230.199	70.5
230.433	75.5
230.667	72.5
230.901	71.5
231.136	79.5
231.37	69.5
231.604	91.5
231.838	75.5
232.072	91.5
232.306	92.5
232.541	72.5
232.775	70.5
233.009	100.5
233.243	87.5
233.477	87.5
233.711	97.5
233.945	71.5
234.179	96.5
234.413	85.5
234.647	82.5
234.881	80.5
235.115	90.5
235.349	86.5
235.583	73.5
235.817	90.5
236.051	89.5
236.285	68.5
236.519	81.5
236.753	72.5
236.987	82.5
237.221	86.5
237.455	74.5
237.689	84.5
237.922	80.5
238.156	74.5
238.39	78.5
238.624	68.5
238.858	79.5
239.091	93.5
239.325	94.5
239.559	92.5
239.793	82.5
240.027	81.5
240.26	93.5
240.494	69.5
240.728	70.5
240.961	79.5
241.195	75.5
241.429	69.5
241.662	79.5
241.896	73.5
242.13	85.5
242.363	84.5
242.597	70.5
242.83	80.5
243.064	73.5
243.298	77.5
243.531	74.5
243.765	87.5
243.998	82.5
244.232	74.5
244.465	81.5
244.699	85.5
244.932	68.5
245.166	90.5
245.399	82.5
245.633	92.5
245.866	85.5
246.099	81.5
246.333	80.5
246.566	75.5
246.8	79.5
247.033	97.5
247.266	86.5
247.5	74.5
247.733	70.5
247.966	84.5
248.2	95.5
248.433	84.5
248.666	73.5
248.899	88.5
249.133	87.5
249.366	94.5
249.599	106.5
249.832	76.5
250.066	79.5
250.299	82.5
250.532	85.5
250.765	82.5
250.998	69.5
251.231	85.5
251.465	87.5
251.698	85.5
251.931	79.5
252.164	86.5
252.397	89.5
252.63	71.5
252.863	74.5
253.096	78.5
253.329	74.5
253.562	93.5
253.795	86.5
254.028	82.5
254.261	90.5
254.494	79.5
254.727	95.5
254.96	99.5
255.193	79.5
255.426	79.5
255.659	75.5
255.892	92.5
256.124	102.5
256.357	95.5
256.59	70.5
256.823	92.5
257.056	88.5
257.289	67.5
257.521	77.5
257.754	86.5
257.987	95.5
258.22	82.5
258.452	87.5
258.685	90.5
258.918	88.5
259.151	78.5
259.383	79.5
259.616	83.5
259.849	91.5
260.081	79.5
260.314	85.5
260.547	90.5
260.779	82.5
261.012	102.5
261.244	106.5
261.477	86.5
261.71	101.5
261.942	107.5
262.175	122.5
262.407	93.5
262.64	86.5
262.872	77.5
263.105	83.5
263.337	95.5
263.57	73.5
263.802	86.5
264.035	81.5
264.267	70.5
264.499	90.5
264.732	96.5
264.964	86.5
265.197	82.5
265.429	93.5
265.661	90.5
265.894	82.5
266.126	85.5
266.358	94.5
266.591	84.5
266.823	87.5
267.055	82.5
267.287	85.5
267.52	77.5
267.752	92.5
267.984	94.5
268.216	86.5
268.448	87.5
268.681	87.5
268.913	85.5
269.145	84.5
269.377	83.5
269.609	85.5
269.841	88.5
270.073	91.5
270.306	87.5
270.538	94.5
270.77	76.5
271.002	77.5
271.234	91.5
271.466	102.5
271.698	94.5
271.93	92.5
272.162	99.5
272.394	101.5
272.626	89.5
272.858	78.5
273.09	92.5
273.322	93.5
273.553	82.5
273.785	74.5
274.017	91.5
274.249	91.5
274.481	96.5
274.713	98.5
274.945	81.5
275.176	87.5
275.408	100.5
275.64	92.5
275.872	113.5
276.104	105.5
276.335	97.5
276.567	103.5
276.799	129.5
277.031	130.5
277.262	139.5
277.494	126.5
277.726	75.5
277.957	92.5
278.189	84.5
278.421	92.5
278.652	92.5
278.884	95.5
279.115	88.5
279.347	96.5
279.579	96.5
279.81	111.5
280.042	160.5
280.273	185.5
280.505	130.5
280.736	94.5
280.968	93.5
281.199	88.5
281.431	98.5
281.662	92.5
281.894	84.5
282.125	92.5
282.356	141.5
282.588	178.5
282.819	114.5
283.051	94.5
283.282	99.5
283.513	86.5
283.745	99.5
283.976	89.5
284.207	85.5
284.439	81.5
284.67	94.5
284.901	80.5
285.132	89.5
285.364	89.5
285.595	89.5
285.826	91.5
286.057	74.5
286.288	99.5
286.52	90.5
286.751	80.5
286.982	85.5
287.213	92.5
287.444	101.5
287.675	70.5
287.906	84.5
288.138	84.5
288.369	105.5
288.6	90.5
288.831	102.5
289.062	83.5
289.293	91.5
289.524	89.5
289.755	89.5
289.986	94.5
290.217	83.5
290.448	110.5
290.679	84.5
290.91	86.5
291.141	89.5
291.371	97.5
291.602	83.5
291.833	88.5
292.064	81.5
292.295	101.5
292.526	84.5
292.757	99.5
292.987	86.5
293.218	92.5
293.449	88.5
293.68	92.5
293.91	88.5
294.141	94.5
294.372	98.5
294.603	99.5
294.833	93.5
295.064	99.5
295.295	92.5
295.525	92.5
295.756	98.5
295.987	122.5
296.217	158.5
296.448	137.5
296.679	85.5
296.909	95.5
297.14	100.5
297.37	91.5
297.601	95.5
297.831	99.5
298.062	100.5
298.292	80.5
298.523	92.5
298.753	78.5
298.984	96.5
299.214	93.5
299.445	90.5
299.675	84.5
299.905	102.5
300.136	101.5
300.366	73.5
300.597	95.5
300.827	102.5
301.057	90.5
301.288	103.5
301.518	90.5
301.748	88.5
301.979	106.5
302.209	108.5
302.439	86.5
302.669	98.5
302.9	92.5
303.13	93.5
303.36	97.5
303.59	121.5
303.82	127.5
304.051	109.5
304.281	97.5
304.511	100.5
304.741	109.5
304.971	93.5
305.201	83.5
305.431	85.5
305.661	97.5
305.891	92.5
306.121	109.5
306.352	102.5
306.582	127.5
306.812	102.5
307.042	115.5
307.272	125.5
307.502	141.5
307.731	151.5
307.961	107.5
308.191	105.5
308.421	92.5
308.651	96.5
308.881	92.5
309.111	102.5
309.341	100.5
309.571	101.5
309.8	96.5
310.03	117.5
310.26	106.5
310.49	107.5
310.72	109.5
310.949	121.5
311.179	107.5
311.409	99.5
311.639	103.5
311.868	99.5
312.098	107.5
312.328	109.5
312.557	111.5
312.787	117.5
313.017	104.5
313.246	107.5
313.476	91.5
313.706	101.5
313.935	86.5
314.165	101.5
314.394	113.5
314.624	102.5
314.853	87.5
315.083	82.5
315.312	94.5
315.542	93.5
315.771	91.5
316.001	110.5
316.23	83.5
316.46	94.5
316.689	98.5
316.919	112.5
317.148	101.5
317.377	102.5
317.607	90.5
317.836	100.5
318.065	113.5
318.295	95.5
318.524	96.5
318.753	93.5
318.983	105.5
319.212	123.5
319.441	113.5
319.67	115.5
319.9	92.5
320.129	88.5
320.358	89.5
320.587	78.5
320.816	103.5
321.046	121.5
321.275	109.5
321.504	98.5
321.733	106.5
321.962	110.5
322.191	102.5
322.42	133.5
322.649	116.5
322.878	107.5
323.108	141.5
323.337	140.5
323.566	141.5
323.795	190.5
324.024	243.5
324.253	466.5
324.482	1038.5
324.71	2227.5
324.939	2899.5
325.168	1025.5
325.397	300.5
325.626	171.5
325.855	155.5
326.084	150.5
326.313	150.5
326.542	165.5
326.77	261.5
326.999	559.5
327.228	1155.5
327.457	2154.5
327.686	1661.5
327.914	521.5
328.143	415.5
328.372	462.5
328.6	281.5
328.829	174.5
329.058	165.5
329.287	170.5
329.515	143.5
329.744	191.5
329.972	333.5
330.201	683.5
330.43	1003.5
330.658	483.5
330.887	236.5
331.115	159.5
331.344	123.5
331.572	113.5
331.801	126.5
332.03	128.5
332.258	113.5
332.486	97.5
332.715	109.5
332.943	104.5
333.172	103.5
333.4	126.5
333.629	143.5
333.857	177.5
334.085	316.5
334.314	645.5
334.542	1237.5
334.771	1177.5
334.999	322.5
335.227	149.5
335.455	108.5
335.684	120.5
335.912	113.5
336.14	108.5
336.369	107.5
336.597	111.5
336.825	111.5
337.053	102.5
337.281	100.5
337.51	87.5
337.738	98.5
337.966	99.5
338.194	92.5
338.422	105.5
338.65	102.5
338.878	99.5
339.106	111.5
339.334	97.5
339.562	95.5
339.79	94.5
340.018	93.5
340.246	99.5
340.474	96.5
340.702	85.5
340.93	101.5
341.158	95.5
341.386	108.5
341.614	106.5
341.842	96.5
342.07	91.5
342.298	82.5
342.526	91.5
342.754	100.5
342.981	100.5
343.209	89.5
343.437	94.5
343.665	91.5
343.893	98.5
344.12	87.5
344.348	100.5
344.576	80.5
344.804	88.5
345.031	105.5
345.259	106.5
345.487	98.5
345.714	94.5
345.942	103.5
346.17	106.5
346.397	89.5
346.625	96.5
346.853	92.5
347.08	97.5
347.308	120.5
347.535	90.5
347.763	109.5
347.99	109.5
348.218	109.5
348.445	115.5
348.673	106.5
348.9	102.5
349.128	107.5
349.355	94.5
349.583	90.5
349.81	91.5
350.037	107.5
350.265	105.5
350.492	108.5
350.72	96.5
350.947	121.5
351.174	110.5
351.402	106.5
351.629	115.5
351.856	121.5
352.083	106.5
352.311	93.5
352.538	118.5
352.765	110.5
352.992	127.5
353.22	126.5
353.447	124.5
353.674	110.5
353.901	95.5
354.128	96.5
354.355	84.5
354.583	102.5
354.81	101.5
355.037	103.5
355.264	97.5
355.491	90.5
355.718	86.5
355.945	93.5
356.172	87.5
356.399	94.5
356.626	93.5
356.853	103.5
357.08	100.5
357.307	104.5
357.534	102.5
357.761	94.5
357.988	87.5
358.215	94.5
358.441	90.5
358.668	97.5
358.895	95.5
359.122	98.5
359.349	100.5
359.576	100.5
359.802	114.5
360.029	142.5
360.256	126.5
360.483	102.5
360.709	85.5
360.936	105.5
361.163	97.5
361.39	91.5
361.616	103.5
361.843	110.5
362.07	84.5
362.296	103.5
362.523	91.5
362.749	91.5
362.976	94.5
363.203	96.5
363.429	91.5
363.656	87.5
363.882	83.5
364.109	90.5
364.335	98.5
364.562	93.5
364.788	86.5
365.015	109.5
365.241	99.5
365.468	111.5
365.694	109.5
365.92	103.5
366.147	86.5
366.373	90.5
366.599	94.5
366.826	98.5
367.052	88.5
367.278	96.5
367.505	94.5
367.731	89.5
367.957	100.5
368.184	98.5
368.41	94.5
368.636	108.5
368.862	123.5
369.089	111.5
369.315	110.5
369.541	99.5
369.767	99.5
369.993	95.5
370.219	103.5
370.445	94.5
370.672	76.5
370.898	96.5
371.124	93.5
371.35	87.5
371.576	83.5
371.802	83.5
372.028	88.5
372.254	90.5
372.48	79.5
372.706	99.5
372.932	90.5
373.158	95.5
373.384	96.5
373.61	96.5
373.835	73.5
374.061	89.5
374.287	103.5
374.513	100.5
374.739	92.5
374.965	98.5
375.191	90.5
375.416	95.5
375.642	90.5
375.868	76.5
376.094	96.5
376.319	86.5
376.545	87.5
376.771	88.5
376.997	79.5
377.222	96.5
377.448	93.5
377.674	94.5
377.899	86.5
378.125	85.5
378.35	102.5
378.576	96.5
378.802	102.5
379.027	94.5
379.253	92.5
379.478	95.5
379.704	102.5
379.929	110.5
380.155	99.5
380.38	94.5
380.606	89.5
380.831	88.5
381.057	82.5
381.282	104.5
381.507	91.5
381.733	92.5
381.958	92.5
382.184	102.5
382.409	98.5
382.634	94.5
382.86	82.5
383.085	99.5
383.31	114.5
383.535	108.5
383.761	95.5
383.986	87.5
384.211	93.5
384.436	111.5
384.662	95.5
384.887	88.5
385.112	98.5
385.337	89.5
385.562	104.5
385.787	106.5
386.013	119.5
386.238	106.5
386.463	104.5
386.688	115.5
386.913	100.5
387.138	106.5
387.363	101.5
387.588	100.5
387.813	102.5
388.038	102.5
388.263	100.5
388.488	97.5
388.713	90.5
388.938	97.5
389.163	88.5
389.387	92.5
389.612	97.5
389.837	98.5
390.062	86.5
390.287	85.5
390.512	88.5
390.736	94.5
390.961	84.5
391.186	90.5
391.411	100.5
391.636	81.5
391.86	96.5
392.085	90.5
392.31	91.5
392.534	83.5
392.759	81.5
392.984	81.5
393.208	86.5
393.433	86.5
393.658	76.5
393.882	94.5
394.107	83.5
394.331	81.5
394.556	80.5
394.78	89.5
395.005	91.5
395.229	79.5
395.454	95.5
395.678	101.5
395.903	89.5
396.127	93.5
396.352	86.5
396.576	89.5
396.801	84.5
397.025	88.5
397.249	93.5
397.474	95.5
397.698	95.5
397.922	84.5
398.147	93.5
398.371	86.5
398.595	76.5
398.82	87.5
399.044	92.5
399.268	98.5
399.492	87.5
399.717	93.5
399.941	86.5
400.165	101.5
400.389	115.5
400.613	100.5
400.837	89.5
401.062	75.5
401.286	81.5
401.51	108.5
401.734	90.5
401.958	111.5
402.182	116.5
402.406	186.5
402.63	134.5
402.854	106.5
403.078	101.5
403.302	89.5
403.526	92.5
403.75	103.5
403.974	92.5
404.198	85.5
404.422	94.5
404.645	85.5
404.869	98.5
405.093	108.5
405.317	127.5
405.541	128.5
405.765	122.5
405.988	132.5
406.212	187.5
406.436	277.5
406.66	182.5
406.883	127.5
407.107	108.5
407.331	97.5
407.555	96.5
407.778	98.5
408.002	94.5
408.226	90.5
408.449	94.5
408.673	106.5
408.896	94.5
409.12	97.5
409.344	84.5
409.567	91.5
409.791	101.5
410.014	93.5
410.238	82.5
410.461	89.5
410.685	105.5
410.908	100.5
411.132	107.5
411.355	90.5
411.578	93.5
411.802	96.5
412.025	103.5
412.249	94.5
412.472	120.5
412.695	130.5
412.919	115.5
413.142	101.5
413.365	88.5
413.589	96.5
413.812	89.5
414.035	91.5
414.258	81.5
414.482	97.5
414.705	87.5
414.928	82.5
415.151	83.5
415.374	99.5
415.597	90.5
415.821	95.5
416.044	94.5
416.267	95.5
416.49	89.5
416.713	77.5
416.936	88.5
417.159	112.5
417.382	98.5
417.605	96.5
417.828	109.5
418.051	93.5
418.274	84.5
418.497	86.5
418.72	72.5
418.943	99.5
419.166	87.5
419.389	92.5
419.611	98.5
419.834	95.5
420.057	80.5
420.28	103.5
420.503	81.5
420.726	93.5
420.948	85.5
421.171	97.5
421.394	102.5
421.617	100.5
421.839	90.5
422.062	95.5
422.285	98.5
422.507	103.5
422.73	107.5
422.953	93.5
423.175	94.5
423.398	97.5
423.621	100.5
423.843	92.5
424.066	100.5
424.288	94.5
424.511	104.5
424.733	84.5
424.956	110.5
425.178	89.5
425.401	100.5
425.623	125.5
425.846	103.5
426.068	102.5
426.291	89.5
426.513	92.5
426.735	93.5
426.958	102.5
427.18	122.5
427.402	157.5
427.625	236.5
427.847	231.5
428.069	213.5
428.292	121.5
428.514	105.5
428.736	95.5
428.958	97.5
429.181	83.5
429.403	90.5
429.625	94.5
429.847	94.5
430.069	124.5
430.292	91.5
430.514	80.5
430.736	89.5
430.958	92.5
431.18	77.5
431.402	79.5
431.624	85.5
431.846	101.5
432.068	85.5
432.29	80.5
432.512	78.5
432.734	85.5
432.956	93.5
433.178	91.5
433.4	99.5
433.622	79.5
433.844	103.5
434.066	81.5
434.287	78.5
434.509	82.5
434.731	95.5
434.953	91.5
435.175	103.5
435.397	95.5
435.618	92.5
435.84	114.5
436.062	132.5
436.284	133.5
436.505	100.5
436.727	95.5
436.949	103.5
437.17	90.5
437.392	85.5
437.614	93.5
437.835	114.5
438.057	124.5
438.278	116.5
438.5	113.5
438.721	122.5
438.943	126.5
439.165	101.5
439.386	97.5
439.608	100.5
439.829	111.5
440.05	157.5
440.272	177.5
440.493	98.5
440.715	94.5
440.936	90.5
441.158	99.5
441.379	98.5
441.6	91.5
441.822	105.5
442.043	104.5
442.264	111.5
442.486	102.5
442.707	94.5
442.928	124.5
443.149	149.5
443.371	153.5
443.592	119.5
443.813	111.5
444.034	113.5
444.255	87.5
444.476	96.5
444.698	81.5
444.919	83.5
445.14	128.5
445.361	130.5
445.582	135.5
445.803	174.5
446.024	174.5
446.245	164.5
446.466	125.5
446.687	93.5
446.908	88.5
447.129	90.5
447.35	87.5
447.571	95.5
447.792	102.5
448.013	101.5
448.234	120.5
448.455	106.5
448.675	124.5
448.896	131.5
449.117	110.5
449.338	102.5
449.559	151.5
449.779	143.5
450	92.5
450.221	91.5
450.442	83.5
450.662	106.5
450.883	117.5
451.104	117.5
451.324	105.5
451.545	82.5
451.766	100.5
451.986	77.5
452.207	98.5
452.428	99.5
452.648	115.5
452.869	126.5
453.089	121.5
453.31	130.5
453.53	107.5
453.751	104.5
453.971	102.5
454.192	122.5
454.412	113.5
454.633	89.5
454.853	76.5
455.073	87.5
455.294	87.5
455.514	109.5
455.734	103.5
455.955	97.5
456.175	80.5
456.395	88.5
456.616	98.5
456.836	91.5
457.056	87.5
457.276	85.5
457.497	81.5
457.717	95.5
457.937	69.5
458.157	102.5
458.377	92.5
458.598	118.5
458.818	185.5
459.038	205.5
459.258	147.5
459.478	91.5
459.698	83.5
459.918	92.5
460.138	89.5
460.358	72.5
460.578	92.5
460.798	99.5
461.018	101.5
461.238	97.5
461.458	75.5
461.678	93.5
461.898	87.5
462.118	92.5
462.338	88.5
462.558	81.5
462.777	90.5
462.997	110.5
463.217	84.5
463.437	94.5
463.657	98.5
463.876	83.5
464.096	102.5
464.316	101.5
464.536	94.5
464.755	104.5
464.975	116.5
465.195	193.5
465.414	227.5
465.634	104.5
465.854	83.5
466.073	81.5
466.293	90.5
466.512	93.5
466.732	88.5
466.951	100.5
467.171	94.5
467.391	112.5
467.61	125.5
467.829	171.5
468.049	410.5
468.268	582.5
468.488	170.5
468.707	94.5
468.927	95.5
469.146	98.5
469.365	87.5
469.585	105.5
469.804	117.5
470.023	85.5
470.243	100.5
470.462	104.5
470.681	124.5
470.901	91.5
471.12	87.5
471.339	99.5
471.558	113.5
471.777	125.5
471.997	240.5
472.216	797.5
472.435	1698.5
472.654	411.5
472.873	155.5
473.092	94.5
473.311	103.5
473.53	92.5
473.749	107.5
473.968	100.5
474.187	121.5
474.406	101.5
474.625	95.5
474.844	86.5
475.063	83.5
475.282	91.5
475.501	91.5
475.72	84.5
475.939	85.5
476.158	98.5
476.377	105.5
476.596	106.5
476.814	102.5
477.033	102.5
477.252	93.5
477.471	83.5
477.69	83.5
477.908	117.5
478.127	107.5
478.346	88.5
478.564	103.5
478.783	100.5
479.002	96.5
479.22	118.5
479.439	114.5
479.658	134.5
479.876	119.5
480.095	106.5
480.313	129.5
480.532	140.5
480.751	233.5
480.969	723.5
481.188	3021.5
481.406	1754.5
481.624	277.5
481.843	126.5
482.061	112.5
482.28	89.5
482.498	78.5
482.717	89.5
482.935	86.5
483.153	91.5
483.372	96.5
483.59	87.5
483.808	83.5
484.027	99.5
484.245	113.5
484.463	85.5
484.681	93.5
484.9	101.5
485.118	102.5
485.336	98.5
485.554	93.5
485.772	95.5
485.99	109.5
486.209	117.5
486.427	110.5
486.645	122.5
486.863	108.5
487.081	110.5
487.299	107.5
487.517	98.5
487.735	95.5
487.953	93.5
488.171	110.5
488.389	99.5
488.607	87.5
488.825	109.5
489.043	84.5
489.261	106.5
489.479	95.5
489.696	86.5
489.914	89.5
490.132	93.5
490.35	72.5
490.568	81.5
490.786	106.5
491.003	85.5
491.221	100.5
491.439	91.5
491.657	100.5
491.874	90.5
492.092	85.5
492.31	88.5
492.527	81.5
492.745	103.5
492.963	90.5
493.18	92.5
493.398	88.5
493.615	89.5
493.833	106.5
494.05	97.5
494.268	90.5
494.485	81.5
494.703	94.5
494.92	95.5
495.138	102.5
495.355	86.5
495.573	73.5
495.79	92.5
496.008	97.5
496.225	89.5
496.442	92.5
496.66	93.5
496.877	85.5
497.094	98.5
497.312	92.5
497.529	90.5
497.746	90.5
497.963	85.5
498.181	94.5
498.398	95.5
498.615	116.5
498.832	107.5
499.049	95.5
499.267	79.5
499.484	105.5
499.701	92.5
499.918	88.5
500.135	83.5
500.352	81.5
500.569	90.5
500.786	89.5
501.003	77.5
501.22	87.5
501.437	96.5
501.654	102.5
501.871	125.5
502.088	98.5
502.305	94.5
502.522	75.5
502.739	86.5
502.956	95.5
503.172	95.5
503.389	95.5
503.606	109.5
503.823	107.5
504.04	109.5
504.256	93.5
504.473	93.5
504.69	105.5
504.907	93.5
505.123	102.5
505.34	90.5
505.557	82.5
505.773	78.5
505.99	95.5
506.207	93.5
506.423	90.5
506.64	88.5
506.856	91.5
507.073	88.5
507.289	114.5
507.506	110.5
507.722	133.5
507.939	121.5
508.155	107.5
508.372	97.5
508.588	98.5
508.805	98.5
509.021	108.5
509.238	101.5
509.454	93.5
509.67	111.5
509.887	122.5
510.103	138.5
510.319	235.5
510.536	867.5
510.752	2830.5
510.968	769.5
511.184	179.5
511.401	116.5
511.617	100.5
511.833	103.5
512.049	97.5
512.265	90.5
512.481	92.5
512.698	99.5
512.914	85.5
513.13	97.5
513.346	96.5
513.562	87.5
513.778	98.5
513.994	96.5
514.21	121.5
514.426	126.5
514.642	175.5
514.858	139.5
515.074	187.5
515.29	591.5
515.506	2121.5
515.721	759.5
515.937	197.5
516.153	120.5
516.369	101.5
516.585	115.5
516.801	93.5
517.016	110.5
517.232	102.5
517.448	87.5
517.664	90.5
517.879	95.5
518.095	92.5
518.311	101.5
518.527	102.5
518.742	111.5
518.958	77.5
519.173	85.5
519.389	89.5
519.605	84.5
519.82	86.5
520.036	112.5
520.251	129.5
520.467	125.5
520.682	126.5
520.898	125.5
521.113	133.5
521.329	167.5
521.544	273.5
521.76	775.5
521.975	3499.5
522.19	2092.5
522.406	422.5
522.621	153.5
522.836	113.5
523.052	117.5
523.267	95.5
523.482	105.5
523.698	117.5
523.913	132.5
524.128	109.5
524.343	91.5
524.559	89.5
524.774	95.5
524.989	95.5
525.204	117.5
525.419	97.5
525.634	96.5
525.849	105.5
526.064	102.5
526.28	94.5
526.495	80.5
526.71	79.5
526.925	98.5
527.14	95.5
527.355	74.5
527.57	97.5
527.785	84.5
527.999	85.5
528.214	97.5
528.429	108.5
528.644	90.5
528.859	102.5
529.074	110.5
529.289	157.5
529.503	257.5
529.718	128.5
529.933	96.5
530.148	83.5
530.363	83.5
530.577	93.5
530.792	80.5
531.007	102.5
531.221	106.5
531.436	113.5
531.651	100.5
531.865	109.5
532.08	70.5
532.295	102.5
