Data from Circ_1992_H10_HRD10591_00006.txt Node
Date: Wed Jan 03 11:47:46 EST 2024
User: Yrep
Spectrometer: HR+D1059
Trigger mode: 1
Integration Time (sec): 1.000000E-1
Scans to average: 1
Electric dark correction enabled: true
Nonlinearity correction enabled: false
Boxcar width: 0
XAxis mode: Wavelengths
Number of Pixels in Spectrum: 2048
>>>>>Begin Spectral Data<<<<<
223.165	-16.62
223.4	-16.62
223.635	-16.62
223.869	-28.62
224.104	-15.62
224.338	-11.62
224.573	-13.62
224.808	-14.62
225.042	-1.62
225.277	-13.62
225.511	0.38
225.746	13.38
225.98	6.38
226.215	3.38
226.449	30.38
226.683	15.38
226.918	20.38
227.152	26.38
227.387	35.38
227.621	38.38
227.856	38.38
228.09	49.38
228.324	34.38
228.559	51.38
228.793	66.38
229.027	58.38
229.262	55.38
229.496	71.38
229.73	77.38
229.964	71.38
230.199	77.38
230.433	58.38
230.667	64.38
230.901	68.38
231.136	71.38
231.37	76.38
231.604	76.38
231.838	78.38
232.072	74.38
232.306	80.38
232.541	81.38
232.775	79.38
233.009	91.38
233.243	70.38
233.477	84.38
233.711	91.38
233.945	86.38
234.179	79.38
234.413	80.38
234.647	73.38
234.881	86.38
235.115	72.38
235.349	78.38
235.583	89.38
235.817	72.38
236.051	66.38
236.285	65.38
236.519	69.38
236.753	75.38
236.987	83.38
237.221	76.38
237.455	89.38
237.689	68.38
237.922	77.38
238.156	88.38
238.39	63.38
238.624	84.38
238.858	80.38
239.091	66.38
239.325	72.38
239.559	80.38
239.793	70.38
240.027	85.38
240.26	81.38
240.494	82.38
240.728	83.38
240.961	67.38
241.195	72.38
241.429	78.38
241.662	74.38
241.896	88.38
242.13	77.38
242.363	86.38
242.597	70.38
242.83	87.38
243.064	83.38
243.298	69.38
243.531	60.38
243.765	75.38
243.998	71.38
244.232	77.38
244.465	84.38
244.699	76.38
244.932	79.38
245.166	79.38
245.399	74.38
245.633	83.38
245.866	78.38
246.099	72.38
246.333	93.38
246.566	64.38
246.8	58.38
247.033	85.38
247.266	82.38
247.5	79.38
247.733	79.38
247.966	88.38
248.2	75.38
248.433	84.38
248.666	88.38
248.899	73.38
249.133	86.38
249.366	90.38
249.599	82.38
249.832	79.38
250.066	82.38
250.299	86.38
250.532	81.38
250.765	74.38
250.998	71.38
251.231	87.38
251.465	85.38
251.698	75.38
251.931	80.38
252.164	81.38
252.397	82.38
252.63	78.38
252.863	64.38
253.096	78.38
253.329	78.38
253.562	78.38
253.795	81.38
254.028	78.38
254.261	75.38
254.494	83.38
254.727	76.38
254.96	65.38
255.193	79.38
255.426	88.38
255.659	82.38
255.892	82.38
256.124	68.38
256.357	74.38
256.59	71.38
256.823	61.38
257.056	81.38
257.289	90.38
257.521	83.38
257.754	80.38
257.987	91.38
258.22	74.38
258.452	89.38
258.685	69.38
258.918	65.38
259.151	75.38
259.383	72.38
259.616	80.38
259.849	66.38
260.081	72.38
260.314	81.38
260.547	71.38
260.779	90.38
261.012	88.38
261.244	89.38
261.477	78.38
261.71	85.38
261.942	105.38
262.175	102.38
262.407	77.38
262.64	84.38
262.872	75.38
263.105	76.38
263.337	64.38
263.57	78.38
263.802	78.38
264.035	76.38
264.267	77.38
264.499	72.38
264.732	83.38
264.964	64.38
265.197	83.38
265.429	75.38
265.661	70.38
265.894	76.38
266.126	72.38
266.358	88.38
266.591	72.38
266.823	81.38
267.055	85.38
267.287	72.38
267.52	87.38
267.752	75.38
267.984	82.38
268.216	91.38
268.448	92.38
268.681	84.38
268.913	79.38
269.145	80.38
269.377	83.38
269.609	93.38
269.841	72.38
270.073	83.38
270.306	79.38
270.538	94.38
270.77	78.38
271.002	83.38
271.234	85.38
271.466	81.38
271.698	87.38
271.93	84.38
272.162	86.38
272.394	79.38
272.626	87.38
272.858	82.38
273.09	78.38
273.322	81.38
273.553	84.38
273.785	85.38
274.017	74.38
274.249	96.38
274.481	85.38
274.713	95.38
274.945	87.38
275.176	80.38
275.408	73.38
275.64	89.38
275.872	99.38
276.104	89.38
276.335	74.38
276.567	86.38
276.799	93.38
277.031	105.38
277.262	114.38
277.494	102.38
277.726	87.38
277.957	99.38
278.189	84.38
278.421	96.38
278.652	104.38
278.884	87.38
279.115	76.38
279.347	75.38
279.579	87.38
279.81	86.38
280.042	105.38
280.273	112.38
280.505	99.38
280.736	74.38
280.968	80.38
281.199	83.38
281.431	86.38
281.662	63.38
281.894	82.38
282.125	80.38
282.356	106.38
282.588	125.38
282.819	100.38
283.051	73.38
283.282	76.38
283.513	76.38
283.745	104.38
283.976	69.38
284.207	78.38
284.439	78.38
284.67	75.38
284.901	69.38
285.132	66.38
285.364	78.38
285.595	78.38
285.826	94.38
286.057	80.38
286.288	74.38
286.52	77.38
286.751	84.38
286.982	96.38
287.213	79.38
287.444	82.38
287.675	65.38
287.906	80.38
288.138	70.38
288.369	88.38
288.6	85.38
288.831	76.38
289.062	95.38
289.293	92.38
289.524	75.38
289.755	71.38
289.986	76.38
290.217	100.38
290.448	75.38
290.679	72.38
290.91	80.38
291.141	86.38
291.371	82.38
291.602	90.38
291.833	88.38
292.064	72.38
292.295	89.38
292.526	76.38
292.757	89.38
292.987	78.38
293.218	72.38
293.449	88.38
293.68	90.38
293.91	88.38
294.141	95.38
294.372	78.38
294.603	87.38
294.833	73.38
295.064	86.38
295.295	74.38
295.525	94.38
295.756	103.38
295.987	94.38
296.217	108.38
296.448	113.38
296.679	103.38
296.909	98.38
297.14	80.38
297.37	80.38
297.601	83.38
297.831	81.38
298.062	76.38
298.292	87.38
298.523	91.38
298.753	74.38
298.984	76.38
299.214	85.38
299.445	91.38
299.675	101.38
299.905	98.38
300.136	94.38
300.366	99.38
300.597	90.38
300.827	92.38
301.057	98.38
301.288	99.38
301.518	98.38
301.748	88.38
301.979	97.38
302.209	87.38
302.439	77.38
302.669	89.38
302.9	83.38
303.13	84.38
303.36	91.38
303.59	100.38
303.82	100.38
304.051	84.38
304.281	90.38
304.511	86.38
304.741	82.38
304.971	83.38
305.201	95.38
305.431	85.38
305.661	87.38
305.891	90.38
306.121	94.38
306.352	85.38
306.582	108.38
306.812	101.38
307.042	83.38
307.272	90.38
307.502	110.38
307.731	110.38
307.961	90.38
308.191	95.38
308.421	83.38
308.651	90.38
308.881	93.38
309.111	76.38
309.341	98.38
309.571	90.38
309.8	95.38
310.03	95.38
310.26	90.38
310.49	86.38
310.72	110.38
310.949	97.38
311.179	101.38
311.409	100.38
311.639	71.38
311.868	103.38
312.098	81.38
312.328	92.38
312.557	99.38
312.787	100.38
313.017	97.38
313.246	90.38
313.476	90.38
313.706	88.38
313.935	101.38
314.165	91.38
314.394	98.38
314.624	96.38
314.853	96.38
315.083	78.38
315.312	85.38
315.542	89.38
315.771	83.38
316.001	81.38
316.23	89.38
316.46	79.38
316.689	91.38
316.919	89.38
317.148	70.38
317.377	80.38
317.607	89.38
317.836	80.38
318.065	106.38
318.295	78.38
318.524	73.38
318.753	78.38
318.983	74.38
319.212	106.38
319.441	107.38
319.67	128.38
319.9	106.38
320.129	93.38
320.358	85.38
320.587	94.38
320.816	94.38
321.046	107.38
321.275	88.38
321.504	82.38
321.733	91.38
321.962	95.38
322.191	95.38
322.42	105.38
322.649	93.38
322.878	113.38
323.108	95.38
323.337	125.38
323.566	116.38
323.795	142.38
324.024	169.38
324.253	312.38
324.482	636.38
324.71	1294.38
324.939	1759.38
325.168	662.38
325.397	209.38
325.626	129.38
325.855	120.38
326.084	110.38
326.313	127.38
326.542	136.38
326.77	191.38
326.999	369.38
327.228	738.38
327.457	1335.38
327.686	1056.38
327.914	329.38
328.143	204.38
328.372	209.38
328.6	162.38
328.829	115.38
329.058	125.38
329.287	100.38
329.515	103.38
329.744	114.38
329.972	160.38
330.201	236.38
330.43	343.38
330.658	212.38
330.887	130.38
331.115	108.38
331.344	99.38
331.572	102.38
331.801	102.38
332.03	88.38
332.258	89.38
332.486	71.38
332.715	99.38
332.943	93.38
333.172	112.38
333.4	88.38
333.629	98.38
333.857	118.38
334.085	150.38
334.314	224.38
334.542	378.38
334.771	418.38
334.999	151.38
335.227	107.38
335.455	92.38
335.684	87.38
335.912	103.38
336.14	93.38
336.369	106.38
336.597	92.38
336.825	104.38
337.053	88.38
337.281	83.38
337.51	81.38
337.738	87.38
337.966	92.38
338.194	92.38
338.422	79.38
338.65	99.38
338.878	81.38
339.106	91.38
339.334	88.38
339.562	95.38
339.79	89.38
340.018	90.38
340.246	75.38
340.474	95.38
340.702	91.38
340.93	91.38
341.158	89.38
341.386	95.38
341.614	86.38
341.842	95.38
342.07	78.38
342.298	84.38
342.526	99.38
342.754	79.38
342.981	90.38
343.209	76.38
343.437	93.38
343.665	76.38
343.893	81.38
344.12	92.38
344.348	88.38
344.576	106.38
344.804	77.38
345.031	97.38
345.259	97.38
345.487	89.38
345.714	90.38
345.942	78.38
346.17	97.38
346.397	90.38
346.625	94.38
346.853	92.38
347.08	88.38
347.308	87.38
347.535	102.38
347.763	74.38
347.99	78.38
348.218	86.38
348.445	96.38
348.673	76.38
348.9	96.38
349.128	95.38
349.355	100.38
349.583	94.38
349.81	104.38
350.037	98.38
350.265	95.38
350.492	93.38
350.72	86.38
350.947	95.38
351.174	117.38
351.402	95.38
351.629	88.38
351.856	93.38
352.083	108.38
352.311	111.38
352.538	96.38
352.765	96.38
352.992	106.38
353.22	93.38
353.447	100.38
353.674	97.38
353.901	99.38
354.128	93.38
354.355	95.38
354.583	103.38
354.81	93.38
355.037	100.38
355.264	95.38
355.491	91.38
355.718	94.38
355.945	94.38
356.172	104.38
356.399	100.38
356.626	105.38
356.853	82.38
357.08	101.38
357.307	92.38
357.534	78.38
357.761	85.38
357.988	96.38
358.215	107.38
358.441	101.38
358.668	102.38
358.895	99.38
359.122	110.38
359.349	96.38
359.576	82.38
359.802	93.38
360.029	100.38
360.256	115.38
360.483	106.38
360.709	96.38
360.936	105.38
361.163	102.38
361.39	80.38
361.616	72.38
361.843	88.38
362.07	80.38
362.296	107.38
362.523	87.38
362.749	95.38
362.976	81.38
363.203	74.38
363.429	85.38
363.656	83.38
363.882	88.38
364.109	82.38
364.335	86.38
364.562	99.38
364.788	94.38
365.015	95.38
365.241	97.38
365.468	109.38
365.694	89.38
365.92	80.38
366.147	75.38
366.373	77.38
366.599	84.38
366.826	83.38
367.052	73.38
367.278	91.38
367.505	78.38
367.731	88.38
367.957	72.38
368.184	94.38
368.41	110.38
368.636	108.38
368.862	106.38
369.089	103.38
369.315	89.38
369.541	93.38
369.767	77.38
369.993	94.38
370.219	82.38
370.445	77.38
370.672	77.38
370.898	86.38
371.124	79.38
371.35	81.38
371.576	89.38
371.802	83.38
372.028	107.38
372.254	95.38
372.48	94.38
372.706	74.38
372.932	88.38
373.158	75.38
373.384	83.38
373.61	91.38
373.835	73.38
374.061	81.38
374.287	88.38
374.513	102.38
374.739	80.38
374.965	86.38
375.191	83.38
375.416	90.38
375.642	94.38
375.868	89.38
376.094	102.38
376.319	93.38
376.545	91.38
376.771	90.38
376.997	98.38
377.222	95.38
377.448	88.38
377.674	100.38
377.899	90.38
378.125	96.38
378.35	99.38
378.576	81.38
378.802	87.38
379.027	89.38
379.253	99.38
379.478	90.38
379.704	95.38
379.929	103.38
380.155	113.38
380.38	104.38
380.606	106.38
380.831	97.38
381.057	104.38
381.282	96.38
381.507	103.38
381.733	112.38
381.958	106.38
382.184	102.38
382.409	107.38
382.634	120.38
382.86	112.38
383.085	118.38
383.31	123.38
383.535	109.38
383.761	111.38
383.986	115.38
384.211	125.38
384.436	119.38
384.662	134.38
384.887	119.38
385.112	132.38
385.337	154.38
385.562	141.38
385.787	131.38
386.013	139.38
386.238	144.38
386.463	128.38
386.688	135.38
386.913	142.38
387.138	125.38
387.363	114.38
387.588	116.38
387.813	121.38
388.038	139.38
388.263	158.38
388.488	168.38
388.713	111.38
388.938	90.38
389.163	86.38
389.387	95.38
389.612	92.38
389.837	80.38
390.062	90.38
390.287	92.38
390.512	92.38
390.736	100.38
390.961	105.38
391.186	96.38
391.411	100.38
391.636	76.38
391.86	76.38
392.085	75.38
392.31	90.38
392.534	82.38
392.759	82.38
392.984	95.38
393.208	81.38
393.433	94.38
393.658	98.38
393.882	86.38
394.107	87.38
394.331	67.38
394.556	80.38
394.78	92.38
395.005	89.38
395.229	68.38
395.454	76.38
395.678	80.38
395.903	92.38
396.127	91.38
396.352	87.38
396.576	90.38
396.801	98.38
397.025	65.38
397.249	89.38
397.474	91.38
397.698	63.38
397.922	80.38
398.147	83.38
398.371	90.38
398.595	94.38
398.82	89.38
399.044	84.38
399.268	87.38
399.492	84.38
399.717	76.38
399.941	91.38
400.165	81.38
400.389	79.38
400.613	84.38
400.837	80.38
401.062	87.38
401.286	84.38
401.51	82.38
401.734	93.38
401.958	92.38
402.182	120.38
402.406	141.38
402.63	105.38
402.854	87.38
403.078	74.38
403.302	87.38
403.526	78.38
403.75	94.38
403.974	73.38
404.198	84.38
404.422	89.38
404.645	104.38
404.869	92.38
405.093	92.38
405.317	122.38
405.541	106.38
405.765	99.38
405.988	99.38
406.212	154.38
406.436	207.38
406.66	120.38
406.883	87.38
407.107	87.38
407.331	104.38
407.555	97.38
407.778	88.38
408.002	95.38
408.226	88.38
408.449	83.38
408.673	88.38
408.896	83.38
409.12	84.38
409.344	91.38
409.567	88.38
409.791	98.38
410.014	82.38
410.238	92.38
410.461	101.38
410.685	88.38
410.908	89.38
411.132	83.38
411.355	95.38
411.578	90.38
411.802	86.38
412.025	92.38
412.249	97.38
412.472	88.38
412.695	112.38
412.919	95.38
413.142	86.38
413.365	88.38
413.589	95.38
413.812	91.38
414.035	96.38
414.258	93.38
414.482	93.38
414.705	87.38
414.928	80.38
415.151	83.38
415.374	95.38
415.597	94.38
415.821	86.38
416.044	95.38
416.267	90.38
416.49	102.38
416.713	86.38
416.936	92.38
417.159	91.38
417.382	85.38
417.605	66.38
417.828	98.38
418.051	93.38
418.274	83.38
418.497	78.38
418.72	86.38
418.943	81.38
419.166	82.38
419.389	86.38
419.611	86.38
419.834	104.38
420.057	93.38
420.28	98.38
420.503	92.38
420.726	85.38
420.948	95.38
421.171	91.38
421.394	104.38
421.617	104.38
421.839	96.38
422.062	85.38
422.285	97.38
422.507	91.38
422.73	114.38
422.953	98.38
423.175	88.38
423.398	75.38
423.621	83.38
423.843	87.38
424.066	92.38
424.288	84.38
424.511	87.38
424.733	98.38
424.956	100.38
425.178	79.38
425.401	88.38
425.623	85.38
425.846	86.38
426.068	88.38
426.291	90.38
426.513	75.38
426.735	93.38
426.958	84.38
427.18	99.38
427.402	141.38
427.625	152.38
427.847	131.38
428.069	121.38
428.292	104.38
428.514	95.38
428.736	85.38
428.958	87.38
429.181	88.38
429.403	87.38
429.625	84.38
429.847	99.38
430.069	88.38
430.292	108.38
430.514	87.38
430.736	99.38
430.958	87.38
431.18	67.38
431.402	82.38
431.624	88.38
431.846	68.38
432.068	92.38
432.29	78.38
432.512	81.38
432.734	85.38
432.956	72.38
433.178	86.38
433.4	98.38
433.622	100.38
433.844	80.38
434.066	90.38
434.287	106.38
434.509	78.38
434.731	94.38
434.953	90.38
435.175	95.38
435.397	86.38
435.618	81.38
435.84	95.38
436.062	101.38
436.284	106.38
436.505	85.38
436.727	91.38
436.949	78.38
437.17	80.38
437.392	87.38
437.614	86.38
437.835	95.38
438.057	102.38
438.278	97.38
438.5	92.38
438.721	107.38
438.943	93.38
439.165	67.38
439.386	82.38
439.608	104.38
439.829	117.38
440.05	105.38
440.272	127.38
440.493	104.38
440.715	93.38
440.936	84.38
441.158	89.38
441.379	77.38
441.6	107.38
441.822	107.38
442.043	78.38
442.264	98.38
442.486	94.38
442.707	92.38
442.928	102.38
443.149	120.38
443.371	115.38
443.592	99.38
443.813	99.38
444.034	88.38
444.255	95.38
444.476	93.38
444.698	69.38
444.919	89.38
445.14	132.38
445.361	117.38
445.582	107.38
445.803	125.38
446.024	144.38
446.245	113.38
446.466	100.38
446.687	93.38
446.908	88.38
447.129	85.38
447.35	103.38
447.571	93.38
447.792	86.38
448.013	106.38
448.234	90.38
448.455	91.38
448.675	112.38
448.896	117.38
449.117	87.38
449.338	94.38
449.559	126.38
449.779	140.38
450	83.38
450.221	86.38
450.442	97.38
450.662	96.38
450.883	94.38
451.104	95.38
451.324	90.38
451.545	86.38
451.766	89.38
451.986	88.38
452.207	104.38
452.428	95.38
452.648	81.38
452.869	106.38
453.089	109.38
453.31	99.38
453.53	91.38
453.751	88.38
453.971	96.38
454.192	98.38
454.412	89.38
454.633	88.38
454.853	84.38
455.073	79.38
455.294	82.38
455.514	76.38
455.734	83.38
455.955	58.38
456.175	78.38
456.395	79.38
456.616	74.38
456.836	87.38
457.056	88.38
457.276	64.38
457.497	80.38
457.717	94.38
457.937	67.38
458.157	68.38
458.377	80.38
458.598	102.38
458.818	123.38
459.038	153.38
459.258	116.38
459.478	74.38
459.698	81.38
459.918	88.38
460.138	82.38
460.358	80.38
460.578	80.38
460.798	88.38
461.018	89.38
461.238	74.38
461.458	84.38
461.678	89.38
461.898	72.38
462.118	75.38
462.338	80.38
462.558	99.38
462.777	84.38
462.997	91.38
463.217	83.38
463.437	65.38
463.657	78.38
463.876	80.38
464.096	95.38
464.316	84.38
464.536	91.38
464.755	97.38
464.975	100.38
465.195	148.38
465.414	136.38
465.634	89.38
465.854	79.38
466.073	96.38
466.293	74.38
466.512	74.38
466.732	88.38
466.951	76.38
467.171	88.38
467.391	89.38
467.61	97.38
467.829	106.38
468.049	164.38
468.268	220.38
468.488	102.38
468.707	94.38
468.927	89.38
469.146	88.38
469.365	78.38
469.585	78.38
469.804	102.38
470.023	94.38
470.243	87.38
470.462	104.38
470.681	88.38
470.901	83.38
471.12	79.38
471.339	82.38
471.558	78.38
471.777	102.38
471.997	116.38
472.216	274.38
472.435	558.38
472.654	180.38
472.873	104.38
473.092	86.38
473.311	74.38
473.53	93.38
473.749	83.38
473.968	82.38
474.187	106.38
474.406	92.38
474.625	92.38
474.844	67.38
475.063	81.38
475.282	94.38
475.501	89.38
475.72	90.38
475.939	85.38
476.158	77.38
476.377	75.38
476.596	92.38
476.814	83.38
477.033	80.38
477.252	78.38
477.471	71.38
477.69	79.38
477.908	90.38
478.127	102.38
478.346	96.38
478.564	83.38
478.783	95.38
479.002	106.38
479.22	88.38
479.439	113.38
479.658	100.38
479.876	99.38
480.095	90.38
480.313	87.38
480.532	111.38
480.751	111.38
480.969	276.38
481.188	927.38
481.406	583.38
481.624	143.38
481.843	90.38
482.061	78.38
482.28	83.38
482.498	80.38
482.717	87.38
482.935	70.38
483.153	86.38
483.372	79.38
483.59	92.38
483.808	97.38
484.027	98.38
484.245	86.38
484.463	83.38
484.681	91.38
484.9	87.38
485.118	94.38
485.336	95.38
485.554	100.38
485.772	100.38
485.99	100.38
486.209	108.38
486.427	103.38
486.645	100.38
486.863	113.38
487.081	103.38
487.299	104.38
487.517	96.38
487.735	105.38
487.953	84.38
488.171	86.38
488.389	101.38
488.607	91.38
488.825	86.38
489.043	86.38
489.261	87.38
489.479	82.38
489.696	94.38
489.914	93.38
490.132	96.38
490.35	99.38
490.568	80.38
490.786	86.38
491.003	91.38
491.221	91.38
491.439	94.38
491.657	97.38
491.874	88.38
492.092	104.38
492.31	94.38
492.527	96.38
492.745	75.38
492.963	89.38
493.18	94.38
493.398	84.38
493.615	87.38
493.833	93.38
494.05	77.38
494.268	85.38
494.485	81.38
494.703	104.38
494.92	90.38
495.138	87.38
495.355	90.38
495.573	79.38
495.79	87.38
496.008	91.38
496.225	91.38
496.442	87.38
496.66	91.38
496.877	76.38
497.094	79.38
497.312	100.38
497.529	91.38
497.746	91.38
497.963	82.38
498.181	97.38
498.398	86.38
498.615	88.38
498.832	113.38
499.049	91.38
499.267	86.38
499.484	79.38
499.701	90.38
499.918	85.38
500.135	87.38
500.352	94.38
500.569	93.38
500.786	83.38
501.003	86.38
501.22	89.38
501.437	83.38
501.654	97.38
501.871	97.38
502.088	83.38
502.305	90.38
502.522	98.38
502.739	82.38
502.956	91.38
503.172	98.38
503.389	106.38
503.606	89.38
503.823	93.38
504.04	92.38
504.256	79.38
504.473	88.38
504.69	85.38
504.907	85.38
505.123	91.38
505.34	86.38
505.557	91.38
505.773	99.38
505.99	84.38
506.207	88.38
506.423	95.38
506.64	94.38
506.856	78.38
507.073	98.38
507.289	77.38
507.506	96.38
507.722	100.38
507.939	106.38
508.155	86.38
508.372	96.38
508.588	97.38
508.805	97.38
509.021	91.38
509.238	90.38
509.454	102.38
509.67	88.38
509.887	94.38
510.103	118.38
510.319	175.38
510.536	558.38
510.752	1841.38
510.968	503.38
511.184	126.38
511.401	102.38
511.617	111.38
511.833	90.38
512.049	75.38
512.265	96.38
512.481	74.38
512.698	90.38
512.914	89.38
513.13	87.38
513.346	81.38
513.562	96.38
513.778	93.38
513.994	90.38
514.21	92.38
514.426	127.38
514.642	119.38
514.858	95.38
515.074	135.38
515.29	364.38
515.506	1140.38
515.721	439.38
515.937	128.38
516.153	102.38
