Data from Circ_1992_H10_HRD10591_00078.txt Node
Date: Wed Jan 03 11:48:00 EST 2024
User: Yrep
Spectrometer: HR+D1059
Trigger mode: 1
Integration Time (sec): 1.000000E-1
Scans to average: 1
Electric dark correction enabled: true
Nonlinearity correction enabled: false
Boxcar width: 0
XAxis mode: Wavelengths
Number of Pixels in Spectrum: 2048
>>>>>Begin Spectral Data<<<<<
223.165	-8.62
223.4	-8.62
223.635	-8.62
223.869	-11.62
224.104	-15.62
224.338	-20.62
224.573	-19.62
224.808	-33.62
225.042	0.38
225.277	-4.62
225.511	3.38
225.746	2.38
225.98	13.38
226.215	18.38
226.449	13.38
226.683	10.38
226.918	21.38
227.152	31.38
227.387	20.38
227.621	38.38
227.856	41.38
228.09	38.38
228.324	30.38
228.559	52.38
228.793	42.38
229.027	64.38
229.262	69.38
229.496	70.38
229.73	97.38
229.964	88.38
230.199	87.38
230.433	73.38
230.667	80.38
230.901	100.38
231.136	82.38
231.37	81.38
231.604	77.38
231.838	77.38
232.072	82.38
232.306	79.38
232.541	70.38
232.775	70.38
233.009	92.38
233.243	81.38
233.477	80.38
233.711	75.38
233.945	80.38
234.179	77.38
234.413	75.38
234.647	86.38
234.881	80.38
235.115	73.38
235.349	90.38
235.583	77.38
235.817	74.38
236.051	79.38
236.285	81.38
236.519	76.38
236.753	93.38
236.987	69.38
237.221	90.38
237.455	100.38
237.689	80.38
237.922	90.38
238.156	74.38
238.39	60.38
238.624	75.38
238.858	87.38
239.091	79.38
239.325	103.38
239.559	77.38
239.793	84.38
240.027	89.38
240.26	83.38
240.494	84.38
240.728	70.38
240.961	80.38
241.195	81.38
241.429	86.38
241.662	65.38
241.896	58.38
242.13	72.38
242.363	86.38
242.597	81.38
242.83	77.38
243.064	84.38
243.298	80.38
243.531	76.38
243.765	80.38
243.998	93.38
244.232	76.38
244.465	90.38
244.699	82.38
244.932	76.38
245.166	84.38
245.399	82.38
245.633	73.38
245.866	83.38
246.099	81.38
246.333	79.38
246.566	77.38
246.8	78.38
247.033	73.38
247.266	66.38
247.5	70.38
247.733	85.38
247.966	83.38
248.2	88.38
248.433	73.38
248.666	83.38
248.899	86.38
249.133	95.38
249.366	114.38
249.599	112.38
249.832	86.38
250.066	85.38
250.299	78.38
250.532	83.38
250.765	76.38
250.998	66.38
251.231	72.38
251.465	85.38
251.698	92.38
251.931	83.38
252.164	68.38
252.397	86.38
252.63	67.38
252.863	79.38
253.096	85.38
253.329	84.38
253.562	86.38
253.795	90.38
254.028	80.38
254.261	81.38
254.494	88.38
254.727	96.38
254.96	81.38
255.193	73.38
255.426	86.38
255.659	71.38
255.892	84.38
256.124	87.38
256.357	82.38
256.59	96.38
256.823	81.38
257.056	89.38
257.289	92.38
257.521	98.38
257.754	77.38
257.987	92.38
258.22	76.38
258.452	90.38
258.685	93.38
258.918	79.38
259.151	89.38
259.383	69.38
259.616	67.38
259.849	80.38
260.081	83.38
260.314	92.38
260.547	84.38
260.779	84.38
261.012	84.38
261.244	82.38
261.477	91.38
261.71	101.38
261.942	129.38
262.175	133.38
262.407	96.38
262.64	83.38
262.872	95.38
263.105	80.38
263.337	83.38
263.57	81.38
263.802	91.38
264.035	85.38
264.267	85.38
264.499	84.38
264.732	80.38
264.964	78.38
265.197	82.38
265.429	67.38
265.661	79.38
265.894	65.38
266.126	93.38
266.358	68.38
266.591	69.38
266.823	78.38
267.055	78.38
267.287	83.38
267.52	102.38
267.752	101.38
267.984	93.38
268.216	77.38
268.448	86.38
268.681	75.38
268.913	82.38
269.145	83.38
269.377	82.38
269.609	65.38
269.841	85.38
270.073	69.38
270.306	91.38
270.538	94.38
270.77	86.38
271.002	85.38
271.234	90.38
271.466	89.38
271.698	83.38
271.93	88.38
272.162	88.38
272.394	101.38
272.626	80.38
272.858	93.38
273.09	83.38
273.322	90.38
273.553	93.38
273.785	84.38
274.017	99.38
274.249	93.38
274.481	89.38
274.713	100.38
274.945	95.38
275.176	98.38
275.408	98.38
275.64	100.38
275.872	108.38
276.104	108.38
276.335	103.38
276.567	106.38
276.799	137.38
277.031	138.38
277.262	156.38
277.494	122.38
277.726	86.38
277.957	78.38
278.189	84.38
278.421	91.38
278.652	106.38
278.884	98.38
279.115	89.38
279.347	96.38
279.579	100.38
279.81	98.38
280.042	148.38
280.273	204.38
280.505	141.38
280.736	88.38
280.968	88.38
281.199	91.38
281.431	81.38
281.662	84.38
281.894	88.38
282.125	113.38
282.356	137.38
282.588	168.38
282.819	115.38
283.051	93.38
283.282	94.38
283.513	96.38
283.745	95.38
283.976	97.38
284.207	95.38
284.439	88.38
284.67	87.38
284.901	92.38
285.132	81.38
285.364	82.38
285.595	88.38
285.826	97.38
286.057	97.38
286.288	86.38
286.52	85.38
286.751	79.38
286.982	76.38
287.213	93.38
287.444	92.38
287.675	84.38
287.906	84.38
288.138	93.38
288.369	88.38
288.6	109.38
288.831	80.38
289.062	97.38
289.293	94.38
289.524	90.38
289.755	78.38
289.986	82.38
290.217	79.38
290.448	98.38
290.679	84.38
290.91	95.38
291.141	92.38
291.371	85.38
291.602	100.38
291.833	85.38
292.064	96.38
292.295	81.38
292.526	94.38
292.757	89.38
292.987	97.38
293.218	89.38
293.449	73.38
293.68	90.38
293.91	96.38
294.141	78.38
294.372	81.38
294.603	86.38
294.833	98.38
295.064	83.38
295.295	91.38
295.525	76.38
295.756	109.38
295.987	112.38
296.217	150.38
296.448	150.38
296.679	100.38
296.909	82.38
297.14	99.38
297.37	96.38
297.601	77.38
297.831	98.38
298.062	85.38
298.292	103.38
298.523	100.38
298.753	83.38
298.984	89.38
299.214	85.38
299.445	94.38
299.675	98.38
299.905	102.38
300.136	91.38
300.366	90.38
300.597	96.38
300.827	89.38
301.057	108.38
301.288	114.38
301.518	98.38
301.748	100.38
301.979	97.38
302.209	93.38
302.439	99.38
302.669	91.38
302.9	98.38
303.13	95.38
303.36	98.38
303.59	115.38
303.82	133.38
304.051	103.38
304.281	100.38
304.511	92.38
304.741	89.38
304.971	86.38
305.201	99.38
305.431	102.38
305.661	93.38
305.891	81.38
306.121	88.38
306.352	99.38
306.582	118.38
306.812	110.38
307.042	122.38
307.272	152.38
307.502	152.38
307.731	143.38
307.961	138.38
308.191	92.38
308.421	101.38
308.651	94.38
308.881	81.38
309.111	88.38
309.341	111.38
309.571	104.38
309.8	97.38
310.03	98.38
310.26	98.38
310.49	109.38
310.72	102.38
310.949	121.38
311.179	112.38
311.409	114.38
311.639	97.38
311.868	102.38
312.098	87.38
312.328	108.38
312.557	97.38
312.787	115.38
313.017	109.38
313.246	101.38
313.476	105.38
313.706	101.38
313.935	98.38
314.165	117.38
314.394	113.38
314.624	116.38
314.853	99.38
315.083	91.38
315.312	97.38
315.542	88.38
315.771	88.38
316.001	94.38
316.23	77.38
316.46	94.38
316.689	79.38
316.919	89.38
317.148	108.38
317.377	79.38
317.607	101.38
317.836	88.38
318.065	88.38
318.295	98.38
318.524	104.38
318.753	99.38
318.983	109.38
319.212	120.38
319.441	116.38
319.67	106.38
319.9	94.38
320.129	91.38
320.358	98.38
320.587	98.38
320.816	92.38
321.046	115.38
321.275	107.38
321.504	101.38
321.733	96.38
321.962	113.38
322.191	110.38
322.42	114.38
322.649	126.38
322.878	124.38
323.108	128.38
323.337	144.38
323.566	158.38
323.795	184.38
324.024	235.38
324.253	480.38
324.482	1053.38
324.71	2188.38
324.939	2960.38
325.168	1060.38
325.397	295.38
325.626	157.38
325.855	154.38
326.084	139.38
326.313	148.38
326.542	191.38
326.77	268.38
326.999	552.38
327.228	1133.38
327.457	2166.38
327.686	1734.38
327.914	530.38
328.143	420.38
328.372	495.38
328.6	322.38
328.829	172.38
329.058	186.38
329.287	179.38
329.515	162.38
329.744	217.38
329.972	393.38
330.201	709.38
330.43	1040.38
330.658	496.38
330.887	246.38
331.115	173.38
331.344	126.38
331.572	127.38
331.801	114.38
332.03	112.38
332.258	109.38
332.486	106.38
332.715	114.38
332.943	114.38
333.172	107.38
333.4	124.38
333.629	158.38
333.857	206.38
334.085	329.38
334.314	690.38
334.542	1295.38
334.771	1286.38
334.999	359.38
335.227	154.38
335.455	109.38
335.684	110.38
335.912	118.38
336.14	100.38
336.369	97.38
336.597	109.38
336.825	105.38
337.053	102.38
337.281	98.38
337.51	92.38
337.738	97.38
337.966	92.38
338.194	88.38
338.422	111.38
338.65	96.38
338.878	99.38
339.106	100.38
339.334	84.38
339.562	93.38
339.79	102.38
340.018	107.38
340.246	88.38
340.474	103.38
340.702	94.38
340.93	92.38
341.158	94.38
341.386	93.38
341.614	100.38
341.842	94.38
342.07	83.38
342.298	98.38
342.526	92.38
342.754	79.38
342.981	85.38
343.209	94.38
343.437	91.38
343.665	80.38
343.893	99.38
344.12	104.38
344.348	91.38
344.576	99.38
344.804	87.38
345.031	104.38
345.259	123.38
345.487	108.38
345.714	101.38
345.942	87.38
346.17	103.38
346.397	99.38
346.625	101.38
346.853	77.38
347.08	87.38
347.308	102.38
347.535	107.38
347.763	100.38
347.99	99.38
348.218	114.38
348.445	125.38
348.673	128.38
348.9	77.38
349.128	89.38
349.355	110.38
349.583	93.38
349.81	97.38
350.037	111.38
350.265	96.38
350.492	92.38
350.72	93.38
350.947	104.38
351.174	125.38
351.402	135.38
351.629	111.38
351.856	115.38
352.083	113.38
352.311	101.38
352.538	116.38
352.765	114.38
352.992	132.38
353.22	129.38
353.447	122.38
353.674	108.38
353.901	104.38
354.128	98.38
354.355	83.38
354.583	102.38
354.81	85.38
355.037	114.38
355.264	81.38
355.491	82.38
355.718	106.38
355.945	94.38
356.172	80.38
356.399	86.38
356.626	91.38
356.853	88.38
357.08	81.38
357.307	102.38
357.534	81.38
357.761	83.38
357.988	98.38
358.215	105.38
358.441	97.38
358.668	92.38
358.895	104.38
359.122	77.38
359.349	96.38
359.576	99.38
359.802	107.38
360.029	121.38
360.256	132.38
360.483	99.38
360.709	90.38
360.936	87.38
361.163	92.38
361.39	115.38
361.616	91.38
361.843	98.38
362.07	93.38
362.296	100.38
362.523	90.38
362.749	85.38
362.976	89.38
363.203	84.38
363.429	99.38
363.656	95.38
363.882	82.38
364.109	95.38
364.335	96.38
364.562	91.38
364.788	102.38
365.015	101.38
365.241	94.38
365.468	106.38
365.694	106.38
365.92	106.38
366.147	97.38
366.373	92.38
366.599	83.38
366.826	95.38
367.052	80.38
367.278	93.38
367.505	93.38
367.731	102.38
367.957	102.38
368.184	87.38
368.41	117.38
368.636	112.38
368.862	133.38
369.089	116.38
369.315	109.38
369.541	90.38
369.767	102.38
369.993	112.38
370.219	86.38
370.445	94.38
370.672	85.38
370.898	92.38
371.124	90.38
371.35	90.38
371.576	96.38
371.802	89.38
372.028	97.38
372.254	99.38
372.48	104.38
372.706	91.38
372.932	92.38
373.158	97.38
373.384	97.38
373.61	89.38
373.835	83.38
374.061	81.38
374.287	88.38
374.513	90.38
374.739	96.38
374.965	86.38
375.191	95.38
375.416	79.38
375.642	91.38
375.868	105.38
376.094	104.38
376.319	102.38
376.545	91.38
376.771	88.38
376.997	79.38
377.222	103.38
377.448	96.38
377.674	83.38
377.899	114.38
378.125	94.38
378.35	91.38
378.576	80.38
378.802	89.38
379.027	98.38
379.253	84.38
379.478	61.38
379.704	96.38
379.929	112.38
380.155	95.38
380.38	96.38
380.606	91.38
380.831	96.38
381.057	98.38
381.282	96.38
381.507	102.38
381.733	102.38
381.958	98.38
382.184	97.38
382.409	100.38
382.634	102.38
382.86	95.38
383.085	95.38
383.31	99.38
383.535	99.38
383.761	95.38
383.986	97.38
384.211	99.38
384.436	87.38
384.662	107.38
384.887	106.38
385.112	110.38
385.337	111.38
385.562	109.38
385.787	97.38
386.013	110.38
386.238	130.38
386.463	108.38
386.688	112.38
386.913	115.38
387.138	104.38
387.363	96.38
387.588	94.38
387.813	92.38
388.038	108.38
388.263	108.38
388.488	109.38
388.713	103.38
388.938	102.38
389.163	92.38
389.387	87.38
389.612	105.38
389.837	85.38
390.062	97.38
390.287	86.38
390.512	89.38
390.736	90.38
390.961	100.38
391.186	98.38
391.411	85.38
391.636	97.38
391.86	83.38
392.085	85.38
392.31	92.38
392.534	85.38
392.759	83.38
392.984	90.38
393.208	100.38
393.433	84.38
393.658	86.38
393.882	77.38
394.107	80.38
394.331	92.38
394.556	76.38
394.78	95.38
395.005	89.38
395.229	90.38
395.454	85.38
395.678	92.38
395.903	94.38
396.127	77.38
396.352	85.38
396.576	91.38
396.801	97.38
397.025	77.38
397.249	81.38
397.474	78.38
397.698	83.38
397.922	89.38
398.147	76.38
398.371	87.38
398.595	88.38
398.82	100.38
399.044	93.38
399.268	91.38
399.492	73.38
399.717	99.38
399.941	92.38
400.165	93.38
400.389	106.38
400.613	91.38
400.837	94.38
401.062	91.38
401.286	89.38
401.51	85.38
401.734	93.38
401.958	96.38
402.182	124.38
402.406	185.38
402.63	122.38
402.854	115.38
403.078	94.38
403.302	76.38
403.526	92.38
403.75	99.38
403.974	90.38
404.198	91.38
404.422	90.38
404.645	101.38
404.869	107.38
405.093	115.38
405.317	131.38
405.541	120.38
405.765	112.38
405.988	147.38
406.212	212.38
406.436	290.38
406.66	182.38
406.883	113.38
407.107	99.38
407.331	111.38
407.555	115.38
407.778	98.38
408.002	98.38
408.226	100.38
408.449	98.38
408.673	92.38
408.896	88.38
409.12	90.38
409.344	88.38
409.567	81.38
409.791	97.38
410.014	92.38
410.238	96.38
410.461	86.38
410.685	87.38
410.908	102.38
411.132	100.38
411.355	106.38
411.578	88.38
411.802	89.38
412.025	98.38
412.249	96.38
412.472	106.38
412.695	139.38
412.919	100.38
413.142	99.38
413.365	90.38
413.589	91.38
413.812	92.38
414.035	89.38
414.258	101.38
414.482	91.38
414.705	94.38
414.928	98.38
415.151	104.38
415.374	99.38
415.597	95.38
415.821	104.38
416.044	91.38
416.267	99.38
416.49	89.38
416.713	82.38
416.936	82.38
417.159	98.38
417.382	81.38
417.605	108.38
417.828	104.38
418.051	101.38
418.274	95.38
418.497	105.38
418.72	86.38
418.943	84.38
419.166	94.38
419.389	73.38
419.611	86.38
419.834	81.38
420.057	89.38
420.28	97.38
420.503	88.38
420.726	87.38
420.948	93.38
421.171	108.38
421.394	96.38
421.617	87.38
421.839	94.38
422.062	91.38
422.285	80.38
422.507	94.38
422.73	108.38
422.953	105.38
423.175	84.38
423.398	94.38
423.621	77.38
423.843	82.38
424.066	89.38
424.288	83.38
424.511	100.38
424.733	97.38
424.956	96.38
425.178	99.38
425.401	95.38
425.623	127.38
425.846	86.38
426.068	102.38
426.291	92.38
426.513	111.38
426.735	89.38
426.958	93.38
427.18	115.38
427.402	179.38
427.625	252.38
427.847	233.38
428.069	210.38
428.292	111.38
428.514	107.38
428.736	86.38
428.958	100.38
429.181	85.38
429.403	91.38
429.625	89.38
429.847	97.38
430.069	85.38
430.292	102.38
430.514	96.38
430.736	78.38
430.958	80.38
431.18	84.38
431.402	73.38
431.624	69.38
431.846	78.38
432.068	72.38
432.29	77.38
432.512	83.38
432.734	78.38
432.956	93.38
433.178	100.38
433.4	110.38
433.622	106.38
433.844	90.38
434.066	86.38
434.287	90.38
434.509	96.38
434.731	81.38
434.953	88.38
435.175	81.38
435.397	84.38
435.618	93.38
435.84	107.38
436.062	139.38
436.284	137.38
436.505	109.38
436.727	101.38
436.949	105.38
437.17	81.38
437.392	85.38
437.614	104.38
437.835	108.38
438.057	126.38
438.278	130.38
438.5	123.38
438.721	132.38
438.943	102.38
439.165	85.38
439.386	100.38
439.608	89.38
439.829	101.38
440.05	152.38
440.272	176.38
440.493	93.38
440.715	75.38
440.936	93.38
441.158	78.38
441.379	79.38
441.6	96.38
441.822	102.38
442.043	103.38
442.264	111.38
442.486	116.38
442.707	101.38
442.928	115.38
443.149	164.38
443.371	172.38
443.592	130.38
443.813	140.38
444.034	130.38
444.255	93.38
444.476	90.38
444.698	95.38
444.919	92.38
445.14	140.38
445.361	137.38
445.582	127.38
445.803	194.38
446.024	174.38
446.245	178.38
446.466	134.38
446.687	91.38
446.908	96.38
447.129	100.38
447.35	85.38
447.571	90.38
447.792	96.38
448.013	108.38
448.234	117.38
448.455	108.38
448.675	119.38
448.896	128.38
449.117	101.38
449.338	115.38
449.559	156.38
449.779	154.38
450	106.38
450.221	95.38
450.442	89.38
450.662	101.38
450.883	118.38
451.104	122.38
451.324	98.38
451.545	94.38
451.766	79.38
451.986	78.38
452.207	91.38
452.428	93.38
452.648	102.38
452.869	118.38
453.089	131.38
453.31	126.38
453.53	100.38
453.751	101.38
453.971	114.38
454.192	124.38
454.412	102.38
454.633	86.38
454.853	100.38
455.073	88.38
455.294	86.38
455.514	116.38
455.734	92.38
455.955	81.38
456.175	90.38
456.395	69.38
456.616	79.38
456.836	85.38
457.056	91.38
457.276	72.38
457.497	97.38
457.717	90.38
457.937	96.38
458.157	86.38
458.377	101.38
458.598	122.38
458.818	174.38
459.038	210.38
459.258	148.38
459.478	79.38
459.698	80.38
459.918	97.38
460.138	79.38
460.358	86.38
460.578	100.38
460.798	81.38
461.018	91.38
461.238	88.38
461.458	93.38
461.678	79.38
461.898	94.38
462.118	86.38
462.338	82.38
462.558	93.38
462.777	81.38
462.997	93.38
463.217	112.38
463.437	97.38
463.657	80.38
463.876	91.38
464.096	84.38
464.316	90.38
464.536	97.38
464.755	102.38
464.975	123.38
465.195	224.38
465.414	205.38
465.634	96.38
465.854	83.38
466.073	83.38
466.293	102.38
466.512	90.38
466.732	89.38
466.951	95.38
467.171	84.38
467.391	92.38
467.61	142.38
467.829	163.38
468.049	395.38
468.268	581.38
468.488	168.38
468.707	99.38
468.927	94.38
469.146	75.38
469.365	93.38
469.585	78.38
469.804	105.38
470.023	104.38
470.243	105.38
470.462	109.38
470.681	140.38
470.901	93.38
471.12	109.38
471.339	101.38
471.558	105.38
471.777	131.38
471.997	236.38
472.216	801.38
472.435	1823.38
472.654	449.38
472.873	129.38
473.092	108.38
473.311	96.38
473.53	81.38
473.749	97.38
473.968	101.38
474.187	119.38
474.406	96.38
474.625	86.38
474.844	85.38
475.063	82.38
475.282	97.38
475.501	92.38
475.72	94.38
475.939	89.38
476.158	88.38
476.377	90.38
476.596	99.38
476.814	98.38
477.033	104.38
477.252	89.38
477.471	97.38
477.69	85.38
477.908	82.38
478.127	105.38
478.346	93.38
478.564	87.38
478.783	98.38
479.002	94.38
479.22	84.38
479.439	116.38
479.658	122.38
479.876	123.38
480.095	108.38
480.313	115.38
480.532	138.38
480.751	230.38
480.969	751.38
481.188	3125.38
481.406	1818.38
481.624	286.38
481.843	129.38
482.061	100.38
482.28	96.38
482.498	104.38
482.717	84.38
482.935	97.38
483.153	95.38
483.372	100.38
483.59	101.38
483.808	104.38
484.027	106.38
484.245	95.38
484.463	91.38
484.681	95.38
484.9	83.38
485.118	106.38
485.336	101.38
485.554	106.38
485.772	116.38
485.99	85.38
486.209	113.38
486.427	114.38
486.645	124.38
486.863	124.38
487.081	108.38
487.299	97.38
487.517	102.38
487.735	92.38
487.953	90.38
488.171	93.38
488.389	113.38
488.607	98.38
488.825	95.38
489.043	99.38
489.261	81.38
489.479	90.38
489.696	95.38
489.914	86.38
490.132	92.38
490.35	86.38
490.568	84.38
490.786	92.38
491.003	98.38
491.221	85.38
491.439	89.38
491.657	88.38
491.874	84.38
492.092	91.38
492.31	105.38
492.527	94.38
492.745	94.38
492.963	97.38
493.18	88.38
493.398	88.38
493.615	105.38
493.833	84.38
494.05	86.38
494.268	67.38
494.485	88.38
494.703	95.38
494.92	91.38
495.138	84.38
495.355	90.38
495.573	84.38
495.79	84.38
496.008	86.38
496.225	93.38
496.442	95.38
496.66	89.38
496.877	89.38
497.094	94.38
497.312	94.38
497.529	85.38
497.746	94.38
497.963	88.38
498.181	97.38
498.398	108.38
498.615	117.38
498.832	99.38
499.049	81.38
499.267	94.38
499.484	92.38
499.701	89.38
499.918	100.38
500.135	90.38
500.352	89.38
500.569	84.38
500.786	81.38
501.003	89.38
501.22	90.38
501.437	96.38
501.654	107.38
501.871	121.38
502.088	105.38
502.305	101.38
502.522	99.38
502.739	80.38
502.956	96.38
503.172	105.38
503.389	113.38
503.606	122.38
503.823	113.38
504.04	93.38
504.256	84.38
504.473	92.38
504.69	92.38
504.907	89.38
505.123	94.38
505.34	109.38
505.557	83.38
505.773	95.38
505.99	68.38
506.207	86.38
506.423	105.38
506.64	96.38
506.856	89.38
507.073	86.38
507.289	92.38
507.506	85.38
507.722	114.38
507.939	124.38
508.155	103.38
508.372	94.38
508.588	98.38
508.805	98.38
509.021	102.38
509.238	97.38
509.454	102.38
509.67	110.38
509.887	113.38
510.103	126.38
510.319	234.38
510.536	849.38
510.752	2954.38
510.968	799.38
511.184	171.38
511.401	116.38
511.617	108.38
511.833	106.38
512.049	96.38
512.265	88.38
512.481	92.38
512.698	98.38
512.914	104.38
513.13	104.38
513.346	96.38
513.562	94.38
