Data from Circ_1992_H10_HRD10591_00032.txt Node
Date: Wed Jan 03 11:47:51 EST 2024
User: Yrep
Spectrometer: HR+D1059
Trigger mode: 1
Integration Time (sec): 1.000000E-1
Scans to average: 1
Electric dark correction enabled: true
Nonlinearity correction enabled: false
Boxcar width: 0
XAxis mode: Wavelengths
Number of Pixels in Spectrum: 2048
>>>>>Begin Spectral Data<<<<<
223.165	-21.25
223.4	-21.25
223.635	-21.25
223.869	-10.25
224.104	-17.25
224.338	-5.25
224.573	-9.25
224.808	-22.25
225.042	1.75
225.277	-12.25
225.511	-8.25
225.746	-2.25
225.98	7.75
226.215	13.75
226.449	16.75
226.683	26.75
226.918	13.75
227.152	27.75
227.387	30.75
227.621	45.75
227.856	30.75
228.09	43.75
228.324	62.75
228.559	58.75
228.793	63.75
229.027	65.75
229.262	58.75
229.496	72.75
229.73	73.75
229.964	80.75
230.199	71.75
230.433	82.75
230.667	69.75
230.901	86.75
231.136	73.75
231.37	80.75
231.604	67.75
231.838	87.75
232.072	87.75
232.306	69.75
232.541	73.75
232.775	82.75
233.009	89.75
233.243	89.75
233.477	71.75
233.711	70.75
233.945	81.75
234.179	84.75
234.413	86.75
234.647	76.75
234.881	70.75
235.115	64.75
235.349	85.75
235.583	69.75
235.817	70.75
236.051	77.75
236.285	62.75
236.519	92.75
236.753	77.75
236.987	78.75
237.221	73.75
237.455	89.75
237.689	74.75
237.922	71.75
238.156	71.75
238.39	65.75
238.624	69.75
238.858	77.75
239.091	76.75
239.325	71.75
239.559	71.75
239.793	70.75
240.027	62.75
240.26	77.75
240.494	84.75
240.728	61.75
240.961	65.75
241.195	59.75
241.429	77.75
241.662	76.75
241.896	93.75
242.13	78.75
242.363	73.75
242.597	68.75
242.83	82.75
243.064	81.75
243.298	63.75
243.531	66.75
243.765	68.75
243.998	67.75
244.232	81.75
244.465	85.75
244.699	70.75
244.932	65.75
245.166	67.75
245.399	65.75
245.633	70.75
245.866	75.75
246.099	67.75
246.333	76.75
246.566	69.75
246.8	76.75
247.033	62.75
247.266	81.75
247.5	73.75
247.733	62.75
247.966	69.75
248.2	90.75
248.433	84.75
248.666	80.75
248.899	72.75
249.133	80.75
249.366	95.75
249.599	93.75
249.832	74.75
250.066	69.75
250.299	77.75
250.532	84.75
250.765	77.75
250.998	82.75
251.231	78.75
251.465	76.75
251.698	77.75
251.931	77.75
252.164	79.75
252.397	81.75
252.63	71.75
252.863	66.75
253.096	89.75
253.329	68.75
253.562	74.75
253.795	60.75
254.028	82.75
254.261	73.75
254.494	69.75
254.727	79.75
254.96	77.75
255.193	80.75
255.426	91.75
255.659	79.75
255.892	72.75
256.124	83.75
256.357	80.75
256.59	76.75
256.823	86.75
257.056	67.75
257.289	79.75
257.521	87.75
257.754	71.75
257.987	79.75
258.22	85.75
258.452	77.75
258.685	80.75
258.918	77.75
259.151	91.75
259.383	86.75
259.616	79.75
259.849	72.75
260.081	78.75
260.314	85.75
260.547	68.75
260.779	82.75
261.012	98.75
261.244	90.75
261.477	91.75
261.71	91.75
261.942	103.75
262.175	132.75
262.407	93.75
262.64	55.75
262.872	75.75
263.105	67.75
263.337	89.75
263.57	91.75
263.802	79.75
264.035	66.75
264.267	71.75
264.499	86.75
264.732	82.75
264.964	75.75
265.197	87.75
265.429	81.75
265.661	83.75
265.894	80.75
266.126	83.75
266.358	81.75
266.591	87.75
266.823	77.75
267.055	73.75
267.287	87.75
267.52	67.75
267.752	82.75
267.984	81.75
268.216	99.75
268.448	71.75
268.681	86.75
268.913	78.75
269.145	61.75
269.377	76.75
269.609	87.75
269.841	77.75
270.073	73.75
270.306	86.75
270.538	80.75
270.77	77.75
271.002	94.75
271.234	94.75
271.466	80.75
271.698	75.75
271.93	91.75
272.162	73.75
272.394	83.75
272.626	87.75
272.858	74.75
273.09	78.75
273.322	82.75
273.553	86.75
273.785	74.75
274.017	77.75
274.249	92.75
274.481	83.75
274.713	81.75
274.945	82.75
275.176	100.75
275.408	86.75
275.64	81.75
275.872	97.75
276.104	99.75
276.335	88.75
276.567	90.75
276.799	120.75
277.031	121.75
277.262	122.75
277.494	101.75
277.726	99.75
277.957	89.75
278.189	81.75
278.421	78.75
278.652	89.75
278.884	75.75
279.115	97.75
279.347	95.75
279.579	92.75
279.81	103.75
280.042	109.75
280.273	142.75
280.505	110.75
280.736	71.75
280.968	80.75
281.199	82.75
281.431	88.75
281.662	78.75
281.894	72.75
282.125	106.75
282.356	112.75
282.588	142.75
282.819	115.75
283.051	89.75
283.282	95.75
283.513	88.75
283.745	81.75
283.976	83.75
284.207	79.75
284.439	74.75
284.67	75.75
284.901	81.75
285.132	83.75
285.364	77.75
285.595	83.75
285.826	82.75
286.057	93.75
286.288	81.75
286.52	90.75
286.751	82.75
286.982	84.75
287.213	97.75
287.444	84.75
287.675	88.75
287.906	92.75
288.138	93.75
288.369	77.75
288.6	98.75
288.831	82.75
289.062	90.75
289.293	73.75
289.524	97.75
289.755	89.75
289.986	88.75
290.217	82.75
290.448	87.75
290.679	90.75
290.91	78.75
291.141	88.75
291.371	93.75
291.602	72.75
291.833	94.75
292.064	91.75
292.295	82.75
292.526	82.75
292.757	73.75
292.987	77.75
293.218	78.75
293.449	79.75
293.68	76.75
293.91	86.75
294.141	89.75
294.372	89.75
294.603	85.75
294.833	76.75
295.064	77.75
295.295	85.75
295.525	67.75
295.756	93.75
295.987	117.75
296.217	136.75
296.448	125.75
296.679	82.75
296.909	94.75
297.14	81.75
297.37	91.75
297.601	86.75
297.831	92.75
298.062	79.75
298.292	88.75
298.523	85.75
298.753	92.75
298.984	86.75
299.214	93.75
299.445	86.75
299.675	86.75
299.905	90.75
300.136	87.75
300.366	83.75
300.597	92.75
300.827	79.75
301.057	109.75
301.288	111.75
301.518	89.75
301.748	91.75
301.979	109.75
302.209	83.75
302.439	79.75
302.669	79.75
302.9	83.75
303.13	91.75
303.36	84.75
303.59	108.75
303.82	128.75
304.051	106.75
304.281	95.75
304.511	93.75
304.741	69.75
304.971	86.75
305.201	78.75
305.431	82.75
305.661	79.75
305.891	77.75
306.121	94.75
306.352	85.75
306.582	104.75
306.812	90.75
307.042	85.75
307.272	121.75
307.502	111.75
307.731	120.75
307.961	96.75
308.191	96.75
308.421	81.75
308.651	77.75
308.881	85.75
309.111	97.75
309.341	93.75
309.571	105.75
309.8	93.75
310.03	95.75
310.26	92.75
310.49	88.75
310.72	101.75
310.949	104.75
311.179	103.75
311.409	103.75
311.639	99.75
311.868	91.75
312.098	99.75
312.328	88.75
312.557	89.75
312.787	90.75
313.017	92.75
313.246	96.75
313.476	83.75
313.706	102.75
313.935	98.75
314.165	96.75
314.394	104.75
314.624	96.75
314.853	88.75
315.083	78.75
315.312	67.75
315.542	107.75
315.771	98.75
316.001	91.75
316.23	81.75
316.46	89.75
316.689	92.75
316.919	89.75
317.148	85.75
317.377	98.75
317.607	102.75
317.836	95.75
318.065	82.75
318.295	87.75
318.524	95.75
318.753	76.75
318.983	91.75
319.212	79.75
319.441	101.75
319.67	94.75
319.9	90.75
320.129	97.75
320.358	88.75
320.587	93.75
320.816	94.75
321.046	106.75
321.275	98.75
321.504	84.75
321.733	98.75
321.962	98.75
322.191	90.75
322.42	94.75
322.649	103.75
322.878	124.75
323.108	122.75
323.337	121.75
323.566	119.75
323.795	151.75
324.024	187.75
324.253	394.75
324.482	811.75
324.71	1621.75
324.939	2197.75
325.168	800.75
325.397	261.75
325.626	149.75
325.855	118.75
326.084	122.75
326.313	113.75
326.542	160.75
326.77	214.75
326.999	424.75
327.228	875.75
327.457	1675.75
327.686	1325.75
327.914	407.75
328.143	289.75
328.372	312.75
328.6	207.75
328.829	140.75
329.058	135.75
329.287	165.75
329.515	122.75
329.744	143.75
329.972	235.75
330.201	415.75
330.43	569.75
330.658	307.75
330.887	167.75
331.115	140.75
331.344	119.75
331.572	109.75
331.801	111.75
332.03	102.75
332.258	100.75
332.486	104.75
332.715	93.75
332.943	85.75
333.172	117.75
333.4	106.75
333.629	144.75
333.857	153.75
334.085	211.75
334.314	368.75
334.542	718.75
334.771	692.75
334.999	218.75
335.227	120.75
335.455	93.75
335.684	98.75
335.912	100.75
336.14	105.75
336.369	92.75
336.597	103.75
336.825	93.75
337.053	87.75
337.281	90.75
337.51	90.75
337.738	92.75
337.966	99.75
338.194	95.75
338.422	108.75
338.65	98.75
338.878	85.75
339.106	75.75
339.334	88.75
339.562	93.75
339.79	90.75
340.018	93.75
340.246	92.75
340.474	88.75
340.702	90.75
340.93	83.75
341.158	93.75
341.386	92.75
341.614	94.75
341.842	84.75
342.07	101.75
342.298	91.75
342.526	101.75
342.754	96.75
342.981	75.75
343.209	81.75
343.437	108.75
343.665	97.75
343.893	87.75
344.12	100.75
344.348	83.75
344.576	89.75
344.804	77.75
345.031	91.75
345.259	87.75
345.487	94.75
345.714	101.75
345.942	97.75
346.17	78.75
346.397	95.75
346.625	97.75
346.853	82.75
347.08	79.75
347.308	91.75
347.535	90.75
347.763	97.75
347.99	99.75
348.218	103.75
348.445	90.75
348.673	99.75
348.9	93.75
349.128	80.75
349.355	91.75
349.583	94.75
349.81	81.75
350.037	89.75
350.265	94.75
350.492	90.75
350.72	93.75
350.947	107.75
351.174	115.75
351.402	111.75
351.629	94.75
351.856	94.75
352.083	93.75
352.311	99.75
352.538	106.75
352.765	105.75
352.992	105.75
353.22	103.75
353.447	102.75
353.674	86.75
353.901	90.75
354.128	93.75
354.355	85.75
354.583	80.75
354.81	97.75
355.037	97.75
355.264	89.75
355.491	96.75
355.718	84.75
355.945	82.75
356.172	84.75
356.399	91.75
356.626	88.75
356.853	84.75
357.08	90.75
357.307	86.75
357.534	90.75
357.761	86.75
357.988	85.75
358.215	94.75
358.441	92.75
358.668	93.75
358.895	81.75
359.122	97.75
359.349	79.75
359.576	98.75
359.802	90.75
360.029	115.75
360.256	116.75
360.483	93.75
360.709	95.75
360.936	82.75
361.163	94.75
361.39	87.75
361.616	110.75
361.843	103.75
362.07	96.75
362.296	105.75
362.523	87.75
362.749	95.75
362.976	83.75
363.203	97.75
363.429	96.75
363.656	85.75
363.882	85.75
364.109	87.75
364.335	96.75
364.562	89.75
364.788	88.75
365.015	101.75
365.241	106.75
365.468	115.75
365.694	97.75
365.92	100.75
366.147	101.75
366.373	102.75
366.599	81.75
366.826	98.75
367.052	86.75
367.278	91.75
367.505	90.75
367.731	90.75
367.957	79.75
368.184	89.75
368.41	91.75
368.636	109.75
368.862	122.75
369.089	95.75
369.315	99.75
369.541	94.75
369.767	102.75
369.993	94.75
370.219	99.75
370.445	78.75
370.672	92.75
370.898	96.75
371.124	69.75
371.35	87.75
371.576	89.75
371.802	78.75
372.028	81.75
372.254	85.75
372.48	88.75
372.706	64.75
372.932	98.75
373.158	82.75
373.384	78.75
373.61	87.75
373.835	77.75
374.061	105.75
374.287	78.75
374.513	91.75
374.739	91.75
374.965	87.75
375.191	91.75
375.416	101.75
375.642	90.75
375.868	69.75
376.094	75.75
376.319	87.75
376.545	83.75
376.771	79.75
376.997	81.75
377.222	94.75
377.448	85.75
377.674	80.75
377.899	89.75
378.125	92.75
378.35	90.75
378.576	78.75
378.802	73.75
379.027	83.75
379.253	82.75
379.478	84.75
379.704	75.75
379.929	98.75
380.155	87.75
380.38	93.75
380.606	86.75
380.831	94.75
381.057	94.75
381.282	84.75
381.507	92.75
381.733	100.75
381.958	86.75
382.184	104.75
382.409	98.75
382.634	99.75
382.86	85.75
383.085	106.75
383.31	91.75
383.535	110.75
383.761	102.75
383.986	98.75
384.211	96.75
384.436	102.75
384.662	107.75
384.887	99.75
385.112	121.75
385.337	100.75
385.562	106.75
385.787	113.75
386.013	100.75
386.238	105.75
386.463	105.75
386.688	113.75
386.913	97.75
387.138	113.75
387.363	98.75
387.588	104.75
387.813	105.75
388.038	122.75
388.263	128.75
388.488	97.75
388.713	93.75
388.938	87.75
389.163	88.75
389.387	86.75
389.612	82.75
389.837	92.75
390.062	105.75
390.287	105.75
390.512	86.75
390.736	96.75
390.961	85.75
391.186	82.75
391.411	79.75
391.636	88.75
391.86	93.75
392.085	83.75
392.31	94.75
392.534	84.75
392.759	90.75
392.984	86.75
393.208	81.75
393.433	95.75
393.658	94.75
393.882	79.75
394.107	88.75
394.331	86.75
394.556	72.75
394.78	79.75
395.005	73.75
395.229	85.75
395.454	100.75
395.678	84.75
395.903	84.75
396.127	87.75
396.352	96.75
396.576	69.75
396.801	71.75
397.025	80.75
397.249	96.75
397.474	96.75
397.698	80.75
397.922	91.75
398.147	90.75
398.371	81.75
398.595	81.75
398.82	88.75
399.044	101.75
399.268	87.75
399.492	90.75
399.717	82.75
399.941	85.75
400.165	73.75
400.389	96.75
400.613	97.75
400.837	90.75
401.062	85.75
401.286	80.75
401.51	93.75
401.734	94.75
401.958	99.75
402.182	117.75
402.406	153.75
402.63	123.75
402.854	88.75
403.078	87.75
403.302	78.75
403.526	79.75
403.75	90.75
403.974	80.75
404.198	91.75
404.422	83.75
404.645	91.75
404.869	97.75
405.093	106.75
405.317	118.75
405.541	109.75
405.765	97.75
405.988	111.75
406.212	156.75
406.436	240.75
406.66	142.75
406.883	97.75
407.107	87.75
407.331	106.75
407.555	92.75
407.778	103.75
408.002	88.75
408.226	87.75
408.449	92.75
408.673	79.75
408.896	102.75
409.12	91.75
409.344	90.75
409.567	88.75
409.791	91.75
410.014	90.75
410.238	97.75
410.461	94.75
410.685	83.75
410.908	87.75
411.132	96.75
411.355	103.75
411.578	96.75
411.802	66.75
412.025	78.75
412.249	78.75
412.472	98.75
412.695	118.75
412.919	96.75
413.142	104.75
413.365	86.75
413.589	86.75
413.812	89.75
414.035	89.75
414.258	96.75
414.482	96.75
414.705	82.75
414.928	92.75
415.151	90.75
415.374	86.75
415.597	70.75
415.821	95.75
416.044	84.75
416.267	83.75
416.49	75.75
416.713	86.75
416.936	106.75
417.159	98.75
417.382	89.75
417.605	88.75
417.828	88.75
418.051	97.75
418.274	75.75
418.497	88.75
418.72	83.75
418.943	85.75
419.166	98.75
419.389	85.75
419.611	85.75
419.834	99.75
420.057	93.75
420.28	74.75
420.503	94.75
420.726	89.75
420.948	98.75
421.171	87.75
421.394	92.75
421.617	99.75
421.839	95.75
422.062	85.75
422.285	96.75
422.507	94.75
422.73	102.75
422.953	89.75
423.175	82.75
423.398	77.75
423.621	88.75
423.843	72.75
424.066	78.75
424.288	84.75
424.511	103.75
424.733	97.75
424.956	104.75
425.178	92.75
425.401	100.75
425.623	98.75
425.846	81.75
426.068	92.75
426.291	93.75
426.513	89.75
426.735	87.75
426.958	96.75
427.18	109.75
427.402	155.75
427.625	182.75
427.847	175.75
428.069	134.75
428.292	89.75
428.514	87.75
428.736	94.75
428.958	91.75
429.181	78.75
429.403	78.75
429.625	90.75
429.847	101.75
430.069	93.75
430.292	92.75
430.514	79.75
430.736	94.75
430.958	90.75
431.18	86.75
431.402	86.75
431.624	92.75
431.846	90.75
432.068	88.75
432.29	81.75
432.512	96.75
432.734	93.75
432.956	78.75
433.178	86.75
433.4	88.75
433.622	92.75
433.844	86.75
434.066	89.75
434.287	94.75
434.509	94.75
434.731	89.75
434.953	82.75
435.175	95.75
435.397	82.75
435.618	86.75
435.84	90.75
436.062	118.75
436.284	112.75
436.505	94.75
436.727	94.75
436.949	98.75
437.17	82.75
437.392	90.75
437.614	88.75
437.835	114.75
438.057	114.75
438.278	118.75
438.5	105.75
438.721	133.75
438.943	97.75
439.165	91.75
439.386	77.75
439.608	83.75
439.829	90.75
440.05	133.75
440.272	159.75
440.493	98.75
440.715	88.75
440.936	88.75
441.158	80.75
441.379	97.75
441.6	92.75
441.822	96.75
442.043	85.75
442.264	109.75
442.486	115.75
442.707	89.75
442.928	103.75
443.149	138.75
443.371	131.75
443.592	113.75
443.813	130.75
444.034	104.75
444.255	85.75
444.476	90.75
444.698	86.75
444.919	88.75
445.14	109.75
445.361	114.75
445.582	117.75
445.803	157.75
446.024	151.75
446.245	147.75
446.466	119.75
446.687	97.75
446.908	89.75
447.129	79.75
447.35	90.75
447.571	98.75
447.792	95.75
448.013	96.75
448.234	107.75
448.455	102.75
448.675	127.75
448.896	130.75
449.117	90.75
449.338	96.75
449.559	109.75
449.779	127.75
450	90.75
450.221	84.75
450.442	90.75
450.662	82.75
450.883	99.75
451.104	117.75
451.324	97.75
451.545	86.75
451.766	87.75
451.986	87.75
452.207	79.75
452.428	94.75
452.648	96.75
452.869	97.75
453.089	98.75
453.31	123.75
453.53	89.75
453.751	82.75
453.971	104.75
454.192	115.75
454.412	84.75
454.633	89.75
454.853	69.75
455.073	89.75
455.294	88.75
455.514	100.75
455.734	93.75
455.955	86.75
456.175	70.75
456.395	77.75
456.616	84.75
456.836	92.75
457.056	77.75
457.276	73.75
457.497	79.75
457.717	65.75
457.937	70.75
458.157	78.75
458.377	89.75
458.598	109.75
458.818	154.75
459.038	168.75
459.258	123.75
459.478	103.75
459.698	86.75
459.918	79.75
460.138	74.75
460.358	81.75
460.578	81.75
460.798	84.75
461.018	88.75
461.238	71.75
461.458	85.75
461.678	91.75
461.898	68.75
462.118	75.75
462.338	74.75
462.558	83.75
462.777	79.75
462.997	86.75
463.217	103.75
463.437	85.75
463.657	94.75
463.876	90.75
464.096	84.75
464.316	82.75
464.536	88.75
464.755	88.75
464.975	109.75
465.195	172.75
465.414	166.75
465.634	95.75
465.854	82.75
466.073	75.75
466.293	71.75
466.512	81.75
466.732	66.75
466.951	93.75
467.171	93.75
467.391	85.75
467.61	104.75
467.829	132.75
468.049	256.75
468.268	321.75
468.488	133.75
468.707	85.75
468.927	95.75
469.146	81.75
469.365	82.75
469.585	72.75
469.804	90.75
470.023	92.75
470.243	98.75
470.462	91.75
470.681	119.75
470.901	94.75
471.12	85.75
471.339	78.75
471.558	81.75
471.777	88.75
471.997	161.75
472.216	435.75
472.435	945.75
472.654	261.75
472.873	106.75
473.092	87.75
473.311	83.75
473.53	74.75
473.749	93.75
473.968	106.75
474.187	103.75
474.406	99.75
474.625	95.75
474.844	69.75
475.063	83.75
475.282	90.75
475.501	81.75
475.72	85.75
475.939	90.75
476.158	99.75
476.377	74.75
476.596	83.75
476.814	81.75
477.033	104.75
477.252	96.75
477.471	69.75
477.69	87.75
477.908	82.75
478.127	79.75
478.346	80.75
478.564	82.75
478.783	97.75
479.002	100.75
479.22	94.75
479.439	104.75
479.658	104.75
479.876	92.75
480.095	91.75
480.313	109.75
480.532	121.75
480.751	158.75
480.969	417.75
481.188	1646.75
481.406	986.75
481.624	183.75
481.843	106.75
482.061	83.75
482.28	90.75
482.498	95.75
482.717	91.75
482.935	78.75
483.153	84.75
483.372	90.75
483.59	87.75
483.808	74.75
484.027	87.75
484.245	71.75
484.463	87.75
484.681	94.75
484.9	96.75
485.118	81.75
485.336	91.75
485.554	70.75
485.772	97.75
485.99	91.75
486.209	108.75
486.427	94.75
486.645	106.75
486.863	115.75
487.081	85.75
487.299	93.75
487.517	90.75
487.735	89.75
487.953	93.75
488.171	88.75
488.389	87.75
488.607	85.75
488.825	97.75
489.043	80.75
489.261	93.75
489.479	76.75
489.696	85.75
489.914	73.75
490.132	90.75
490.35	82.75
490.568	85.75
490.786	90.75
491.003	79.75
491.221	93.75
491.439	86.75
491.657	92.75
491.874	90.75
492.092	91.75
492.31	76.75
492.527	81.75
492.745	72.75
492.963	83.75
493.18	83.75
493.398	97.75
493.615	91.75
493.833	94.75
494.05	70.75
494.268	85.75
494.485	97.75
494.703	80.75
494.92	86.75
495.138	88.75
495.355	88.75
495.573	91.75
495.79	96.75
496.008	87.75
496.225	78.75
496.442	92.75
496.66	65.75
496.877	80.75
497.094	87.75
497.312	81.75
497.529	84.75
497.746	88.75
497.963	85.75
498.181	86.75
498.398	98.75
498.615	107.75
498.832	88.75
499.049	89.75
499.267	93.75
499.484	88.75
499.701	82.75
499.918	86.75
500.135	81.75
500.352	79.75
500.569	86.75
500.786	75.75
501.003	85.75
501.22	78.75
501.437	93.75
501.654	106.75
501.871	103.75
502.088	83.75
502.305	91.75
502.522	71.75
502.739	80.75
502.956	89.75
503.172	80.75
503.389	81.75
503.606	96.75
503.823	95.75
504.04	88.75
504.256	95.75
504.473	79.75
504.69	79.75
504.907	77.75
505.123	98.75
505.34	74.75
505.557	87.75
505.773	83.75
505.99	91.75
506.207	105.75
506.423	87.75
506.64	89.75
506.856	79.75
507.073	93.75
507.289	88.75
507.506	86.75
507.722	122.75
507.939	129.75
508.155	84.75
508.372	90.75
508.588	78.75
508.805	86.75
509.021	95.75
509.238	95.75
509.454	90.75
509.67	97.75
509.887	110.75
510.103	130.75
510.319	222.75
510.536	755.75
510.752	2504.75
510.968	693.75
511.184	145.75
511.401	119.75
511.617	92.75
511.833	93.75
512.049	103.75
512.265	108.75
512.481	80.75
512.698	90.75
512.914	96.75
513.13	71.75
513.346	90.75
513.562	90.75
513.778	88.75
513.994	103.75
514.21	94.75
514.426	121.75
514.642	147.75
514.858	110.75
515.074	163.75
515.29	471.75
515.506	1682.75
515.721	625.75
515.937	165.75
516.153	103.75
