Data from Circ_1992_H10_HRD10591_00064.txt Node
Date: Wed Jan 03 11:47:57 EST 2024
User: Yrep
Spectrometer: HR+D1059
Trigger mode: 1
Integration Time (sec): 1.000000E-1
Scans to average: 1
Electric dark correction enabled: true
Nonlinearity correction enabled: false
Boxcar width: 0
XAxis mode: Wavelengths
Number of Pixels in Spectrum: 2048
>>>>>Begin Spectral Data<<<<<
223.165	-16.38
223.4	-16.38
223.635	-16.38
223.869	-7.38
224.104	-20.38
224.338	-33.38
224.573	-27.38
224.808	-4.38
225.042	-12.38
225.277	-12.38
225.511	-4.38
225.746	0.62
225.98	-0.38
226.215	23.62
226.449	23.62
226.683	27.62
226.918	21.62
227.152	41.62
227.387	30.62
227.621	28.62
227.856	45.62
228.09	53.62
228.324	48.62
228.559	60.62
228.793	74.62
229.027	65.62
229.262	67.62
229.496	68.62
229.73	82.62
229.964	61.62
230.199	65.62
230.433	66.62
230.667	76.62
230.901	75.62
231.136	73.62
231.37	80.62
231.604	75.62
231.838	87.62
232.072	93.62
232.306	79.62
232.541	80.62
232.775	76.62
233.009	73.62
233.243	79.62
233.477	77.62
233.711	91.62
233.945	77.62
234.179	79.62
234.413	78.62
234.647	79.62
234.881	84.62
235.115	83.62
235.349	73.62
235.583	83.62
235.817	75.62
236.051	77.62
236.285	80.62
236.519	83.62
236.753	81.62
236.987	74.62
237.221	75.62
237.455	91.62
237.689	59.62
237.922	64.62
238.156	67.62
238.39	63.62
238.624	79.62
238.858	75.62
239.091	72.62
239.325	83.62
239.559	75.62
239.793	72.62
240.027	80.62
240.26	77.62
240.494	79.62
240.728	77.62
240.961	83.62
241.195	69.62
241.429	76.62
241.662	70.62
241.896	67.62
242.13	84.62
242.363	76.62
242.597	88.62
242.83	73.62
243.064	76.62
243.298	90.62
243.531	71.62
243.765	72.62
243.998	72.62
244.232	74.62
244.465	90.62
244.699	77.62
244.932	73.62
245.166	66.62
245.399	75.62
245.633	73.62
245.866	75.62
246.099	75.62
246.333	85.62
246.566	89.62
246.8	87.62
247.033	73.62
247.266	75.62
247.5	71.62
247.733	70.62
247.966	88.62
248.2	76.62
248.433	76.62
248.666	73.62
248.899	69.62
249.133	93.62
249.366	105.62
249.599	90.62
249.832	84.62
250.066	67.62
250.299	72.62
250.532	76.62
250.765	84.62
250.998	84.62
251.231	73.62
251.465	102.62
251.698	85.62
251.931	71.62
252.164	81.62
252.397	81.62
252.63	101.62
252.863	82.62
253.096	101.62
253.329	88.62
253.562	77.62
253.795	74.62
254.028	68.62
254.261	80.62
254.494	82.62
254.727	89.62
254.96	93.62
255.193	74.62
255.426	72.62
255.659	68.62
255.892	90.62
256.124	68.62
256.357	86.62
256.59	81.62
256.823	73.62
257.056	73.62
257.289	77.62
257.521	87.62
257.754	79.62
257.987	87.62
258.22	81.62
258.452	87.62
258.685	93.62
258.918	87.62
259.151	80.62
259.383	73.62
259.616	68.62
259.849	81.62
260.081	86.62
260.314	69.62
260.547	80.62
260.779	77.62
261.012	91.62
261.244	82.62
261.477	89.62
261.71	93.62
261.942	104.62
262.175	109.62
262.407	80.62
262.64	61.62
262.872	75.62
263.105	91.62
263.337	86.62
263.57	88.62
263.802	89.62
264.035	91.62
264.267	91.62
264.499	78.62
264.732	80.62
264.964	65.62
265.197	85.62
265.429	84.62
265.661	83.62
265.894	104.62
266.126	98.62
266.358	85.62
266.591	72.62
266.823	85.62
267.055	79.62
267.287	78.62
267.52	84.62
267.752	89.62
267.984	69.62
268.216	59.62
268.448	81.62
268.681	83.62
268.913	77.62
269.145	90.62
269.377	89.62
269.609	72.62
269.841	75.62
270.073	83.62
270.306	82.62
270.538	76.62
270.77	77.62
271.002	81.62
271.234	93.62
271.466	84.62
271.698	98.62
271.93	87.62
272.162	83.62
272.394	89.62
272.626	87.62
272.858	74.62
273.09	81.62
273.322	75.62
273.553	78.62
273.785	82.62
274.017	88.62
274.249	86.62
274.481	76.62
274.713	63.62
274.945	78.62
275.176	89.62
275.408	89.62
275.64	91.62
275.872	82.62
276.104	88.62
276.335	89.62
276.567	79.62
276.799	115.62
277.031	130.62
277.262	133.62
277.494	109.62
277.726	95.62
277.957	90.62
278.189	85.62
278.421	84.62
278.652	91.62
278.884	86.62
279.115	106.62
279.347	83.62
279.579	96.62
279.81	96.62
280.042	114.62
280.273	153.62
280.505	115.62
280.736	88.62
280.968	95.62
281.199	88.62
281.431	86.62
281.662	90.62
281.894	110.62
282.125	88.62
282.356	118.62
282.588	119.62
282.819	92.62
283.051	86.62
283.282	83.62
283.513	84.62
283.745	94.62
283.976	78.62
284.207	72.62
284.439	91.62
284.67	83.62
284.901	81.62
285.132	76.62
285.364	88.62
285.595	101.62
285.826	88.62
286.057	92.62
286.288	95.62
286.52	84.62
286.751	86.62
286.982	83.62
287.213	94.62
287.444	78.62
287.675	94.62
287.906	75.62
288.138	89.62
288.369	90.62
288.6	87.62
288.831	97.62
289.062	90.62
289.293	93.62
289.524	100.62
289.755	108.62
289.986	95.62
290.217	94.62
290.448	83.62
290.679	78.62
290.91	79.62
291.141	85.62
291.371	103.62
291.602	84.62
291.833	97.62
292.064	88.62
292.295	86.62
292.526	84.62
292.757	76.62
292.987	75.62
293.218	90.62
293.449	85.62
293.68	69.62
293.91	84.62
294.141	90.62
294.372	81.62
294.603	89.62
294.833	76.62
295.064	79.62
295.295	73.62
295.525	91.62
295.756	84.62
295.987	109.62
296.217	125.62
296.448	125.62
296.679	97.62
296.909	83.62
297.14	91.62
297.37	109.62
297.601	72.62
297.831	89.62
298.062	84.62
298.292	93.62
298.523	101.62
298.753	76.62
298.984	77.62
299.214	88.62
299.445	83.62
299.675	94.62
299.905	87.62
300.136	92.62
300.366	91.62
300.597	99.62
300.827	80.62
301.057	89.62
301.288	87.62
301.518	84.62
301.748	98.62
301.979	109.62
302.209	96.62
302.439	102.62
302.669	93.62
302.9	94.62
303.13	94.62
303.36	95.62
303.59	108.62
303.82	114.62
304.051	106.62
304.281	99.62
304.511	96.62
304.741	89.62
304.971	86.62
305.201	77.62
305.431	81.62
305.661	105.62
305.891	104.62
306.121	84.62
306.352	109.62
306.582	98.62
306.812	101.62
307.042	109.62
307.272	114.62
307.502	133.62
307.731	131.62
307.961	109.62
308.191	101.62
308.421	97.62
308.651	90.62
308.881	87.62
309.111	92.62
309.341	107.62
309.571	102.62
309.8	80.62
310.03	91.62
310.26	83.62
310.49	99.62
310.72	99.62
310.949	99.62
311.179	95.62
311.409	79.62
311.639	83.62
311.868	81.62
312.098	88.62
312.328	96.62
312.557	105.62
312.787	117.62
313.017	93.62
313.246	91.62
313.476	93.62
313.706	78.62
313.935	86.62
314.165	95.62
314.394	105.62
314.624	104.62
314.853	93.62
315.083	89.62
315.312	92.62
315.542	86.62
315.771	95.62
316.001	88.62
316.23	103.62
316.46	90.62
316.689	88.62
316.919	81.62
317.148	89.62
317.377	91.62
317.607	100.62
317.836	94.62
318.065	95.62
318.295	96.62
318.524	97.62
318.753	100.62
318.983	90.62
319.212	95.62
319.441	99.62
319.67	101.62
319.9	106.62
320.129	97.62
320.358	91.62
320.587	101.62
320.816	93.62
321.046	100.62
321.275	97.62
321.504	94.62
321.733	107.62
321.962	85.62
322.191	93.62
322.42	103.62
322.649	108.62
322.878	123.62
323.108	124.62
323.337	115.62
323.566	133.62
323.795	156.62
324.024	232.62
324.253	425.62
324.482	978.62
324.71	2047.62
324.939	2776.62
325.168	997.62
325.397	280.62
325.626	159.62
325.855	143.62
326.084	129.62
326.313	145.62
326.542	152.62
326.77	233.62
326.999	522.62
327.228	1090.62
327.457	2129.62
327.686	1645.62
327.914	462.62
328.143	329.62
328.372	363.62
328.6	226.62
328.829	136.62
329.058	132.62
329.287	136.62
329.515	154.62
329.744	175.62
329.972	246.62
330.201	489.62
330.43	676.62
330.658	343.62
330.887	191.62
331.115	140.62
331.344	114.62
331.572	105.62
331.801	104.62
332.03	113.62
332.258	103.62
332.486	96.62
332.715	97.62
332.943	100.62
333.172	105.62
333.4	105.62
333.629	116.62
333.857	164.62
334.085	245.62
334.314	479.62
334.542	861.62
334.771	815.62
334.999	253.62
335.227	149.62
335.455	103.62
335.684	108.62
335.912	119.62
336.14	96.62
336.369	113.62
336.597	96.62
336.825	116.62
337.053	81.62
337.281	85.62
337.51	68.62
337.738	97.62
337.966	99.62
338.194	97.62
338.422	111.62
338.65	102.62
338.878	83.62
339.106	100.62
339.334	100.62
339.562	80.62
339.79	95.62
340.018	91.62
340.246	85.62
340.474	102.62
340.702	83.62
340.93	85.62
341.158	93.62
341.386	79.62
341.614	101.62
341.842	85.62
342.07	91.62
342.298	89.62
342.526	94.62
342.754	94.62
342.981	84.62
343.209	92.62
343.437	99.62
343.665	73.62
343.893	99.62
344.12	88.62
344.348	91.62
344.576	87.62
344.804	92.62
345.031	80.62
345.259	111.62
345.487	99.62
345.714	91.62
345.942	96.62
346.17	88.62
346.397	102.62
346.625	78.62
346.853	89.62
347.08	93.62
347.308	96.62
347.535	101.62
347.763	98.62
347.99	104.62
348.218	98.62
348.445	110.62
348.673	108.62
348.9	104.62
349.128	96.62
349.355	96.62
349.583	108.62
349.81	91.62
350.037	99.62
350.265	86.62
350.492	94.62
350.72	86.62
350.947	99.62
351.174	94.62
351.402	116.62
351.629	113.62
351.856	106.62
352.083	110.62
352.311	116.62
352.538	99.62
352.765	115.62
352.992	98.62
353.22	109.62
353.447	99.62
353.674	106.62
353.901	102.62
354.128	85.62
354.355	91.62
354.583	89.62
354.81	103.62
355.037	96.62
355.264	85.62
355.491	80.62
355.718	79.62
355.945	85.62
356.172	84.62
356.399	84.62
356.626	91.62
356.853	90.62
357.08	100.62
357.307	90.62
357.534	81.62
357.761	87.62
357.988	102.62
358.215	90.62
358.441	86.62
358.668	85.62
358.895	89.62
359.122	89.62
359.349	79.62
359.576	81.62
359.802	99.62
360.029	116.62
360.256	114.62
360.483	109.62
360.709	82.62
360.936	87.62
361.163	91.62
361.39	106.62
361.616	92.62
361.843	91.62
362.07	97.62
362.296	108.62
362.523	93.62
362.749	95.62
362.976	84.62
363.203	90.62
363.429	80.62
363.656	89.62
363.882	94.62
364.109	93.62
364.335	112.62
364.562	96.62
364.788	91.62
365.015	108.62
365.241	91.62
365.468	113.62
365.694	100.62
365.92	106.62
366.147	107.62
366.373	103.62
366.599	84.62
366.826	91.62
367.052	83.62
367.278	88.62
367.505	95.62
367.731	97.62
367.957	90.62
368.184	95.62
368.41	100.62
368.636	116.62
368.862	109.62
369.089	105.62
369.315	89.62
369.541	93.62
369.767	91.62
369.993	87.62
370.219	87.62
370.445	82.62
370.672	77.62
370.898	83.62
371.124	84.62
371.35	75.62
371.576	89.62
371.802	91.62
372.028	93.62
372.254	96.62
372.48	80.62
372.706	84.62
372.932	87.62
373.158	92.62
373.384	89.62
373.61	96.62
373.835	100.62
374.061	91.62
374.287	81.62
374.513	87.62
374.739	87.62
374.965	83.62
375.191	100.62
375.416	99.62
375.642	88.62
375.868	93.62
376.094	82.62
376.319	101.62
376.545	82.62
376.771	82.62
376.997	88.62
377.222	91.62
377.448	85.62
377.674	88.62
377.899	84.62
378.125	91.62
378.35	80.62
378.576	92.62
378.802	95.62
379.027	82.62
379.253	92.62
379.478	82.62
379.704	93.62
379.929	86.62
380.155	95.62
380.38	91.62
380.606	98.62
380.831	88.62
381.057	110.62
381.282	105.62
381.507	87.62
381.733	105.62
381.958	96.62
382.184	93.62
382.409	105.62
382.634	92.62
382.86	105.62
383.085	108.62
383.31	101.62
383.535	99.62
383.761	105.62
383.986	100.62
384.211	73.62
384.436	83.62
384.662	105.62
384.887	110.62
385.112	111.62
385.337	113.62
385.562	111.62
385.787	112.62
386.013	121.62
386.238	108.62
386.463	98.62
386.688	103.62
386.913	108.62
387.138	99.62
387.363	107.62
387.588	90.62
387.813	92.62
388.038	102.62
388.263	102.62
388.488	101.62
388.713	98.62
388.938	104.62
389.163	98.62
389.387	100.62
389.612	83.62
389.837	97.62
390.062	98.62
390.287	89.62
390.512	90.62
390.736	85.62
390.961	81.62
391.186	81.62
391.411	86.62
391.636	93.62
391.86	92.62
392.085	82.62
392.31	83.62
392.534	84.62
392.759	82.62
392.984	89.62
393.208	85.62
393.433	88.62
393.658	76.62
393.882	85.62
394.107	85.62
394.331	87.62
394.556	84.62
394.78	93.62
395.005	78.62
395.229	79.62
395.454	92.62
395.678	82.62
395.903	82.62
396.127	89.62
396.352	83.62
396.576	83.62
396.801	81.62
397.025	89.62
397.249	71.62
397.474	84.62
397.698	90.62
397.922	83.62
398.147	93.62
398.371	93.62
398.595	81.62
398.82	81.62
399.044	92.62
399.268	91.62
399.492	82.62
399.717	96.62
399.941	93.62
400.165	105.62
400.389	92.62
400.613	81.62
400.837	85.62
401.062	79.62
401.286	85.62
401.51	95.62
401.734	107.62
401.958	95.62
402.182	121.62
402.406	137.62
402.63	123.62
402.854	95.62
403.078	99.62
403.302	85.62
403.526	91.62
403.75	88.62
403.974	83.62
404.198	86.62
404.422	86.62
404.645	92.62
404.869	99.62
405.093	115.62
405.317	125.62
405.541	116.62
405.765	101.62
405.988	114.62
406.212	161.62
406.436	209.62
406.66	142.62
406.883	105.62
407.107	85.62
407.331	106.62
407.555	101.62
407.778	93.62
408.002	97.62
408.226	89.62
408.449	83.62
408.673	84.62
408.896	107.62
409.12	93.62
409.344	90.62
409.567	89.62
409.791	84.62
410.014	98.62
410.238	100.62
410.461	91.62
410.685	81.62
410.908	100.62
411.132	98.62
411.355	99.62
411.578	84.62
411.802	84.62
412.025	109.62
412.249	94.62
412.472	116.62
412.695	118.62
412.919	106.62
413.142	92.62
413.365	104.62
413.589	87.62
413.812	79.62
414.035	92.62
414.258	80.62
414.482	87.62
414.705	87.62
414.928	93.62
415.151	79.62
415.374	96.62
415.597	87.62
415.821	84.62
416.044	85.62
416.267	91.62
416.49	98.62
416.713	81.62
416.936	97.62
417.159	80.62
417.382	91.62
417.605	79.62
417.828	98.62
418.051	89.62
418.274	96.62
418.497	78.62
418.72	93.62
418.943	81.62
419.166	87.62
419.389	84.62
419.611	96.62
419.834	96.62
420.057	97.62
420.28	76.62
420.503	85.62
420.726	83.62
420.948	92.62
421.171	92.62
421.394	84.62
421.617	77.62
421.839	82.62
422.062	93.62
422.285	88.62
422.507	71.62
422.73	99.62
422.953	97.62
423.175	81.62
423.398	95.62
423.621	88.62
423.843	85.62
424.066	91.62
424.288	92.62
424.511	86.62
424.733	104.62
424.956	93.62
425.178	95.62
425.401	99.62
425.623	110.62
425.846	89.62
426.068	81.62
426.291	90.62
426.513	105.62
426.735	93.62
426.958	100.62
427.18	113.62
427.402	141.62
427.625	198.62
427.847	189.62
428.069	176.62
428.292	107.62
428.514	95.62
428.736	98.62
428.958	94.62
429.181	90.62
429.403	92.62
429.625	91.62
429.847	80.62
430.069	108.62
430.292	92.62
430.514	82.62
430.736	84.62
430.958	90.62
431.18	77.62
431.402	81.62
431.624	88.62
431.846	83.62
432.068	96.62
432.29	83.62
432.512	79.62
432.734	93.62
432.956	90.62
433.178	103.62
433.4	100.62
433.622	91.62
433.844	93.62
434.066	84.62
434.287	89.62
434.509	99.62
434.731	88.62
434.953	88.62
435.175	90.62
435.397	87.62
435.618	85.62
435.84	122.62
436.062	142.62
436.284	132.62
436.505	106.62
436.727	97.62
436.949	89.62
437.17	80.62
437.392	87.62
437.614	82.62
437.835	92.62
438.057	111.62
438.278	121.62
438.5	111.62
438.721	150.62
438.943	112.62
439.165	89.62
439.386	88.62
439.608	100.62
439.829	99.62
440.05	126.62
440.272	173.62
440.493	103.62
440.715	84.62
440.936	90.62
441.158	104.62
441.379	87.62
441.6	88.62
441.822	109.62
442.043	100.62
442.264	111.62
442.486	109.62
442.707	98.62
442.928	95.62
443.149	128.62
443.371	121.62
443.592	114.62
443.813	107.62
444.034	114.62
444.255	97.62
444.476	100.62
444.698	84.62
444.919	98.62
445.14	110.62
445.361	107.62
445.582	127.62
445.803	164.62
446.024	144.62
446.245	147.62
446.466	135.62
446.687	92.62
446.908	103.62
447.129	101.62
447.35	87.62
447.571	96.62
447.792	90.62
448.013	88.62
448.234	109.62
448.455	96.62
448.675	115.62
448.896	135.62
449.117	103.62
449.338	90.62
449.559	141.62
449.779	146.62
450	101.62
450.221	92.62
450.442	87.62
450.662	91.62
450.883	98.62
451.104	118.62
451.324	104.62
451.545	89.62
451.766	80.62
451.986	83.62
452.207	95.62
452.428	96.62
452.648	95.62
452.869	104.62
453.089	106.62
453.31	120.62
453.53	97.62
453.751	99.62
453.971	103.62
454.192	94.62
454.412	105.62
454.633	87.62
454.853	89.62
455.073	84.62
455.294	87.62
455.514	111.62
455.734	96.62
455.955	87.62
456.175	84.62
456.395	95.62
456.616	81.62
456.836	86.62
457.056	75.62
457.276	86.62
457.497	87.62
457.717	86.62
457.937	86.62
458.157	80.62
458.377	85.62
458.598	88.62
458.818	138.62
459.038	169.62
459.258	115.62
459.478	83.62
459.698	84.62
459.918	85.62
460.138	82.62
460.358	93.62
460.578	91.62
460.798	79.62
461.018	85.62
461.238	79.62
461.458	79.62
461.678	90.62
461.898	84.62
462.118	87.62
462.338	81.62
462.558	72.62
462.777	97.62
462.997	100.62
463.217	90.62
463.437	94.62
463.657	67.62
463.876	100.62
464.096	90.62
464.316	83.62
464.536	92.62
464.755	101.62
464.975	99.62
465.195	167.62
465.414	155.62
465.634	89.62
465.854	80.62
466.073	94.62
466.293	82.62
466.512	95.62
466.732	77.62
466.951	82.62
467.171	74.62
467.391	95.62
467.61	108.62
467.829	130.62
468.049	287.62
468.268	403.62
468.488	132.62
468.707	101.62
468.927	79.62
469.146	96.62
469.365	91.62
469.585	90.62
469.804	83.62
470.023	87.62
470.243	97.62
470.462	82.62
470.681	105.62
470.901	94.62
471.12	101.62
471.339	101.62
471.558	101.62
471.777	107.62
471.997	177.62
472.216	553.62
472.435	1175.62
472.654	327.62
472.873	113.62
473.092	89.62
473.311	85.62
473.53	87.62
473.749	77.62
473.968	109.62
474.187	96.62
474.406	108.62
474.625	86.62
474.844	83.62
475.063	90.62
475.282	91.62
475.501	75.62
475.72	94.62
475.939	103.62
476.158	85.62
476.377	83.62
476.596	86.62
476.814	89.62
477.033	91.62
477.252	90.62
477.471	101.62
477.69	83.62
477.908	100.62
478.127	87.62
478.346	91.62
478.564	93.62
478.783	104.62
479.002	98.62
479.22	101.62
479.439	109.62
479.658	105.62
479.876	115.62
480.095	103.62
480.313	94.62
480.532	129.62
480.751	173.62
480.969	505.62
481.188	2046.62
481.406	1229.62
481.624	219.62
481.843	116.62
482.061	97.62
482.28	104.62
482.498	91.62
482.717	85.62
482.935	84.62
483.153	96.62
483.372	104.62
483.59	101.62
483.808	83.62
484.027	90.62
484.245	107.62
484.463	90.62
484.681	101.62
484.9	99.62
485.118	80.62
485.336	101.62
485.554	85.62
485.772	96.62
485.99	100.62
486.209	99.62
486.427	109.62
486.645	111.62
486.863	118.62
487.081	108.62
487.299	91.62
487.517	91.62
487.735	80.62
487.953	106.62
488.171	75.62
488.389	88.62
488.607	88.62
488.825	96.62
489.043	85.62
489.261	89.62
489.479	97.62
489.696	90.62
489.914	90.62
490.132	94.62
490.35	92.62
490.568	85.62
490.786	87.62
491.003	85.62
491.221	103.62
491.439	97.62
491.657	90.62
491.874	92.62
492.092	101.62
492.31	89.62
492.527	91.62
492.745	84.62
492.963	106.62
493.18	96.62
493.398	90.62
493.615	100.62
493.833	91.62
494.05	80.62
494.268	83.62
494.485	82.62
494.703	89.62
494.92	89.62
495.138	98.62
495.355	86.62
495.573	93.62
495.79	87.62
496.008	88.62
496.225	75.62
496.442	77.62
496.66	87.62
496.877	95.62
497.094	91.62
497.312	91.62
497.529	105.62
497.746	81.62
497.963	93.62
498.181	103.62
498.398	81.62
498.615	115.62
498.832	106.62
499.049	87.62
499.267	84.62
499.484	73.62
499.701	91.62
499.918	80.62
500.135	77.62
500.352	99.62
500.569	97.62
500.786	95.62
501.003	90.62
501.22	77.62
501.437	88.62
501.654	93.62
501.871	108.62
502.088	91.62
502.305	91.62
502.522	93.62
502.739	82.62
502.956	91.62
503.172	97.62
503.389	104.62
503.606	99.62
503.823	93.62
504.04	90.62
504.256	89.62
504.473	93.62
504.69	105.62
504.907	91.62
505.123	85.62
505.34	88.62
505.557	81.62
505.773	102.62
505.99	97.62
506.207	80.62
506.423	85.62
506.64	84.62
506.856	101.62
507.073	98.62
507.289	87.62
507.506	102.62
507.722	124.62
507.939	102.62
508.155	98.62
508.372	94.62
508.588	87.62
508.805	90.62
509.021	97.62
509.238	83.62
509.454	95.62
509.67	82.62
509.887	106.62
510.103	110.62
510.319	205.62
510.536	661.62
510.752	2165.62
510.968	605.62
511.184	143.62
511.401	105.62
511.617	112.62
511.833	103.62
512.049	93.62
512.265	93.62
512.481	75.62
512.698	97.62
512.914	87.62
513.13	97.62
513.346	93.62
513.562	104.62
513.778	93.62
513.994	99.62
514.21	99.62
514.426	103.62
514.642	103.62
514.858	105.62
