Data from Circ_1992_H10_HRD10591_00024.txt Node
Date: Wed Jan 03 11:47:49 EST 2024
User: Yrep
Spectrometer: HR+D1059
Trigger mode: 1
Integration Time (sec): 1.000000E-1
Scans to average: 1
Electric dark correction enabled: true
Nonlinearity correction enabled: false
Boxcar width: 0
XAxis mode: Wavelengths
Number of Pixels in Spectrum: 2048
>>>>>Begin Spectral Data<<<<<
223.165	-32.44
223.4	-32.44
223.635	-32.44
223.869	-22.44
224.104	-23.44
224.338	-9.44
224.573	-28.44
224.808	2.56
225.042	-0.44
225.277	5.56
225.511	3.56
225.746	1.56
225.98	20.56
226.215	13.56
226.449	-1.44
226.683	16.56
226.918	29.56
227.152	24.56
227.387	46.56
227.621	31.56
227.856	35.56
228.09	36.56
228.324	41.56
228.559	65.56
228.793	60.56
229.027	61.56
229.262	71.56
229.496	61.56
229.73	94.56
229.964	91.56
230.199	80.56
230.433	71.56
230.667	72.56
230.901	72.56
231.136	89.56
231.37	77.56
231.604	83.56
231.838	81.56
232.072	88.56
232.306	75.56
232.541	74.56
232.775	79.56
233.009	85.56
233.243	75.56
233.477	79.56
233.711	81.56
233.945	84.56
234.179	78.56
234.413	74.56
234.647	82.56
234.881	85.56
235.115	76.56
235.349	75.56
235.583	65.56
235.817	76.56
236.051	61.56
236.285	74.56
236.519	72.56
236.753	76.56
236.987	78.56
237.221	85.56
237.455	77.56
237.689	65.56
237.922	75.56
238.156	71.56
238.39	63.56
238.624	74.56
238.858	66.56
239.091	87.56
239.325	74.56
239.559	92.56
239.793	92.56
240.027	73.56
240.26	73.56
240.494	82.56
240.728	73.56
240.961	74.56
241.195	64.56
241.429	71.56
241.662	72.56
241.896	73.56
242.13	65.56
242.363	85.56
242.597	73.56
242.83	87.56
243.064	71.56
243.298	84.56
243.531	73.56
243.765	73.56
243.998	83.56
244.232	82.56
244.465	76.56
244.699	77.56
244.932	73.56
245.166	71.56
245.399	74.56
245.633	77.56
245.866	75.56
246.099	77.56
246.333	67.56
246.566	76.56
246.8	73.56
247.033	79.56
247.266	78.56
247.5	86.56
247.733	82.56
247.966	76.56
248.2	86.56
248.433	85.56
248.666	62.56
248.899	62.56
249.133	74.56
249.366	96.56
249.599	103.56
249.832	79.56
250.066	73.56
250.299	74.56
250.532	69.56
250.765	84.56
250.998	81.56
251.231	85.56
251.465	86.56
251.698	80.56
251.931	55.56
252.164	69.56
252.397	74.56
252.63	69.56
252.863	83.56
253.096	89.56
253.329	82.56
253.562	69.56
253.795	66.56
254.028	72.56
254.261	78.56
254.494	95.56
254.727	78.56
254.96	87.56
255.193	90.56
255.426	74.56
255.659	57.56
255.892	89.56
256.124	93.56
256.357	74.56
256.59	85.56
256.823	78.56
257.056	82.56
257.289	74.56
257.521	87.56
257.754	97.56
257.987	78.56
258.22	88.56
258.452	71.56
258.685	86.56
258.918	81.56
259.151	81.56
259.383	99.56
259.616	89.56
259.849	86.56
260.081	69.56
260.314	82.56
260.547	72.56
260.779	73.56
261.012	85.56
261.244	73.56
261.477	86.56
261.71	71.56
261.942	120.56
262.175	117.56
262.407	85.56
262.64	76.56
262.872	77.56
263.105	79.56
263.337	86.56
263.57	80.56
263.802	76.56
264.035	83.56
264.267	78.56
264.499	87.56
264.732	75.56
264.964	84.56
265.197	71.56
265.429	85.56
265.661	77.56
265.894	68.56
266.126	82.56
266.358	89.56
266.591	83.56
266.823	69.56
267.055	77.56
267.287	87.56
267.52	65.56
267.752	67.56
267.984	91.56
268.216	88.56
268.448	78.56
268.681	81.56
268.913	76.56
269.145	88.56
269.377	78.56
269.609	82.56
269.841	84.56
270.073	82.56
270.306	83.56
270.538	82.56
270.77	87.56
271.002	77.56
271.234	81.56
271.466	83.56
271.698	78.56
271.93	84.56
272.162	97.56
272.394	75.56
272.626	63.56
272.858	85.56
273.09	72.56
273.322	82.56
273.553	91.56
273.785	80.56
274.017	72.56
274.249	91.56
274.481	93.56
274.713	84.56
274.945	88.56
275.176	87.56
275.408	86.56
275.64	85.56
275.872	94.56
276.104	89.56
276.335	94.56
276.567	105.56
276.799	113.56
277.031	114.56
277.262	125.56
277.494	110.56
277.726	95.56
277.957	80.56
278.189	87.56
278.421	74.56
278.652	86.56
278.884	79.56
279.115	78.56
279.347	86.56
279.579	86.56
279.81	98.56
280.042	115.56
280.273	144.56
280.505	117.56
280.736	89.56
280.968	94.56
281.199	75.56
281.431	85.56
281.662	87.56
281.894	84.56
282.125	105.56
282.356	120.56
282.588	135.56
282.819	104.56
283.051	83.56
283.282	88.56
283.513	89.56
283.745	85.56
283.976	74.56
284.207	78.56
284.439	89.56
284.67	92.56
284.901	74.56
285.132	88.56
285.364	91.56
285.595	93.56
285.826	85.56
286.057	89.56
286.288	88.56
286.52	72.56
286.751	77.56
286.982	72.56
287.213	77.56
287.444	73.56
287.675	85.56
287.906	88.56
288.138	90.56
288.369	100.56
288.6	85.56
288.831	82.56
289.062	78.56
289.293	97.56
289.524	84.56
289.755	85.56
289.986	79.56
290.217	105.56
290.448	85.56
290.679	88.56
290.91	81.56
291.141	79.56
291.371	89.56
291.602	77.56
291.833	70.56
292.064	88.56
292.295	90.56
292.526	92.56
292.757	90.56
292.987	79.56
293.218	86.56
293.449	94.56
293.68	73.56
293.91	79.56
294.141	86.56
294.372	93.56
294.603	81.56
294.833	81.56
295.064	65.56
295.295	87.56
295.525	85.56
295.756	117.56
295.987	107.56
296.217	124.56
296.448	149.56
296.679	82.56
296.909	84.56
297.14	85.56
297.37	91.56
297.601	97.56
297.831	89.56
298.062	93.56
298.292	77.56
298.523	90.56
298.753	76.56
298.984	87.56
299.214	88.56
299.445	99.56
299.675	90.56
299.905	96.56
300.136	87.56
300.366	89.56
300.597	96.56
300.827	91.56
301.057	92.56
301.288	117.56
301.518	97.56
301.748	100.56
301.979	108.56
302.209	91.56
302.439	79.56
302.669	77.56
302.9	89.56
303.13	90.56
303.36	105.56
303.59	105.56
303.82	125.56
304.051	90.56
304.281	83.56
304.511	87.56
304.741	75.56
304.971	80.56
305.201	85.56
305.431	98.56
305.661	89.56
305.891	78.56
306.121	88.56
306.352	92.56
306.582	112.56
306.812	99.56
307.042	91.56
307.272	121.56
307.502	120.56
307.731	118.56
307.961	93.56
308.191	87.56
308.421	71.56
308.651	86.56
308.881	79.56
309.111	89.56
309.341	78.56
309.571	96.56
309.8	101.56
310.03	91.56
310.26	97.56
310.49	93.56
310.72	102.56
310.949	118.56
311.179	106.56
311.409	91.56
311.639	88.56
311.868	77.56
312.098	77.56
312.328	104.56
312.557	108.56
312.787	107.56
313.017	114.56
313.246	94.56
313.476	97.56
313.706	101.56
313.935	105.56
314.165	95.56
314.394	101.56
314.624	93.56
314.853	91.56
315.083	97.56
315.312	86.56
315.542	77.56
315.771	89.56
316.001	79.56
316.23	80.56
316.46	80.56
316.689	105.56
316.919	88.56
317.148	98.56
317.377	89.56
317.607	83.56
317.836	88.56
318.065	90.56
318.295	88.56
318.524	83.56
318.753	88.56
318.983	78.56
319.212	99.56
319.441	109.56
319.67	100.56
319.9	98.56
320.129	80.56
320.358	96.56
320.587	97.56
320.816	94.56
321.046	96.56
321.275	99.56
321.504	101.56
321.733	80.56
321.962	96.56
322.191	109.56
322.42	101.56
322.649	105.56
322.878	109.56
323.108	115.56
323.337	120.56
323.566	132.56
323.795	160.56
324.024	212.56
324.253	379.56
324.482	818.56
324.71	1722.56
324.939	2330.56
325.168	855.56
325.397	262.56
325.626	150.56
325.855	122.56
326.084	125.56
326.313	142.56
326.542	137.56
326.77	226.56
326.999	434.56
327.228	924.56
327.457	1745.56
327.686	1351.56
327.914	401.56
328.143	279.56
328.372	296.56
328.6	185.56
328.829	129.56
329.058	138.56
329.287	147.56
329.515	121.56
329.744	146.56
329.972	239.56
330.201	391.56
330.43	545.56
330.658	315.56
330.887	193.56
331.115	147.56
331.344	108.56
331.572	94.56
331.801	96.56
332.03	118.56
332.258	97.56
332.486	94.56
332.715	101.56
332.943	92.56
333.172	98.56
333.4	113.56
333.629	126.56
333.857	150.56
334.085	213.56
334.314	359.56
334.542	687.56
334.771	695.56
334.999	227.56
335.227	112.56
335.455	106.56
335.684	104.56
335.912	99.56
336.14	101.56
336.369	97.56
336.597	100.56
336.825	94.56
337.053	83.56
337.281	96.56
337.51	86.56
337.738	100.56
337.966	113.56
338.194	90.56
338.422	97.56
338.65	95.56
338.878	90.56
339.106	88.56
339.334	102.56
339.562	89.56
339.79	88.56
340.018	101.56
340.246	100.56
340.474	86.56
340.702	84.56
340.93	86.56
341.158	89.56
341.386	93.56
341.614	103.56
341.842	96.56
342.07	98.56
342.298	106.56
342.526	108.56
342.754	86.56
342.981	95.56
343.209	94.56
343.437	92.56
343.665	95.56
343.893	81.56
344.12	85.56
344.348	93.56
344.576	90.56
344.804	89.56
345.031	93.56
345.259	83.56
345.487	95.56
345.714	83.56
345.942	101.56
346.17	91.56
346.397	83.56
346.625	85.56
346.853	83.56
347.08	84.56
347.308	92.56
347.535	88.56
347.763	102.56
347.99	98.56
348.218	91.56
348.445	106.56
348.673	90.56
348.9	86.56
349.128	95.56
349.355	83.56
349.583	80.56
349.81	95.56
350.037	86.56
350.265	90.56
350.492	97.56
350.72	80.56
350.947	94.56
351.174	112.56
351.402	101.56
351.629	104.56
351.856	103.56
352.083	110.56
352.311	110.56
352.538	106.56
352.765	91.56
352.992	105.56
353.22	104.56
353.447	106.56
353.674	110.56
353.901	82.56
354.128	93.56
354.355	91.56
354.583	99.56
354.81	106.56
355.037	93.56
355.264	105.56
355.491	87.56
355.718	90.56
355.945	98.56
356.172	89.56
356.399	93.56
356.626	90.56
356.853	87.56
357.08	77.56
357.307	83.56
357.534	88.56
357.761	90.56
357.988	102.56
358.215	97.56
358.441	105.56
358.668	86.56
358.895	81.56
359.122	93.56
359.349	85.56
359.576	83.56
359.802	89.56
360.029	121.56
360.256	116.56
360.483	99.56
360.709	86.56
360.936	90.56
361.163	91.56
361.39	98.56
361.616	98.56
361.843	92.56
362.07	94.56
362.296	97.56
362.523	108.56
362.749	94.56
362.976	85.56
363.203	89.56
363.429	83.56
363.656	92.56
363.882	97.56
364.109	94.56
364.335	87.56
364.562	90.56
364.788	89.56
365.015	93.56
365.241	102.56
365.468	88.56
365.694	115.56
365.92	93.56
366.147	92.56
366.373	90.56
366.599	93.56
366.826	93.56
367.052	98.56
367.278	93.56
367.505	89.56
367.731	98.56
367.957	91.56
368.184	90.56
368.41	80.56
368.636	104.56
368.862	108.56
369.089	106.56
369.315	95.56
369.541	94.56
369.767	80.56
369.993	87.56
370.219	89.56
370.445	75.56
370.672	82.56
370.898	101.56
371.124	82.56
371.35	84.56
371.576	75.56
371.802	82.56
372.028	73.56
372.254	88.56
372.48	93.56
372.706	84.56
372.932	74.56
373.158	80.56
373.384	78.56
373.61	89.56
373.835	90.56
374.061	87.56
374.287	82.56
374.513	83.56
374.739	93.56
374.965	81.56
375.191	101.56
375.416	83.56
375.642	86.56
375.868	99.56
376.094	104.56
376.319	95.56
376.545	80.56
376.771	97.56
376.997	86.56
377.222	73.56
377.448	93.56
377.674	82.56
377.899	78.56
378.125	91.56
378.35	92.56
378.576	93.56
378.802	97.56
379.027	86.56
379.253	99.56
379.478	81.56
379.704	88.56
379.929	97.56
380.155	82.56
380.38	98.56
380.606	98.56
380.831	90.56
381.057	82.56
381.282	89.56
381.507	96.56
381.733	92.56
381.958	106.56
382.184	95.56
382.409	121.56
382.634	95.56
382.86	98.56
383.085	102.56
383.31	113.56
383.535	95.56
383.761	109.56
383.986	101.56
384.211	101.56
384.436	107.56
384.662	104.56
384.887	117.56
385.112	107.56
385.337	114.56
385.562	99.56
385.787	120.56
386.013	109.56
386.238	124.56
386.463	112.56
386.688	115.56
386.913	101.56
387.138	115.56
387.363	110.56
387.588	112.56
387.813	92.56
388.038	111.56
388.263	129.56
388.488	118.56
388.713	93.56
388.938	71.56
389.163	73.56
389.387	88.56
389.612	88.56
389.837	95.56
390.062	81.56
390.287	89.56
390.512	90.56
390.736	95.56
390.961	74.56
391.186	101.56
391.411	94.56
391.636	102.56
391.86	87.56
392.085	78.56
392.31	81.56
392.534	83.56
392.759	86.56
392.984	79.56
393.208	74.56
393.433	85.56
393.658	97.56
393.882	76.56
394.107	90.56
394.331	85.56
394.556	89.56
394.78	84.56
395.005	88.56
395.229	80.56
395.454	88.56
395.678	81.56
395.903	90.56
396.127	81.56
396.352	81.56
396.576	80.56
396.801	75.56
397.025	74.56
397.249	92.56
397.474	77.56
397.698	98.56
397.922	89.56
398.147	85.56
398.371	81.56
398.595	91.56
398.82	73.56
399.044	86.56
399.268	96.56
399.492	82.56
399.717	80.56
399.941	82.56
400.165	88.56
400.389	77.56
400.613	85.56
400.837	92.56
401.062	75.56
401.286	71.56
401.51	93.56
401.734	90.56
401.958	113.56
402.182	122.56
402.406	160.56
402.63	118.56
402.854	79.56
403.078	93.56
403.302	90.56
403.526	94.56
403.75	86.56
403.974	81.56
404.198	81.56
404.422	77.56
404.645	80.56
404.869	92.56
405.093	107.56
405.317	144.56
405.541	120.56
405.765	90.56
405.988	122.56
406.212	188.56
406.436	238.56
406.66	167.56
406.883	105.56
407.107	94.56
407.331	104.56
407.555	104.56
407.778	101.56
408.002	81.56
408.226	75.56
408.449	79.56
408.673	75.56
408.896	82.56
409.12	90.56
409.344	106.56
409.567	88.56
409.791	97.56
410.014	93.56
410.238	85.56
410.461	89.56
410.685	88.56
410.908	78.56
411.132	98.56
411.355	89.56
411.578	96.56
411.802	89.56
412.025	84.56
412.249	94.56
412.472	102.56
412.695	109.56
412.919	80.56
413.142	92.56
413.365	100.56
413.589	90.56
413.812	93.56
414.035	85.56
414.258	86.56
414.482	89.56
414.705	80.56
414.928	93.56
415.151	77.56
415.374	85.56
415.597	82.56
415.821	90.56
416.044	102.56
416.267	77.56
416.49	90.56
416.713	86.56
416.936	91.56
417.159	99.56
417.382	88.56
417.605	91.56
417.828	95.56
418.051	90.56
418.274	74.56
418.497	96.56
418.72	93.56
418.943	86.56
419.166	94.56
419.389	90.56
419.611	91.56
419.834	101.56
420.057	92.56
420.28	96.56
420.503	85.56
420.726	81.56
420.948	88.56
421.171	98.56
421.394	103.56
421.617	94.56
421.839	77.56
422.062	79.56
422.285	94.56
422.507	95.56
422.73	110.56
422.953	91.56
423.175	67.56
423.398	82.56
423.621	83.56
423.843	80.56
424.066	89.56
424.288	84.56
424.511	89.56
424.733	98.56
424.956	107.56
425.178	94.56
425.401	104.56
425.623	99.56
425.846	81.56
426.068	91.56
426.291	87.56
426.513	87.56
426.735	80.56
426.958	85.56
427.18	109.56
427.402	154.56
427.625	188.56
427.847	165.56
428.069	155.56
428.292	97.56
428.514	91.56
428.736	84.56
428.958	95.56
429.181	83.56
429.403	87.56
429.625	77.56
429.847	85.56
430.069	98.56
430.292	81.56
430.514	86.56
430.736	73.56
430.958	96.56
431.18	82.56
431.402	91.56
431.624	74.56
431.846	73.56
432.068	82.56
432.29	87.56
432.512	98.56
432.734	80.56
432.956	82.56
433.178	82.56
433.4	103.56
433.622	81.56
433.844	79.56
434.066	97.56
434.287	88.56
434.509	81.56
434.731	81.56
434.953	97.56
435.175	77.56
435.397	93.56
435.618	86.56
435.84	89.56
436.062	115.56
436.284	127.56
436.505	104.56
436.727	88.56
436.949	69.56
437.17	91.56
437.392	88.56
437.614	97.56
437.835	106.56
438.057	117.56
438.278	111.56
438.5	116.56
438.721	118.56
438.943	98.56
439.165	98.56
439.386	91.56
439.608	91.56
439.829	92.56
440.05	144.56
440.272	153.56
440.493	102.56
440.715	86.56
440.936	85.56
441.158	90.56
441.379	95.56
441.6	80.56
441.822	94.56
442.043	100.56
442.264	123.56
442.486	99.56
442.707	94.56
442.928	97.56
443.149	141.56
443.371	149.56
443.592	114.56
443.813	113.56
444.034	89.56
444.255	90.56
444.476	83.56
444.698	84.56
444.919	89.56
445.14	121.56
445.361	117.56
445.582	109.56
445.803	134.56
446.024	155.56
446.245	137.56
446.466	103.56
446.687	85.56
446.908	97.56
447.129	81.56
447.35	75.56
447.571	83.56
447.792	92.56
448.013	104.56
448.234	92.56
448.455	93.56
448.675	121.56
448.896	126.56
449.117	107.56
449.338	97.56
449.559	133.56
449.779	137.56
450	94.56
450.221	77.56
450.442	94.56
450.662	103.56
450.883	111.56
451.104	108.56
451.324	91.56
451.545	94.56
451.766	79.56
451.986	86.56
452.207	73.56
452.428	80.56
452.648	95.56
452.869	103.56
453.089	121.56
453.31	115.56
453.53	102.56
453.751	86.56
453.971	110.56
454.192	114.56
454.412	88.56
454.633	96.56
454.853	86.56
455.073	86.56
455.294	101.56
455.514	93.56
455.734	90.56
455.955	80.56
456.175	89.56
456.395	87.56
456.616	79.56
456.836	82.56
457.056	63.56
457.276	76.56
457.497	94.56
457.717	85.56
457.937	77.56
458.157	96.56
458.377	99.56
458.598	100.56
458.818	167.56
459.038	160.56
459.258	117.56
459.478	84.56
459.698	69.56
459.918	94.56
460.138	78.56
460.358	97.56
460.578	96.56
460.798	80.56
461.018	82.56
461.238	80.56
461.458	72.56
461.678	92.56
461.898	86.56
462.118	89.56
462.338	88.56
462.558	67.56
462.777	75.56
462.997	86.56
463.217	91.56
463.437	73.56
463.657	86.56
463.876	91.56
464.096	95.56
464.316	82.56
464.536	91.56
464.755	84.56
464.975	90.56
465.195	167.56
465.414	172.56
465.634	101.56
465.854	77.56
466.073	87.56
466.293	77.56
466.512	83.56
466.732	87.56
466.951	96.56
467.171	93.56
467.391	104.56
467.61	118.56
467.829	136.56
468.049	259.56
468.268	329.56
468.488	136.56
468.707	94.56
468.927	82.56
469.146	90.56
469.365	99.56
469.585	86.56
469.804	96.56
470.023	104.56
470.243	82.56
470.462	101.56
470.681	103.56
470.901	84.56
471.12	87.56
471.339	90.56
471.558	90.56
471.777	113.56
471.997	161.56
472.216	453.56
472.435	938.56
472.654	269.56
472.873	115.56
473.092	91.56
473.311	87.56
473.53	90.56
473.749	102.56
473.968	98.56
474.187	106.56
474.406	92.56
474.625	82.56
474.844	81.56
475.063	77.56
475.282	77.56
475.501	88.56
475.72	74.56
475.939	77.56
476.158	71.56
476.377	86.56
476.596	93.56
476.814	95.56
477.033	75.56
477.252	87.56
477.471	69.56
477.69	76.56
477.908	92.56
478.127	82.56
478.346	96.56
478.564	92.56
478.783	85.56
479.002	100.56
479.22	90.56
479.439	105.56
479.658	119.56
479.876	92.56
480.095	100.56
480.313	110.56
480.532	110.56
480.751	170.56
480.969	443.56
481.188	1630.56
481.406	996.56
481.624	192.56
481.843	114.56
482.061	107.56
482.28	91.56
482.498	106.56
482.717	82.56
482.935	86.56
483.153	89.56
483.372	81.56
483.59	89.56
483.808	79.56
484.027	96.56
484.245	81.56
484.463	96.56
484.681	89.56
484.9	107.56
485.118	98.56
485.336	93.56
485.554	108.56
485.772	97.56
485.99	110.56
486.209	107.56
486.427	112.56
486.645	108.56
486.863	117.56
487.081	102.56
487.299	112.56
487.517	110.56
487.735	90.56
487.953	87.56
488.171	89.56
488.389	90.56
488.607	103.56
488.825	92.56
489.043	85.56
489.261	82.56
489.479	75.56
489.696	84.56
489.914	87.56
490.132	85.56
490.35	79.56
490.568	85.56
490.786	83.56
491.003	72.56
491.221	93.56
491.439	99.56
491.657	80.56
491.874	88.56
492.092	90.56
492.31	86.56
492.527	97.56
492.745	75.56
492.963	79.56
493.18	96.56
493.398	88.56
493.615	80.56
493.833	99.56
494.05	89.56
494.268	104.56
494.485	94.56
494.703	89.56
494.92	90.56
495.138	93.56
495.355	77.56
495.573	93.56
495.79	80.56
496.008	83.56
496.225	85.56
496.442	86.56
496.66	82.56
496.877	87.56
497.094	79.56
497.312	71.56
497.529	74.56
497.746	95.56
497.963	98.56
498.181	103.56
498.398	99.56
498.615	117.56
498.832	99.56
499.049	87.56
499.267	92.56
499.484	78.56
499.701	95.56
499.918	98.56
500.135	85.56
500.352	94.56
500.569	92.56
500.786	89.56
501.003	81.56
501.22	81.56
501.437	89.56
501.654	91.56
501.871	118.56
502.088	96.56
502.305	84.56
502.522	93.56
502.739	95.56
502.956	87.56
503.172	89.56
503.389	97.56
503.606	97.56
503.823	86.56
504.04	102.56
504.256	98.56
504.473	84.56
504.69	86.56
504.907	89.56
505.123	101.56
505.34	77.56
505.557	71.56
505.773	79.56
505.99	72.56
506.207	97.56
506.423	85.56
506.64	71.56
506.856	98.56
507.073	102.56
507.289	77.56
507.506	91.56
507.722	114.56
507.939	126.56
508.155	108.56
508.372	90.56
508.588	79.56
508.805	85.56
509.021	89.56
509.238	98.56
509.454	97.56
509.67	78.56
509.887	116.56
510.103	128.56
510.319	223.56
510.536	768.56
510.752	2489.56
510.968	704.56
511.184	153.56
511.401	121.56
511.617	103.56
511.833	96.56
512.049	93.56
512.265	94.56
512.481	91.56
512.698	87.56
512.914	87.56
513.13	89.56
513.346	98.56
513.562	94.56
513.778	103.56
513.994	104.56
514.21	109.56
514.426	120.56
514.642	135.56
514.858	151.56
515.074	183.56
515.29	503.56
515.506	1713.56
515.721	612.56
