Data from Circ_1992_H10_HRD10591_00087.txt Node
Date: Wed Jan 03 11:48:02 EST 2024
User: Yrep
Spectrometer: HR+D1059
Trigger mode: 1
Integration Time (sec): 1.000000E-1
Scans to average: 1
Electric dark correction enabled: true
Nonlinearity correction enabled: false
Boxcar width: 0
XAxis mode: Wavelengths
Number of Pixels in Spectrum: 2048
>>>>>Begin Spectral Data<<<<<
223.165	-21.56
223.4	-21.56
223.635	-21.56
223.869	-24.56
224.104	-22.56
224.338	-7.56
224.573	-21.56
224.808	-12.56
225.042	1.44
225.277	-3.56
225.511	-17.56
225.746	4.44
225.98	12.44
226.215	5.44
226.449	30.44
226.683	22.44
226.918	20.44
227.152	34.44
227.387	39.44
227.621	40.44
227.856	46.44
228.09	47.44
228.324	59.44
228.559	46.44
228.793	68.44
229.027	76.44
229.262	77.44
229.496	74.44
229.73	62.44
229.964	93.44
230.199	80.44
230.433	100.44
230.667	90.44
230.901	65.44
231.136	71.44
231.37	84.44
231.604	61.44
231.838	80.44
232.072	82.44
232.306	67.44
232.541	80.44
232.775	78.44
233.009	84.44
233.243	91.44
233.477	81.44
233.711	83.44
233.945	82.44
234.179	88.44
234.413	94.44
234.647	71.44
234.881	75.44
235.115	82.44
235.349	80.44
235.583	76.44
235.817	67.44
236.051	76.44
236.285	78.44
236.519	77.44
236.753	81.44
236.987	64.44
237.221	82.44
237.455	88.44
237.689	62.44
237.922	71.44
238.156	71.44
238.39	66.44
238.624	88.44
238.858	85.44
239.091	64.44
239.325	74.44
239.559	86.44
239.793	80.44
240.027	92.44
240.26	80.44
240.494	76.44
240.728	81.44
240.961	80.44
241.195	85.44
241.429	70.44
241.662	71.44
241.896	83.44
242.13	78.44
242.363	83.44
242.597	78.44
242.83	83.44
243.064	78.44
243.298	78.44
243.531	70.44
243.765	72.44
243.998	81.44
244.232	82.44
244.465	79.44
244.699	92.44
244.932	90.44
245.166	77.44
245.399	90.44
245.633	78.44
245.866	67.44
246.099	86.44
246.333	76.44
246.566	71.44
246.8	71.44
247.033	95.44
247.266	84.44
247.5	71.44
247.733	72.44
247.966	91.44
248.2	76.44
248.433	82.44
248.666	82.44
248.899	91.44
249.133	101.44
249.366	90.44
249.599	97.44
249.832	70.44
250.066	84.44
250.299	81.44
250.532	80.44
250.765	79.44
250.998	84.44
251.231	85.44
251.465	94.44
251.698	80.44
251.931	67.44
252.164	74.44
252.397	78.44
252.63	85.44
252.863	86.44
253.096	83.44
253.329	72.44
253.562	78.44
253.795	83.44
254.028	80.44
254.261	87.44
254.494	76.44
254.727	85.44
254.96	79.44
255.193	86.44
255.426	81.44
255.659	86.44
255.892	83.44
256.124	84.44
256.357	79.44
256.59	74.44
256.823	97.44
257.056	87.44
257.289	76.44
257.521	93.44
257.754	81.44
257.987	83.44
258.22	75.44
258.452	90.44
258.685	73.44
258.918	85.44
259.151	76.44
259.383	98.44
259.616	91.44
259.849	82.44
260.081	82.44
260.314	87.44
260.547	75.44
260.779	90.44
261.012	101.44
261.244	87.44
261.477	98.44
261.71	102.44
261.942	128.44
262.175	117.44
262.407	85.44
262.64	77.44
262.872	85.44
263.105	77.44
263.337	95.44
263.57	94.44
263.802	83.44
264.035	78.44
264.267	90.44
264.499	82.44
264.732	80.44
264.964	88.44
265.197	87.44
265.429	93.44
265.661	70.44
265.894	77.44
266.126	78.44
266.358	82.44
266.591	74.44
266.823	79.44
267.055	79.44
267.287	83.44
267.52	84.44
267.752	84.44
267.984	93.44
268.216	86.44
268.448	81.44
268.681	91.44
268.913	85.44
269.145	82.44
269.377	93.44
269.609	82.44
269.841	91.44
270.073	92.44
270.306	79.44
270.538	71.44
270.77	68.44
271.002	78.44
271.234	84.44
271.466	85.44
271.698	91.44
271.93	96.44
272.162	83.44
272.394	86.44
272.626	91.44
272.858	66.44
273.09	92.44
273.322	90.44
273.553	102.44
273.785	83.44
274.017	81.44
274.249	80.44
274.481	75.44
274.713	77.44
274.945	86.44
275.176	92.44
275.408	93.44
275.64	99.44
275.872	83.44
276.104	90.44
276.335	98.44
276.567	108.44
276.799	118.44
277.031	115.44
277.262	133.44
277.494	110.44
277.726	95.44
277.957	89.44
278.189	99.44
278.421	80.44
278.652	88.44
278.884	70.44
279.115	101.44
279.347	88.44
279.579	99.44
279.81	107.44
280.042	138.44
280.273	167.44
280.505	124.44
280.736	82.44
280.968	83.44
281.199	80.44
281.431	87.44
281.662	95.44
281.894	84.44
282.125	98.44
282.356	107.44
282.588	131.44
282.819	99.44
283.051	79.44
283.282	104.44
283.513	80.44
283.745	91.44
283.976	74.44
284.207	95.44
284.439	78.44
284.67	78.44
284.901	90.44
285.132	101.44
285.364	70.44
285.595	86.44
285.826	88.44
286.057	91.44
286.288	71.44
286.52	82.44
286.751	88.44
286.982	85.44
287.213	89.44
287.444	74.44
287.675	86.44
287.906	101.44
288.138	99.44
288.369	96.44
288.6	89.44
288.831	94.44
289.062	91.44
289.293	91.44
289.524	81.44
289.755	90.44
289.986	83.44
290.217	114.44
290.448	95.44
290.679	95.44
290.91	93.44
291.141	86.44
291.371	107.44
291.602	94.44
291.833	96.44
292.064	81.44
292.295	94.44
292.526	92.44
292.757	97.44
292.987	87.44
293.218	83.44
293.449	101.44
293.68	92.44
293.91	98.44
294.141	87.44
294.372	84.44
294.603	81.44
294.833	88.44
295.064	102.44
295.295	93.44
295.525	86.44
295.756	94.44
295.987	96.44
296.217	138.44
296.448	131.44
296.679	86.44
296.909	88.44
297.14	92.44
297.37	88.44
297.601	96.44
297.831	92.44
298.062	96.44
298.292	101.44
298.523	102.44
298.753	96.44
298.984	82.44
299.214	90.44
299.445	97.44
299.675	104.44
299.905	95.44
300.136	97.44
300.366	77.44
300.597	94.44
300.827	88.44
301.057	103.44
301.288	103.44
301.518	98.44
301.748	90.44
301.979	102.44
302.209	94.44
302.439	93.44
302.669	81.44
302.9	83.44
303.13	92.44
303.36	99.44
303.59	100.44
303.82	107.44
304.051	94.44
304.281	96.44
304.511	105.44
304.741	82.44
304.971	74.44
305.201	88.44
305.431	80.44
305.661	96.44
305.891	102.44
306.121	82.44
306.352	107.44
306.582	111.44
306.812	95.44
307.042	105.44
307.272	124.44
307.502	129.44
307.731	152.44
307.961	110.44
308.191	86.44
308.421	100.44
308.651	99.44
308.881	106.44
309.111	87.44
309.341	81.44
309.571	99.44
309.8	77.44
310.03	89.44
310.26	107.44
310.49	98.44
310.72	95.44
310.949	101.44
311.179	106.44
311.409	101.44
311.639	95.44
311.868	102.44
312.098	91.44
312.328	108.44
312.557	104.44
312.787	88.44
313.017	95.44
313.246	95.44
313.476	96.44
313.706	100.44
313.935	102.44
314.165	95.44
314.394	105.44
314.624	106.44
314.853	94.44
315.083	87.44
315.312	93.44
315.542	95.44
315.771	85.44
316.001	96.44
316.23	96.44
316.46	88.44
316.689	85.44
316.919	79.44
317.148	84.44
317.377	91.44
317.607	85.44
317.836	83.44
318.065	79.44
318.295	88.44
318.524	80.44
318.753	104.44
318.983	99.44
319.212	101.44
319.441	113.44
319.67	106.44
319.9	103.44
320.129	96.44
320.358	100.44
320.587	97.44
320.816	100.44
321.046	113.44
321.275	107.44
321.504	95.44
321.733	97.44
321.962	101.44
322.191	109.44
322.42	109.44
322.649	117.44
322.878	113.44
323.108	112.44
323.337	138.44
323.566	129.44
323.795	155.44
324.024	214.44
324.253	390.44
324.482	870.44
324.71	1867.44
324.939	2488.44
325.168	896.44
325.397	258.44
325.626	147.44
325.855	142.44
326.084	141.44
326.313	140.44
326.542	165.44
326.77	230.44
326.999	462.44
327.228	990.44
327.457	1922.44
327.686	1535.44
327.914	439.44
328.143	308.44
328.372	355.44
328.6	207.44
328.829	154.44
329.058	150.44
329.287	146.44
329.515	147.44
329.744	162.44
329.972	264.44
330.201	499.44
330.43	673.44
330.658	317.44
330.887	175.44
331.115	121.44
331.344	115.44
331.572	101.44
331.801	108.44
332.03	119.44
332.258	104.44
332.486	100.44
332.715	101.44
332.943	107.44
333.172	106.44
333.4	120.44
333.629	139.44
333.857	174.44
334.085	246.44
334.314	446.44
334.542	843.44
334.771	806.44
334.999	251.44
335.227	115.44
335.455	112.44
335.684	99.44
335.912	102.44
336.14	109.44
336.369	96.44
336.597	105.44
336.825	103.44
337.053	88.44
337.281	88.44
337.51	86.44
337.738	97.44
337.966	83.44
338.194	87.44
338.422	103.44
338.65	86.44
338.878	92.44
339.106	87.44
339.334	91.44
339.562	90.44
339.79	85.44
340.018	84.44
340.246	92.44
340.474	107.44
340.702	97.44
340.93	93.44
341.158	108.44
341.386	99.44
341.614	99.44
341.842	78.44
342.07	82.44
342.298	93.44
342.526	87.44
342.754	93.44
342.981	94.44
343.209	92.44
343.437	95.44
343.665	84.44
343.893	91.44
344.12	103.44
344.348	80.44
344.576	100.44
344.804	102.44
345.031	101.44
345.259	95.44
345.487	98.44
345.714	84.44
345.942	93.44
346.17	99.44
346.397	92.44
346.625	87.44
346.853	102.44
347.08	83.44
347.308	83.44
347.535	82.44
347.763	95.44
347.99	98.44
348.218	106.44
348.445	106.44
348.673	99.44
348.9	101.44
349.128	91.44
349.355	86.44
349.583	76.44
349.81	96.44
350.037	108.44
350.265	90.44
350.492	105.44
350.72	103.44
350.947	104.44
351.174	99.44
351.402	103.44
351.629	101.44
351.856	95.44
352.083	98.44
352.311	98.44
352.538	95.44
352.765	94.44
352.992	101.44
353.22	115.44
353.447	101.44
353.674	99.44
353.901	114.44
354.128	86.44
354.355	102.44
354.583	106.44
354.81	94.44
355.037	92.44
355.264	103.44
355.491	97.44
355.718	83.44
355.945	99.44
356.172	96.44
356.399	90.44
356.626	89.44
356.853	101.44
357.08	91.44
357.307	106.44
357.534	99.44
357.761	94.44
357.988	102.44
358.215	102.44
358.441	97.44
358.668	76.44
358.895	99.44
359.122	71.44
359.349	80.44
359.576	112.44
359.802	105.44
360.029	115.44
360.256	118.44
360.483	110.44
360.709	98.44
360.936	99.44
361.163	90.44
361.39	96.44
361.616	94.44
361.843	104.44
362.07	94.44
362.296	92.44
362.523	89.44
362.749	88.44
362.976	90.44
363.203	87.44
363.429	93.44
363.656	97.44
363.882	98.44
364.109	83.44
364.335	100.44
364.562	91.44
364.788	86.44
365.015	105.44
365.241	78.44
365.468	105.44
365.694	87.44
365.92	94.44
366.147	97.44
366.373	100.44
366.599	94.44
366.826	111.44
367.052	99.44
367.278	90.44
367.505	98.44
367.731	94.44
367.957	110.44
368.184	85.44
368.41	93.44
368.636	111.44
368.862	105.44
369.089	101.44
369.315	86.44
369.541	100.44
369.767	78.44
369.993	80.44
370.219	88.44
370.445	95.44
370.672	104.44
370.898	84.44
371.124	93.44
371.35	84.44
371.576	87.44
371.802	95.44
372.028	97.44
372.254	96.44
372.48	83.44
372.706	92.44
372.932	85.44
373.158	88.44
373.384	98.44
373.61	76.44
373.835	94.44
374.061	72.44
374.287	100.44
374.513	95.44
374.739	82.44
374.965	95.44
375.191	101.44
375.416	93.44
375.642	82.44
375.868	94.44
376.094	95.44
376.319	94.44
376.545	88.44
376.771	81.44
376.997	82.44
377.222	107.44
377.448	92.44
377.674	93.44
377.899	95.44
378.125	93.44
378.35	95.44
378.576	103.44
378.802	87.44
379.027	88.44
379.253	103.44
379.478	80.44
379.704	89.44
379.929	95.44
380.155	78.44
380.38	99.44
380.606	98.44
380.831	99.44
381.057	101.44
381.282	83.44
381.507	99.44
381.733	98.44
381.958	98.44
382.184	96.44
382.409	71.44
382.634	110.44
382.86	100.44
383.085	100.44
383.31	107.44
383.535	92.44
383.761	78.44
383.986	123.44
384.211	110.44
384.436	102.44
384.662	108.44
384.887	114.44
385.112	102.44
385.337	100.44
385.562	107.44
385.787	106.44
386.013	111.44
386.238	101.44
386.463	111.44
386.688	117.44
386.913	95.44
387.138	100.44
387.363	102.44
387.588	98.44
387.813	94.44
388.038	89.44
388.263	111.44
388.488	109.44
388.713	92.44
388.938	90.44
389.163	76.44
389.387	89.44
389.612	108.44
389.837	113.44
390.062	89.44
390.287	87.44
390.512	87.44
390.736	94.44
390.961	86.44
391.186	93.44
391.411	97.44
391.636	103.44
391.86	92.44
392.085	82.44
392.31	103.44
392.534	95.44
392.759	86.44
392.984	90.44
393.208	88.44
393.433	89.44
393.658	90.44
393.882	80.44
394.107	101.44
394.331	69.44
394.556	68.44
394.78	83.44
395.005	88.44
395.229	92.44
395.454	87.44
395.678	70.44
395.903	87.44
396.127	87.44
396.352	99.44
396.576	87.44
396.801	75.44
397.025	87.44
397.249	80.44
397.474	78.44
397.698	82.44
397.922	80.44
398.147	93.44
398.371	85.44
398.595	79.44
398.82	86.44
399.044	80.44
399.268	96.44
399.492	92.44
399.717	88.44
399.941	95.44
400.165	92.44
400.389	87.44
400.613	80.44
400.837	80.44
401.062	99.44
401.286	92.44
401.51	93.44
401.734	94.44
401.958	95.44
402.182	118.44
402.406	145.44
402.63	116.44
402.854	91.44
403.078	96.44
403.302	93.44
403.526	82.44
403.75	99.44
403.974	83.44
404.198	80.44
404.422	93.44
404.645	84.44
404.869	99.44
405.093	96.44
405.317	132.44
405.541	125.44
405.765	102.44
405.988	104.44
406.212	160.44
406.436	198.44
406.66	146.44
406.883	102.44
407.107	80.44
407.331	98.44
407.555	104.44
407.778	94.44
408.002	92.44
408.226	97.44
408.449	80.44
408.673	91.44
408.896	100.44
409.12	99.44
409.344	89.44
409.567	78.44
409.791	87.44
410.014	93.44
410.238	82.44
410.461	88.44
410.685	96.44
410.908	101.44
411.132	114.44
411.355	96.44
411.578	91.44
411.802	93.44
412.025	84.44
412.249	96.44
412.472	92.44
412.695	107.44
412.919	101.44
413.142	94.44
413.365	90.44
413.589	101.44
413.812	94.44
414.035	101.44
414.258	98.44
414.482	82.44
414.705	81.44
414.928	101.44
415.151	94.44
415.374	92.44
415.597	89.44
415.821	88.44
416.044	87.44
416.267	100.44
416.49	86.44
416.713	101.44
416.936	85.44
417.159	78.44
417.382	90.44
417.605	95.44
417.828	102.44
418.051	99.44
418.274	85.44
418.497	81.44
418.72	78.44
418.943	87.44
419.166	86.44
419.389	86.44
419.611	105.44
419.834	87.44
420.057	78.44
420.28	86.44
420.503	79.44
420.726	86.44
420.948	96.44
421.171	91.44
421.394	99.44
421.617	90.44
421.839	91.44
422.062	95.44
422.285	95.44
422.507	100.44
422.73	93.44
422.953	97.44
423.175	90.44
423.398	94.44
423.621	96.44
423.843	79.44
424.066	86.44
424.288	96.44
424.511	93.44
424.733	100.44
424.956	108.44
425.178	99.44
425.401	98.44
425.623	91.44
425.846	94.44
426.068	99.44
426.291	97.44
426.513	94.44
426.735	94.44
426.958	101.44
427.18	117.44
427.402	141.44
427.625	189.44
427.847	183.44
428.069	180.44
428.292	107.44
428.514	83.44
428.736	94.44
428.958	88.44
429.181	91.44
429.403	87.44
429.625	69.44
429.847	97.44
430.069	101.44
430.292	101.44
430.514	74.44
430.736	82.44
430.958	90.44
431.18	93.44
431.402	87.44
431.624	92.44
431.846	98.44
432.068	73.44
432.29	98.44
432.512	76.44
432.734	79.44
432.956	92.44
433.178	106.44
433.4	110.44
433.622	97.44
433.844	95.44
434.066	94.44
434.287	90.44
434.509	76.44
434.731	78.44
434.953	90.44
435.175	93.44
435.397	86.44
435.618	80.44
435.84	110.44
436.062	128.44
436.284	119.44
436.505	114.44
436.727	120.44
436.949	89.44
437.17	102.44
437.392	97.44
437.614	93.44
437.835	95.44
438.057	115.44
438.278	108.44
438.5	112.44
438.721	128.44
438.943	102.44
439.165	86.44
439.386	85.44
439.608	103.44
439.829	98.44
440.05	127.44
440.272	147.44
440.493	91.44
440.715	106.44
440.936	96.44
441.158	91.44
441.379	94.44
441.6	86.44
441.822	95.44
442.043	106.44
442.264	97.44
442.486	114.44
442.707	98.44
442.928	108.44
443.149	123.44
443.371	125.44
443.592	114.44
443.813	126.44
444.034	116.44
444.255	86.44
444.476	80.44
444.698	87.44
444.919	97.44
445.14	142.44
445.361	117.44
445.582	117.44
445.803	138.44
446.024	124.44
446.245	140.44
446.466	125.44
446.687	94.44
446.908	81.44
447.129	92.44
447.35	88.44
447.571	101.44
447.792	95.44
448.013	91.44
448.234	87.44
448.455	105.44
448.675	107.44
448.896	128.44
449.117	94.44
449.338	103.44
449.559	142.44
449.779	119.44
450	102.44
450.221	94.44
450.442	99.44
450.662	95.44
450.883	99.44
451.104	99.44
451.324	81.44
451.545	87.44
451.766	75.44
451.986	82.44
452.207	89.44
452.428	86.44
452.648	92.44
452.869	95.44
453.089	110.44
453.31	114.44
453.53	99.44
453.751	82.44
453.971	104.44
454.192	104.44
454.412	91.44
454.633	86.44
454.853	82.44
455.073	95.44
455.294	89.44
455.514	84.44
455.734	90.44
455.955	92.44
456.175	82.44
456.395	88.44
456.616	90.44
456.836	94.44
457.056	95.44
457.276	81.44
457.497	90.44
457.717	94.44
457.937	90.44
458.157	84.44
458.377	104.44
458.598	121.44
458.818	158.44
459.038	177.44
459.258	106.44
459.478	87.44
459.698	90.44
459.918	99.44
460.138	91.44
460.358	81.44
460.578	83.44
460.798	85.44
461.018	98.44
461.238	91.44
461.458	92.44
461.678	85.44
461.898	83.44
462.118	70.44
462.338	103.44
462.558	77.44
462.777	86.44
462.997	94.44
463.217	105.44
463.437	86.44
463.657	90.44
463.876	95.44
464.096	94.44
464.316	103.44
464.536	84.44
464.755	87.44
464.975	120.44
465.195	155.44
465.414	156.44
465.634	110.44
465.854	88.44
466.073	86.44
466.293	88.44
466.512	97.44
466.732	92.44
466.951	97.44
467.171	83.44
467.391	109.44
467.61	118.44
467.829	143.44
468.049	304.44
468.268	418.44
468.488	148.44
468.707	88.44
468.927	92.44
469.146	94.44
469.365	108.44
469.585	95.44
469.804	102.44
470.023	100.44
470.243	90.44
470.462	98.44
470.681	117.44
470.901	99.44
471.12	93.44
471.339	102.44
471.558	111.44
471.777	127.44
471.997	202.44
472.216	551.44
472.435	1192.44
472.654	314.44
472.873	120.44
473.092	105.44
473.311	102.44
473.53	94.44
473.749	108.44
473.968	99.44
474.187	109.44
474.406	87.44
474.625	91.44
474.844	100.44
475.063	83.44
475.282	106.44
475.501	100.44
475.72	93.44
475.939	81.44
476.158	90.44
476.377	95.44
476.596	89.44
476.814	81.44
477.033	100.44
477.252	100.44
477.471	81.44
477.69	98.44
477.908	98.44
478.127	93.44
478.346	94.44
478.564	92.44
478.783	93.44
479.002	108.44
479.22	95.44
479.439	106.44
479.658	108.44
479.876	94.44
480.095	108.44
480.313	113.44
480.532	135.44
480.751	175.44
480.969	540.44
481.188	2085.44
481.406	1189.44
481.624	225.44
481.843	108.44
482.061	94.44
482.28	98.44
482.498	93.44
482.717	94.44
482.935	100.44
483.153	102.44
483.372	98.44
483.59	78.44
483.808	84.44
484.027	95.44
484.245	95.44
484.463	87.44
484.681	95.44
484.9	85.44
485.118	107.44
485.336	99.44
485.554	88.44
485.772	100.44
485.99	98.44
486.209	88.44
486.427	115.44
486.645	102.44
486.863	128.44
487.081	101.44
487.299	96.44
487.517	97.44
487.735	101.44
487.953	80.44
488.171	100.44
488.389	112.44
488.607	98.44
488.825	90.44
489.043	72.44
489.261	92.44
489.479	97.44
489.696	86.44
489.914	92.44
490.132	78.44
490.35	95.44
490.568	87.44
490.786	102.44
491.003	107.44
491.221	87.44
491.439	89.44
491.657	82.44
491.874	91.44
492.092	83.44
492.31	97.44
492.527	102.44
492.745	91.44
492.963	101.44
493.18	101.44
493.398	99.44
493.615	91.44
493.833	101.44
494.05	87.44
494.268	94.44
494.485	95.44
494.703	92.44
494.92	101.44
495.138	95.44
495.355	88.44
495.573	84.44
495.79	79.44
496.008	93.44
496.225	100.44
496.442	87.44
496.66	82.44
496.877	85.44
497.094	87.44
497.312	90.44
497.529	86.44
497.746	90.44
497.963	87.44
498.181	103.44
498.398	99.44
498.615	113.44
498.832	103.44
499.049	102.44
499.267	84.44
499.484	94.44
499.701	87.44
499.918	96.44
500.135	94.44
500.352	102.44
500.569	88.44
500.786	109.44
501.003	101.44
501.22	88.44
501.437	94.44
501.654	92.44
501.871	100.44
502.088	81.44
502.305	92.44
502.522	97.44
502.739	90.44
502.956	98.44
503.172	77.44
503.389	95.44
503.606	93.44
503.823	106.44
504.04	83.44
504.256	95.44
504.473	87.44
504.69	75.44
504.907	91.44
505.123	79.44
505.34	89.44
505.557	91.44
505.773	98.44
505.99	79.44
506.207	81.44
506.423	85.44
506.64	92.44
506.856	80.44
507.073	97.44
507.289	77.44
507.506	99.44
507.722	111.44
507.939	99.44
508.155	100.44
508.372	79.44
508.588	91.44
508.805	112.44
509.021	91.44
509.238	96.44
509.454	100.44
509.67	99.44
509.887	95.44
510.103	110.44
510.319	174.44
510.536	600.44
510.752	1967.44
510.968	576.44
511.184	141.44
511.401	124.44
511.617	98.44
511.833	87.44
512.049	90.44
512.265	94.44
512.481	76.44
512.698	90.44
512.914	101.44
513.13	90.44
513.346	92.44
513.562	101.44
513.778	90.44
513.994	110.44
514.21	101.44
514.426	114.44
514.642	129.44
