Data from Circ_1992_H10_HRD10591_00041.txt Node
Date: Wed Jan 03 11:47:53 EST 2024
User: Yrep
Spectrometer: HR+D1059
Trigger mode: 1
Integration Time (sec): 1.000000E-1
Scans to average: 1
Electric dark correction enabled: true
Nonlinearity correction enabled: false
Boxcar width: 0
XAxis mode: Wavelengths
Number of Pixels in Spectrum: 2048
>>>>>Begin Spectral Data<<<<<
223.165	-17.94
223.4	-17.94
223.635	-17.94
223.869	-18.94
224.104	-17.94
224.338	-32.94
224.573	-4.94
224.808	-11.94
225.042	4.06
225.277	-17.94
225.511	-3.94
225.746	0.06
225.98	19.06
226.215	9.06
226.449	23.06
226.683	23.06
226.918	24.06
227.152	24.06
227.387	38.06
227.621	26.06
227.856	38.06
228.09	43.06
228.324	51.06
228.559	64.06
228.793	68.06
229.027	60.06
229.262	58.06
229.496	84.06
229.73	87.06
229.964	88.06
230.199	75.06
230.433	75.06
230.667	80.06
230.901	86.06
231.136	87.06
231.37	68.06
231.604	95.06
231.838	79.06
232.072	82.06
232.306	81.06
232.541	77.06
232.775	83.06
233.009	81.06
233.243	75.06
233.477	90.06
233.711	80.06
233.945	86.06
234.179	68.06
234.413	85.06
234.647	89.06
234.881	75.06
235.115	71.06
235.349	83.06
235.583	74.06
235.817	80.06
236.051	72.06
236.285	69.06
236.519	67.06
236.753	89.06
236.987	79.06
237.221	92.06
237.455	93.06
237.689	57.06
237.922	59.06
238.156	64.06
238.39	64.06
238.624	67.06
238.858	81.06
239.091	71.06
239.325	76.06
239.559	82.06
239.793	64.06
240.027	78.06
240.26	79.06
240.494	75.06
240.728	81.06
240.961	72.06
241.195	70.06
241.429	77.06
241.662	72.06
241.896	77.06
242.13	89.06
242.363	89.06
242.597	62.06
242.83	79.06
243.064	71.06
243.298	61.06
243.531	83.06
243.765	87.06
243.998	64.06
244.232	81.06
244.465	80.06
244.699	87.06
244.932	73.06
245.166	89.06
245.399	78.06
245.633	89.06
245.866	69.06
246.099	71.06
246.333	72.06
246.566	65.06
246.8	64.06
247.033	74.06
247.266	82.06
247.5	72.06
247.733	89.06
247.966	77.06
248.2	79.06
248.433	72.06
248.666	82.06
248.899	84.06
249.133	91.06
249.366	106.06
249.599	93.06
249.832	84.06
250.066	86.06
250.299	77.06
250.532	95.06
250.765	81.06
250.998	71.06
251.231	79.06
251.465	80.06
251.698	77.06
251.931	83.06
252.164	92.06
252.397	80.06
252.63	77.06
252.863	87.06
253.096	91.06
253.329	96.06
253.562	89.06
253.795	80.06
254.028	75.06
254.261	67.06
254.494	77.06
254.727	88.06
254.96	82.06
255.193	100.06
255.426	77.06
255.659	86.06
255.892	83.06
256.124	75.06
256.357	84.06
256.59	83.06
256.823	83.06
257.056	84.06
257.289	82.06
257.521	81.06
257.754	78.06
257.987	96.06
258.22	82.06
258.452	89.06
258.685	73.06
258.918	77.06
259.151	87.06
259.383	65.06
259.616	65.06
259.849	75.06
260.081	86.06
260.314	88.06
260.547	92.06
260.779	103.06
261.012	97.06
261.244	91.06
261.477	93.06
261.71	111.06
261.942	115.06
262.175	124.06
262.407	88.06
262.64	77.06
262.872	101.06
263.105	83.06
263.337	64.06
263.57	77.06
263.802	75.06
264.035	90.06
264.267	81.06
264.499	77.06
264.732	91.06
264.964	82.06
265.197	83.06
265.429	83.06
265.661	92.06
265.894	91.06
266.126	87.06
266.358	75.06
266.591	78.06
266.823	66.06
267.055	77.06
267.287	73.06
267.52	87.06
267.752	91.06
267.984	93.06
268.216	71.06
268.448	71.06
268.681	83.06
268.913	81.06
269.145	96.06
269.377	91.06
269.609	89.06
269.841	88.06
270.073	85.06
270.306	93.06
270.538	102.06
270.77	84.06
271.002	74.06
271.234	78.06
271.466	86.06
271.698	93.06
271.93	84.06
272.162	94.06
272.394	86.06
272.626	85.06
272.858	89.06
273.09	88.06
273.322	80.06
273.553	93.06
273.785	83.06
274.017	82.06
274.249	85.06
274.481	80.06
274.713	70.06
274.945	82.06
275.176	92.06
275.408	90.06
275.64	80.06
275.872	106.06
276.104	77.06
276.335	81.06
276.567	96.06
276.799	119.06
277.031	129.06
277.262	130.06
277.494	109.06
277.726	100.06
277.957	79.06
278.189	86.06
278.421	94.06
278.652	83.06
278.884	93.06
279.115	79.06
279.347	76.06
279.579	99.06
279.81	109.06
280.042	130.06
280.273	167.06
280.505	124.06
280.736	99.06
280.968	68.06
281.199	97.06
281.431	88.06
281.662	94.06
281.894	93.06
282.125	109.06
282.356	115.06
282.588	163.06
282.819	109.06
283.051	88.06
283.282	79.06
283.513	76.06
283.745	78.06
283.976	94.06
284.207	101.06
284.439	77.06
284.67	99.06
284.901	89.06
285.132	78.06
285.364	90.06
285.595	92.06
285.826	79.06
286.057	74.06
286.288	83.06
286.52	75.06
286.751	83.06
286.982	86.06
287.213	89.06
287.444	82.06
287.675	83.06
287.906	79.06
288.138	82.06
288.369	93.06
288.6	86.06
288.831	76.06
289.062	82.06
289.293	77.06
289.524	83.06
289.755	88.06
289.986	84.06
290.217	83.06
290.448	82.06
290.679	76.06
290.91	98.06
291.141	85.06
291.371	87.06
291.602	86.06
291.833	85.06
292.064	94.06
292.295	77.06
292.526	75.06
292.757	75.06
292.987	89.06
293.218	83.06
293.449	90.06
293.68	89.06
293.91	89.06
294.141	80.06
294.372	82.06
294.603	77.06
294.833	81.06
295.064	63.06
295.295	83.06
295.525	91.06
295.756	107.06
295.987	113.06
296.217	144.06
296.448	145.06
296.679	107.06
296.909	107.06
297.14	78.06
297.37	92.06
297.601	97.06
297.831	86.06
298.062	93.06
298.292	96.06
298.523	87.06
298.753	81.06
298.984	87.06
299.214	86.06
299.445	89.06
299.675	98.06
299.905	98.06
300.136	82.06
300.366	97.06
300.597	85.06
300.827	104.06
301.057	100.06
301.288	87.06
301.518	85.06
301.748	104.06
301.979	107.06
302.209	92.06
302.439	111.06
302.669	83.06
302.9	93.06
303.13	91.06
303.36	108.06
303.59	109.06
303.82	130.06
304.051	97.06
304.281	96.06
304.511	79.06
304.741	89.06
304.971	85.06
305.201	91.06
305.431	77.06
305.661	85.06
305.891	108.06
306.121	80.06
306.352	104.06
306.582	113.06
306.812	111.06
307.042	87.06
307.272	121.06
307.502	116.06
307.731	132.06
307.961	105.06
308.191	100.06
308.421	89.06
308.651	87.06
308.881	73.06
309.111	103.06
309.341	104.06
309.571	96.06
309.8	96.06
310.03	98.06
310.26	94.06
310.49	96.06
310.72	101.06
310.949	124.06
311.179	115.06
311.409	95.06
311.639	103.06
311.868	86.06
312.098	98.06
312.328	90.06
312.557	105.06
312.787	121.06
313.017	119.06
313.246	92.06
313.476	92.06
313.706	93.06
313.935	98.06
314.165	117.06
314.394	84.06
314.624	106.06
314.853	100.06
315.083	87.06
315.312	93.06
315.542	81.06
315.771	89.06
316.001	93.06
316.23	93.06
316.46	89.06
316.689	85.06
316.919	93.06
317.148	92.06
317.377	100.06
317.607	107.06
317.836	95.06
318.065	77.06
318.295	92.06
318.524	84.06
318.753	98.06
318.983	104.06
319.212	103.06
319.441	100.06
319.67	103.06
319.9	100.06
320.129	95.06
320.358	106.06
320.587	101.06
320.816	108.06
321.046	101.06
321.275	95.06
321.504	96.06
321.733	98.06
321.962	102.06
322.191	100.06
322.42	107.06
322.649	116.06
322.878	122.06
323.108	126.06
323.337	132.06
323.566	141.06
323.795	173.06
324.024	224.06
324.253	469.06
324.482	1020.06
324.71	2148.06
324.939	2851.06
325.168	1009.06
325.397	276.06
325.626	157.06
325.855	135.06
326.084	131.06
326.313	159.06
326.542	166.06
326.77	267.06
326.999	537.06
327.228	1123.06
327.457	2140.06
327.686	1665.06
327.914	489.06
328.143	351.06
328.372	387.06
328.6	255.06
328.829	155.06
329.058	162.06
329.287	168.06
329.515	136.06
329.744	184.06
329.972	289.06
330.201	516.06
330.43	734.06
330.658	375.06
330.887	228.06
331.115	171.06
331.344	118.06
331.572	114.06
331.801	104.06
332.03	112.06
332.258	96.06
332.486	107.06
332.715	102.06
332.943	97.06
333.172	110.06
333.4	113.06
333.629	131.06
333.857	165.06
334.085	267.06
334.314	493.06
334.542	915.06
334.771	881.06
334.999	281.06
335.227	121.06
335.455	112.06
335.684	107.06
335.912	109.06
336.14	94.06
336.369	100.06
336.597	113.06
336.825	90.06
337.053	94.06
337.281	96.06
337.51	95.06
337.738	100.06
337.966	93.06
338.194	108.06
338.422	104.06
338.65	110.06
338.878	89.06
339.106	76.06
339.334	92.06
339.562	92.06
339.79	84.06
340.018	99.06
340.246	89.06
340.474	90.06
340.702	106.06
340.93	80.06
341.158	95.06
341.386	97.06
341.614	109.06
341.842	113.06
342.07	84.06
342.298	93.06
342.526	90.06
342.754	88.06
342.981	89.06
343.209	86.06
343.437	99.06
343.665	93.06
343.893	94.06
344.12	99.06
344.348	96.06
344.576	91.06
344.804	93.06
345.031	92.06
345.259	98.06
345.487	96.06
345.714	85.06
345.942	96.06
346.17	84.06
346.397	98.06
346.625	100.06
346.853	87.06
347.08	96.06
347.308	87.06
347.535	97.06
347.763	96.06
347.99	92.06
348.218	113.06
348.445	124.06
348.673	108.06
348.9	99.06
349.128	100.06
349.355	82.06
349.583	95.06
349.81	91.06
350.037	92.06
350.265	96.06
350.492	82.06
350.72	89.06
350.947	88.06
351.174	108.06
351.402	114.06
351.629	96.06
351.856	107.06
352.083	108.06
352.311	102.06
352.538	106.06
352.765	97.06
352.992	111.06
353.22	116.06
353.447	112.06
353.674	116.06
353.901	89.06
354.128	99.06
354.355	109.06
354.583	91.06
354.81	89.06
355.037	100.06
355.264	84.06
355.491	101.06
355.718	101.06
355.945	95.06
356.172	79.06
356.399	112.06
356.626	93.06
356.853	80.06
357.08	90.06
357.307	94.06
357.534	97.06
357.761	91.06
357.988	93.06
358.215	98.06
358.441	97.06
358.668	88.06
358.895	94.06
359.122	82.06
359.349	89.06
359.576	104.06
359.802	105.06
360.029	138.06
360.256	113.06
360.483	100.06
360.709	98.06
360.936	97.06
361.163	95.06
361.39	100.06
361.616	109.06
361.843	86.06
362.07	97.06
362.296	97.06
362.523	89.06
362.749	93.06
362.976	95.06
363.203	98.06
363.429	76.06
363.656	97.06
363.882	101.06
364.109	87.06
364.335	98.06
364.562	98.06
364.788	81.06
365.015	113.06
365.241	101.06
365.468	113.06
365.694	120.06
365.92	97.06
366.147	101.06
366.373	86.06
366.599	86.06
366.826	96.06
367.052	93.06
367.278	89.06
367.505	94.06
367.731	89.06
367.957	92.06
368.184	108.06
368.41	98.06
368.636	103.06
368.862	139.06
369.089	123.06
369.315	98.06
369.541	89.06
369.767	84.06
369.993	92.06
370.219	84.06
370.445	84.06
370.672	101.06
370.898	92.06
371.124	80.06
371.35	93.06
371.576	95.06
371.802	87.06
372.028	93.06
372.254	84.06
372.48	96.06
372.706	88.06
372.932	73.06
373.158	90.06
373.384	83.06
373.61	89.06
373.835	89.06
374.061	83.06
374.287	104.06
374.513	87.06
374.739	85.06
374.965	91.06
375.191	90.06
375.416	83.06
375.642	77.06
375.868	97.06
376.094	93.06
376.319	94.06
376.545	92.06
376.771	103.06
376.997	79.06
377.222	86.06
377.448	81.06
377.674	95.06
377.899	84.06
378.125	77.06
378.35	88.06
378.576	90.06
378.802	78.06
379.027	87.06
379.253	95.06
379.478	83.06
379.704	95.06
379.929	99.06
380.155	93.06
380.38	96.06
380.606	102.06
380.831	92.06
381.057	100.06
381.282	100.06
381.507	89.06
381.733	100.06
381.958	102.06
382.184	109.06
382.409	102.06
382.634	96.06
382.86	107.06
383.085	112.06
383.31	104.06
383.535	98.06
383.761	98.06
383.986	99.06
384.211	97.06
384.436	101.06
384.662	121.06
384.887	102.06
385.112	111.06
385.337	103.06
385.562	123.06
385.787	121.06
386.013	97.06
386.238	125.06
386.463	109.06
386.688	109.06
386.913	101.06
387.138	102.06
387.363	113.06
387.588	99.06
387.813	103.06
388.038	115.06
388.263	131.06
388.488	121.06
388.713	92.06
388.938	100.06
389.163	100.06
389.387	94.06
389.612	102.06
389.837	90.06
390.062	89.06
390.287	79.06
390.512	81.06
390.736	88.06
390.961	79.06
391.186	92.06
391.411	99.06
391.636	93.06
391.86	89.06
392.085	74.06
392.31	80.06
392.534	81.06
392.759	99.06
392.984	90.06
393.208	76.06
393.433	95.06
393.658	85.06
393.882	92.06
394.107	97.06
394.331	70.06
394.556	75.06
394.78	88.06
395.005	100.06
395.229	82.06
395.454	88.06
395.678	87.06
395.903	73.06
396.127	80.06
396.352	91.06
396.576	96.06
396.801	91.06
397.025	78.06
397.249	90.06
397.474	81.06
397.698	91.06
397.922	93.06
398.147	88.06
398.371	78.06
398.595	86.06
398.82	78.06
399.044	78.06
399.268	83.06
399.492	106.06
399.717	91.06
399.941	87.06
400.165	104.06
400.389	100.06
400.613	89.06
400.837	81.06
401.062	97.06
401.286	87.06
401.51	85.06
401.734	100.06
401.958	107.06
402.182	153.06
402.406	179.06
402.63	138.06
402.854	95.06
403.078	100.06
403.302	94.06
403.526	96.06
403.75	94.06
403.974	90.06
404.198	92.06
404.422	85.06
404.645	107.06
404.869	97.06
405.093	114.06
405.317	126.06
405.541	123.06
405.765	114.06
405.988	130.06
406.212	184.06
406.436	275.06
406.66	187.06
406.883	116.06
407.107	109.06
407.331	97.06
407.555	112.06
407.778	94.06
408.002	99.06
408.226	86.06
408.449	85.06
408.673	91.06
408.896	95.06
409.12	104.06
409.344	91.06
409.567	86.06
409.791	97.06
410.014	84.06
410.238	85.06
410.461	98.06
410.685	85.06
410.908	87.06
411.132	111.06
411.355	94.06
411.578	98.06
411.802	75.06
412.025	92.06
412.249	112.06
412.472	87.06
412.695	115.06
412.919	100.06
413.142	95.06
413.365	88.06
413.589	84.06
413.812	78.06
414.035	101.06
414.258	101.06
414.482	83.06
414.705	87.06
414.928	79.06
415.151	72.06
415.374	113.06
415.597	102.06
415.821	88.06
416.044	93.06
416.267	82.06
416.49	90.06
416.713	102.06
416.936	100.06
417.159	84.06
417.382	93.06
417.605	100.06
417.828	98.06
418.051	82.06
418.274	88.06
418.497	94.06
418.72	78.06
418.943	82.06
419.166	84.06
419.389	90.06
419.611	94.06
419.834	81.06
420.057	93.06
420.28	93.06
420.503	84.06
420.726	99.06
420.948	91.06
421.171	105.06
421.394	93.06
421.617	99.06
421.839	90.06
422.062	85.06
422.285	91.06
422.507	90.06
422.73	111.06
422.953	102.06
423.175	98.06
423.398	95.06
423.621	87.06
423.843	80.06
424.066	98.06
424.288	99.06
424.511	88.06
424.733	96.06
424.956	118.06
425.178	109.06
425.401	116.06
425.623	96.06
425.846	91.06
426.068	92.06
426.291	86.06
426.513	101.06
426.735	102.06
426.958	121.06
427.18	107.06
427.402	176.06
427.625	228.06
427.847	190.06
428.069	189.06
428.292	115.06
428.514	97.06
428.736	89.06
428.958	100.06
429.181	82.06
429.403	96.06
429.625	85.06
429.847	87.06
430.069	108.06
430.292	94.06
430.514	81.06
430.736	81.06
430.958	75.06
431.18	75.06
431.402	81.06
431.624	81.06
431.846	79.06
432.068	90.06
432.29	87.06
432.512	87.06
432.734	85.06
432.956	89.06
433.178	106.06
433.4	102.06
433.622	96.06
433.844	85.06
434.066	92.06
434.287	93.06
434.509	88.06
434.731	103.06
434.953	91.06
435.175	84.06
435.397	110.06
435.618	97.06
435.84	111.06
436.062	140.06
436.284	137.06
436.505	101.06
436.727	118.06
436.949	93.06
437.17	98.06
437.392	71.06
437.614	104.06
437.835	121.06
438.057	127.06
438.278	136.06
438.5	119.06
438.721	139.06
438.943	112.06
439.165	85.06
439.386	74.06
439.608	101.06
439.829	94.06
440.05	136.06
440.272	196.06
440.493	101.06
440.715	101.06
440.936	82.06
441.158	87.06
441.379	92.06
441.6	95.06
441.822	89.06
442.043	96.06
442.264	107.06
442.486	124.06
442.707	112.06
442.928	106.06
443.149	169.06
443.371	161.06
443.592	130.06
443.813	129.06
444.034	136.06
444.255	109.06
444.476	99.06
444.698	83.06
444.919	107.06
445.14	124.06
445.361	136.06
445.582	130.06
445.803	166.06
446.024	175.06
446.245	159.06
446.466	137.06
446.687	87.06
446.908	81.06
447.129	96.06
447.35	95.06
447.571	92.06
447.792	94.06
448.013	89.06
448.234	109.06
448.455	113.06
448.675	125.06
448.896	120.06
449.117	119.06
449.338	99.06
449.559	133.06
449.779	167.06
450	92.06
450.221	91.06
450.442	96.06
450.662	96.06
450.883	106.06
451.104	115.06
451.324	97.06
451.545	91.06
451.766	82.06
451.986	92.06
452.207	101.06
452.428	83.06
452.648	112.06
452.869	137.06
453.089	119.06
453.31	132.06
453.53	104.06
453.751	96.06
453.971	116.06
454.192	116.06
454.412	97.06
454.633	98.06
454.853	92.06
455.073	96.06
455.294	97.06
455.514	101.06
455.734	89.06
455.955	90.06
456.175	95.06
456.395	89.06
456.616	77.06
456.836	85.06
457.056	86.06
457.276	77.06
457.497	95.06
457.717	91.06
457.937	87.06
458.157	97.06
458.377	93.06
458.598	107.06
458.818	171.06
459.038	199.06
459.258	149.06
459.478	98.06
459.698	83.06
459.918	82.06
460.138	90.06
460.358	86.06
460.578	95.06
460.798	80.06
461.018	84.06
461.238	83.06
461.458	73.06
461.678	93.06
461.898	73.06
462.118	86.06
462.338	84.06
462.558	82.06
462.777	81.06
462.997	94.06
463.217	85.06
463.437	82.06
463.657	75.06
463.876	103.06
464.096	100.06
464.316	100.06
464.536	103.06
464.755	98.06
464.975	110.06
465.195	195.06
465.414	202.06
465.634	103.06
465.854	96.06
466.073	92.06
466.293	77.06
466.512	88.06
466.732	83.06
466.951	82.06
467.171	77.06
467.391	96.06
467.61	111.06
467.829	160.06
468.049	307.06
468.268	417.06
468.488	151.06
468.707	95.06
468.927	105.06
469.146	92.06
469.365	84.06
469.585	87.06
469.804	94.06
470.023	106.06
470.243	93.06
470.462	103.06
470.681	121.06
470.901	104.06
471.12	96.06
471.339	103.06
471.558	88.06
471.777	117.06
471.997	188.06
472.216	560.06
472.435	1258.06
472.654	321.06
472.873	121.06
473.092	105.06
473.311	100.06
473.53	99.06
473.749	83.06
473.968	101.06
474.187	90.06
474.406	96.06
474.625	90.06
474.844	85.06
475.063	89.06
475.282	90.06
475.501	79.06
475.72	83.06
475.939	96.06
476.158	95.06
476.377	82.06
476.596	94.06
476.814	96.06
477.033	85.06
477.252	101.06
477.471	94.06
477.69	98.06
477.908	84.06
478.127	87.06
478.346	87.06
478.564	98.06
478.783	100.06
479.002	96.06
479.22	115.06
479.439	105.06
479.658	103.06
479.876	106.06
480.095	112.06
480.313	112.06
480.532	127.06
480.751	184.06
480.969	548.06
481.188	2237.06
481.406	1300.06
481.624	233.06
481.843	113.06
482.061	97.06
482.28	107.06
482.498	83.06
482.717	77.06
482.935	93.06
483.153	80.06
483.372	76.06
483.59	89.06
483.808	92.06
484.027	93.06
484.245	87.06
484.463	96.06
484.681	94.06
484.9	101.06
485.118	98.06
485.336	101.06
485.554	97.06
485.772	108.06
485.99	97.06
486.209	104.06
486.427	116.06
486.645	122.06
486.863	124.06
487.081	109.06
487.299	89.06
487.517	94.06
487.735	92.06
487.953	87.06
488.171	87.06
488.389	111.06
488.607	105.06
488.825	105.06
489.043	82.06
489.261	88.06
489.479	97.06
489.696	107.06
489.914	85.06
490.132	89.06
490.35	99.06
490.568	97.06
490.786	81.06
491.003	85.06
491.221	87.06
491.439	84.06
491.657	99.06
491.874	99.06
492.092	92.06
492.31	88.06
492.527	100.06
492.745	102.06
492.963	89.06
493.18	102.06
493.398	106.06
493.615	98.06
493.833	96.06
494.05	90.06
494.268	98.06
494.485	94.06
494.703	92.06
494.92	89.06
495.138	94.06
495.355	89.06
495.573	89.06
495.79	78.06
496.008	94.06
496.225	81.06
496.442	82.06
496.66	90.06
496.877	83.06
497.094	98.06
497.312	78.06
497.529	78.06
497.746	108.06
497.963	91.06
498.181	98.06
498.398	108.06
498.615	119.06
498.832	123.06
499.049	94.06
499.267	101.06
499.484	96.06
499.701	81.06
499.918	82.06
500.135	100.06
500.352	106.06
500.569	96.06
500.786	89.06
501.003	84.06
501.22	89.06
501.437	77.06
501.654	93.06
501.871	113.06
502.088	93.06
502.305	92.06
502.522	106.06
502.739	80.06
502.956	79.06
503.172	83.06
503.389	107.06
503.606	128.06
503.823	101.06
504.04	96.06
504.256	80.06
504.473	91.06
504.69	66.06
504.907	99.06
505.123	95.06
505.34	85.06
505.557	102.06
505.773	96.06
505.99	86.06
506.207	84.06
506.423	87.06
506.64	100.06
506.856	100.06
507.073	96.06
507.289	104.06
507.506	92.06
507.722	124.06
507.939	112.06
508.155	109.06
508.372	90.06
508.588	96.06
508.805	89.06
509.021	83.06
509.238	86.06
509.454	92.06
509.67	112.06
509.887	106.06
510.103	144.06
510.319	234.06
510.536	877.06
510.752	2933.06
510.968	791.06
511.184	166.06
511.401	114.06
511.617	95.06
511.833	105.06
512.049	100.06
512.265	85.06
512.481	91.06
512.698	85.06
512.914	93.06
513.13	96.06
513.346	107.06
513.562	95.06
513.778	99.06
513.994	101.06
514.21	96.06
