Data from Circ_1992_H10_HRD10591_00026.txt Node
Date: Wed Jan 03 11:47:50 EST 2024
User: Yrep
Spectrometer: HR+D1059
Trigger mode: 1
Integration Time (sec): 1.000000E-1
Scans to average: 1
Electric dark correction enabled: true
Nonlinearity correction enabled: false
Boxcar width: 0
XAxis mode: Wavelengths
Number of Pixels in Spectrum: 2048
>>>>>Begin Spectral Data<<<<<
223.165	-12.81
223.4	-12.81
223.635	-12.81
223.869	-14.81
224.104	-17.81
224.338	-15.81
224.573	-17.81
224.808	-25.81
225.042	17.19
225.277	-12.81
225.511	-0.81
225.746	-6.81
225.98	3.19
226.215	24.19
226.449	6.19
226.683	26.19
226.918	16.19
227.152	32.19
227.387	34.19
227.621	45.19
227.856	46.19
228.09	58.19
228.324	55.19
228.559	55.19
228.793	68.19
229.027	58.19
229.262	84.19
229.496	85.19
229.73	79.19
229.964	85.19
230.199	77.19
230.433	89.19
230.667	77.19
230.901	83.19
231.136	80.19
231.37	74.19
231.604	80.19
231.838	81.19
232.072	98.19
232.306	74.19
232.541	92.19
232.775	81.19
233.009	91.19
233.243	83.19
233.477	93.19
233.711	90.19
233.945	93.19
234.179	86.19
234.413	83.19
234.647	72.19
234.881	66.19
235.115	77.19
235.349	94.19
235.583	85.19
235.817	78.19
236.051	82.19
236.285	77.19
236.519	93.19
236.753	96.19
236.987	65.19
237.221	79.19
237.455	95.19
237.689	88.19
237.922	93.19
238.156	88.19
238.39	82.19
238.624	82.19
238.858	85.19
239.091	66.19
239.325	93.19
239.559	86.19
239.793	85.19
240.027	55.19
240.26	75.19
240.494	82.19
240.728	76.19
240.961	71.19
241.195	76.19
241.429	82.19
241.662	84.19
241.896	82.19
242.13	82.19
242.363	86.19
242.597	83.19
242.83	71.19
243.064	94.19
243.298	71.19
243.531	90.19
243.765	75.19
243.998	79.19
244.232	86.19
244.465	93.19
244.699	85.19
244.932	76.19
245.166	74.19
245.399	84.19
245.633	88.19
245.866	86.19
246.099	72.19
246.333	73.19
246.566	86.19
246.8	83.19
247.033	93.19
247.266	70.19
247.5	85.19
247.733	80.19
247.966	95.19
248.2	89.19
248.433	88.19
248.666	88.19
248.899	71.19
249.133	80.19
249.366	90.19
249.599	98.19
249.832	92.19
250.066	86.19
250.299	72.19
250.532	75.19
250.765	83.19
250.998	71.19
251.231	82.19
251.465	93.19
251.698	87.19
251.931	82.19
252.164	93.19
252.397	87.19
252.63	90.19
252.863	98.19
253.096	82.19
253.329	85.19
253.562	82.19
253.795	72.19
254.028	88.19
254.261	77.19
254.494	78.19
254.727	82.19
254.96	81.19
255.193	89.19
255.426	77.19
255.659	80.19
255.892	98.19
256.124	88.19
256.357	89.19
256.59	79.19
256.823	84.19
257.056	77.19
257.289	72.19
257.521	76.19
257.754	91.19
257.987	85.19
258.22	97.19
258.452	103.19
258.685	79.19
258.918	80.19
259.151	78.19
259.383	83.19
259.616	83.19
259.849	83.19
260.081	92.19
260.314	70.19
260.547	93.19
260.779	84.19
261.012	86.19
261.244	81.19
261.477	83.19
261.71	106.19
261.942	103.19
262.175	115.19
262.407	95.19
262.64	87.19
262.872	87.19
263.105	81.19
263.337	93.19
263.57	93.19
263.802	79.19
264.035	89.19
264.267	80.19
264.499	78.19
264.732	83.19
264.964	85.19
265.197	97.19
265.429	87.19
265.661	70.19
265.894	77.19
266.126	75.19
266.358	99.19
266.591	99.19
266.823	85.19
267.055	68.19
267.287	65.19
267.52	66.19
267.752	87.19
267.984	96.19
268.216	83.19
268.448	90.19
268.681	98.19
268.913	84.19
269.145	67.19
269.377	81.19
269.609	76.19
269.841	87.19
270.073	92.19
270.306	82.19
270.538	78.19
270.77	91.19
271.002	79.19
271.234	80.19
271.466	82.19
271.698	89.19
271.93	76.19
272.162	90.19
272.394	78.19
272.626	82.19
272.858	94.19
273.09	88.19
273.322	85.19
273.553	102.19
273.785	83.19
274.017	76.19
274.249	86.19
274.481	90.19
274.713	88.19
274.945	81.19
275.176	96.19
275.408	100.19
275.64	84.19
275.872	100.19
276.104	93.19
276.335	95.19
276.567	80.19
276.799	114.19
277.031	105.19
277.262	123.19
277.494	110.19
277.726	87.19
277.957	82.19
278.189	80.19
278.421	89.19
278.652	92.19
278.884	84.19
279.115	87.19
279.347	98.19
279.579	80.19
279.81	104.19
280.042	110.19
280.273	125.19
280.505	100.19
280.736	109.19
280.968	90.19
281.199	84.19
281.431	90.19
281.662	87.19
281.894	96.19
282.125	106.19
282.356	123.19
282.588	123.19
282.819	120.19
283.051	88.19
283.282	80.19
283.513	78.19
283.745	79.19
283.976	92.19
284.207	87.19
284.439	99.19
284.67	82.19
284.901	82.19
285.132	84.19
285.364	74.19
285.595	95.19
285.826	92.19
286.057	97.19
286.288	90.19
286.52	79.19
286.751	97.19
286.982	80.19
287.213	90.19
287.444	99.19
287.675	99.19
287.906	88.19
288.138	100.19
288.369	104.19
288.6	89.19
288.831	91.19
289.062	93.19
289.293	82.19
289.524	67.19
289.755	87.19
289.986	84.19
290.217	96.19
290.448	87.19
290.679	103.19
290.91	104.19
291.141	92.19
291.371	91.19
291.602	83.19
291.833	99.19
292.064	100.19
292.295	71.19
292.526	101.19
292.757	102.19
292.987	90.19
293.218	90.19
293.449	87.19
293.68	97.19
293.91	77.19
294.141	95.19
294.372	80.19
294.603	96.19
294.833	98.19
295.064	86.19
295.295	93.19
295.525	83.19
295.756	94.19
295.987	100.19
296.217	130.19
296.448	126.19
296.679	88.19
296.909	96.19
297.14	85.19
297.37	92.19
297.601	80.19
297.831	91.19
298.062	93.19
298.292	103.19
298.523	88.19
298.753	89.19
298.984	101.19
299.214	90.19
299.445	93.19
299.675	88.19
299.905	105.19
300.136	95.19
300.366	83.19
300.597	94.19
300.827	90.19
301.057	92.19
301.288	105.19
301.518	98.19
301.748	88.19
301.979	114.19
302.209	84.19
302.439	96.19
302.669	84.19
302.9	84.19
303.13	96.19
303.36	91.19
303.59	100.19
303.82	123.19
304.051	96.19
304.281	91.19
304.511	90.19
304.741	85.19
304.971	90.19
305.201	92.19
305.431	88.19
305.661	86.19
305.891	89.19
306.121	98.19
306.352	107.19
306.582	115.19
306.812	85.19
307.042	99.19
307.272	98.19
307.502	110.19
307.731	121.19
307.961	108.19
308.191	93.19
308.421	97.19
308.651	93.19
308.881	99.19
309.111	85.19
309.341	89.19
309.571	88.19
309.8	100.19
310.03	95.19
310.26	96.19
310.49	103.19
310.72	103.19
310.949	102.19
311.179	98.19
311.409	105.19
311.639	93.19
311.868	91.19
312.098	104.19
312.328	88.19
312.557	106.19
312.787	104.19
313.017	99.19
313.246	93.19
313.476	102.19
313.706	87.19
313.935	88.19
314.165	103.19
314.394	112.19
314.624	92.19
314.853	93.19
315.083	97.19
315.312	91.19
315.542	101.19
315.771	94.19
316.001	76.19
316.23	90.19
316.46	85.19
316.689	97.19
316.919	88.19
317.148	97.19
317.377	91.19
317.607	99.19
317.836	93.19
318.065	102.19
318.295	102.19
318.524	84.19
318.753	86.19
318.983	96.19
319.212	99.19
319.441	95.19
319.67	104.19
319.9	105.19
320.129	95.19
320.358	83.19
320.587	97.19
320.816	102.19
321.046	101.19
321.275	102.19
321.504	91.19
321.733	88.19
321.962	92.19
322.191	92.19
322.42	98.19
322.649	99.19
322.878	96.19
323.108	117.19
323.337	118.19
323.566	124.19
323.795	138.19
324.024	196.19
324.253	348.19
324.482	732.19
324.71	1515.19
324.939	2000.19
325.168	764.19
325.397	237.19
325.626	140.19
325.855	142.19
326.084	116.19
326.313	117.19
326.542	145.19
326.77	210.19
326.999	428.19
327.228	829.19
327.457	1566.19
327.686	1224.19
327.914	373.19
328.143	252.19
328.372	281.19
328.6	186.19
328.829	128.19
329.058	123.19
329.287	138.19
329.515	135.19
329.744	141.19
329.972	173.19
330.201	343.19
330.43	489.19
330.658	258.19
330.887	156.19
331.115	140.19
331.344	102.19
331.572	110.19
331.801	100.19
332.03	108.19
332.258	101.19
332.486	94.19
332.715	119.19
332.943	106.19
333.172	100.19
333.4	114.19
333.629	123.19
333.857	138.19
334.085	182.19
334.314	334.19
334.542	601.19
334.771	576.19
334.999	201.19
335.227	116.19
335.455	107.19
335.684	92.19
335.912	84.19
336.14	90.19
336.369	107.19
336.597	104.19
336.825	95.19
337.053	101.19
337.281	92.19
337.51	87.19
337.738	79.19
337.966	88.19
338.194	95.19
338.422	107.19
338.65	109.19
338.878	99.19
339.106	90.19
339.334	104.19
339.562	77.19
339.79	77.19
340.018	94.19
340.246	88.19
340.474	87.19
340.702	82.19
340.93	91.19
341.158	96.19
341.386	99.19
341.614	101.19
341.842	94.19
342.07	86.19
342.298	77.19
342.526	86.19
342.754	92.19
342.981	97.19
343.209	87.19
343.437	106.19
343.665	78.19
343.893	80.19
344.12	85.19
344.348	82.19
344.576	88.19
344.804	95.19
345.031	102.19
345.259	93.19
345.487	96.19
345.714	81.19
345.942	95.19
346.17	111.19
346.397	86.19
346.625	96.19
346.853	86.19
347.08	93.19
347.308	77.19
347.535	88.19
347.763	109.19
347.99	79.19
348.218	101.19
348.445	117.19
348.673	105.19
348.9	109.19
349.128	101.19
349.355	93.19
349.583	101.19
349.81	87.19
350.037	96.19
350.265	113.19
350.492	97.19
350.72	82.19
350.947	97.19
351.174	110.19
351.402	117.19
351.629	92.19
351.856	113.19
352.083	112.19
352.311	94.19
352.538	114.19
352.765	109.19
352.992	114.19
353.22	118.19
353.447	91.19
353.674	99.19
353.901	101.19
354.128	97.19
354.355	105.19
354.583	103.19
354.81	100.19
355.037	83.19
355.264	88.19
355.491	86.19
355.718	99.19
355.945	96.19
356.172	106.19
356.399	102.19
356.626	96.19
356.853	90.19
357.08	108.19
357.307	90.19
357.534	94.19
357.761	98.19
357.988	99.19
358.215	83.19
358.441	104.19
358.668	98.19
358.895	99.19
359.122	91.19
359.349	97.19
359.576	99.19
359.802	103.19
360.029	107.19
360.256	109.19
360.483	96.19
360.709	95.19
360.936	102.19
361.163	88.19
361.39	111.19
361.616	99.19
361.843	67.19
362.07	106.19
362.296	107.19
362.523	100.19
362.749	87.19
362.976	91.19
363.203	97.19
363.429	77.19
363.656	105.19
363.882	92.19
364.109	96.19
364.335	85.19
364.562	93.19
364.788	92.19
365.015	99.19
365.241	90.19
365.468	112.19
365.694	104.19
365.92	95.19
366.147	100.19
366.373	87.19
366.599	77.19
366.826	85.19
367.052	84.19
367.278	88.19
367.505	93.19
367.731	98.19
367.957	94.19
368.184	95.19
368.41	101.19
368.636	108.19
368.862	111.19
369.089	114.19
369.315	95.19
369.541	86.19
369.767	96.19
369.993	98.19
370.219	80.19
370.445	86.19
370.672	90.19
370.898	90.19
371.124	84.19
371.35	76.19
371.576	87.19
371.802	75.19
372.028	86.19
372.254	109.19
372.48	82.19
372.706	95.19
372.932	88.19
373.158	93.19
373.384	114.19
373.61	95.19
373.835	80.19
374.061	102.19
374.287	86.19
374.513	97.19
374.739	99.19
374.965	94.19
375.191	91.19
375.416	74.19
375.642	83.19
375.868	95.19
376.094	95.19
376.319	94.19
376.545	82.19
376.771	78.19
376.997	101.19
377.222	94.19
377.448	97.19
377.674	99.19
377.899	93.19
378.125	91.19
378.35	91.19
378.576	92.19
378.802	106.19
379.027	112.19
379.253	105.19
379.478	93.19
379.704	82.19
379.929	87.19
380.155	87.19
380.38	100.19
380.606	100.19
380.831	90.19
381.057	97.19
381.282	92.19
381.507	102.19
381.733	108.19
381.958	115.19
382.184	101.19
382.409	103.19
382.634	108.19
382.86	108.19
383.085	118.19
383.31	91.19
383.535	95.19
383.761	107.19
383.986	107.19
384.211	96.19
384.436	114.19
384.662	108.19
384.887	118.19
385.112	114.19
385.337	108.19
385.562	112.19
385.787	100.19
386.013	114.19
386.238	121.19
386.463	118.19
386.688	104.19
386.913	123.19
387.138	122.19
387.363	112.19
387.588	113.19
387.813	102.19
388.038	117.19
388.263	114.19
388.488	109.19
388.713	107.19
388.938	103.19
389.163	107.19
389.387	99.19
389.612	91.19
389.837	94.19
390.062	95.19
390.287	78.19
390.512	94.19
390.736	92.19
390.961	85.19
391.186	91.19
391.411	89.19
391.636	88.19
391.86	87.19
392.085	81.19
392.31	98.19
392.534	59.19
392.759	93.19
392.984	72.19
393.208	99.19
393.433	91.19
393.658	93.19
393.882	92.19
394.107	85.19
394.331	92.19
394.556	87.19
394.78	89.19
395.005	69.19
395.229	90.19
395.454	83.19
395.678	89.19
395.903	92.19
396.127	93.19
396.352	97.19
396.576	90.19
396.801	89.19
397.025	86.19
397.249	76.19
397.474	87.19
397.698	80.19
397.922	80.19
398.147	84.19
398.371	76.19
398.595	81.19
398.82	79.19
399.044	89.19
399.268	80.19
399.492	91.19
399.717	76.19
399.941	90.19
400.165	100.19
400.389	89.19
400.613	108.19
400.837	95.19
401.062	90.19
401.286	94.19
401.51	92.19
401.734	100.19
401.958	91.19
402.182	126.19
402.406	142.19
402.63	110.19
402.854	106.19
403.078	77.19
403.302	90.19
403.526	68.19
403.75	99.19
403.974	87.19
404.198	95.19
404.422	91.19
404.645	88.19
404.869	101.19
405.093	110.19
405.317	98.19
405.541	93.19
405.765	108.19
405.988	122.19
406.212	163.19
406.436	220.19
406.66	140.19
406.883	115.19
407.107	94.19
407.331	95.19
407.555	82.19
407.778	84.19
408.002	99.19
408.226	91.19
408.449	102.19
408.673	103.19
408.896	98.19
409.12	87.19
409.344	73.19
409.567	80.19
409.791	87.19
410.014	98.19
410.238	87.19
410.461	99.19
410.685	93.19
410.908	109.19
411.132	86.19
411.355	97.19
411.578	92.19
411.802	91.19
412.025	94.19
412.249	99.19
412.472	87.19
412.695	125.19
412.919	100.19
413.142	96.19
413.365	101.19
413.589	86.19
413.812	81.19
414.035	92.19
414.258	78.19
414.482	88.19
414.705	99.19
414.928	97.19
415.151	91.19
415.374	86.19
415.597	78.19
415.821	92.19
416.044	96.19
416.267	99.19
416.49	90.19
416.713	91.19
416.936	84.19
417.159	88.19
417.382	82.19
417.605	98.19
417.828	100.19
418.051	83.19
418.274	86.19
418.497	83.19
418.72	79.19
418.943	102.19
419.166	88.19
419.389	87.19
419.611	91.19
419.834	83.19
420.057	76.19
420.28	86.19
420.503	77.19
420.726	90.19
420.948	83.19
421.171	92.19
421.394	96.19
421.617	90.19
421.839	84.19
422.062	95.19
422.285	93.19
422.507	100.19
422.73	98.19
422.953	83.19
423.175	77.19
423.398	86.19
423.621	86.19
423.843	81.19
424.066	82.19
424.288	94.19
424.511	95.19
424.733	85.19
424.956	103.19
425.178	99.19
425.401	108.19
425.623	117.19
425.846	81.19
426.068	80.19
426.291	81.19
426.513	81.19
426.735	86.19
426.958	100.19
427.18	113.19
427.402	143.19
427.625	175.19
427.847	168.19
428.069	150.19
428.292	92.19
428.514	87.19
428.736	78.19
428.958	94.19
429.181	84.19
429.403	90.19
429.625	82.19
429.847	82.19
430.069	114.19
430.292	100.19
430.514	82.19
430.736	91.19
430.958	93.19
431.18	97.19
431.402	78.19
431.624	96.19
431.846	84.19
432.068	86.19
432.29	97.19
432.512	109.19
432.734	95.19
432.956	97.19
433.178	86.19
433.4	100.19
433.622	96.19
433.844	90.19
434.066	101.19
434.287	106.19
434.509	100.19
434.731	83.19
434.953	80.19
435.175	87.19
435.397	88.19
435.618	84.19
435.84	96.19
436.062	120.19
436.284	116.19
436.505	97.19
436.727	92.19
436.949	109.19
437.17	83.19
437.392	93.19
437.614	92.19
437.835	110.19
438.057	104.19
438.278	104.19
438.5	99.19
438.721	127.19
438.943	107.19
439.165	90.19
439.386	99.19
439.608	95.19
439.829	93.19
440.05	117.19
440.272	135.19
440.493	108.19
440.715	86.19
440.936	81.19
441.158	97.19
441.379	85.19
441.6	102.19
441.822	101.19
442.043	96.19
442.264	96.19
442.486	106.19
442.707	92.19
442.928	106.19
443.149	131.19
443.371	133.19
443.592	100.19
443.813	112.19
444.034	103.19
444.255	109.19
444.476	103.19
444.698	88.19
444.919	93.19
445.14	131.19
445.361	130.19
445.582	118.19
445.803	133.19
446.024	131.19
446.245	122.19
446.466	109.19
446.687	101.19
446.908	92.19
447.129	91.19
447.35	90.19
447.571	86.19
447.792	98.19
448.013	110.19
448.234	103.19
448.455	89.19
448.675	123.19
448.896	133.19
449.117	118.19
449.338	124.19
449.559	136.19
449.779	115.19
450	100.19
450.221	104.19
450.442	81.19
450.662	100.19
450.883	94.19
451.104	115.19
451.324	103.19
451.545	83.19
451.766	90.19
451.986	88.19
452.207	74.19
452.428	87.19
452.648	96.19
452.869	115.19
453.089	111.19
453.31	100.19
453.53	99.19
453.751	91.19
453.971	94.19
454.192	104.19
454.412	107.19
454.633	90.19
454.853	90.19
455.073	85.19
455.294	85.19
455.514	89.19
455.734	83.19
455.955	77.19
456.175	88.19
456.395	87.19
456.616	92.19
456.836	78.19
457.056	82.19
457.276	96.19
457.497	99.19
457.717	97.19
457.937	95.19
458.157	108.19
458.377	90.19
458.598	101.19
458.818	139.19
459.038	159.19
459.258	113.19
459.478	97.19
459.698	78.19
459.918	88.19
460.138	88.19
460.358	76.19
460.578	84.19
460.798	97.19
461.018	91.19
461.238	85.19
461.458	91.19
461.678	85.19
461.898	98.19
462.118	82.19
462.338	87.19
462.558	101.19
462.777	107.19
462.997	96.19
463.217	94.19
463.437	83.19
463.657	81.19
463.876	72.19
464.096	84.19
464.316	94.19
464.536	100.19
464.755	86.19
464.975	94.19
465.195	148.19
465.414	157.19
465.634	84.19
465.854	85.19
466.073	85.19
466.293	84.19
466.512	86.19
466.732	83.19
466.951	88.19
467.171	93.19
467.391	111.19
467.61	114.19
467.829	129.19
468.049	219.19
468.268	309.19
468.488	112.19
468.707	101.19
468.927	81.19
469.146	78.19
469.365	83.19
469.585	84.19
469.804	106.19
470.023	94.19
470.243	104.19
470.462	92.19
470.681	107.19
470.901	92.19
471.12	87.19
471.339	94.19
471.558	90.19
471.777	91.19
471.997	169.19
472.216	427.19
472.435	815.19
472.654	238.19
472.873	103.19
473.092	106.19
473.311	87.19
473.53	90.19
473.749	82.19
473.968	112.19
474.187	108.19
474.406	96.19
474.625	85.19
474.844	96.19
475.063	82.19
475.282	85.19
475.501	80.19
475.72	95.19
475.939	98.19
476.158	83.19
476.377	86.19
476.596	91.19
476.814	101.19
477.033	103.19
477.252	78.19
477.471	71.19
477.69	105.19
477.908	95.19
478.127	80.19
478.346	85.19
478.564	92.19
478.783	95.19
479.002	112.19
479.22	95.19
479.439	92.19
479.658	88.19
479.876	109.19
480.095	107.19
480.313	116.19
480.532	119.19
480.751	144.19
480.969	398.19
481.188	1416.19
481.406	858.19
481.624	174.19
481.843	88.19
482.061	91.19
482.28	92.19
482.498	68.19
482.717	101.19
482.935	86.19
483.153	83.19
483.372	92.19
483.59	81.19
483.808	95.19
484.027	89.19
484.245	95.19
484.463	87.19
484.681	107.19
484.9	83.19
485.118	106.19
485.336	96.19
485.554	93.19
485.772	102.19
485.99	106.19
486.209	122.19
486.427	115.19
486.645	109.19
486.863	110.19
487.081	94.19
487.299	102.19
487.517	96.19
487.735	91.19
487.953	86.19
488.171	95.19
488.389	95.19
488.607	107.19
488.825	97.19
489.043	87.19
489.261	96.19
489.479	108.19
489.696	92.19
489.914	93.19
490.132	75.19
490.35	96.19
490.568	76.19
490.786	87.19
491.003	101.19
491.221	96.19
491.439	98.19
491.657	91.19
491.874	100.19
492.092	89.19
492.31	93.19
492.527	100.19
492.745	87.19
492.963	93.19
493.18	98.19
493.398	84.19
493.615	100.19
493.833	93.19
494.05	78.19
494.268	86.19
494.485	85.19
494.703	91.19
494.92	85.19
495.138	92.19
495.355	90.19
495.573	97.19
495.79	87.19
496.008	83.19
496.225	103.19
496.442	79.19
496.66	97.19
496.877	92.19
497.094	99.19
497.312	86.19
497.529	91.19
497.746	94.19
497.963	92.19
498.181	85.19
498.398	95.19
498.615	104.19
498.832	107.19
499.049	104.19
499.267	94.19
499.484	92.19
499.701	91.19
499.918	100.19
500.135	83.19
500.352	89.19
500.569	88.19
500.786	96.19
501.003	86.19
501.22	93.19
501.437	88.19
501.654	93.19
501.871	117.19
502.088	93.19
502.305	88.19
502.522	87.19
502.739	87.19
502.956	95.19
503.172	98.19
503.389	99.19
503.606	102.19
503.823	90.19
504.04	88.19
504.256	104.19
504.473	103.19
504.69	94.19
504.907	90.19
505.123	79.19
505.34	95.19
505.557	99.19
505.773	101.19
505.99	92.19
506.207	81.19
506.423	95.19
506.64	98.19
506.856	92.19
507.073	104.19
507.289	102.19
507.506	74.19
507.722	114.19
507.939	109.19
508.155	97.19
508.372	96.19
508.588	85.19
508.805	96.19
509.021	101.19
509.238	94.19
509.454	102.19
509.67	104.19
509.887	120.19
510.103	127.19
510.319	191.19
510.536	640.19
510.752	2062.19
510.968	574.19
511.184	153.19
511.401	99.19
511.617	98.19
511.833	93.19
512.049	98.19
512.265	87.19
512.481	94.19
512.698	90.19
512.914	108.19
513.13	104.19
513.346	71.19
513.562	92.19
513.778	90.19
513.994	100.19
514.21	97.19
514.426	119.19
514.642	126.19
