Data from Circ_1992_H10_HRD10591_00091.txt Node
Date: Wed Jan 03 11:48:03 EST 2024
User: Yrep
Spectrometer: HR+D1059
Trigger mode: 1
Integration Time (sec): 1.000000E-1
Scans to average: 1
Electric dark correction enabled: true
Nonlinearity correction enabled: false
Boxcar width: 0
XAxis mode: Wavelengths
Number of Pixels in Spectrum: 2048
>>>>>Begin Spectral Data<<<<<
223.165	-27.69
223.4	-27.69
223.635	-27.69
223.869	-21.69
224.104	-15.69
224.338	-5.69
224.573	-12.69
224.808	-16.69
225.042	-8.69
225.277	9.31
225.511	0.31
225.746	9.31
225.98	-1.69
226.215	17.31
226.449	7.31
226.683	13.31
226.918	20.31
227.152	33.31
227.387	34.31
227.621	28.31
227.856	35.31
228.09	40.31
228.324	43.31
228.559	39.31
228.793	60.31
229.027	65.31
229.262	72.31
229.496	76.31
229.73	79.31
229.964	79.31
230.199	83.31
230.433	76.31
230.667	69.31
230.901	64.31
231.136	67.31
231.37	81.31
231.604	82.31
231.838	79.31
232.072	67.31
232.306	82.31
232.541	57.31
232.775	89.31
233.009	76.31
233.243	93.31
233.477	83.31
233.711	83.31
233.945	75.31
234.179	78.31
234.413	83.31
234.647	73.31
234.881	93.31
235.115	56.31
235.349	79.31
235.583	75.31
235.817	90.31
236.051	87.31
236.285	84.31
236.519	81.31
236.753	83.31
236.987	81.31
237.221	74.31
237.455	91.31
237.689	58.31
237.922	66.31
238.156	76.31
238.39	73.31
238.624	68.31
238.858	71.31
239.091	66.31
239.325	73.31
239.559	79.31
239.793	83.31
240.027	87.31
240.26	84.31
240.494	85.31
240.728	92.31
240.961	75.31
241.195	82.31
241.429	66.31
241.662	78.31
241.896	75.31
242.13	63.31
242.363	71.31
242.597	79.31
242.83	73.31
243.064	60.31
243.298	75.31
243.531	79.31
243.765	84.31
243.998	76.31
244.232	73.31
244.465	84.31
244.699	79.31
244.932	73.31
245.166	84.31
245.399	75.31
245.633	71.31
245.866	87.31
246.099	57.31
246.333	83.31
246.566	92.31
246.8	78.31
247.033	72.31
247.266	75.31
247.5	78.31
247.733	79.31
247.966	67.31
248.2	83.31
248.433	73.31
248.666	84.31
248.899	54.31
249.133	91.31
249.366	111.31
249.599	105.31
249.832	89.31
250.066	91.31
250.299	91.31
250.532	78.31
250.765	82.31
250.998	79.31
251.231	89.31
251.465	83.31
251.698	89.31
251.931	88.31
252.164	88.31
252.397	91.31
252.63	78.31
252.863	76.31
253.096	64.31
253.329	83.31
253.562	52.31
253.795	80.31
254.028	84.31
254.261	88.31
254.494	84.31
254.727	83.31
254.96	87.31
255.193	74.31
255.426	84.31
255.659	85.31
255.892	92.31
256.124	88.31
256.357	80.31
256.59	79.31
256.823	82.31
257.056	72.31
257.289	68.31
257.521	83.31
257.754	75.31
257.987	83.31
258.22	85.31
258.452	84.31
258.685	84.31
258.918	71.31
259.151	85.31
259.383	86.31
259.616	70.31
259.849	74.31
260.081	83.31
260.314	80.31
260.547	73.31
260.779	90.31
261.012	106.31
261.244	99.31
261.477	99.31
261.71	104.31
261.942	131.31
262.175	141.31
262.407	99.31
262.64	73.31
262.872	79.31
263.105	67.31
263.337	83.31
263.57	88.31
263.802	83.31
264.035	98.31
264.267	68.31
264.499	77.31
264.732	75.31
264.964	82.31
265.197	76.31
265.429	73.31
265.661	89.31
265.894	78.31
266.126	88.31
266.358	80.31
266.591	71.31
266.823	86.31
267.055	83.31
267.287	69.31
267.52	77.31
267.752	79.31
267.984	81.31
268.216	84.31
268.448	91.31
268.681	89.31
268.913	77.31
269.145	84.31
269.377	81.31
269.609	84.31
269.841	90.31
270.073	90.31
270.306	80.31
270.538	92.31
270.77	83.31
271.002	72.31
271.234	83.31
271.466	85.31
271.698	87.31
271.93	89.31
272.162	94.31
272.394	89.31
272.626	72.31
272.858	108.31
273.09	87.31
273.322	75.31
273.553	81.31
273.785	88.31
274.017	75.31
274.249	87.31
274.481	89.31
274.713	86.31
274.945	80.31
275.176	77.31
275.408	85.31
275.64	91.31
275.872	108.31
276.104	96.31
276.335	82.31
276.567	111.31
276.799	131.31
277.031	126.31
277.262	158.31
277.494	124.31
277.726	87.31
277.957	94.31
278.189	85.31
278.421	85.31
278.652	80.31
278.884	77.31
279.115	107.31
279.347	90.31
279.579	100.31
279.81	117.31
280.042	140.31
280.273	205.31
280.505	140.31
280.736	103.31
280.968	93.31
281.199	95.31
281.431	80.31
281.662	80.31
281.894	84.31
282.125	91.31
282.356	129.31
282.588	153.31
282.819	115.31
283.051	90.31
283.282	79.31
283.513	81.31
283.745	97.31
283.976	77.31
284.207	96.31
284.439	68.31
284.67	94.31
284.901	86.31
285.132	71.31
285.364	99.31
285.595	75.31
285.826	85.31
286.057	89.31
286.288	93.31
286.52	72.31
286.751	80.31
286.982	84.31
287.213	81.31
287.444	82.31
287.675	79.31
287.906	94.31
288.138	81.31
288.369	100.31
288.6	95.31
288.831	83.31
289.062	101.31
289.293	100.31
289.524	87.31
289.755	93.31
289.986	87.31
290.217	82.31
290.448	85.31
290.679	85.31
290.91	94.31
291.141	86.31
291.371	101.31
291.602	102.31
291.833	87.31
292.064	93.31
292.295	88.31
292.526	94.31
292.757	96.31
292.987	86.31
293.218	97.31
293.449	91.31
293.68	89.31
293.91	92.31
294.141	95.31
294.372	77.31
294.603	84.31
294.833	82.31
295.064	92.31
295.295	81.31
295.525	87.31
295.756	96.31
295.987	116.31
296.217	152.31
296.448	147.31
296.679	90.31
296.909	97.31
297.14	80.31
297.37	84.31
297.601	76.31
297.831	93.31
298.062	81.31
298.292	89.31
298.523	97.31
298.753	104.31
298.984	90.31
299.214	81.31
299.445	89.31
299.675	87.31
299.905	101.31
300.136	81.31
300.366	89.31
300.597	92.31
300.827	96.31
301.057	89.31
301.288	107.31
301.518	96.31
301.748	94.31
301.979	107.31
302.209	89.31
302.439	99.31
302.669	80.31
302.9	82.31
303.13	88.31
303.36	101.31
303.59	128.31
303.82	116.31
304.051	93.31
304.281	87.31
304.511	90.31
304.741	89.31
304.971	96.31
305.201	90.31
305.431	89.31
305.661	76.31
305.891	84.31
306.121	98.31
306.352	93.31
306.582	97.31
306.812	108.31
307.042	105.31
307.272	131.31
307.502	151.31
307.731	140.31
307.961	113.31
308.191	102.31
308.421	104.31
308.651	98.31
308.881	82.31
309.111	92.31
309.341	83.31
309.571	104.31
309.8	85.31
310.03	107.31
310.26	98.31
310.49	101.31
310.72	97.31
310.949	108.31
311.179	103.31
311.409	106.31
311.639	97.31
311.868	113.31
312.098	109.31
312.328	91.31
312.557	106.31
312.787	122.31
313.017	109.31
313.246	110.31
313.476	79.31
313.706	82.31
313.935	90.31
314.165	102.31
314.394	106.31
314.624	84.31
314.853	112.31
315.083	97.31
315.312	106.31
315.542	86.31
315.771	96.31
316.001	104.31
316.23	81.31
316.46	91.31
316.689	90.31
316.919	84.31
317.148	110.31
317.377	85.31
317.607	87.31
317.836	77.31
318.065	88.31
318.295	96.31
318.524	96.31
318.753	100.31
318.983	83.31
319.212	98.31
319.441	122.31
319.67	122.31
319.9	111.31
320.129	101.31
320.358	95.31
320.587	82.31
320.816	99.31
321.046	99.31
321.275	101.31
321.504	97.31
321.733	100.31
321.962	100.31
322.191	110.31
322.42	99.31
322.649	127.31
322.878	111.31
323.108	121.31
323.337	135.31
323.566	153.31
323.795	178.31
324.024	235.31
324.253	483.31
324.482	1061.31
324.71	2261.31
324.939	3103.31
325.168	1104.31
325.397	297.31
325.626	170.31
325.855	143.31
326.084	126.31
326.313	155.31
326.542	171.31
326.77	281.31
326.999	562.31
327.228	1189.31
327.457	2266.31
327.686	1793.31
327.914	514.31
328.143	425.31
328.372	495.31
328.6	281.31
328.829	161.31
329.058	171.31
329.287	160.31
329.515	157.31
329.744	194.31
329.972	336.31
330.201	699.31
330.43	1034.31
330.658	482.31
330.887	249.31
331.115	183.31
331.344	123.31
331.572	108.31
331.801	120.31
332.03	123.31
332.258	122.31
332.486	101.31
332.715	100.31
332.943	93.31
333.172	102.31
333.4	120.31
333.629	136.31
333.857	193.31
334.085	302.31
334.314	623.31
334.542	1288.31
334.771	1262.31
334.999	357.31
335.227	156.31
335.455	111.31
335.684	113.31
335.912	97.31
336.14	106.31
336.369	98.31
336.597	109.31
336.825	107.31
337.053	91.31
337.281	98.31
337.51	96.31
337.738	99.31
337.966	87.31
338.194	92.31
338.422	110.31
338.65	97.31
338.878	103.31
339.106	105.31
339.334	96.31
339.562	94.31
339.79	97.31
340.018	80.31
340.246	93.31
340.474	89.31
340.702	93.31
340.93	90.31
341.158	91.31
341.386	101.31
341.614	99.31
341.842	105.31
342.07	100.31
342.298	100.31
342.526	89.31
342.754	86.31
342.981	77.31
343.209	97.31
343.437	101.31
343.665	91.31
343.893	75.31
344.12	99.31
344.348	90.31
344.576	82.31
344.804	79.31
345.031	105.31
345.259	111.31
345.487	94.31
345.714	87.31
345.942	104.31
346.17	82.31
346.397	103.31
346.625	91.31
346.853	94.31
347.08	106.31
347.308	100.31
347.535	100.31
347.763	112.31
347.99	112.31
348.218	102.31
348.445	109.31
348.673	109.31
348.9	104.31
349.128	97.31
349.355	84.31
349.583	100.31
349.81	103.31
350.037	98.31
350.265	109.31
350.492	91.31
350.72	99.31
350.947	102.31
351.174	104.31
351.402	112.31
351.629	110.31
351.856	87.31
352.083	102.31
352.311	124.31
352.538	122.31
352.765	107.31
352.992	113.31
353.22	111.31
353.447	106.31
353.674	101.31
353.901	82.31
354.128	91.31
354.355	103.31
354.583	110.31
354.81	107.31
355.037	101.31
355.264	92.31
355.491	94.31
355.718	89.31
355.945	96.31
356.172	90.31
356.399	96.31
356.626	91.31
356.853	109.31
357.08	97.31
357.307	105.31
357.534	91.31
357.761	100.31
357.988	102.31
358.215	101.31
358.441	89.31
358.668	99.31
358.895	95.31
359.122	89.31
359.349	95.31
359.576	80.31
359.802	96.31
360.029	140.31
360.256	122.31
360.483	109.31
360.709	106.31
360.936	85.31
361.163	89.31
361.39	96.31
361.616	102.31
361.843	87.31
362.07	93.31
362.296	90.31
362.523	90.31
362.749	96.31
362.976	93.31
363.203	88.31
363.429	96.31
363.656	78.31
363.882	99.31
364.109	104.31
364.335	89.31
364.562	105.31
364.788	103.31
365.015	92.31
365.241	100.31
365.468	114.31
365.694	129.31
365.92	111.31
366.147	101.31
366.373	97.31
366.599	93.31
366.826	94.31
367.052	94.31
367.278	87.31
367.505	81.31
367.731	107.31
367.957	97.31
368.184	93.31
368.41	93.31
368.636	104.31
368.862	130.31
369.089	117.31
369.315	77.31
369.541	95.31
369.767	84.31
369.993	79.31
370.219	95.31
370.445	84.31
370.672	85.31
370.898	105.31
371.124	93.31
371.35	83.31
371.576	88.31
371.802	84.31
372.028	75.31
372.254	88.31
372.48	86.31
372.706	90.31
372.932	82.31
373.158	81.31
373.384	81.31
373.61	76.31
373.835	85.31
374.061	84.31
374.287	83.31
374.513	77.31
374.739	83.31
374.965	79.31
375.191	79.31
375.416	89.31
375.642	79.31
375.868	113.31
376.094	93.31
376.319	87.31
376.545	79.31
376.771	93.31
376.997	84.31
377.222	91.31
377.448	76.31
377.674	92.31
377.899	89.31
378.125	100.31
378.35	80.31
378.576	80.31
378.802	101.31
379.027	88.31
379.253	91.31
379.478	98.31
379.704	92.31
379.929	95.31
380.155	98.31
380.38	88.31
380.606	106.31
380.831	87.31
381.057	90.31
381.282	112.31
381.507	87.31
381.733	96.31
381.958	84.31
382.184	103.31
382.409	99.31
382.634	101.31
382.86	90.31
383.085	99.31
383.31	98.31
383.535	105.31
383.761	100.31
383.986	95.31
384.211	96.31
384.436	103.31
384.662	105.31
384.887	103.31
385.112	95.31
385.337	93.31
385.562	93.31
385.787	101.31
386.013	104.31
386.238	126.31
386.463	94.31
386.688	106.31
386.913	84.31
387.138	105.31
387.363	93.31
387.588	97.31
387.813	104.31
388.038	107.31
388.263	103.31
388.488	98.31
388.713	96.31
388.938	100.31
389.163	89.31
389.387	76.31
389.612	84.31
389.837	99.31
390.062	101.31
390.287	88.31
390.512	90.31
390.736	81.31
390.961	96.31
391.186	95.31
391.411	94.31
391.636	80.31
391.86	95.31
392.085	83.31
392.31	82.31
392.534	77.31
392.759	80.31
392.984	91.31
393.208	87.31
393.433	88.31
393.658	80.31
393.882	82.31
394.107	99.31
394.331	92.31
394.556	94.31
394.78	83.31
395.005	85.31
395.229	82.31
395.454	80.31
395.678	88.31
395.903	93.31
396.127	100.31
396.352	89.31
396.576	90.31
396.801	81.31
397.025	86.31
397.249	73.31
397.474	99.31
397.698	87.31
397.922	90.31
398.147	80.31
398.371	94.31
398.595	92.31
398.82	90.31
399.044	82.31
399.268	84.31
399.492	81.31
399.717	93.31
399.941	84.31
400.165	96.31
400.389	105.31
400.613	85.31
400.837	101.31
401.062	95.31
401.286	89.31
401.51	94.31
401.734	99.31
401.958	103.31
402.182	123.31
402.406	178.31
402.63	132.31
402.854	106.31
403.078	93.31
403.302	84.31
403.526	84.31
403.75	89.31
403.974	75.31
404.198	87.31
404.422	98.31
404.645	73.31
404.869	89.31
405.093	118.31
405.317	132.31
405.541	129.31
405.765	110.31
405.988	138.31
406.212	186.31
406.436	260.31
406.66	177.31
406.883	103.31
407.107	106.31
407.331	101.31
407.555	106.31
407.778	101.31
408.002	73.31
408.226	94.31
408.449	85.31
408.673	89.31
408.896	111.31
409.12	95.31
409.344	95.31
409.567	77.31
409.791	87.31
410.014	98.31
410.238	90.31
410.461	104.31
410.685	100.31
410.908	92.31
411.132	93.31
411.355	118.31
411.578	85.31
411.802	84.31
412.025	66.31
412.249	98.31
412.472	104.31
412.695	124.31
412.919	110.31
413.142	100.31
413.365	81.31
413.589	103.31
413.812	89.31
414.035	104.31
414.258	112.31
414.482	94.31
414.705	89.31
414.928	66.31
415.151	75.31
415.374	95.31
415.597	73.31
415.821	84.31
416.044	92.31
416.267	85.31
416.49	92.31
416.713	89.31
416.936	97.31
417.159	88.31
417.382	99.31
417.605	106.31
417.828	102.31
418.051	93.31
418.274	92.31
418.497	83.31
418.72	86.31
418.943	79.31
419.166	74.31
419.389	99.31
419.611	109.31
419.834	87.31
420.057	81.31
420.28	98.31
420.503	106.31
420.726	77.31
420.948	85.31
421.171	100.31
421.394	89.31
421.617	84.31
421.839	91.31
422.062	99.31
422.285	84.31
422.507	95.31
422.73	99.31
422.953	92.31
423.175	82.31
423.398	95.31
423.621	93.31
423.843	93.31
424.066	91.31
424.288	91.31
424.511	107.31
424.733	91.31
424.956	113.31
425.178	116.31
425.401	119.31
425.623	95.31
425.846	97.31
426.068	99.31
426.291	95.31
426.513	101.31
426.735	99.31
426.958	107.31
427.18	126.31
427.402	173.31
427.625	232.31
427.847	220.31
428.069	212.31
428.292	125.31
428.514	96.31
428.736	103.31
428.958	79.31
429.181	93.31
429.403	82.31
429.625	105.31
429.847	96.31
430.069	119.31
430.292	89.31
430.514	81.31
430.736	88.31
430.958	85.31
431.18	80.31
431.402	77.31
431.624	75.31
431.846	80.31
432.068	83.31
432.29	103.31
432.512	96.31
432.734	80.31
432.956	82.31
433.178	104.31
433.4	99.31
433.622	85.31
433.844	79.31
434.066	81.31
434.287	90.31
434.509	81.31
434.731	96.31
434.953	92.31
435.175	76.31
435.397	84.31
435.618	82.31
435.84	110.31
436.062	148.31
436.284	116.31
436.505	117.31
436.727	103.31
436.949	83.31
437.17	96.31
437.392	88.31
437.614	102.31
437.835	122.31
438.057	139.31
438.278	130.31
438.5	110.31
438.721	130.31
438.943	112.31
439.165	90.31
439.386	100.31
439.608	84.31
439.829	105.31
440.05	150.31
440.272	182.31
440.493	106.31
440.715	89.31
440.936	88.31
441.158	96.31
441.379	91.31
441.6	103.31
441.822	98.31
442.043	100.31
442.264	97.31
442.486	101.31
442.707	98.31
442.928	106.31
443.149	159.31
443.371	161.31
443.592	135.31
443.813	114.31
444.034	103.31
444.255	90.31
444.476	87.31
444.698	92.31
444.919	103.31
445.14	135.31
445.361	125.31
445.582	139.31
445.803	176.31
446.024	175.31
446.245	168.31
446.466	127.31
446.687	96.31
446.908	93.31
447.129	95.31
447.35	92.31
447.571	98.31
447.792	104.31
448.013	112.31
448.234	107.31
448.455	99.31
448.675	123.31
448.896	124.31
449.117	98.31
449.338	110.31
449.559	144.31
449.779	161.31
450	106.31
450.221	91.31
450.442	96.31
450.662	94.31
450.883	121.31
451.104	121.31
451.324	95.31
451.545	89.31
451.766	93.31
451.986	82.31
452.207	87.31
452.428	85.31
452.648	94.31
452.869	116.31
453.089	123.31
453.31	118.31
453.53	98.31
453.751	99.31
453.971	112.31
454.192	137.31
454.412	115.31
454.633	91.31
454.853	94.31
455.073	105.31
455.294	95.31
455.514	107.31
455.734	96.31
455.955	91.31
456.175	82.31
456.395	76.31
456.616	86.31
456.836	79.31
457.056	76.31
457.276	78.31
457.497	81.31
457.717	69.31
457.937	87.31
458.157	88.31
458.377	87.31
458.598	90.31
458.818	184.31
459.038	207.31
459.258	132.31
459.478	97.31
459.698	93.31
459.918	90.31
460.138	102.31
460.358	83.31
460.578	85.31
460.798	93.31
461.018	92.31
461.238	93.31
461.458	81.31
461.678	80.31
461.898	82.31
462.118	72.31
462.338	91.31
462.558	83.31
462.777	92.31
462.997	89.31
463.217	100.31
463.437	84.31
463.657	81.31
463.876	89.31
464.096	95.31
464.316	83.31
464.536	96.31
464.755	100.31
464.975	109.31
465.195	203.31
465.414	206.31
465.634	96.31
465.854	91.31
466.073	95.31
466.293	89.31
466.512	87.31
466.732	68.31
466.951	88.31
467.171	89.31
467.391	101.31
467.61	136.31
467.829	185.31
468.049	409.31
468.268	590.31
468.488	173.31
468.707	99.31
468.927	101.31
469.146	99.31
469.365	89.31
469.585	84.31
469.804	104.31
470.023	106.31
470.243	108.31
470.462	95.31
470.681	131.31
470.901	90.31
471.12	97.31
471.339	91.31
471.558	99.31
471.777	126.31
471.997	236.31
472.216	744.31
472.435	1767.31
472.654	427.31
472.873	130.31
473.092	101.31
473.311	80.31
473.53	88.31
473.749	85.31
473.968	106.31
474.187	123.31
474.406	96.31
474.625	101.31
474.844	91.31
475.063	90.31
475.282	73.31
475.501	85.31
475.72	84.31
475.939	81.31
476.158	89.31
476.377	90.31
476.596	97.31
476.814	85.31
477.033	99.31
477.252	93.31
477.471	83.31
477.69	94.31
477.908	86.31
478.127	91.31
478.346	93.31
478.564	90.31
478.783	104.31
479.002	105.31
479.22	99.31
479.439	110.31
479.658	138.31
479.876	116.31
480.095	108.31
480.313	109.31
480.532	149.31
480.751	217.31
480.969	733.31
481.188	2936.31
481.406	1764.31
481.624	291.31
481.843	114.31
482.061	111.31
482.28	96.31
482.498	98.31
482.717	91.31
482.935	98.31
483.153	92.31
483.372	92.31
483.59	90.31
483.808	90.31
484.027	76.31
484.245	87.31
484.463	89.31
484.681	96.31
484.9	93.31
485.118	88.31
485.336	97.31
485.554	101.31
485.772	91.31
485.99	101.31
486.209	93.31
486.427	95.31
486.645	107.31
486.863	118.31
487.081	97.31
487.299	89.31
487.517	95.31
487.735	69.31
487.953	82.31
488.171	93.31
488.389	94.31
488.607	100.31
488.825	83.31
489.043	94.31
489.261	97.31
489.479	85.31
489.696	74.31
489.914	81.31
490.132	82.31
490.35	79.31
490.568	77.31
490.786	91.31
491.003	73.31
491.221	92.31
491.439	106.31
491.657	80.31
491.874	94.31
492.092	88.31
492.31	92.31
492.527	90.31
492.745	100.31
492.963	97.31
493.18	101.31
493.398	93.31
493.615	95.31
493.833	86.31
494.05	91.31
494.268	73.31
494.485	84.31
494.703	90.31
494.92	87.31
495.138	90.31
495.355	91.31
495.573	93.31
495.79	78.31
496.008	98.31
496.225	92.31
496.442	92.31
496.66	88.31
496.877	79.31
497.094	92.31
497.312	83.31
497.529	96.31
497.746	81.31
497.963	91.31
498.181	92.31
498.398	89.31
498.615	113.31
498.832	131.31
499.049	106.31
499.267	113.31
499.484	90.31
499.701	94.31
499.918	88.31
500.135	87.31
500.352	86.31
500.569	78.31
500.786	85.31
501.003	102.31
501.22	83.31
501.437	92.31
501.654	102.31
501.871	105.31
502.088	96.31
502.305	103.31
502.522	95.31
502.739	101.31
502.956	91.31
503.172	85.31
503.389	99.31
503.606	87.31
503.823	75.31
504.04	93.31
504.256	95.31
504.473	92.31
504.69	99.31
504.907	95.31
505.123	82.31
505.34	98.31
505.557	88.31
505.773	97.31
505.99	88.31
506.207	105.31
506.423	87.31
506.64	92.31
506.856	84.31
507.073	90.31
507.289	109.31
507.506	93.31
507.722	127.31
507.939	119.31
508.155	98.31
508.372	91.31
508.588	95.31
508.805	95.31
509.021	90.31
509.238	99.31
509.454	108.31
509.67	89.31
509.887	117.31
510.103	128.31
510.319	214.31
510.536	789.31
510.752	2765.31
510.968	718.31
511.184	180.31
511.401	129.31
511.617	107.31
511.833	108.31
512.049	102.31
512.265	96.31
512.481	107.31
512.698	85.31
512.914	101.31
513.13	81.31
513.346	93.31
513.562	87.31
513.778	93.31
513.994	99.31
514.21	119.31
