Data from Circ_1992_H10_HRD10591_00072.txt Node
Date: Wed Jan 03 11:47:59 EST 2024
User: Yrep
Spectrometer: HR+D1059
Trigger mode: 1
Integration Time (sec): 1.000000E-1
Scans to average: 1
Electric dark correction enabled: true
Nonlinearity correction enabled: false
Boxcar width: 0
XAxis mode: Wavelengths
Number of Pixels in Spectrum: 2048
>>>>>Begin Spectral Data<<<<<
223.165	-23.94
223.4	-23.94
223.635	-23.94
223.869	-19.94
224.104	-27.94
224.338	-26.94
224.573	-14.94
224.808	0.06
225.042	-2.94
225.277	-8.94
225.511	-1.94
225.746	8.06
225.98	15.06
226.215	15.06
226.449	27.06
226.683	23.06
226.918	19.06
227.152	20.06
227.387	47.06
227.621	36.06
227.856	56.06
228.09	59.06
228.324	52.06
228.559	56.06
228.793	60.06
229.027	64.06
229.262	66.06
229.496	69.06
229.73	84.06
229.964	94.06
230.199	77.06
230.433	60.06
230.667	80.06
230.901	71.06
231.136	85.06
231.37	77.06
231.604	92.06
231.838	99.06
232.072	78.06
232.306	94.06
232.541	83.06
232.775	79.06
233.009	85.06
233.243	69.06
233.477	86.06
233.711	92.06
233.945	87.06
234.179	78.06
234.413	80.06
234.647	83.06
234.881	71.06
235.115	81.06
235.349	68.06
235.583	86.06
235.817	85.06
236.051	79.06
236.285	79.06
236.519	77.06
236.753	79.06
236.987	86.06
237.221	78.06
237.455	80.06
237.689	71.06
237.922	63.06
238.156	65.06
238.39	76.06
238.624	75.06
238.858	87.06
239.091	73.06
239.325	80.06
239.559	86.06
239.793	90.06
240.027	96.06
240.26	92.06
240.494	88.06
240.728	84.06
240.961	80.06
241.195	76.06
241.429	67.06
241.662	70.06
241.896	67.06
242.13	79.06
242.363	79.06
242.597	88.06
242.83	76.06
243.064	87.06
243.298	75.06
243.531	67.06
243.765	87.06
243.998	78.06
244.232	90.06
244.465	103.06
244.699	78.06
244.932	82.06
245.166	79.06
245.399	89.06
245.633	81.06
245.866	68.06
246.099	89.06
246.333	101.06
246.566	88.06
246.8	79.06
247.033	82.06
247.266	82.06
247.5	81.06
247.733	82.06
247.966	83.06
248.2	75.06
248.433	87.06
248.666	77.06
248.899	70.06
249.133	70.06
249.366	98.06
249.599	105.06
249.832	67.06
250.066	75.06
250.299	76.06
250.532	63.06
250.765	80.06
250.998	77.06
251.231	73.06
251.465	63.06
251.698	81.06
251.931	77.06
252.164	81.06
252.397	88.06
252.63	76.06
252.863	70.06
253.096	104.06
253.329	87.06
253.562	95.06
253.795	72.06
254.028	73.06
254.261	92.06
254.494	89.06
254.727	94.06
254.96	89.06
255.193	77.06
255.426	68.06
255.659	88.06
255.892	91.06
256.124	107.06
256.357	91.06
256.59	76.06
256.823	79.06
257.056	83.06
257.289	89.06
257.521	89.06
257.754	84.06
257.987	92.06
258.22	90.06
258.452	97.06
258.685	79.06
258.918	80.06
259.151	90.06
259.383	77.06
259.616	73.06
259.849	80.06
260.081	84.06
260.314	82.06
260.547	90.06
260.779	86.06
261.012	101.06
261.244	91.06
261.477	95.06
261.71	86.06
261.942	117.06
262.175	108.06
262.407	93.06
262.64	83.06
262.872	87.06
263.105	69.06
263.337	81.06
263.57	82.06
263.802	86.06
264.035	99.06
264.267	88.06
264.499	86.06
264.732	85.06
264.964	82.06
265.197	75.06
265.429	91.06
265.661	70.06
265.894	85.06
266.126	86.06
266.358	78.06
266.591	77.06
266.823	82.06
267.055	71.06
267.287	83.06
267.52	81.06
267.752	85.06
267.984	85.06
268.216	93.06
268.448	93.06
268.681	93.06
268.913	70.06
269.145	80.06
269.377	85.06
269.609	98.06
269.841	90.06
270.073	80.06
270.306	92.06
270.538	91.06
270.77	77.06
271.002	92.06
271.234	75.06
271.466	109.06
271.698	87.06
271.93	91.06
272.162	95.06
272.394	89.06
272.626	96.06
272.858	81.06
273.09	80.06
273.322	92.06
273.553	83.06
273.785	89.06
274.017	81.06
274.249	75.06
274.481	89.06
274.713	85.06
274.945	91.06
275.176	80.06
275.408	97.06
275.64	78.06
275.872	95.06
276.104	103.06
276.335	94.06
276.567	103.06
276.799	124.06
277.031	116.06
277.262	132.06
277.494	112.06
277.726	76.06
277.957	77.06
278.189	84.06
278.421	81.06
278.652	95.06
278.884	86.06
279.115	71.06
279.347	84.06
279.579	83.06
279.81	98.06
280.042	118.06
280.273	151.06
280.505	119.06
280.736	101.06
280.968	84.06
281.199	97.06
281.431	91.06
281.662	83.06
281.894	98.06
282.125	106.06
282.356	118.06
282.588	137.06
282.819	95.06
283.051	95.06
283.282	85.06
283.513	86.06
283.745	83.06
283.976	86.06
284.207	83.06
284.439	88.06
284.67	105.06
284.901	93.06
285.132	72.06
285.364	86.06
285.595	103.06
285.826	92.06
286.057	108.06
286.288	86.06
286.52	91.06
286.751	88.06
286.982	96.06
287.213	92.06
287.444	107.06
287.675	97.06
287.906	96.06
288.138	99.06
288.369	93.06
288.6	91.06
288.831	87.06
289.062	82.06
289.293	84.06
289.524	96.06
289.755	97.06
289.986	88.06
290.217	104.06
290.448	91.06
290.679	84.06
290.91	102.06
291.141	103.06
291.371	107.06
291.602	89.06
291.833	78.06
292.064	96.06
292.295	97.06
292.526	87.06
292.757	79.06
292.987	98.06
293.218	97.06
293.449	91.06
293.68	103.06
293.91	90.06
294.141	94.06
294.372	94.06
294.603	88.06
294.833	99.06
295.064	93.06
295.295	104.06
295.525	93.06
295.756	88.06
295.987	107.06
296.217	135.06
296.448	124.06
296.679	101.06
296.909	87.06
297.14	93.06
297.37	95.06
297.601	80.06
297.831	88.06
298.062	91.06
298.292	95.06
298.523	96.06
298.753	110.06
298.984	85.06
299.214	81.06
299.445	86.06
299.675	95.06
299.905	96.06
300.136	86.06
300.366	92.06
300.597	89.06
300.827	102.06
301.057	108.06
301.288	107.06
301.518	88.06
301.748	96.06
301.979	107.06
302.209	84.06
302.439	100.06
302.669	97.06
302.9	77.06
303.13	85.06
303.36	93.06
303.59	117.06
303.82	115.06
304.051	101.06
304.281	95.06
304.511	84.06
304.741	86.06
304.971	106.06
305.201	97.06
305.431	89.06
305.661	76.06
305.891	93.06
306.121	96.06
306.352	115.06
306.582	102.06
306.812	95.06
307.042	89.06
307.272	117.06
307.502	123.06
307.731	120.06
307.961	115.06
308.191	103.06
308.421	92.06
308.651	104.06
308.881	89.06
309.111	89.06
309.341	97.06
309.571	107.06
309.8	116.06
310.03	95.06
310.26	85.06
310.49	95.06
310.72	96.06
310.949	92.06
311.179	90.06
311.409	101.06
311.639	94.06
311.868	104.06
312.098	90.06
312.328	100.06
312.557	91.06
312.787	111.06
313.017	96.06
313.246	99.06
313.476	95.06
313.706	92.06
313.935	110.06
314.165	103.06
314.394	101.06
314.624	100.06
314.853	105.06
315.083	98.06
315.312	87.06
315.542	95.06
315.771	91.06
316.001	88.06
316.23	111.06
316.46	92.06
316.689	95.06
316.919	93.06
317.148	91.06
317.377	97.06
317.607	96.06
317.836	87.06
318.065	98.06
318.295	81.06
318.524	92.06
318.753	91.06
318.983	97.06
319.212	93.06
319.441	101.06
319.67	113.06
319.9	92.06
320.129	103.06
320.358	105.06
320.587	91.06
320.816	94.06
321.046	105.06
321.275	113.06
321.504	110.06
321.733	98.06
321.962	89.06
322.191	103.06
322.42	116.06
322.649	105.06
322.878	114.06
323.108	120.06
323.337	121.06
323.566	131.06
323.795	158.06
324.024	191.06
324.253	383.06
324.482	848.06
324.71	1790.06
324.939	2393.06
325.168	863.06
325.397	269.06
325.626	161.06
325.855	122.06
326.084	129.06
326.313	148.06
326.542	177.06
326.77	237.06
326.999	475.06
327.228	990.06
327.457	1812.06
327.686	1465.06
327.914	437.06
328.143	295.06
328.372	305.06
328.6	221.06
328.829	136.06
329.058	137.06
329.287	148.06
329.515	141.06
329.744	167.06
329.972	262.06
330.201	451.06
330.43	603.06
330.658	321.06
330.887	179.06
331.115	141.06
331.344	103.06
331.572	111.06
331.801	104.06
332.03	109.06
332.258	101.06
332.486	121.06
332.715	103.06
332.943	78.06
333.172	109.06
333.4	105.06
333.629	124.06
333.857	147.06
334.085	227.06
334.314	420.06
334.542	770.06
334.771	742.06
334.999	244.06
335.227	120.06
335.455	120.06
335.684	102.06
335.912	110.06
336.14	104.06
336.369	104.06
336.597	105.06
336.825	96.06
337.053	109.06
337.281	101.06
337.51	94.06
337.738	96.06
337.966	100.06
338.194	115.06
338.422	100.06
338.65	94.06
338.878	88.06
339.106	105.06
339.334	86.06
339.562	84.06
339.79	96.06
340.018	83.06
340.246	81.06
340.474	100.06
340.702	91.06
340.93	93.06
341.158	90.06
341.386	100.06
341.614	98.06
341.842	95.06
342.07	97.06
342.298	83.06
342.526	100.06
342.754	97.06
342.981	95.06
343.209	104.06
343.437	100.06
343.665	98.06
343.893	91.06
344.12	98.06
344.348	89.06
344.576	83.06
344.804	95.06
345.031	109.06
345.259	95.06
345.487	99.06
345.714	75.06
345.942	86.06
346.17	96.06
346.397	98.06
346.625	101.06
346.853	90.06
347.08	103.06
347.308	94.06
347.535	84.06
347.763	107.06
347.99	87.06
348.218	93.06
348.445	107.06
348.673	96.06
348.9	95.06
349.128	104.06
349.355	93.06
349.583	91.06
349.81	105.06
350.037	83.06
350.265	92.06
350.492	108.06
350.72	92.06
350.947	93.06
351.174	93.06
351.402	101.06
351.629	83.06
351.856	116.06
352.083	105.06
352.311	106.06
352.538	118.06
352.765	99.06
352.992	113.06
353.22	118.06
353.447	105.06
353.674	116.06
353.901	102.06
354.128	91.06
354.355	110.06
354.583	107.06
354.81	104.06
355.037	110.06
355.264	104.06
355.491	114.06
355.718	92.06
355.945	100.06
356.172	102.06
356.399	91.06
356.626	98.06
356.853	90.06
357.08	91.06
357.307	93.06
357.534	81.06
357.761	87.06
357.988	103.06
358.215	95.06
358.441	104.06
358.668	95.06
358.895	93.06
359.122	88.06
359.349	101.06
359.576	94.06
359.802	98.06
360.029	100.06
360.256	113.06
360.483	104.06
360.709	73.06
360.936	75.06
361.163	100.06
361.39	92.06
361.616	109.06
361.843	94.06
362.07	96.06
362.296	95.06
362.523	102.06
362.749	110.06
362.976	86.06
363.203	101.06
363.429	100.06
363.656	89.06
363.882	103.06
364.109	100.06
364.335	94.06
364.562	90.06
364.788	102.06
365.015	99.06
365.241	95.06
365.468	112.06
365.694	95.06
365.92	91.06
366.147	100.06
366.373	85.06
366.599	81.06
366.826	105.06
367.052	81.06
367.278	85.06
367.505	99.06
367.731	99.06
367.957	101.06
368.184	105.06
368.41	101.06
368.636	105.06
368.862	115.06
369.089	110.06
369.315	89.06
369.541	97.06
369.767	96.06
369.993	89.06
370.219	78.06
370.445	78.06
370.672	104.06
370.898	79.06
371.124	96.06
371.35	91.06
371.576	88.06
371.802	113.06
372.028	114.06
372.254	96.06
372.48	98.06
372.706	99.06
372.932	88.06
373.158	77.06
373.384	105.06
373.61	83.06
373.835	95.06
374.061	82.06
374.287	105.06
374.513	94.06
374.739	92.06
374.965	98.06
375.191	101.06
375.416	89.06
375.642	108.06
375.868	104.06
376.094	71.06
376.319	92.06
376.545	87.06
376.771	81.06
376.997	89.06
377.222	69.06
377.448	85.06
377.674	85.06
377.899	98.06
378.125	94.06
378.35	84.06
378.576	79.06
378.802	94.06
379.027	94.06
379.253	83.06
379.478	93.06
379.704	98.06
379.929	97.06
380.155	81.06
380.38	91.06
380.606	87.06
380.831	101.06
381.057	98.06
381.282	99.06
381.507	89.06
381.733	91.06
381.958	82.06
382.184	96.06
382.409	99.06
382.634	117.06
382.86	102.06
383.085	111.06
383.31	99.06
383.535	103.06
383.761	85.06
383.986	89.06
384.211	90.06
384.436	110.06
384.662	107.06
384.887	103.06
385.112	104.06
385.337	124.06
385.562	94.06
385.787	93.06
386.013	102.06
386.238	106.06
386.463	104.06
386.688	114.06
386.913	94.06
387.138	111.06
387.363	103.06
387.588	102.06
387.813	92.06
388.038	111.06
388.263	112.06
388.488	111.06
388.713	96.06
388.938	112.06
389.163	102.06
389.387	103.06
389.612	94.06
389.837	96.06
390.062	101.06
390.287	111.06
390.512	82.06
390.736	89.06
390.961	100.06
391.186	89.06
391.411	100.06
391.636	90.06
391.86	72.06
392.085	84.06
392.31	78.06
392.534	95.06
392.759	85.06
392.984	96.06
393.208	93.06
393.433	91.06
393.658	91.06
393.882	79.06
394.107	82.06
394.331	83.06
394.556	89.06
394.78	95.06
395.005	84.06
395.229	104.06
395.454	88.06
395.678	85.06
395.903	87.06
396.127	90.06
396.352	85.06
396.576	83.06
396.801	92.06
397.025	91.06
397.249	97.06
397.474	87.06
397.698	79.06
397.922	95.06
398.147	89.06
398.371	83.06
398.595	92.06
398.82	82.06
399.044	79.06
399.268	83.06
399.492	86.06
399.717	101.06
399.941	85.06
400.165	87.06
400.389	101.06
400.613	104.06
400.837	95.06
401.062	83.06
401.286	86.06
401.51	93.06
401.734	101.06
401.958	107.06
402.182	126.06
402.406	158.06
402.63	125.06
402.854	103.06
403.078	98.06
403.302	95.06
403.526	97.06
403.75	82.06
403.974	95.06
404.198	84.06
404.422	89.06
404.645	92.06
404.869	98.06
405.093	99.06
405.317	113.06
405.541	103.06
405.765	90.06
405.988	113.06
406.212	155.06
406.436	222.06
406.66	143.06
406.883	113.06
407.107	90.06
407.331	91.06
407.555	100.06
407.778	110.06
408.002	104.06
408.226	89.06
408.449	82.06
408.673	85.06
408.896	90.06
409.12	100.06
409.344	100.06
409.567	86.06
409.791	86.06
410.014	89.06
410.238	98.06
410.461	84.06
410.685	88.06
410.908	96.06
411.132	119.06
411.355	90.06
411.578	95.06
411.802	92.06
412.025	91.06
412.249	101.06
412.472	80.06
412.695	112.06
412.919	109.06
413.142	85.06
413.365	89.06
413.589	80.06
413.812	86.06
414.035	93.06
414.258	89.06
414.482	91.06
414.705	89.06
414.928	92.06
415.151	86.06
415.374	87.06
415.597	100.06
415.821	92.06
416.044	80.06
416.267	89.06
416.49	96.06
416.713	93.06
416.936	92.06
417.159	79.06
417.382	87.06
417.605	97.06
417.828	96.06
418.051	91.06
418.274	85.06
418.497	93.06
418.72	87.06
418.943	93.06
419.166	93.06
419.389	99.06
419.611	90.06
419.834	77.06
420.057	91.06
420.28	102.06
420.503	98.06
420.726	86.06
420.948	83.06
421.171	75.06
421.394	108.06
421.617	102.06
421.839	88.06
422.062	98.06
422.285	95.06
422.507	97.06
422.73	106.06
422.953	88.06
423.175	71.06
423.398	84.06
423.621	87.06
423.843	88.06
424.066	77.06
424.288	69.06
424.511	89.06
424.733	99.06
424.956	102.06
425.178	94.06
425.401	89.06
425.623	107.06
425.846	86.06
426.068	88.06
426.291	97.06
426.513	88.06
426.735	93.06
426.958	95.06
427.18	108.06
427.402	136.06
427.625	178.06
427.847	183.06
428.069	177.06
428.292	102.06
428.514	77.06
428.736	96.06
428.958	72.06
429.181	94.06
429.403	87.06
429.625	99.06
429.847	93.06
430.069	108.06
430.292	114.06
430.514	90.06
430.736	70.06
430.958	88.06
431.18	74.06
431.402	73.06
431.624	87.06
431.846	89.06
432.068	88.06
432.29	86.06
432.512	73.06
432.734	95.06
432.956	83.06
433.178	104.06
433.4	107.06
433.622	81.06
433.844	95.06
434.066	95.06
434.287	105.06
434.509	96.06
434.731	88.06
434.953	95.06
435.175	88.06
435.397	82.06
435.618	81.06
435.84	105.06
436.062	124.06
436.284	118.06
436.505	93.06
436.727	108.06
436.949	94.06
437.17	83.06
437.392	89.06
437.614	96.06
437.835	97.06
438.057	109.06
438.278	107.06
438.5	102.06
438.721	103.06
438.943	91.06
439.165	99.06
439.386	96.06
439.608	92.06
439.829	104.06
440.05	133.06
440.272	150.06
440.493	104.06
440.715	83.06
440.936	91.06
441.158	95.06
441.379	100.06
441.6	85.06
441.822	91.06
442.043	101.06
442.264	100.06
442.486	83.06
442.707	74.06
442.928	97.06
443.149	121.06
443.371	104.06
443.592	110.06
443.813	120.06
444.034	99.06
444.255	100.06
444.476	92.06
444.698	81.06
444.919	84.06
445.14	141.06
445.361	148.06
445.582	131.06
445.803	131.06
446.024	143.06
446.245	130.06
446.466	125.06
446.687	97.06
446.908	97.06
447.129	82.06
447.35	91.06
447.571	87.06
447.792	89.06
448.013	92.06
448.234	104.06
448.455	84.06
448.675	119.06
448.896	113.06
449.117	98.06
449.338	102.06
449.559	113.06
449.779	142.06
450	108.06
450.221	97.06
450.442	88.06
450.662	102.06
450.883	102.06
451.104	119.06
451.324	96.06
451.545	85.06
451.766	97.06
451.986	77.06
452.207	94.06
452.428	89.06
452.648	92.06
452.869	103.06
453.089	107.06
453.31	134.06
453.53	104.06
453.751	83.06
453.971	99.06
454.192	111.06
454.412	89.06
454.633	81.06
454.853	77.06
455.073	88.06
455.294	90.06
455.514	98.06
455.734	87.06
455.955	89.06
456.175	72.06
456.395	85.06
456.616	83.06
456.836	79.06
457.056	98.06
457.276	86.06
457.497	79.06
457.717	85.06
457.937	84.06
458.157	87.06
458.377	77.06
458.598	114.06
458.818	153.06
459.038	164.06
459.258	109.06
459.478	85.06
459.698	87.06
459.918	90.06
460.138	88.06
460.358	90.06
460.578	96.06
460.798	99.06
461.018	104.06
461.238	80.06
461.458	82.06
461.678	94.06
461.898	85.06
462.118	85.06
462.338	90.06
462.558	79.06
462.777	91.06
462.997	96.06
463.217	102.06
463.437	103.06
463.657	92.06
463.876	87.06
464.096	92.06
464.316	99.06
464.536	93.06
464.755	88.06
464.975	98.06
465.195	148.06
465.414	156.06
465.634	85.06
465.854	96.06
466.073	86.06
466.293	98.06
466.512	93.06
466.732	85.06
466.951	102.06
467.171	95.06
467.391	97.06
467.61	118.06
467.829	147.06
468.049	267.06
468.268	367.06
468.488	133.06
468.707	81.06
468.927	84.06
469.146	91.06
469.365	89.06
469.585	99.06
469.804	93.06
470.023	96.06
470.243	99.06
470.462	106.06
470.681	109.06
470.901	100.06
471.12	97.06
471.339	96.06
471.558	84.06
471.777	126.06
471.997	169.06
472.216	557.06
472.435	1131.06
472.654	302.06
472.873	116.06
473.092	86.06
473.311	81.06
473.53	86.06
473.749	95.06
473.968	95.06
474.187	102.06
474.406	86.06
474.625	93.06
474.844	85.06
475.063	87.06
475.282	85.06
475.501	81.06
475.72	109.06
475.939	87.06
476.158	88.06
476.377	108.06
476.596	86.06
476.814	93.06
477.033	89.06
477.252	83.06
477.471	91.06
477.69	77.06
477.908	105.06
478.127	92.06
478.346	93.06
478.564	103.06
478.783	100.06
479.002	107.06
479.22	87.06
479.439	105.06
479.658	119.06
479.876	99.06
480.095	102.06
480.313	115.06
480.532	123.06
480.751	186.06
480.969	497.06
481.188	1928.06
481.406	1125.06
481.624	205.06
481.843	117.06
482.061	99.06
482.28	96.06
482.498	86.06
482.717	93.06
482.935	101.06
483.153	98.06
483.372	89.06
483.59	95.06
483.808	109.06
484.027	97.06
484.245	89.06
484.463	97.06
484.681	87.06
484.9	69.06
485.118	97.06
485.336	115.06
485.554	108.06
485.772	94.06
485.99	108.06
486.209	92.06
486.427	112.06
486.645	111.06
486.863	112.06
487.081	107.06
487.299	96.06
487.517	99.06
487.735	99.06
487.953	87.06
488.171	81.06
488.389	94.06
488.607	104.06
488.825	84.06
489.043	81.06
489.261	87.06
489.479	87.06
489.696	95.06
489.914	83.06
490.132	95.06
490.35	91.06
490.568	93.06
490.786	90.06
491.003	101.06
491.221	91.06
491.439	83.06
491.657	86.06
491.874	104.06
492.092	95.06
492.31	99.06
492.527	96.06
492.745	72.06
492.963	103.06
493.18	100.06
493.398	101.06
493.615	79.06
493.833	107.06
494.05	98.06
494.268	86.06
494.485	92.06
494.703	97.06
494.92	78.06
495.138	91.06
495.355	97.06
495.573	91.06
495.79	101.06
496.008	82.06
496.225	85.06
496.442	81.06
496.66	104.06
496.877	91.06
497.094	110.06
497.312	109.06
497.529	83.06
497.746	95.06
497.963	75.06
498.181	88.06
498.398	98.06
498.615	98.06
498.832	103.06
499.049	103.06
499.267	97.06
499.484	83.06
499.701	83.06
499.918	88.06
500.135	84.06
500.352	79.06
500.569	96.06
500.786	83.06
501.003	101.06
501.22	105.06
501.437	87.06
501.654	107.06
501.871	107.06
502.088	98.06
502.305	99.06
502.522	90.06
502.739	81.06
502.956	101.06
503.172	104.06
503.389	100.06
503.606	112.06
503.823	87.06
504.04	101.06
504.256	104.06
504.473	91.06
504.69	105.06
504.907	90.06
505.123	95.06
505.34	90.06
505.557	97.06
505.773	86.06
505.99	77.06
506.207	109.06
506.423	95.06
506.64	92.06
506.856	88.06
507.073	89.06
507.289	94.06
507.506	100.06
507.722	103.06
507.939	112.06
508.155	89.06
508.372	102.06
508.588	82.06
508.805	86.06
509.021	107.06
509.238	105.06
509.454	93.06
509.67	91.06
509.887	103.06
510.103	135.06
510.319	195.06
510.536	633.06
510.752	2207.06
510.968	612.06
511.184	147.06
511.401	105.06
511.617	107.06
511.833	83.06
512.049	84.06
512.265	85.06
512.481	83.06
512.698	83.06
512.914	93.06
513.13	103.06
513.346	95.06
513.562	89.06
513.778	88.06
513.994	91.06
514.21	111.06
