Data from Circ_1992_H10_HRD10591_00075.txt Node
Date: Wed Jan 03 11:47:59 EST 2024
User: Yrep
Spectrometer: HR+D1059
Trigger mode: 1
Integration Time (sec): 1.000000E-1
Scans to average: 1
Electric dark correction enabled: true
Nonlinearity correction enabled: false
Boxcar width: 0
XAxis mode: Wavelengths
Number of Pixels in Spectrum: 2048
>>>>>Begin Spectral Data<<<<<
223.165	-25.25
223.4	-25.25
223.635	-25.25
223.869	-6.25
224.104	-18.25
224.338	-25.25
224.573	-14.25
224.808	-17.25
225.042	0.75
225.277	-2.25
225.511	-1.25
225.746	0.75
225.98	3.75
226.215	5.75
226.449	14.75
226.683	20.75
226.918	29.75
227.152	33.75
227.387	37.75
227.621	37.75
227.856	43.75
228.09	52.75
228.324	49.75
228.559	50.75
228.793	59.75
229.027	50.75
229.262	74.75
229.496	83.75
229.73	100.75
229.964	100.75
230.199	73.75
230.433	67.75
230.667	74.75
230.901	83.75
231.136	86.75
231.37	80.75
231.604	84.75
231.838	77.75
232.072	93.75
232.306	79.75
232.541	89.75
232.775	68.75
233.009	88.75
233.243	74.75
233.477	72.75
233.711	74.75
233.945	78.75
234.179	85.75
234.413	87.75
234.647	89.75
234.881	78.75
235.115	76.75
235.349	81.75
235.583	69.75
235.817	72.75
236.051	64.75
236.285	70.75
236.519	72.75
236.753	81.75
236.987	68.75
237.221	105.75
237.455	86.75
237.689	81.75
237.922	85.75
238.156	85.75
238.39	74.75
238.624	78.75
238.858	73.75
239.091	74.75
239.325	91.75
239.559	76.75
239.793	85.75
240.027	78.75
240.26	76.75
240.494	84.75
240.728	75.75
240.961	83.75
241.195	84.75
241.429	67.75
241.662	74.75
241.896	78.75
242.13	78.75
242.363	78.75
242.597	74.75
242.83	75.75
243.064	79.75
243.298	68.75
243.531	82.75
243.765	74.75
243.998	79.75
244.232	72.75
244.465	67.75
244.699	84.75
244.932	90.75
245.166	89.75
245.399	86.75
245.633	81.75
245.866	92.75
246.099	78.75
246.333	67.75
246.566	85.75
246.8	87.75
247.033	78.75
247.266	91.75
247.5	75.75
247.733	81.75
247.966	72.75
248.2	66.75
248.433	80.75
248.666	84.75
248.899	86.75
249.133	95.75
249.366	102.75
249.599	101.75
249.832	92.75
250.066	84.75
250.299	75.75
250.532	90.75
250.765	62.75
250.998	97.75
251.231	85.75
251.465	78.75
251.698	78.75
251.931	84.75
252.164	88.75
252.397	67.75
252.63	78.75
252.863	86.75
253.096	82.75
253.329	71.75
253.562	77.75
253.795	85.75
254.028	80.75
254.261	70.75
254.494	74.75
254.727	83.75
254.96	92.75
255.193	82.75
255.426	72.75
255.659	88.75
255.892	86.75
256.124	100.75
256.357	80.75
256.59	95.75
256.823	94.75
257.056	59.75
257.289	68.75
257.521	74.75
257.754	80.75
257.987	76.75
258.22	68.75
258.452	86.75
258.685	91.75
258.918	84.75
259.151	74.75
259.383	96.75
259.616	75.75
259.849	85.75
260.081	77.75
260.314	80.75
260.547	78.75
260.779	94.75
261.012	102.75
261.244	92.75
261.477	86.75
261.71	91.75
261.942	117.75
262.175	126.75
262.407	74.75
262.64	86.75
262.872	77.75
263.105	73.75
263.337	88.75
263.57	92.75
263.802	80.75
264.035	88.75
264.267	76.75
264.499	79.75
264.732	77.75
264.964	80.75
265.197	84.75
265.429	98.75
265.661	74.75
265.894	89.75
266.126	86.75
266.358	81.75
266.591	80.75
266.823	89.75
267.055	82.75
267.287	85.75
267.52	78.75
267.752	99.75
267.984	94.75
268.216	77.75
268.448	81.75
268.681	75.75
268.913	83.75
269.145	84.75
269.377	84.75
269.609	86.75
269.841	83.75
270.073	68.75
270.306	90.75
270.538	84.75
270.77	95.75
271.002	88.75
271.234	91.75
271.466	88.75
271.698	91.75
271.93	80.75
272.162	85.75
272.394	87.75
272.626	86.75
272.858	82.75
273.09	93.75
273.322	89.75
273.553	79.75
273.785	81.75
274.017	88.75
274.249	90.75
274.481	92.75
274.713	93.75
274.945	81.75
275.176	90.75
275.408	90.75
275.64	97.75
275.872	97.75
276.104	94.75
276.335	90.75
276.567	104.75
276.799	114.75
277.031	141.75
277.262	142.75
277.494	112.75
277.726	92.75
277.957	89.75
278.189	101.75
278.421	85.75
278.652	69.75
278.884	88.75
279.115	80.75
279.347	79.75
279.579	99.75
279.81	105.75
280.042	131.75
280.273	170.75
280.505	125.75
280.736	112.75
280.968	96.75
281.199	94.75
281.431	92.75
281.662	103.75
281.894	88.75
282.125	88.75
282.356	101.75
282.588	150.75
282.819	114.75
283.051	98.75
283.282	94.75
283.513	82.75
283.745	79.75
283.976	92.75
284.207	88.75
284.439	86.75
284.67	90.75
284.901	96.75
285.132	81.75
285.364	94.75
285.595	83.75
285.826	69.75
286.057	84.75
286.288	94.75
286.52	93.75
286.751	92.75
286.982	90.75
287.213	84.75
287.444	93.75
287.675	87.75
287.906	90.75
288.138	90.75
288.369	91.75
288.6	83.75
288.831	85.75
289.062	85.75
289.293	73.75
289.524	85.75
289.755	84.75
289.986	80.75
290.217	96.75
290.448	90.75
290.679	83.75
290.91	89.75
291.141	76.75
291.371	90.75
291.602	80.75
291.833	86.75
292.064	96.75
292.295	81.75
292.526	82.75
292.757	83.75
292.987	89.75
293.218	83.75
293.449	94.75
293.68	90.75
293.91	88.75
294.141	88.75
294.372	87.75
294.603	80.75
294.833	96.75
295.064	86.75
295.295	84.75
295.525	88.75
295.756	101.75
295.987	112.75
296.217	145.75
296.448	126.75
296.679	92.75
296.909	84.75
297.14	90.75
297.37	93.75
297.601	82.75
297.831	70.75
298.062	93.75
298.292	83.75
298.523	97.75
298.753	75.75
298.984	93.75
299.214	98.75
299.445	106.75
299.675	88.75
299.905	108.75
300.136	88.75
300.366	89.75
300.597	101.75
300.827	99.75
301.057	108.75
301.288	89.75
301.518	88.75
301.748	93.75
301.979	108.75
302.209	109.75
302.439	92.75
302.669	101.75
302.9	99.75
303.13	95.75
303.36	95.75
303.59	116.75
303.82	114.75
304.051	99.75
304.281	96.75
304.511	90.75
304.741	92.75
304.971	87.75
305.201	77.75
305.431	80.75
305.661	91.75
305.891	93.75
306.121	95.75
306.352	104.75
306.582	100.75
306.812	85.75
307.042	113.75
307.272	114.75
307.502	135.75
307.731	126.75
307.961	106.75
308.191	95.75
308.421	82.75
308.651	98.75
308.881	104.75
309.111	90.75
309.341	98.75
309.571	103.75
309.8	100.75
310.03	97.75
310.26	92.75
310.49	102.75
310.72	110.75
310.949	90.75
311.179	97.75
311.409	92.75
311.639	93.75
311.868	100.75
312.098	93.75
312.328	92.75
312.557	104.75
312.787	116.75
313.017	115.75
313.246	105.75
313.476	80.75
313.706	93.75
313.935	101.75
314.165	107.75
314.394	106.75
314.624	96.75
314.853	108.75
315.083	90.75
315.312	85.75
315.542	77.75
315.771	82.75
316.001	94.75
316.23	91.75
316.46	85.75
316.689	87.75
316.919	88.75
317.148	99.75
317.377	96.75
317.607	101.75
317.836	83.75
318.065	95.75
318.295	98.75
318.524	106.75
318.753	91.75
318.983	101.75
319.212	102.75
319.441	100.75
319.67	113.75
319.9	96.75
320.129	109.75
320.358	86.75
320.587	84.75
320.816	95.75
321.046	106.75
321.275	103.75
321.504	97.75
321.733	102.75
321.962	98.75
322.191	105.75
322.42	117.75
322.649	103.75
322.878	122.75
323.108	131.75
323.337	124.75
323.566	120.75
323.795	168.75
324.024	204.75
324.253	409.75
324.482	885.75
324.71	1797.75
324.939	2389.75
325.168	866.75
325.397	263.75
325.626	159.75
325.855	131.75
326.084	136.75
326.313	121.75
326.542	178.75
326.77	257.75
326.999	491.75
327.228	954.75
327.457	1757.75
327.686	1427.75
327.914	430.75
328.143	363.75
328.372	426.75
328.6	272.75
328.829	163.75
329.058	142.75
329.287	159.75
329.515	152.75
329.744	193.75
329.972	308.75
330.201	558.75
330.43	843.75
330.658	410.75
330.887	220.75
331.115	147.75
331.344	114.75
331.572	112.75
331.801	114.75
332.03	115.75
332.258	104.75
332.486	96.75
332.715	108.75
332.943	113.75
333.172	107.75
333.4	118.75
333.629	128.75
333.857	159.75
334.085	296.75
334.314	555.75
334.542	1062.75
334.771	999.75
334.999	298.75
335.227	144.75
335.455	112.75
335.684	100.75
335.912	93.75
336.14	105.75
336.369	102.75
336.597	102.75
336.825	106.75
337.053	90.75
337.281	93.75
337.51	87.75
337.738	99.75
337.966	92.75
338.194	100.75
338.422	104.75
338.65	88.75
338.878	98.75
339.106	89.75
339.334	102.75
339.562	88.75
339.79	102.75
340.018	74.75
340.246	103.75
340.474	109.75
340.702	94.75
340.93	87.75
341.158	105.75
341.386	101.75
341.614	93.75
341.842	102.75
342.07	95.75
342.298	81.75
342.526	98.75
342.754	99.75
342.981	90.75
343.209	87.75
343.437	80.75
343.665	81.75
343.893	97.75
344.12	109.75
344.348	96.75
344.576	75.75
344.804	95.75
345.031	105.75
345.259	100.75
345.487	104.75
345.714	100.75
345.942	86.75
346.17	86.75
346.397	98.75
346.625	91.75
346.853	91.75
347.08	97.75
347.308	104.75
347.535	88.75
347.763	91.75
347.99	101.75
348.218	98.75
348.445	108.75
348.673	104.75
348.9	101.75
349.128	81.75
349.355	92.75
349.583	98.75
349.81	89.75
350.037	92.75
350.265	113.75
350.492	92.75
350.72	109.75
350.947	101.75
351.174	119.75
351.402	95.75
351.629	101.75
351.856	127.75
352.083	106.75
352.311	101.75
352.538	114.75
352.765	107.75
352.992	112.75
353.22	119.75
353.447	112.75
353.674	112.75
353.901	99.75
354.128	88.75
354.355	91.75
354.583	104.75
354.81	83.75
355.037	88.75
355.264	86.75
355.491	96.75
355.718	88.75
355.945	96.75
356.172	92.75
356.399	90.75
356.626	88.75
356.853	88.75
357.08	81.75
357.307	96.75
357.534	89.75
357.761	84.75
357.988	97.75
358.215	100.75
358.441	80.75
358.668	89.75
358.895	79.75
359.122	94.75
359.349	94.75
359.576	88.75
359.802	99.75
360.029	120.75
360.256	124.75
360.483	105.75
360.709	94.75
360.936	93.75
361.163	96.75
361.39	86.75
361.616	89.75
361.843	83.75
362.07	99.75
362.296	109.75
362.523	90.75
362.749	99.75
362.976	105.75
363.203	99.75
363.429	88.75
363.656	95.75
363.882	91.75
364.109	106.75
364.335	99.75
364.562	92.75
364.788	92.75
365.015	99.75
365.241	101.75
365.468	116.75
365.694	96.75
365.92	105.75
366.147	97.75
366.373	80.75
366.599	88.75
366.826	114.75
367.052	99.75
367.278	85.75
367.505	87.75
367.731	80.75
367.957	96.75
368.184	90.75
368.41	102.75
368.636	112.75
368.862	115.75
369.089	98.75
369.315	98.75
369.541	88.75
369.767	84.75
369.993	94.75
370.219	100.75
370.445	76.75
370.672	89.75
370.898	86.75
371.124	97.75
371.35	88.75
371.576	84.75
371.802	84.75
372.028	77.75
372.254	75.75
372.48	99.75
372.706	84.75
372.932	78.75
373.158	86.75
373.384	90.75
373.61	89.75
373.835	92.75
374.061	89.75
374.287	102.75
374.513	90.75
374.739	91.75
374.965	85.75
375.191	91.75
375.416	99.75
375.642	74.75
375.868	88.75
376.094	70.75
376.319	84.75
376.545	97.75
376.771	88.75
376.997	87.75
377.222	89.75
377.448	80.75
377.674	94.75
377.899	82.75
378.125	89.75
378.35	97.75
378.576	79.75
378.802	91.75
379.027	92.75
379.253	97.75
379.478	100.75
379.704	93.75
379.929	89.75
380.155	100.75
380.38	77.75
380.606	106.75
380.831	93.75
381.057	94.75
381.282	93.75
381.507	105.75
381.733	102.75
381.958	90.75
382.184	107.75
382.409	100.75
382.634	104.75
382.86	94.75
383.085	110.75
383.31	86.75
383.535	95.75
383.761	80.75
383.986	92.75
384.211	86.75
384.436	107.75
384.662	101.75
384.887	121.75
385.112	96.75
385.337	101.75
385.562	100.75
385.787	96.75
386.013	107.75
386.238	116.75
386.463	120.75
386.688	101.75
386.913	96.75
387.138	103.75
387.363	110.75
387.588	99.75
387.813	112.75
388.038	106.75
388.263	128.75
388.488	112.75
388.713	102.75
388.938	100.75
389.163	80.75
389.387	97.75
389.612	94.75
389.837	82.75
390.062	95.75
390.287	83.75
390.512	67.75
390.736	101.75
390.961	92.75
391.186	86.75
391.411	91.75
391.636	90.75
391.86	84.75
392.085	95.75
392.31	74.75
392.534	80.75
392.759	82.75
392.984	86.75
393.208	96.75
393.433	84.75
393.658	95.75
393.882	88.75
394.107	93.75
394.331	83.75
394.556	91.75
394.78	97.75
395.005	72.75
395.229	89.75
395.454	93.75
395.678	98.75
395.903	94.75
396.127	83.75
396.352	81.75
396.576	83.75
396.801	87.75
397.025	95.75
397.249	86.75
397.474	109.75
397.698	90.75
397.922	90.75
398.147	95.75
398.371	92.75
398.595	77.75
398.82	74.75
399.044	76.75
399.268	88.75
399.492	82.75
399.717	82.75
399.941	91.75
400.165	104.75
400.389	88.75
400.613	77.75
400.837	98.75
401.062	95.75
401.286	100.75
401.51	90.75
401.734	92.75
401.958	118.75
402.182	131.75
402.406	151.75
402.63	116.75
402.854	104.75
403.078	93.75
403.302	92.75
403.526	106.75
403.75	99.75
403.974	100.75
404.198	96.75
404.422	97.75
404.645	83.75
404.869	84.75
405.093	105.75
405.317	107.75
405.541	108.75
405.765	96.75
405.988	119.75
406.212	172.75
406.436	241.75
406.66	153.75
406.883	101.75
407.107	101.75
407.331	94.75
407.555	91.75
407.778	106.75
408.002	86.75
408.226	98.75
408.449	88.75
408.673	87.75
408.896	78.75
409.12	101.75
409.344	98.75
409.567	99.75
409.791	109.75
410.014	109.75
410.238	90.75
410.461	91.75
410.685	116.75
410.908	100.75
411.132	104.75
411.355	93.75
411.578	108.75
411.802	83.75
412.025	93.75
412.249	94.75
412.472	112.75
412.695	118.75
412.919	108.75
413.142	72.75
413.365	98.75
413.589	81.75
413.812	96.75
414.035	91.75
414.258	85.75
414.482	95.75
414.705	88.75
414.928	96.75
415.151	90.75
415.374	93.75
415.597	93.75
415.821	83.75
416.044	97.75
416.267	88.75
416.49	77.75
416.713	94.75
416.936	96.75
417.159	84.75
417.382	97.75
417.605	107.75
417.828	96.75
418.051	86.75
418.274	75.75
418.497	86.75
418.72	100.75
418.943	87.75
419.166	80.75
419.389	76.75
419.611	92.75
419.834	103.75
420.057	93.75
420.28	94.75
420.503	92.75
420.726	100.75
420.948	92.75
421.171	100.75
421.394	102.75
421.617	97.75
421.839	73.75
422.062	87.75
422.285	79.75
422.507	104.75
422.73	98.75
422.953	101.75
423.175	81.75
423.398	85.75
423.621	98.75
423.843	92.75
424.066	84.75
424.288	90.75
424.511	101.75
424.733	101.75
424.956	116.75
425.178	104.75
425.401	95.75
425.623	110.75
425.846	86.75
426.068	105.75
426.291	97.75
426.513	83.75
426.735	76.75
426.958	87.75
427.18	103.75
427.402	153.75
427.625	202.75
427.847	193.75
428.069	172.75
428.292	106.75
428.514	92.75
428.736	80.75
428.958	86.75
429.181	90.75
429.403	112.75
429.625	95.75
429.847	92.75
430.069	102.75
430.292	89.75
430.514	70.75
430.736	88.75
430.958	93.75
431.18	81.75
431.402	95.75
431.624	89.75
431.846	81.75
432.068	77.75
432.29	91.75
432.512	90.75
432.734	82.75
432.956	90.75
433.178	108.75
433.4	93.75
433.622	96.75
433.844	99.75
434.066	92.75
434.287	79.75
434.509	86.75
434.731	98.75
434.953	87.75
435.175	81.75
435.397	93.75
435.618	88.75
435.84	93.75
436.062	125.75
436.284	121.75
436.505	89.75
436.727	108.75
436.949	89.75
437.17	85.75
437.392	89.75
437.614	89.75
437.835	94.75
438.057	137.75
438.278	129.75
438.5	113.75
438.721	123.75
438.943	110.75
439.165	93.75
439.386	85.75
439.608	102.75
439.829	112.75
440.05	128.75
440.272	151.75
440.493	92.75
440.715	98.75
440.936	105.75
441.158	93.75
441.379	93.75
441.6	106.75
441.822	89.75
442.043	99.75
442.264	104.75
442.486	114.75
442.707	95.75
442.928	114.75
443.149	150.75
443.371	153.75
443.592	121.75
443.813	116.75
444.034	107.75
444.255	81.75
444.476	84.75
444.698	97.75
444.919	93.75
445.14	135.75
445.361	116.75
445.582	124.75
445.803	169.75
446.024	164.75
446.245	149.75
446.466	130.75
446.687	79.75
446.908	78.75
447.129	85.75
447.35	95.75
447.571	96.75
447.792	88.75
448.013	104.75
448.234	112.75
448.455	106.75
448.675	132.75
448.896	124.75
449.117	98.75
449.338	110.75
449.559	127.75
449.779	141.75
450	102.75
450.221	93.75
450.442	101.75
450.662	92.75
450.883	115.75
451.104	112.75
451.324	81.75
451.545	90.75
451.766	95.75
451.986	83.75
452.207	81.75
452.428	101.75
452.648	112.75
452.869	108.75
453.089	110.75
453.31	118.75
453.53	90.75
453.751	90.75
453.971	101.75
454.192	102.75
454.412	93.75
454.633	95.75
454.853	92.75
455.073	86.75
455.294	103.75
455.514	99.75
455.734	99.75
455.955	92.75
456.175	81.75
456.395	77.75
456.616	77.75
456.836	87.75
457.056	87.75
457.276	91.75
457.497	84.75
457.717	81.75
457.937	86.75
458.157	86.75
458.377	107.75
458.598	115.75
458.818	172.75
459.038	189.75
459.258	129.75
459.478	88.75
459.698	94.75
459.918	92.75
460.138	97.75
460.358	84.75
460.578	94.75
460.798	89.75
461.018	96.75
461.238	77.75
461.458	85.75
461.678	84.75
461.898	95.75
462.118	84.75
462.338	108.75
462.558	91.75
462.777	82.75
462.997	96.75
463.217	84.75
463.437	90.75
463.657	91.75
463.876	83.75
464.096	89.75
464.316	93.75
464.536	86.75
464.755	90.75
464.975	113.75
465.195	188.75
465.414	185.75
465.634	107.75
465.854	102.75
466.073	91.75
466.293	72.75
466.512	80.75
466.732	82.75
466.951	94.75
467.171	96.75
467.391	101.75
467.61	117.75
467.829	160.75
468.049	347.75
468.268	470.75
468.488	153.75
468.707	91.75
468.927	80.75
469.146	76.75
469.365	94.75
469.585	107.75
469.804	98.75
470.023	113.75
470.243	104.75
470.462	116.75
470.681	103.75
470.901	86.75
471.12	92.75
471.339	93.75
471.558	108.75
471.777	122.75
471.997	191.75
472.216	635.75
472.435	1429.75
472.654	354.75
472.873	132.75
473.092	106.75
473.311	88.75
473.53	83.75
473.749	101.75
473.968	90.75
474.187	120.75
474.406	97.75
474.625	91.75
474.844	82.75
475.063	95.75
475.282	84.75
475.501	79.75
475.72	97.75
475.939	92.75
476.158	94.75
476.377	93.75
476.596	87.75
476.814	72.75
477.033	107.75
477.252	88.75
477.471	90.75
477.69	92.75
477.908	95.75
478.127	91.75
478.346	92.75
478.564	100.75
478.783	86.75
479.002	100.75
479.22	105.75
479.439	124.75
479.658	115.75
479.876	102.75
480.095	101.75
480.313	108.75
480.532	128.75
480.751	200.75
480.969	608.75
481.188	2478.75
481.406	1467.75
481.624	244.75
481.843	120.75
482.061	94.75
482.28	96.75
482.498	81.75
482.717	101.75
482.935	91.75
483.153	91.75
483.372	91.75
483.59	94.75
483.808	86.75
484.027	69.75
484.245	86.75
484.463	85.75
484.681	97.75
484.9	97.75
485.118	84.75
485.336	86.75
485.554	102.75
485.772	107.75
485.99	96.75
486.209	104.75
486.427	97.75
486.645	114.75
486.863	126.75
487.081	102.75
487.299	97.75
487.517	90.75
487.735	100.75
487.953	83.75
488.171	86.75
488.389	98.75
488.607	81.75
488.825	92.75
489.043	78.75
489.261	88.75
489.479	95.75
489.696	92.75
489.914	73.75
490.132	89.75
490.35	111.75
490.568	83.75
490.786	91.75
491.003	89.75
491.221	90.75
491.439	89.75
491.657	102.75
491.874	97.75
492.092	90.75
492.31	92.75
492.527	93.75
492.745	91.75
492.963	97.75
493.18	88.75
493.398	84.75
493.615	83.75
493.833	95.75
494.05	102.75
494.268	89.75
494.485	88.75
494.703	77.75
494.92	86.75
495.138	82.75
495.355	91.75
495.573	108.75
495.79	95.75
496.008	85.75
496.225	90.75
496.442	94.75
496.66	89.75
496.877	79.75
497.094	94.75
497.312	83.75
497.529	93.75
497.746	99.75
497.963	91.75
498.181	101.75
498.398	95.75
498.615	100.75
498.832	100.75
499.049	91.75
499.267	80.75
499.484	92.75
499.701	90.75
499.918	81.75
500.135	92.75
500.352	76.75
500.569	95.75
500.786	94.75
501.003	99.75
501.22	81.75
501.437	101.75
501.654	108.75
501.871	106.75
502.088	91.75
502.305	99.75
502.522	99.75
502.739	99.75
502.956	83.75
503.172	90.75
503.389	95.75
503.606	107.75
503.823	97.75
504.04	98.75
504.256	81.75
504.473	96.75
504.69	89.75
504.907	83.75
505.123	82.75
505.34	87.75
505.557	74.75
505.773	91.75
505.99	96.75
506.207	92.75
506.423	93.75
506.64	100.75
506.856	88.75
507.073	85.75
507.289	106.75
507.506	97.75
507.722	131.75
507.939	104.75
508.155	82.75
508.372	101.75
508.588	93.75
508.805	83.75
509.021	106.75
509.238	96.75
509.454	89.75
509.67	94.75
509.887	110.75
510.103	120.75
510.319	209.75
510.536	694.75
510.752	2334.75
510.968	659.75
511.184	154.75
511.401	117.75
511.617	99.75
511.833	83.75
512.049	97.75
512.265	81.75
512.481	102.75
512.698	97.75
512.914	85.75
513.13	80.75
513.346	108.75
513.562	88.75
513.778	91.75
513.994	99.75
514.21	104.75
514.426	119.75
