Data from Circ_1992_H10_HRD10591_00097.txt Node
Date: Wed Jan 03 11:48:04 EST 2024
User: Yrep
Spectrometer: HR+D1059
Trigger mode: 1
Integration Time (sec): 1.000000E-1
Scans to average: 1
Electric dark correction enabled: true
Nonlinearity correction enabled: false
Boxcar width: 0
XAxis mode: Wavelengths
Number of Pixels in Spectrum: 2048
>>>>>Begin Spectral Data<<<<<
223.165	-16.06
223.4	-16.06
223.635	-16.06
223.869	-18.06
224.104	-26.06
224.338	-27.06
224.573	-9.06
224.808	-14.06
225.042	-18.06
225.277	-10.06
225.511	7.94
225.746	-0.06
225.98	12.94
226.215	16.94
226.449	26.94
226.683	20.94
226.918	27.94
227.152	24.94
227.387	40.94
227.621	36.94
227.856	52.94
228.09	47.94
228.324	56.94
228.559	62.94
228.793	79.94
229.027	62.94
229.262	64.94
229.496	81.94
229.73	99.94
229.964	88.94
230.199	78.94
230.433	70.94
230.667	88.94
230.901	78.94
231.136	79.94
231.37	70.94
231.604	74.94
231.838	91.94
232.072	82.94
232.306	93.94
232.541	95.94
232.775	93.94
233.009	80.94
233.243	84.94
233.477	85.94
233.711	103.94
233.945	80.94
234.179	65.94
234.413	70.94
234.647	84.94
234.881	83.94
235.115	89.94
235.349	80.94
235.583	82.94
235.817	92.94
236.051	77.94
236.285	74.94
236.519	93.94
236.753	78.94
236.987	91.94
237.221	100.94
237.455	108.94
237.689	87.94
237.922	80.94
238.156	88.94
238.39	81.94
238.624	73.94
238.858	93.94
239.091	84.94
239.325	78.94
239.559	88.94
239.793	82.94
240.027	87.94
240.26	73.94
240.494	80.94
240.728	84.94
240.961	81.94
241.195	86.94
241.429	77.94
241.662	71.94
241.896	79.94
242.13	91.94
242.363	83.94
242.597	77.94
242.83	81.94
243.064	93.94
243.298	76.94
243.531	79.94
243.765	96.94
243.998	71.94
244.232	97.94
244.465	104.94
244.699	84.94
244.932	80.94
245.166	72.94
245.399	80.94
245.633	90.94
245.866	84.94
246.099	79.94
246.333	82.94
246.566	81.94
246.8	84.94
247.033	81.94
247.266	69.94
247.5	83.94
247.733	76.94
247.966	87.94
248.2	84.94
248.433	87.94
248.666	98.94
248.899	94.94
249.133	79.94
249.366	109.94
249.599	105.94
249.832	76.94
250.066	84.94
250.299	72.94
250.532	91.94
250.765	90.94
250.998	97.94
251.231	82.94
251.465	91.94
251.698	86.94
251.931	88.94
252.164	99.94
252.397	88.94
252.63	79.94
252.863	89.94
253.096	79.94
253.329	68.94
253.562	83.94
253.795	98.94
254.028	91.94
254.261	90.94
254.494	82.94
254.727	89.94
254.96	79.94
255.193	85.94
255.426	78.94
255.659	88.94
255.892	98.94
256.124	101.94
256.357	96.94
256.59	95.94
256.823	78.94
257.056	69.94
257.289	97.94
257.521	91.94
257.754	92.94
257.987	76.94
258.22	97.94
258.452	94.94
258.685	87.94
258.918	75.94
259.151	86.94
259.383	78.94
259.616	97.94
259.849	82.94
260.081	89.94
260.314	90.94
260.547	87.94
260.779	93.94
261.012	116.94
261.244	100.94
261.477	95.94
261.71	111.94
261.942	133.94
262.175	129.94
262.407	95.94
262.64	90.94
262.872	89.94
263.105	93.94
263.337	78.94
263.57	90.94
263.802	96.94
264.035	85.94
264.267	87.94
264.499	96.94
264.732	85.94
264.964	87.94
265.197	89.94
265.429	84.94
265.661	99.94
265.894	92.94
266.126	79.94
266.358	73.94
266.591	91.94
266.823	98.94
267.055	88.94
267.287	96.94
267.52	82.94
267.752	83.94
267.984	79.94
268.216	96.94
268.448	98.94
268.681	90.94
268.913	83.94
269.145	83.94
269.377	94.94
269.609	90.94
269.841	89.94
270.073	92.94
270.306	80.94
270.538	98.94
270.77	97.94
271.002	92.94
271.234	95.94
271.466	98.94
271.698	96.94
271.93	74.94
272.162	96.94
272.394	103.94
272.626	87.94
272.858	86.94
273.09	94.94
273.322	90.94
273.553	93.94
273.785	87.94
274.017	89.94
274.249	98.94
274.481	94.94
274.713	105.94
274.945	86.94
275.176	90.94
275.408	116.94
275.64	111.94
275.872	121.94
276.104	112.94
276.335	100.94
276.567	127.94
276.799	134.94
277.031	161.94
277.262	170.94
277.494	132.94
277.726	107.94
277.957	99.94
278.189	88.94
278.421	84.94
278.652	106.94
278.884	90.94
279.115	99.94
279.347	84.94
279.579	103.94
279.81	137.94
280.042	164.94
280.273	223.94
280.505	169.94
280.736	109.94
280.968	104.94
281.199	81.94
281.431	85.94
281.662	85.94
281.894	103.94
282.125	111.94
282.356	124.94
282.588	157.94
282.819	142.94
283.051	96.94
283.282	79.94
283.513	87.94
283.745	84.94
283.976	75.94
284.207	96.94
284.439	92.94
284.67	94.94
284.901	90.94
285.132	91.94
285.364	81.94
285.595	116.94
285.826	90.94
286.057	84.94
286.288	84.94
286.52	95.94
286.751	77.94
286.982	87.94
287.213	109.94
287.444	96.94
287.675	97.94
287.906	90.94
288.138	97.94
288.369	103.94
288.6	104.94
288.831	93.94
289.062	95.94
289.293	90.94
289.524	88.94
289.755	94.94
289.986	86.94
290.217	83.94
290.448	76.94
290.679	90.94
290.91	92.94
291.141	98.94
291.371	98.94
291.602	81.94
291.833	93.94
292.064	99.94
292.295	85.94
292.526	107.94
292.757	101.94
292.987	103.94
293.218	112.94
293.449	97.94
293.68	79.94
293.91	89.94
294.141	72.94
294.372	99.94
294.603	98.94
294.833	88.94
295.064	99.94
295.295	97.94
295.525	103.94
295.756	118.94
295.987	125.94
296.217	145.94
296.448	132.94
296.679	112.94
296.909	109.94
297.14	92.94
297.37	87.94
297.601	93.94
297.831	94.94
298.062	93.94
298.292	105.94
298.523	96.94
298.753	89.94
298.984	85.94
299.214	98.94
299.445	108.94
299.675	94.94
299.905	101.94
300.136	94.94
300.366	88.94
300.597	92.94
300.827	93.94
301.057	95.94
301.288	113.94
301.518	93.94
301.748	99.94
301.979	131.94
302.209	107.94
302.439	100.94
302.669	90.94
302.9	93.94
303.13	115.94
303.36	118.94
303.59	127.94
303.82	133.94
304.051	100.94
304.281	104.94
304.511	98.94
304.741	88.94
304.971	100.94
305.201	99.94
305.431	94.94
305.661	93.94
305.891	88.94
306.121	98.94
306.352	111.94
306.582	109.94
306.812	101.94
307.042	128.94
307.272	153.94
307.502	156.94
307.731	158.94
307.961	124.94
308.191	97.94
308.421	104.94
308.651	96.94
308.881	88.94
309.111	103.94
309.341	94.94
309.571	109.94
309.8	87.94
310.03	123.94
310.26	111.94
310.49	109.94
310.72	131.94
310.949	133.94
311.179	129.94
311.409	103.94
311.639	108.94
311.868	103.94
312.098	98.94
312.328	97.94
312.557	120.94
312.787	116.94
313.017	125.94
313.246	122.94
313.476	105.94
313.706	97.94
313.935	117.94
314.165	105.94
314.394	108.94
314.624	112.94
314.853	106.94
315.083	110.94
315.312	94.94
315.542	95.94
315.771	110.94
316.001	108.94
316.23	103.94
316.46	80.94
316.689	86.94
316.919	107.94
317.148	112.94
317.377	117.94
317.607	101.94
317.836	101.94
318.065	80.94
318.295	105.94
318.524	89.94
318.753	92.94
318.983	97.94
319.212	104.94
319.441	105.94
319.67	128.94
319.9	100.94
320.129	87.94
320.358	103.94
320.587	107.94
320.816	105.94
321.046	99.94
321.275	114.94
321.504	115.94
321.733	103.94
321.962	96.94
322.191	103.94
322.42	134.94
322.649	119.94
322.878	126.94
323.108	136.94
323.337	148.94
323.566	162.94
323.795	179.94
324.024	259.94
324.253	535.94
324.482	1155.94
324.71	2533.94
324.939	3408.94
325.168	1198.94
325.397	346.94
325.626	181.94
325.855	160.94
326.084	134.94
326.313	152.94
326.542	198.94
326.77	304.94
326.999	622.94
327.228	1306.94
327.457	2508.94
327.686	2012.94
327.914	597.94
328.143	478.94
328.372	567.94
328.6	328.94
328.829	182.94
329.058	181.94
329.287	188.94
329.515	171.94
329.744	223.94
329.972	399.94
330.201	813.94
330.43	1191.94
330.658	551.94
330.887	256.94
331.115	184.94
331.344	129.94
331.572	107.94
331.801	128.94
332.03	127.94
332.258	116.94
332.486	92.94
332.715	115.94
332.943	112.94
333.172	128.94
333.4	139.94
333.629	163.94
333.857	212.94
334.085	381.94
334.314	776.94
334.542	1503.94
334.771	1445.94
334.999	384.94
335.227	167.94
335.455	124.94
335.684	101.94
335.912	105.94
336.14	110.94
336.369	112.94
336.597	122.94
336.825	120.94
337.053	99.94
337.281	112.94
337.51	100.94
337.738	106.94
337.966	99.94
338.194	129.94
338.422	108.94
338.65	86.94
338.878	98.94
339.106	90.94
339.334	93.94
339.562	96.94
339.79	113.94
340.018	114.94
340.246	106.94
340.474	100.94
340.702	96.94
340.93	99.94
341.158	93.94
341.386	129.94
341.614	102.94
341.842	108.94
342.07	86.94
342.298	101.94
342.526	102.94
342.754	103.94
342.981	94.94
343.209	99.94
343.437	110.94
343.665	97.94
343.893	85.94
344.12	89.94
344.348	89.94
344.576	90.94
344.804	89.94
345.031	109.94
345.259	109.94
345.487	106.94
345.714	102.94
345.942	99.94
346.17	98.94
346.397	103.94
346.625	102.94
346.853	100.94
347.08	102.94
347.308	100.94
347.535	101.94
347.763	107.94
347.99	103.94
348.218	115.94
348.445	121.94
348.673	101.94
348.9	127.94
349.128	119.94
349.355	111.94
349.583	99.94
349.81	109.94
350.037	96.94
350.265	98.94
350.492	92.94
350.72	101.94
350.947	98.94
351.174	116.94
351.402	112.94
351.629	109.94
351.856	106.94
352.083	109.94
352.311	111.94
352.538	125.94
352.765	121.94
352.992	114.94
353.22	116.94
353.447	123.94
353.674	125.94
353.901	114.94
354.128	96.94
354.355	104.94
354.583	96.94
354.81	99.94
355.037	99.94
355.264	110.94
355.491	103.94
355.718	108.94
355.945	88.94
356.172	83.94
356.399	95.94
356.626	101.94
356.853	107.94
357.08	102.94
357.307	92.94
357.534	92.94
357.761	83.94
357.988	85.94
358.215	95.94
358.441	99.94
358.668	113.94
358.895	100.94
359.122	108.94
359.349	105.94
359.576	99.94
359.802	110.94
360.029	147.94
360.256	142.94
360.483	108.94
360.709	88.94
360.936	84.94
361.163	105.94
361.39	96.94
361.616	102.94
361.843	89.94
362.07	111.94
362.296	100.94
362.523	106.94
362.749	101.94
362.976	90.94
363.203	92.94
363.429	112.94
363.656	97.94
363.882	104.94
364.109	93.94
364.335	94.94
364.562	103.94
364.788	96.94
365.015	101.94
365.241	99.94
365.468	106.94
365.694	108.94
365.92	113.94
366.147	88.94
366.373	110.94
366.599	94.94
366.826	93.94
367.052	92.94
367.278	105.94
367.505	98.94
367.731	104.94
367.957	84.94
368.184	95.94
368.41	97.94
368.636	127.94
368.862	108.94
369.089	121.94
369.315	89.94
369.541	93.94
369.767	109.94
369.993	85.94
370.219	106.94
370.445	83.94
370.672	91.94
370.898	99.94
371.124	96.94
371.35	88.94
371.576	82.94
371.802	95.94
372.028	97.94
372.254	94.94
372.48	78.94
372.706	86.94
372.932	96.94
373.158	100.94
373.384	87.94
373.61	102.94
373.835	92.94
374.061	99.94
374.287	99.94
374.513	115.94
374.739	108.94
374.965	99.94
375.191	94.94
375.416	100.94
375.642	87.94
375.868	92.94
376.094	100.94
376.319	94.94
376.545	97.94
376.771	97.94
376.997	98.94
377.222	99.94
377.448	84.94
377.674	87.94
377.899	81.94
378.125	98.94
378.35	100.94
378.576	96.94
378.802	89.94
379.027	92.94
379.253	101.94
379.478	84.94
379.704	86.94
379.929	106.94
380.155	97.94
380.38	93.94
380.606	103.94
380.831	94.94
381.057	93.94
381.282	100.94
381.507	100.94
381.733	94.94
381.958	112.94
382.184	97.94
382.409	93.94
382.634	96.94
382.86	101.94
383.085	115.94
383.31	90.94
383.535	103.94
383.761	86.94
383.986	99.94
384.211	89.94
384.436	108.94
384.662	110.94
384.887	115.94
385.112	109.94
385.337	92.94
385.562	97.94
385.787	120.94
386.013	122.94
386.238	121.94
386.463	103.94
386.688	108.94
386.913	108.94
387.138	97.94
387.363	122.94
387.588	104.94
387.813	103.94
388.038	107.94
388.263	106.94
388.488	107.94
388.713	93.94
388.938	95.94
389.163	89.94
389.387	97.94
389.612	94.94
389.837	96.94
390.062	83.94
390.287	80.94
390.512	104.94
390.736	93.94
390.961	95.94
391.186	104.94
391.411	101.94
391.636	90.94
391.86	82.94
392.085	94.94
392.31	94.94
392.534	105.94
392.759	103.94
392.984	99.94
393.208	80.94
393.433	81.94
393.658	89.94
393.882	83.94
394.107	99.94
394.331	80.94
394.556	99.94
394.78	113.94
395.005	90.94
395.229	90.94
395.454	90.94
395.678	87.94
395.903	90.94
396.127	95.94
396.352	78.94
396.576	90.94
396.801	90.94
397.025	90.94
397.249	92.94
397.474	87.94
397.698	93.94
397.922	88.94
398.147	98.94
398.371	102.94
398.595	86.94
398.82	97.94
399.044	91.94
399.268	82.94
399.492	88.94
399.717	100.94
399.941	102.94
400.165	110.94
400.389	92.94
400.613	95.94
400.837	87.94
401.062	90.94
401.286	104.94
401.51	105.94
401.734	96.94
401.958	106.94
402.182	128.94
402.406	174.94
402.63	146.94
402.854	102.94
403.078	102.94
403.302	105.94
403.526	96.94
403.75	109.94
403.974	94.94
404.198	88.94
404.422	91.94
404.645	95.94
404.869	98.94
405.093	111.94
405.317	144.94
405.541	153.94
405.765	131.94
405.988	136.94
406.212	188.94
406.436	264.94
406.66	196.94
406.883	126.94
407.107	98.94
407.331	118.94
407.555	115.94
407.778	96.94
408.002	100.94
408.226	103.94
408.449	87.94
408.673	96.94
408.896	96.94
409.12	109.94
409.344	98.94
409.567	77.94
409.791	84.94
410.014	96.94
410.238	103.94
410.461	102.94
410.685	90.94
410.908	106.94
411.132	103.94
411.355	110.94
411.578	94.94
411.802	83.94
412.025	98.94
412.249	112.94
412.472	126.94
412.695	140.94
412.919	115.94
413.142	86.94
413.365	91.94
413.589	94.94
413.812	79.94
414.035	91.94
414.258	95.94
414.482	104.94
414.705	95.94
414.928	100.94
415.151	88.94
415.374	95.94
415.597	89.94
415.821	86.94
416.044	93.94
416.267	96.94
416.49	100.94
416.713	93.94
416.936	106.94
417.159	87.94
417.382	100.94
417.605	110.94
417.828	103.94
418.051	99.94
418.274	90.94
418.497	98.94
418.72	100.94
418.943	105.94
419.166	94.94
419.389	93.94
419.611	91.94
419.834	94.94
420.057	106.94
420.28	113.94
420.503	94.94
420.726	104.94
420.948	101.94
421.171	93.94
421.394	105.94
421.617	99.94
421.839	88.94
422.062	79.94
422.285	81.94
422.507	108.94
422.73	128.94
422.953	98.94
423.175	99.94
423.398	99.94
423.621	96.94
423.843	88.94
424.066	102.94
424.288	86.94
424.511	100.94
424.733	111.94
424.956	126.94
425.178	100.94
425.401	104.94
425.623	102.94
425.846	96.94
426.068	97.94
426.291	98.94
426.513	113.94
426.735	103.94
426.958	113.94
427.18	126.94
427.402	186.94
427.625	265.94
427.847	229.94
428.069	257.94
428.292	127.94
428.514	104.94
428.736	79.94
428.958	93.94
429.181	81.94
429.403	95.94
429.625	81.94
429.847	96.94
430.069	110.94
430.292	114.94
430.514	88.94
430.736	88.94
430.958	84.94
431.18	90.94
431.402	104.94
431.624	91.94
431.846	101.94
432.068	104.94
432.29	96.94
432.512	95.94
432.734	101.94
432.956	96.94
433.178	111.94
433.4	112.94
433.622	99.94
433.844	112.94
434.066	92.94
434.287	94.94
434.509	77.94
434.731	89.94
434.953	87.94
435.175	94.94
435.397	94.94
435.618	89.94
435.84	117.94
436.062	176.94
436.284	145.94
436.505	118.94
436.727	118.94
436.949	98.94
437.17	88.94
437.392	92.94
437.614	110.94
437.835	115.94
438.057	144.94
438.278	132.94
438.5	131.94
438.721	173.94
438.943	110.94
439.165	103.94
439.386	92.94
439.608	106.94
439.829	114.94
440.05	165.94
440.272	204.94
440.493	115.94
440.715	104.94
440.936	104.94
441.158	85.94
441.379	94.94
441.6	119.94
441.822	101.94
442.043	102.94
442.264	106.94
442.486	116.94
442.707	111.94
442.928	132.94
443.149	163.94
443.371	167.94
443.592	133.94
443.813	144.94
444.034	141.94
444.255	104.94
444.476	108.94
444.698	99.94
444.919	94.94
445.14	132.94
445.361	135.94
445.582	143.94
445.803	204.94
446.024	199.94
446.245	184.94
446.466	147.94
446.687	98.94
446.908	89.94
447.129	90.94
447.35	105.94
447.571	112.94
447.792	87.94
448.013	112.94
448.234	119.94
448.455	126.94
448.675	119.94
448.896	147.94
449.117	101.94
449.338	119.94
449.559	168.94
449.779	171.94
450	112.94
450.221	81.94
450.442	102.94
450.662	111.94
450.883	124.94
451.104	131.94
451.324	104.94
451.545	97.94
451.766	91.94
451.986	93.94
452.207	97.94
452.428	105.94
452.648	85.94
452.869	124.94
453.089	120.94
453.31	145.94
453.53	96.94
453.751	103.94
453.971	121.94
454.192	124.94
454.412	105.94
454.633	109.94
454.853	96.94
455.073	89.94
455.294	104.94
455.514	118.94
455.734	109.94
455.955	100.94
456.175	93.94
456.395	87.94
456.616	78.94
456.836	95.94
457.056	89.94
457.276	83.94
457.497	97.94
457.717	78.94
457.937	98.94
458.157	104.94
458.377	96.94
458.598	113.94
458.818	206.94
459.038	220.94
459.258	142.94
459.478	109.94
459.698	92.94
459.918	85.94
460.138	69.94
460.358	93.94
460.578	100.94
460.798	93.94
461.018	80.94
461.238	85.94
461.458	95.94
461.678	81.94
461.898	105.94
462.118	102.94
462.338	93.94
462.558	99.94
462.777	88.94
462.997	90.94
463.217	110.94
463.437	100.94
463.657	82.94
463.876	84.94
464.096	77.94
464.316	101.94
464.536	102.94
464.755	105.94
464.975	127.94
465.195	223.94
465.414	228.94
465.634	112.94
465.854	84.94
466.073	86.94
466.293	93.94
466.512	94.94
466.732	97.94
466.951	92.94
467.171	103.94
467.391	106.94
467.61	135.94
467.829	183.94
468.049	435.94
468.268	671.94
468.488	196.94
468.707	114.94
468.927	94.94
469.146	90.94
469.365	90.94
469.585	94.94
469.804	107.94
470.023	113.94
470.243	105.94
470.462	118.94
470.681	146.94
470.901	129.94
471.12	96.94
471.339	118.94
471.558	113.94
471.777	129.94
471.997	246.94
472.216	894.94
472.435	2063.94
472.654	502.94
472.873	142.94
473.092	84.94
473.311	109.94
473.53	92.94
473.749	99.94
473.968	102.94
474.187	128.94
474.406	119.94
474.625	104.94
474.844	92.94
475.063	93.94
475.282	97.94
475.501	96.94
475.72	81.94
475.939	92.94
476.158	93.94
476.377	90.94
476.596	84.94
476.814	98.94
477.033	106.94
477.252	111.94
477.471	83.94
477.69	108.94
477.908	80.94
478.127	97.94
478.346	90.94
478.564	110.94
478.783	110.94
479.002	103.94
479.22	105.94
479.439	119.94
479.658	111.94
479.876	123.94
480.095	119.94
480.313	118.94
480.532	147.94
480.751	256.94
480.969	832.94
481.188	3488.94
481.406	2094.94
481.624	335.94
481.843	122.94
482.061	118.94
482.28	101.94
482.498	104.94
482.717	96.94
482.935	103.94
483.153	97.94
483.372	96.94
483.59	97.94
483.808	104.94
484.027	92.94
484.245	104.94
484.463	92.94
484.681	94.94
484.9	77.94
485.118	94.94
485.336	96.94
485.554	91.94
485.772	92.94
485.99	110.94
486.209	118.94
486.427	114.94
486.645	122.94
486.863	120.94
487.081	110.94
487.299	105.94
487.517	106.94
487.735	100.94
487.953	103.94
488.171	115.94
488.389	113.94
488.607	104.94
488.825	99.94
489.043	93.94
489.261	103.94
489.479	80.94
489.696	86.94
489.914	82.94
490.132	94.94
490.35	75.94
490.568	90.94
490.786	84.94
491.003	92.94
491.221	111.94
491.439	105.94
491.657	89.94
491.874	105.94
492.092	101.94
492.31	109.94
492.527	101.94
492.745	106.94
492.963	90.94
493.18	86.94
493.398	83.94
493.615	95.94
493.833	98.94
494.05	101.94
494.268	109.94
494.485	91.94
494.703	84.94
494.92	86.94
495.138	93.94
495.355	102.94
495.573	93.94
495.79	92.94
496.008	99.94
496.225	94.94
496.442	96.94
496.66	110.94
496.877	106.94
497.094	96.94
497.312	89.94
497.529	92.94
497.746	90.94
497.963	99.94
498.181	110.94
498.398	90.94
498.615	107.94
498.832	102.94
499.049	101.94
499.267	108.94
499.484	105.94
499.701	80.94
499.918	84.94
500.135	88.94
500.352	90.94
500.569	118.94
500.786	91.94
501.003	92.94
501.22	102.94
501.437	96.94
501.654	94.94
501.871	124.94
502.088	101.94
502.305	104.94
502.522	103.94
502.739	108.94
502.956	103.94
503.172	93.94
503.389	116.94
503.606	127.94
503.823	106.94
504.04	97.94
504.256	94.94
504.473	90.94
504.69	111.94
504.907	92.94
505.123	90.94
505.34	96.94
505.557	99.94
505.773	93.94
505.99	95.94
506.207	101.94
506.423	94.94
506.64	98.94
506.856	96.94
507.073	90.94
507.289	104.94
507.506	99.94
507.722	132.94
507.939	130.94
508.155	106.94
508.372	97.94
508.588	90.94
508.805	89.94
509.021	91.94
509.238	110.94
509.454	97.94
509.67	101.94
509.887	109.94
510.103	137.94
510.319	210.94
510.536	764.94
510.752	2640.94
510.968	712.94
511.184	147.94
511.401	118.94
511.617	118.94
