Data from Circ_1992_H10_HRD10591_00089.txt Node
Date: Wed Jan 03 11:48:02 EST 2024
User: Yrep
Spectrometer: HR+D1059
Trigger mode: 1
Integration Time (sec): 1.000000E-1
Scans to average: 1
Electric dark correction enabled: true
Nonlinearity correction enabled: false
Boxcar width: 0
XAxis mode: Wavelengths
Number of Pixels in Spectrum: 2048
>>>>>Begin Spectral Data<<<<<
223.165	-23.56
223.4	-23.56
223.635	-23.56
223.869	-30.56
224.104	-25.56
224.338	-7.56
224.573	-14.56
224.808	-31.56
225.042	-11.56
225.277	8.44
225.511	-6.56
225.746	10.44
225.98	13.44
226.215	16.44
226.449	19.44
226.683	26.44
226.918	26.44
227.152	30.44
227.387	24.44
227.621	38.44
227.856	32.44
228.09	37.44
228.324	47.44
228.559	70.44
228.793	46.44
229.027	65.44
229.262	65.44
229.496	66.44
229.73	99.44
229.964	82.44
230.199	72.44
230.433	74.44
230.667	74.44
230.901	81.44
231.136	75.44
231.37	79.44
231.604	60.44
231.838	63.44
232.072	82.44
232.306	92.44
232.541	74.44
232.775	70.44
233.009	84.44
233.243	86.44
233.477	76.44
233.711	89.44
233.945	70.44
234.179	76.44
234.413	70.44
234.647	80.44
234.881	84.44
235.115	87.44
235.349	83.44
235.583	71.44
235.817	77.44
236.051	77.44
236.285	84.44
236.519	79.44
236.753	85.44
236.987	80.44
237.221	78.44
237.455	74.44
237.689	72.44
237.922	61.44
238.156	81.44
238.39	72.44
238.624	76.44
238.858	73.44
239.091	59.44
239.325	61.44
239.559	66.44
239.793	66.44
240.027	80.44
240.26	92.44
240.494	68.44
240.728	49.44
240.961	92.44
241.195	73.44
241.429	68.44
241.662	73.44
241.896	70.44
242.13	68.44
242.363	78.44
242.597	86.44
242.83	74.44
243.064	75.44
243.298	78.44
243.531	70.44
243.765	90.44
243.998	88.44
244.232	87.44
244.465	81.44
244.699	71.44
244.932	78.44
245.166	66.44
245.399	65.44
245.633	73.44
245.866	81.44
246.099	71.44
246.333	88.44
246.566	77.44
246.8	74.44
247.033	77.44
247.266	83.44
247.5	74.44
247.733	81.44
247.966	65.44
248.2	88.44
248.433	76.44
248.666	72.44
248.899	78.44
249.133	78.44
249.366	90.44
249.599	98.44
249.832	75.44
250.066	87.44
250.299	68.44
250.532	79.44
250.765	85.44
250.998	82.44
251.231	88.44
251.465	82.44
251.698	74.44
251.931	78.44
252.164	84.44
252.397	72.44
252.63	83.44
252.863	75.44
253.096	83.44
253.329	75.44
253.562	75.44
253.795	73.44
254.028	82.44
254.261	86.44
254.494	81.44
254.727	89.44
254.96	77.44
255.193	82.44
255.426	84.44
255.659	83.44
255.892	94.44
256.124	76.44
256.357	74.44
256.59	89.44
256.823	82.44
257.056	73.44
257.289	73.44
257.521	87.44
257.754	68.44
257.987	84.44
258.22	85.44
258.452	92.44
258.685	85.44
258.918	77.44
259.151	75.44
259.383	80.44
259.616	72.44
259.849	80.44
260.081	65.44
260.314	64.44
260.547	81.44
260.779	89.44
261.012	97.44
261.244	90.44
261.477	79.44
261.71	93.44
261.942	111.44
262.175	134.44
262.407	88.44
262.64	88.44
262.872	72.44
263.105	76.44
263.337	93.44
263.57	78.44
263.802	76.44
264.035	78.44
264.267	76.44
264.499	70.44
264.732	73.44
264.964	77.44
265.197	70.44
265.429	86.44
265.661	71.44
265.894	88.44
266.126	91.44
266.358	92.44
266.591	70.44
266.823	88.44
267.055	61.44
267.287	81.44
267.52	72.44
267.752	83.44
267.984	72.44
268.216	84.44
268.448	87.44
268.681	77.44
268.913	89.44
269.145	81.44
269.377	69.44
269.609	86.44
269.841	85.44
270.073	97.44
270.306	86.44
270.538	79.44
270.77	71.44
271.002	99.44
271.234	88.44
271.466	76.44
271.698	75.44
271.93	73.44
272.162	88.44
272.394	84.44
272.626	88.44
272.858	77.44
273.09	98.44
273.322	81.44
273.553	77.44
273.785	79.44
274.017	79.44
274.249	82.44
274.481	74.44
274.713	74.44
274.945	79.44
275.176	82.44
275.408	84.44
275.64	92.44
275.872	113.44
276.104	106.44
276.335	102.44
276.567	93.44
276.799	120.44
277.031	138.44
277.262	149.44
277.494	112.44
277.726	94.44
277.957	90.44
278.189	84.44
278.421	83.44
278.652	95.44
278.884	81.44
279.115	91.44
279.347	96.44
279.579	90.44
279.81	95.44
280.042	147.44
280.273	180.44
280.505	129.44
280.736	89.44
280.968	88.44
281.199	89.44
281.431	97.44
281.662	85.44
281.894	81.44
282.125	102.44
282.356	136.44
282.588	166.44
282.819	124.44
283.051	99.44
283.282	93.44
283.513	92.44
283.745	80.44
283.976	89.44
284.207	87.44
284.439	88.44
284.67	65.44
284.901	91.44
285.132	85.44
285.364	78.44
285.595	84.44
285.826	72.44
286.057	92.44
286.288	77.44
286.52	89.44
286.751	85.44
286.982	93.44
287.213	80.44
287.444	79.44
287.675	74.44
287.906	80.44
288.138	97.44
288.369	93.44
288.6	104.44
288.831	91.44
289.062	100.44
289.293	91.44
289.524	85.44
289.755	88.44
289.986	85.44
290.217	97.44
290.448	80.44
290.679	82.44
290.91	88.44
291.141	79.44
291.371	83.44
291.602	88.44
291.833	80.44
292.064	84.44
292.295	80.44
292.526	101.44
292.757	81.44
292.987	95.44
293.218	81.44
293.449	87.44
293.68	77.44
293.91	79.44
294.141	92.44
294.372	76.44
294.603	93.44
294.833	97.44
295.064	85.44
295.295	90.44
295.525	74.44
295.756	90.44
295.987	110.44
296.217	150.44
296.448	156.44
296.679	95.44
296.909	79.44
297.14	95.44
297.37	90.44
297.601	90.44
297.831	90.44
298.062	86.44
298.292	94.44
298.523	89.44
298.753	80.44
298.984	78.44
299.214	91.44
299.445	99.44
299.675	90.44
299.905	94.44
300.136	95.44
300.366	89.44
300.597	86.44
300.827	86.44
301.057	90.44
301.288	109.44
301.518	109.44
301.748	84.44
301.979	108.44
302.209	97.44
302.439	103.44
302.669	86.44
302.9	87.44
303.13	94.44
303.36	96.44
303.59	114.44
303.82	117.44
304.051	112.44
304.281	85.44
304.511	92.44
304.741	81.44
304.971	85.44
305.201	106.44
305.431	98.44
305.661	87.44
305.891	84.44
306.121	93.44
306.352	95.44
306.582	113.44
306.812	111.44
307.042	109.44
307.272	117.44
307.502	146.44
307.731	148.44
307.961	120.44
308.191	85.44
308.421	86.44
308.651	103.44
308.881	96.44
309.111	84.44
309.341	90.44
309.571	91.44
309.8	100.44
310.03	89.44
310.26	96.44
310.49	94.44
310.72	90.44
310.949	104.44
311.179	110.44
311.409	96.44
311.639	89.44
311.868	90.44
312.098	88.44
312.328	89.44
312.557	92.44
312.787	120.44
313.017	118.44
313.246	95.44
313.476	90.44
313.706	82.44
313.935	82.44
314.165	98.44
314.394	96.44
314.624	109.44
314.853	88.44
315.083	97.44
315.312	96.44
315.542	80.44
315.771	99.44
316.001	86.44
316.23	91.44
316.46	102.44
316.689	98.44
316.919	88.44
317.148	114.44
317.377	93.44
317.607	82.44
317.836	87.44
318.065	93.44
318.295	77.44
318.524	93.44
318.753	100.44
318.983	86.44
319.212	102.44
319.441	96.44
319.67	103.44
319.9	95.44
320.129	88.44
320.358	96.44
320.587	102.44
320.816	113.44
321.046	102.44
321.275	92.44
321.504	93.44
321.733	106.44
321.962	95.44
322.191	100.44
322.42	102.44
322.649	111.44
322.878	128.44
323.108	127.44
323.337	136.44
323.566	142.44
323.795	171.44
324.024	225.44
324.253	460.44
324.482	1040.44
324.71	2203.44
324.939	2964.44
325.168	1046.44
325.397	294.44
325.626	172.44
325.855	146.44
326.084	133.44
326.313	143.44
326.542	160.44
326.77	278.44
326.999	554.44
327.228	1180.44
327.457	2188.44
327.686	1700.44
327.914	519.44
328.143	398.44
328.372	487.44
328.6	271.44
328.829	174.44
329.058	170.44
329.287	173.44
329.515	138.44
329.744	196.44
329.972	339.44
330.201	699.44
330.43	1003.44
330.658	462.44
330.887	235.44
331.115	173.44
331.344	102.44
331.572	102.44
331.801	113.44
332.03	108.44
332.258	112.44
332.486	85.44
332.715	103.44
332.943	102.44
333.172	110.44
333.4	109.44
333.629	134.44
333.857	175.44
334.085	338.44
334.314	624.44
334.542	1248.44
334.771	1197.44
334.999	338.44
335.227	153.44
335.455	104.44
335.684	110.44
335.912	98.44
336.14	119.44
336.369	113.44
336.597	97.44
336.825	105.44
337.053	94.44
337.281	96.44
337.51	93.44
337.738	98.44
337.966	90.44
338.194	106.44
338.422	94.44
338.65	102.44
338.878	88.44
339.106	83.44
339.334	88.44
339.562	86.44
339.79	74.44
340.018	101.44
340.246	104.44
340.474	94.44
340.702	85.44
340.93	91.44
341.158	86.44
341.386	92.44
341.614	95.44
341.842	100.44
342.07	93.44
342.298	88.44
342.526	99.44
342.754	78.44
342.981	90.44
343.209	90.44
343.437	96.44
343.665	90.44
343.893	76.44
344.12	90.44
344.348	60.44
344.576	74.44
344.804	105.44
345.031	101.44
345.259	101.44
345.487	108.44
345.714	97.44
345.942	83.44
346.17	81.44
346.397	85.44
346.625	96.44
346.853	89.44
347.08	84.44
347.308	90.44
347.535	97.44
347.763	88.44
347.99	81.44
348.218	96.44
348.445	110.44
348.673	117.44
348.9	95.44
349.128	83.44
349.355	80.44
349.583	88.44
349.81	94.44
350.037	90.44
350.265	94.44
350.492	86.44
350.72	92.44
350.947	108.44
351.174	117.44
351.402	116.44
351.629	93.44
351.856	91.44
352.083	111.44
352.311	99.44
352.538	118.44
352.765	106.44
352.992	94.44
353.22	111.44
353.447	118.44
353.674	104.44
353.901	98.44
354.128	95.44
354.355	94.44
354.583	89.44
354.81	100.44
355.037	111.44
355.264	86.44
355.491	93.44
355.718	97.44
355.945	98.44
356.172	73.44
356.399	83.44
356.626	83.44
356.853	87.44
357.08	98.44
357.307	89.44
357.534	84.44
357.761	76.44
357.988	106.44
358.215	72.44
358.441	80.44
358.668	82.44
358.895	94.44
359.122	85.44
359.349	85.44
359.576	97.44
359.802	100.44
360.029	126.44
360.256	121.44
360.483	112.44
360.709	90.44
360.936	109.44
361.163	82.44
361.39	80.44
361.616	102.44
361.843	90.44
362.07	92.44
362.296	90.44
362.523	99.44
362.749	76.44
362.976	103.44
363.203	95.44
363.429	89.44
363.656	96.44
363.882	78.44
364.109	81.44
364.335	92.44
364.562	95.44
364.788	86.44
365.015	98.44
365.241	104.44
365.468	105.44
365.694	102.44
365.92	109.44
366.147	107.44
366.373	83.44
366.599	92.44
366.826	92.44
367.052	66.44
367.278	89.44
367.505	83.44
367.731	101.44
367.957	91.44
368.184	86.44
368.41	101.44
368.636	102.44
368.862	133.44
369.089	118.44
369.315	90.44
369.541	88.44
369.767	95.44
369.993	87.44
370.219	90.44
370.445	74.44
370.672	93.44
370.898	90.44
371.124	88.44
371.35	84.44
371.576	90.44
371.802	78.44
372.028	85.44
372.254	81.44
372.48	76.44
372.706	92.44
372.932	88.44
373.158	89.44
373.384	96.44
373.61	92.44
373.835	88.44
374.061	82.44
374.287	75.44
374.513	94.44
374.739	78.44
374.965	93.44
375.191	93.44
375.416	83.44
375.642	94.44
375.868	107.44
376.094	94.44
376.319	82.44
376.545	94.44
376.771	76.44
376.997	100.44
377.222	95.44
377.448	82.44
377.674	91.44
377.899	84.44
378.125	92.44
378.35	86.44
378.576	95.44
378.802	85.44
379.027	72.44
379.253	94.44
379.478	76.44
379.704	104.44
379.929	89.44
380.155	100.44
380.38	89.44
380.606	84.44
380.831	93.44
381.057	102.44
381.282	96.44
381.507	92.44
381.733	93.44
381.958	86.44
382.184	90.44
382.409	89.44
382.634	92.44
382.86	78.44
383.085	93.44
383.31	93.44
383.535	111.44
383.761	98.44
383.986	94.44
384.211	87.44
384.436	97.44
384.662	104.44
384.887	95.44
385.112	104.44
385.337	98.44
385.562	100.44
385.787	106.44
386.013	109.44
386.238	110.44
386.463	106.44
386.688	97.44
386.913	109.44
387.138	94.44
387.363	102.44
387.588	93.44
387.813	82.44
388.038	102.44
388.263	88.44
388.488	94.44
388.713	82.44
388.938	81.44
389.163	90.44
389.387	80.44
389.612	87.44
389.837	94.44
390.062	89.44
390.287	89.44
390.512	80.44
390.736	84.44
390.961	88.44
391.186	77.44
391.411	87.44
391.636	76.44
391.86	76.44
392.085	87.44
392.31	96.44
392.534	89.44
392.759	86.44
392.984	72.44
393.208	88.44
393.433	75.44
393.658	92.44
393.882	84.44
394.107	80.44
394.331	92.44
394.556	84.44
394.78	86.44
395.005	79.44
395.229	80.44
395.454	86.44
395.678	80.44
395.903	84.44
396.127	95.44
396.352	74.44
396.576	75.44
396.801	85.44
397.025	83.44
397.249	80.44
397.474	83.44
397.698	93.44
397.922	87.44
398.147	93.44
398.371	65.44
398.595	92.44
398.82	88.44
399.044	81.44
399.268	67.44
399.492	76.44
399.717	82.44
399.941	90.44
400.165	96.44
400.389	82.44
400.613	64.44
400.837	72.44
401.062	102.44
401.286	81.44
401.51	81.44
401.734	94.44
401.958	102.44
402.182	137.44
402.406	174.44
402.63	130.44
402.854	82.44
403.078	85.44
403.302	84.44
403.526	88.44
403.75	95.44
403.974	75.44
404.198	93.44
404.422	78.44
404.645	99.44
404.869	98.44
405.093	108.44
405.317	117.44
405.541	126.44
405.765	99.44
405.988	112.44
406.212	183.44
406.436	248.44
406.66	165.44
406.883	113.44
407.107	107.44
407.331	103.44
407.555	102.44
407.778	89.44
408.002	90.44
408.226	101.44
408.449	93.44
408.673	94.44
408.896	93.44
409.12	93.44
409.344	98.44
409.567	83.44
409.791	101.44
410.014	88.44
410.238	89.44
410.461	79.44
410.685	91.44
410.908	87.44
411.132	82.44
411.355	89.44
411.578	90.44
411.802	79.44
412.025	82.44
412.249	89.44
412.472	105.44
412.695	111.44
412.919	108.44
413.142	68.44
413.365	86.44
413.589	85.44
413.812	98.44
414.035	87.44
414.258	97.44
414.482	81.44
414.705	87.44
414.928	78.44
415.151	98.44
415.374	84.44
415.597	97.44
415.821	76.44
416.044	100.44
416.267	94.44
416.49	86.44
416.713	76.44
416.936	88.44
417.159	79.44
417.382	85.44
417.605	101.44
417.828	107.44
418.051	89.44
418.274	86.44
418.497	79.44
418.72	81.44
418.943	83.44
419.166	72.44
419.389	96.44
419.611	82.44
419.834	91.44
420.057	86.44
420.28	89.44
420.503	89.44
420.726	79.44
420.948	80.44
421.171	95.44
421.394	93.44
421.617	88.44
421.839	82.44
422.062	89.44
422.285	91.44
422.507	101.44
422.73	112.44
422.953	95.44
423.175	97.44
423.398	81.44
423.621	94.44
423.843	74.44
424.066	81.44
424.288	92.44
424.511	95.44
424.733	99.44
424.956	117.44
425.178	104.44
425.401	107.44
425.623	89.44
425.846	90.44
426.068	89.44
426.291	103.44
426.513	95.44
426.735	88.44
426.958	90.44
427.18	107.44
427.402	172.44
427.625	237.44
427.847	206.44
428.069	188.44
428.292	116.44
428.514	86.44
428.736	84.44
428.958	85.44
429.181	81.44
429.403	72.44
429.625	92.44
429.847	91.44
430.069	104.44
430.292	87.44
430.514	79.44
430.736	81.44
430.958	91.44
431.18	65.44
431.402	76.44
431.624	84.44
431.846	87.44
432.068	74.44
432.29	80.44
432.512	76.44
432.734	91.44
432.956	104.44
433.178	96.44
433.4	82.44
433.622	95.44
433.844	91.44
434.066	104.44
434.287	84.44
434.509	90.44
434.731	91.44
434.953	93.44
435.175	88.44
435.397	104.44
435.618	93.44
435.84	100.44
436.062	144.44
436.284	138.44
436.505	94.44
436.727	99.44
436.949	86.44
437.17	74.44
437.392	84.44
437.614	87.44
437.835	108.44
438.057	133.44
438.278	131.44
438.5	118.44
438.721	130.44
438.943	106.44
439.165	80.44
439.386	72.44
439.608	82.44
439.829	97.44
440.05	147.44
440.272	182.44
440.493	108.44
440.715	81.44
440.936	83.44
441.158	92.44
441.379	88.44
441.6	88.44
441.822	102.44
442.043	100.44
442.264	106.44
442.486	109.44
442.707	95.44
442.928	121.44
443.149	146.44
443.371	151.44
443.592	119.44
443.813	131.44
444.034	118.44
444.255	95.44
444.476	77.44
444.698	74.44
444.919	84.44
445.14	128.44
445.361	134.44
445.582	125.44
445.803	162.44
446.024	166.44
446.245	168.44
446.466	116.44
446.687	90.44
446.908	90.44
447.129	96.44
447.35	85.44
447.571	91.44
447.792	97.44
448.013	101.44
448.234	98.44
448.455	102.44
448.675	121.44
448.896	125.44
449.117	101.44
449.338	96.44
449.559	135.44
449.779	137.44
450	91.44
450.221	92.44
450.442	88.44
450.662	93.44
450.883	111.44
451.104	119.44
451.324	100.44
451.545	94.44
451.766	72.44
451.986	80.44
452.207	94.44
452.428	94.44
452.648	90.44
452.869	106.44
453.089	106.44
453.31	117.44
453.53	89.44
453.751	95.44
453.971	110.44
454.192	106.44
454.412	88.44
454.633	84.44
454.853	72.44
455.073	75.44
455.294	93.44
455.514	87.44
455.734	86.44
455.955	91.44
456.175	80.44
456.395	70.44
456.616	70.44
456.836	85.44
457.056	88.44
457.276	98.44
457.497	63.44
457.717	71.44
457.937	76.44
458.157	70.44
458.377	83.44
458.598	113.44
458.818	165.44
459.038	193.44
459.258	129.44
459.478	85.44
459.698	90.44
459.918	87.44
460.138	84.44
460.358	88.44
460.578	72.44
460.798	80.44
461.018	98.44
461.238	68.44
461.458	88.44
461.678	79.44
461.898	72.44
462.118	94.44
462.338	77.44
462.558	89.44
462.777	82.44
462.997	95.44
463.217	101.44
463.437	96.44
463.657	84.44
463.876	89.44
464.096	85.44
464.316	88.44
464.536	84.44
464.755	113.44
464.975	124.44
465.195	197.44
465.414	202.44
465.634	90.44
465.854	86.44
466.073	100.44
466.293	80.44
466.512	77.44
466.732	85.44
466.951	72.44
467.171	102.44
467.391	89.44
467.61	113.44
467.829	167.44
468.049	393.44
468.268	573.44
468.488	178.44
468.707	104.44
468.927	78.44
469.146	84.44
469.365	88.44
469.585	74.44
469.804	99.44
470.023	96.44
470.243	104.44
470.462	99.44
470.681	129.44
470.901	95.44
471.12	89.44
471.339	107.44
471.558	90.44
471.777	123.44
471.997	230.44
472.216	753.44
472.435	1708.44
472.654	428.44
472.873	133.44
473.092	94.44
473.311	70.44
473.53	70.44
473.749	89.44
473.968	81.44
474.187	103.44
474.406	98.44
474.625	96.44
474.844	90.44
475.063	63.44
475.282	94.44
475.501	86.44
475.72	96.44
475.939	74.44
476.158	89.44
476.377	77.44
476.596	92.44
476.814	96.44
477.033	91.44
477.252	88.44
477.471	76.44
477.69	84.44
477.908	92.44
478.127	99.44
478.346	80.44
478.564	79.44
478.783	95.44
479.002	104.44
479.22	88.44
479.439	109.44
479.658	105.44
479.876	103.44
480.095	95.44
480.313	107.44
480.532	121.44
480.751	217.44
480.969	712.44
481.188	2960.44
481.406	1774.44
481.624	252.44
481.843	114.44
482.061	109.44
482.28	90.44
482.498	58.44
482.717	92.44
482.935	81.44
483.153	84.44
483.372	90.44
483.59	88.44
483.808	85.44
484.027	98.44
484.245	75.44
484.463	95.44
484.681	84.44
484.9	84.44
485.118	94.44
485.336	88.44
485.554	84.44
485.772	98.44
485.99	90.44
486.209	110.44
486.427	99.44
486.645	111.44
486.863	101.44
487.081	100.44
487.299	106.44
487.517	76.44
487.735	105.44
487.953	94.44
488.171	94.44
488.389	93.44
488.607	81.44
488.825	82.44
489.043	91.44
489.261	84.44
489.479	97.44
489.696	83.44
489.914	80.44
490.132	80.44
490.35	84.44
490.568	85.44
490.786	74.44
491.003	87.44
491.221	100.44
491.439	94.44
491.657	96.44
491.874	95.44
492.092	86.44
492.31	76.44
492.527	102.44
492.745	87.44
492.963	82.44
493.18	108.44
493.398	82.44
493.615	96.44
493.833	97.44
494.05	83.44
494.268	81.44
494.485	80.44
494.703	88.44
494.92	66.44
495.138	79.44
495.355	83.44
495.573	94.44
495.79	93.44
496.008	103.44
496.225	68.44
496.442	83.44
496.66	79.44
496.877	81.44
497.094	88.44
497.312	86.44
497.529	84.44
497.746	95.44
497.963	80.44
498.181	92.44
498.398	95.44
498.615	115.44
498.832	99.44
499.049	72.44
499.267	99.44
499.484	81.44
499.701	101.44
499.918	84.44
500.135	77.44
500.352	81.44
500.569	82.44
500.786	98.44
501.003	95.44
501.22	80.44
501.437	93.44
501.654	96.44
501.871	113.44
502.088	94.44
502.305	90.44
502.522	93.44
502.739	75.44
502.956	87.44
503.172	83.44
503.389	88.44
503.606	100.44
503.823	101.44
504.04	102.44
504.256	73.44
504.473	88.44
504.69	68.44
504.907	98.44
505.123	77.44
505.34	85.44
505.557	88.44
505.773	95.44
505.99	86.44
506.207	91.44
506.423	85.44
506.64	90.44
506.856	80.44
507.073	84.44
507.289	89.44
507.506	105.44
507.722	132.44
507.939	120.44
508.155	100.44
508.372	83.44
508.588	104.44
508.805	79.44
509.021	92.44
509.238	96.44
509.454	93.44
509.67	93.44
509.887	97.44
510.103	124.44
510.319	208.44
510.536	786.44
510.752	2717.44
510.968	741.44
511.184	148.44
511.401	112.44
511.617	100.44
511.833	98.44
512.049	97.44
512.265	98.44
512.481	73.44
512.698	93.44
512.914	95.44
513.13	89.44
513.346	72.44
513.562	74.44
513.778	89.44
513.994	98.44
514.21	102.44
514.426	129.44
514.642	159.44
514.858	144.44
515.074	200.44
515.29	564.44
