Data from Circ_1992_H10_HRD10591_00058.txt Node
Date: Wed Jan 03 11:47:56 EST 2024
User: Yrep
Spectrometer: HR+D1059
Trigger mode: 1
Integration Time (sec): 1.000000E-1
Scans to average: 1
Electric dark correction enabled: true
Nonlinearity correction enabled: false
Boxcar width: 0
XAxis mode: Wavelengths
Number of Pixels in Spectrum: 2048
>>>>>Begin Spectral Data<<<<<
223.165	-23.94
223.4	-23.94
223.635	-23.94
223.869	-11.94
224.104	-22.94
224.338	-10.94
224.573	-12.94
224.808	-0.94
225.042	0.06
225.277	-6.94
225.511	1.06
225.746	-10.94
225.98	-0.94
226.215	15.06
226.449	17.06
226.683	30.06
226.918	12.06
227.152	27.06
227.387	47.06
227.621	41.06
227.856	53.06
228.09	55.06
228.324	61.06
228.559	68.06
228.793	57.06
229.027	58.06
229.262	76.06
229.496	78.06
229.73	85.06
229.964	95.06
230.199	65.06
230.433	83.06
230.667	93.06
230.901	77.06
231.136	80.06
231.37	84.06
231.604	92.06
231.838	75.06
232.072	75.06
232.306	91.06
232.541	88.06
232.775	94.06
233.009	87.06
233.243	86.06
233.477	81.06
233.711	80.06
233.945	75.06
234.179	79.06
234.413	72.06
234.647	83.06
234.881	85.06
235.115	84.06
235.349	85.06
235.583	61.06
235.817	83.06
236.051	88.06
236.285	83.06
236.519	86.06
236.753	82.06
236.987	77.06
237.221	72.06
237.455	93.06
237.689	92.06
237.922	77.06
238.156	76.06
238.39	78.06
238.624	71.06
238.858	81.06
239.091	72.06
239.325	82.06
239.559	86.06
239.793	81.06
240.027	68.06
240.26	82.06
240.494	81.06
240.728	77.06
240.961	81.06
241.195	85.06
241.429	81.06
241.662	80.06
241.896	77.06
242.13	79.06
242.363	79.06
242.597	85.06
242.83	83.06
243.064	82.06
243.298	79.06
243.531	82.06
243.765	77.06
243.998	79.06
244.232	85.06
244.465	80.06
244.699	73.06
244.932	73.06
245.166	92.06
245.399	70.06
245.633	78.06
245.866	71.06
246.099	85.06
246.333	84.06
246.566	69.06
246.8	69.06
247.033	94.06
247.266	83.06
247.5	86.06
247.733	85.06
247.966	80.06
248.2	73.06
248.433	87.06
248.666	76.06
248.899	81.06
249.133	76.06
249.366	109.06
249.599	109.06
249.832	76.06
250.066	81.06
250.299	72.06
250.532	85.06
250.765	76.06
250.998	79.06
251.231	90.06
251.465	71.06
251.698	77.06
251.931	80.06
252.164	84.06
252.397	65.06
252.63	77.06
252.863	85.06
253.096	79.06
253.329	85.06
253.562	97.06
253.795	86.06
254.028	95.06
254.261	81.06
254.494	80.06
254.727	91.06
254.96	75.06
255.193	90.06
255.426	84.06
255.659	78.06
255.892	85.06
256.124	95.06
256.357	84.06
256.59	78.06
256.823	89.06
257.056	95.06
257.289	92.06
257.521	83.06
257.754	95.06
257.987	82.06
258.22	87.06
258.452	85.06
258.685	85.06
258.918	96.06
259.151	88.06
259.383	93.06
259.616	81.06
259.849	81.06
260.081	85.06
260.314	82.06
260.547	98.06
260.779	84.06
261.012	89.06
261.244	91.06
261.477	92.06
261.71	104.06
261.942	110.06
262.175	131.06
262.407	80.06
262.64	84.06
262.872	92.06
263.105	73.06
263.337	95.06
263.57	90.06
263.802	96.06
264.035	83.06
264.267	86.06
264.499	85.06
264.732	93.06
264.964	80.06
265.197	95.06
265.429	81.06
265.661	85.06
265.894	89.06
266.126	91.06
266.358	90.06
266.591	86.06
266.823	81.06
267.055	80.06
267.287	95.06
267.52	84.06
267.752	99.06
267.984	88.06
268.216	92.06
268.448	83.06
268.681	86.06
268.913	85.06
269.145	83.06
269.377	76.06
269.609	82.06
269.841	87.06
270.073	86.06
270.306	96.06
270.538	92.06
270.77	72.06
271.002	102.06
271.234	94.06
271.466	91.06
271.698	91.06
271.93	75.06
272.162	86.06
272.394	93.06
272.626	86.06
272.858	99.06
273.09	93.06
273.322	77.06
273.553	88.06
273.785	87.06
274.017	91.06
274.249	92.06
274.481	100.06
274.713	96.06
274.945	68.06
275.176	73.06
275.408	93.06
275.64	99.06
275.872	106.06
276.104	86.06
276.335	84.06
276.567	111.06
276.799	113.06
277.031	123.06
277.262	127.06
277.494	104.06
277.726	100.06
277.957	97.06
278.189	91.06
278.421	97.06
278.652	95.06
278.884	98.06
279.115	89.06
279.347	81.06
279.579	80.06
279.81	100.06
280.042	124.06
280.273	153.06
280.505	124.06
280.736	85.06
280.968	99.06
281.199	92.06
281.431	98.06
281.662	83.06
281.894	84.06
282.125	104.06
282.356	117.06
282.588	145.06
282.819	109.06
283.051	94.06
283.282	100.06
283.513	77.06
283.745	96.06
283.976	83.06
284.207	93.06
284.439	78.06
284.67	89.06
284.901	80.06
285.132	84.06
285.364	77.06
285.595	105.06
285.826	99.06
286.057	86.06
286.288	107.06
286.52	102.06
286.751	95.06
286.982	91.06
287.213	88.06
287.444	102.06
287.675	86.06
287.906	90.06
288.138	100.06
288.369	87.06
288.6	94.06
288.831	88.06
289.062	93.06
289.293	95.06
289.524	73.06
289.755	90.06
289.986	83.06
290.217	92.06
290.448	81.06
290.679	93.06
290.91	84.06
291.141	86.06
291.371	93.06
291.602	102.06
291.833	85.06
292.064	85.06
292.295	84.06
292.526	93.06
292.757	98.06
292.987	102.06
293.218	88.06
293.449	78.06
293.68	85.06
293.91	91.06
294.141	81.06
294.372	89.06
294.603	82.06
294.833	89.06
295.064	88.06
295.295	96.06
295.525	90.06
295.756	93.06
295.987	99.06
296.217	133.06
296.448	130.06
296.679	99.06
296.909	95.06
297.14	86.06
297.37	82.06
297.601	101.06
297.831	81.06
298.062	87.06
298.292	89.06
298.523	92.06
298.753	92.06
298.984	79.06
299.214	103.06
299.445	89.06
299.675	99.06
299.905	101.06
300.136	98.06
300.366	86.06
300.597	103.06
300.827	87.06
301.057	93.06
301.288	105.06
301.518	96.06
301.748	95.06
301.979	111.06
302.209	111.06
302.439	95.06
302.669	104.06
302.9	103.06
303.13	99.06
303.36	89.06
303.59	95.06
303.82	122.06
304.051	82.06
304.281	94.06
304.511	75.06
304.741	84.06
304.971	84.06
305.201	94.06
305.431	92.06
305.661	81.06
305.891	95.06
306.121	91.06
306.352	98.06
306.582	110.06
306.812	98.06
307.042	104.06
307.272	103.06
307.502	121.06
307.731	125.06
307.961	102.06
308.191	104.06
308.421	81.06
308.651	91.06
308.881	87.06
309.111	100.06
309.341	86.06
309.571	99.06
309.8	109.06
310.03	92.06
310.26	92.06
310.49	87.06
310.72	100.06
310.949	105.06
311.179	113.06
311.409	82.06
311.639	105.06
311.868	80.06
312.098	104.06
312.328	97.06
312.557	105.06
312.787	117.06
313.017	115.06
313.246	102.06
313.476	96.06
313.706	104.06
313.935	100.06
314.165	108.06
314.394	98.06
314.624	93.06
314.853	95.06
315.083	91.06
315.312	89.06
315.542	97.06
315.771	100.06
316.001	90.06
316.23	79.06
316.46	90.06
316.689	90.06
316.919	97.06
317.148	100.06
317.377	96.06
317.607	96.06
317.836	102.06
318.065	106.06
318.295	91.06
318.524	84.06
318.753	94.06
318.983	97.06
319.212	105.06
319.441	104.06
319.67	119.06
319.9	99.06
320.129	96.06
320.358	108.06
320.587	101.06
320.816	101.06
321.046	108.06
321.275	94.06
321.504	96.06
321.733	97.06
321.962	99.06
322.191	103.06
322.42	110.06
322.649	110.06
322.878	118.06
323.108	125.06
323.337	127.06
323.566	146.06
323.795	163.06
324.024	213.06
324.253	399.06
324.482	857.06
324.71	1826.06
324.939	2473.06
325.168	886.06
325.397	253.06
325.626	144.06
325.855	129.06
326.084	130.06
326.313	141.06
326.542	170.06
326.77	240.06
326.999	472.06
327.228	1003.06
327.457	1801.06
327.686	1487.06
327.914	447.06
328.143	326.06
328.372	345.06
328.6	220.06
328.829	159.06
329.058	135.06
329.287	146.06
329.515	127.06
329.744	160.06
329.972	271.06
330.201	469.06
330.43	646.06
330.658	331.06
330.887	184.06
331.115	129.06
331.344	125.06
331.572	117.06
331.801	117.06
332.03	107.06
332.258	100.06
332.486	93.06
332.715	94.06
332.943	100.06
333.172	97.06
333.4	116.06
333.629	125.06
333.857	164.06
334.085	269.06
334.314	419.06
334.542	826.06
334.771	771.06
334.999	243.06
335.227	132.06
335.455	118.06
335.684	108.06
335.912	96.06
336.14	117.06
336.369	96.06
336.597	113.06
336.825	92.06
337.053	102.06
337.281	101.06
337.51	97.06
337.738	99.06
337.966	103.06
338.194	109.06
338.422	120.06
338.65	91.06
338.878	95.06
339.106	91.06
339.334	85.06
339.562	88.06
339.79	94.06
340.018	93.06
340.246	100.06
340.474	91.06
340.702	89.06
340.93	79.06
341.158	104.06
341.386	105.06
341.614	113.06
341.842	105.06
342.07	112.06
342.298	83.06
342.526	91.06
342.754	93.06
342.981	100.06
343.209	94.06
343.437	84.06
343.665	89.06
343.893	109.06
344.12	120.06
344.348	96.06
344.576	96.06
344.804	91.06
345.031	116.06
345.259	91.06
345.487	103.06
345.714	97.06
345.942	102.06
346.17	102.06
346.397	80.06
346.625	96.06
346.853	73.06
347.08	82.06
347.308	111.06
347.535	101.06
347.763	103.06
347.99	108.06
348.218	102.06
348.445	114.06
348.673	106.06
348.9	100.06
349.128	99.06
349.355	87.06
349.583	102.06
349.81	105.06
350.037	91.06
350.265	97.06
350.492	88.06
350.72	95.06
350.947	103.06
351.174	111.06
351.402	111.06
351.629	117.06
351.856	103.06
352.083	117.06
352.311	120.06
352.538	107.06
352.765	108.06
352.992	112.06
353.22	110.06
353.447	104.06
353.674	103.06
353.901	91.06
354.128	86.06
354.355	89.06
354.583	108.06
354.81	109.06
355.037	108.06
355.264	101.06
355.491	108.06
355.718	99.06
355.945	99.06
356.172	92.06
356.399	106.06
356.626	109.06
356.853	91.06
357.08	94.06
357.307	77.06
357.534	90.06
357.761	92.06
357.988	84.06
358.215	97.06
358.441	104.06
358.668	92.06
358.895	90.06
359.122	95.06
359.349	110.06
359.576	100.06
359.802	100.06
360.029	127.06
360.256	105.06
360.483	102.06
360.709	91.06
360.936	88.06
361.163	108.06
361.39	91.06
361.616	97.06
361.843	86.06
362.07	112.06
362.296	104.06
362.523	101.06
362.749	93.06
362.976	89.06
363.203	98.06
363.429	97.06
363.656	91.06
363.882	100.06
364.109	83.06
364.335	86.06
364.562	92.06
364.788	89.06
365.015	91.06
365.241	100.06
365.468	120.06
365.694	106.06
365.92	115.06
366.147	106.06
366.373	103.06
366.599	91.06
366.826	92.06
367.052	89.06
367.278	93.06
367.505	92.06
367.731	102.06
367.957	95.06
368.184	93.06
368.41	90.06
368.636	102.06
368.862	121.06
369.089	117.06
369.315	103.06
369.541	104.06
369.767	93.06
369.993	92.06
370.219	97.06
370.445	92.06
370.672	85.06
370.898	86.06
371.124	86.06
371.35	85.06
371.576	85.06
371.802	88.06
372.028	100.06
372.254	75.06
372.48	88.06
372.706	79.06
372.932	91.06
373.158	85.06
373.384	85.06
373.61	102.06
373.835	88.06
374.061	77.06
374.287	85.06
374.513	94.06
374.739	83.06
374.965	96.06
375.191	96.06
375.416	96.06
375.642	91.06
375.868	92.06
376.094	99.06
376.319	89.06
376.545	99.06
376.771	87.06
376.997	103.06
377.222	93.06
377.448	84.06
377.674	94.06
377.899	102.06
378.125	97.06
378.35	93.06
378.576	93.06
378.802	91.06
379.027	91.06
379.253	97.06
379.478	98.06
379.704	104.06
379.929	103.06
380.155	107.06
380.38	96.06
380.606	98.06
380.831	88.06
381.057	102.06
381.282	98.06
381.507	96.06
381.733	96.06
381.958	99.06
382.184	98.06
382.409	115.06
382.634	102.06
382.86	102.06
383.085	113.06
383.31	108.06
383.535	104.06
383.761	108.06
383.986	103.06
384.211	85.06
384.436	95.06
384.662	97.06
384.887	95.06
385.112	111.06
385.337	113.06
385.562	86.06
385.787	109.06
386.013	110.06
386.238	123.06
386.463	108.06
386.688	113.06
386.913	103.06
387.138	109.06
387.363	116.06
387.588	95.06
387.813	99.06
388.038	105.06
388.263	123.06
388.488	117.06
388.713	108.06
388.938	86.06
389.163	105.06
389.387	96.06
389.612	101.06
389.837	105.06
390.062	93.06
390.287	96.06
390.512	104.06
390.736	92.06
390.961	105.06
391.186	93.06
391.411	107.06
391.636	84.06
391.86	88.06
392.085	83.06
392.31	96.06
392.534	95.06
392.759	87.06
392.984	74.06
393.208	89.06
393.433	86.06
393.658	85.06
393.882	82.06
394.107	91.06
394.331	89.06
394.556	91.06
394.78	99.06
395.005	104.06
395.229	74.06
395.454	93.06
395.678	92.06
395.903	78.06
396.127	90.06
396.352	72.06
396.576	91.06
396.801	86.06
397.025	91.06
397.249	93.06
397.474	93.06
397.698	95.06
397.922	84.06
398.147	101.06
398.371	95.06
398.595	71.06
398.82	83.06
399.044	84.06
399.268	96.06
399.492	100.06
399.717	87.06
399.941	95.06
400.165	97.06
400.389	102.06
400.613	83.06
400.837	97.06
401.062	99.06
401.286	97.06
401.51	100.06
401.734	90.06
401.958	113.06
402.182	136.06
402.406	156.06
402.63	126.06
402.854	97.06
403.078	85.06
403.302	89.06
403.526	81.06
403.75	97.06
403.974	116.06
404.198	98.06
404.422	104.06
404.645	99.06
404.869	96.06
405.093	110.06
405.317	116.06
405.541	125.06
405.765	105.06
405.988	113.06
406.212	185.06
406.436	244.06
406.66	165.06
406.883	104.06
407.107	100.06
407.331	103.06
407.555	105.06
407.778	99.06
408.002	94.06
408.226	99.06
408.449	94.06
408.673	87.06
408.896	102.06
409.12	96.06
409.344	100.06
409.567	77.06
409.791	100.06
410.014	88.06
410.238	91.06
410.461	93.06
410.685	102.06
410.908	103.06
411.132	118.06
411.355	102.06
411.578	108.06
411.802	97.06
412.025	88.06
412.249	102.06
412.472	111.06
412.695	109.06
412.919	89.06
413.142	96.06
413.365	89.06
413.589	76.06
413.812	109.06
414.035	97.06
414.258	91.06
414.482	101.06
414.705	87.06
414.928	87.06
415.151	88.06
415.374	96.06
415.597	92.06
415.821	96.06
416.044	92.06
416.267	89.06
416.49	103.06
416.713	84.06
416.936	87.06
417.159	91.06
417.382	93.06
417.605	87.06
417.828	99.06
418.051	86.06
418.274	83.06
418.497	86.06
418.72	99.06
418.943	88.06
419.166	81.06
419.389	81.06
419.611	102.06
419.834	90.06
420.057	88.06
420.28	77.06
420.503	100.06
420.726	88.06
420.948	107.06
421.171	95.06
421.394	96.06
421.617	80.06
421.839	86.06
422.062	87.06
422.285	96.06
422.507	99.06
422.73	99.06
422.953	86.06
423.175	97.06
423.398	91.06
423.621	101.06
423.843	79.06
424.066	96.06
424.288	91.06
424.511	100.06
424.733	107.06
424.956	116.06
425.178	105.06
425.401	115.06
425.623	101.06
425.846	82.06
426.068	94.06
426.291	95.06
426.513	95.06
426.735	81.06
426.958	110.06
427.18	112.06
427.402	155.06
427.625	193.06
427.847	173.06
428.069	192.06
428.292	120.06
428.514	94.06
428.736	99.06
428.958	94.06
429.181	87.06
429.403	93.06
429.625	88.06
429.847	91.06
430.069	110.06
430.292	114.06
430.514	104.06
430.736	95.06
430.958	95.06
431.18	87.06
431.402	81.06
431.624	93.06
431.846	85.06
432.068	74.06
432.29	87.06
432.512	99.06
432.734	88.06
432.956	98.06
433.178	111.06
433.4	112.06
433.622	94.06
433.844	75.06
434.066	109.06
434.287	85.06
434.509	88.06
434.731	88.06
434.953	101.06
435.175	91.06
435.397	110.06
435.618	101.06
435.84	103.06
436.062	124.06
436.284	111.06
436.505	100.06
436.727	101.06
436.949	94.06
437.17	101.06
437.392	99.06
437.614	93.06
437.835	98.06
438.057	126.06
438.278	113.06
438.5	112.06
438.721	130.06
438.943	106.06
439.165	95.06
439.386	82.06
439.608	95.06
439.829	106.06
440.05	131.06
440.272	162.06
440.493	103.06
440.715	83.06
440.936	93.06
441.158	87.06
441.379	69.06
441.6	99.06
441.822	96.06
442.043	105.06
442.264	107.06
442.486	102.06
442.707	111.06
442.928	122.06
443.149	142.06
443.371	148.06
443.592	124.06
443.813	117.06
444.034	116.06
444.255	96.06
444.476	93.06
444.698	96.06
444.919	95.06
445.14	129.06
445.361	124.06
445.582	105.06
445.803	143.06
446.024	141.06
446.245	129.06
446.466	126.06
446.687	90.06
446.908	97.06
447.129	92.06
447.35	97.06
447.571	94.06
447.792	98.06
448.013	112.06
448.234	112.06
448.455	96.06
448.675	112.06
448.896	130.06
449.117	111.06
449.338	107.06
449.559	135.06
449.779	149.06
450	102.06
450.221	93.06
450.442	89.06
450.662	91.06
450.883	113.06
451.104	111.06
451.324	108.06
451.545	91.06
451.766	79.06
451.986	87.06
452.207	93.06
452.428	95.06
452.648	93.06
452.869	124.06
453.089	123.06
453.31	122.06
453.53	96.06
453.751	96.06
453.971	113.06
454.192	114.06
454.412	97.06
454.633	94.06
454.853	100.06
455.073	95.06
455.294	71.06
455.514	103.06
455.734	94.06
455.955	92.06
456.175	88.06
456.395	100.06
456.616	84.06
456.836	84.06
457.056	82.06
457.276	89.06
457.497	91.06
457.717	102.06
457.937	92.06
458.157	91.06
458.377	100.06
458.598	102.06
458.818	165.06
459.038	179.06
459.258	120.06
459.478	99.06
459.698	96.06
459.918	77.06
460.138	85.06
460.358	81.06
460.578	86.06
460.798	102.06
461.018	82.06
461.238	87.06
461.458	72.06
461.678	91.06
461.898	91.06
462.118	76.06
462.338	93.06
462.558	80.06
462.777	87.06
462.997	91.06
463.217	97.06
463.437	92.06
463.657	91.06
463.876	105.06
464.096	72.06
464.316	106.06
464.536	90.06
464.755	92.06
464.975	113.06
465.195	189.06
465.414	177.06
465.634	85.06
465.854	92.06
466.073	83.06
466.293	117.06
466.512	91.06
466.732	88.06
466.951	101.06
467.171	93.06
467.391	102.06
467.61	116.06
467.829	141.06
468.049	299.06
468.268	429.06
468.488	148.06
468.707	99.06
468.927	101.06
469.146	87.06
469.365	97.06
469.585	106.06
469.804	95.06
470.023	106.06
470.243	109.06
470.462	111.06
470.681	124.06
470.901	81.06
471.12	92.06
471.339	97.06
471.558	102.06
471.777	117.06
471.997	183.06
472.216	548.06
472.435	1177.06
472.654	299.06
472.873	125.06
473.092	99.06
473.311	97.06
473.53	91.06
473.749	104.06
473.968	102.06
474.187	126.06
474.406	109.06
474.625	92.06
474.844	83.06
475.063	98.06
475.282	92.06
475.501	97.06
475.72	88.06
475.939	95.06
476.158	103.06
476.377	86.06
476.596	83.06
476.814	103.06
477.033	97.06
477.252	111.06
477.471	95.06
477.69	94.06
477.908	77.06
478.127	100.06
478.346	100.06
478.564	92.06
478.783	100.06
479.002	88.06
479.22	92.06
479.439	96.06
479.658	118.06
479.876	108.06
480.095	93.06
480.313	114.06
480.532	127.06
480.751	189.06
480.969	512.06
481.188	2035.06
481.406	1197.06
481.624	234.06
481.843	113.06
482.061	95.06
482.28	99.06
482.498	96.06
482.717	98.06
482.935	99.06
483.153	93.06
483.372	92.06
483.59	85.06
483.808	83.06
484.027	72.06
484.245	87.06
484.463	79.06
484.681	109.06
484.9	102.06
485.118	105.06
485.336	96.06
485.554	96.06
485.772	118.06
485.99	97.06
486.209	113.06
486.427	110.06
486.645	115.06
486.863	115.06
487.081	104.06
487.299	97.06
487.517	94.06
487.735	102.06
487.953	93.06
488.171	95.06
488.389	84.06
488.607	105.06
488.825	76.06
489.043	92.06
489.261	85.06
489.479	96.06
489.696	81.06
489.914	73.06
490.132	106.06
490.35	98.06
490.568	94.06
490.786	97.06
491.003	92.06
491.221	80.06
491.439	84.06
491.657	87.06
491.874	91.06
492.092	99.06
492.31	95.06
492.527	96.06
492.745	87.06
492.963	95.06
493.18	97.06
493.398	94.06
493.615	110.06
493.833	89.06
494.05	84.06
494.268	96.06
494.485	99.06
494.703	84.06
494.92	89.06
495.138	71.06
495.355	82.06
495.573	97.06
495.79	96.06
496.008	96.06
496.225	107.06
496.442	82.06
496.66	101.06
496.877	92.06
497.094	95.06
497.312	102.06
497.529	98.06
497.746	80.06
497.963	86.06
498.181	86.06
498.398	98.06
498.615	114.06
498.832	101.06
499.049	104.06
499.267	86.06
499.484	98.06
499.701	84.06
499.918	84.06
500.135	97.06
500.352	93.06
500.569	85.06
500.786	110.06
501.003	101.06
501.22	92.06
501.437	96.06
501.654	102.06
501.871	97.06
502.088	92.06
502.305	88.06
502.522	108.06
502.739	98.06
502.956	92.06
503.172	91.06
503.389	85.06
503.606	102.06
503.823	108.06
504.04	95.06
504.256	79.06
504.473	92.06
504.69	92.06
504.907	108.06
505.123	102.06
505.34	92.06
505.557	86.06
505.773	93.06
505.99	92.06
506.207	77.06
506.423	83.06
506.64	94.06
506.856	96.06
507.073	78.06
507.289	97.06
507.506	84.06
507.722	102.06
507.939	104.06
508.155	82.06
508.372	86.06
508.588	101.06
508.805	104.06
509.021	97.06
509.238	115.06
509.454	112.06
509.67	107.06
509.887	108.06
510.103	121.06
510.319	231.06
510.536	722.06
510.752	2427.06
510.968	671.06
511.184	158.06
511.401	111.06
511.617	108.06
511.833	110.06
512.049	108.06
512.265	99.06
512.481	88.06
512.698	93.06
512.914	94.06
513.13	95.06
513.346	95.06
513.562	103.06
