Data from Circ_1992_H10_HRD10591_00029.txt Node
Date: Wed Jan 03 11:47:50 EST 2024
User: Yrep
Spectrometer: HR+D1059
Trigger mode: 1
Integration Time (sec): 1.000000E-1
Scans to average: 1
Electric dark correction enabled: true
Nonlinearity correction enabled: false
Boxcar width: 0
XAxis mode: Wavelengths
Number of Pixels in Spectrum: 2048
>>>>>Begin Spectral Data<<<<<
223.165	-11.31
223.4	-11.31
223.635	-11.31
223.869	-24.31
224.104	-25.31
224.338	-12.31
224.573	-16.31
224.808	-13.31
225.042	-2.31
225.277	-1.31
225.511	-2.31
225.746	2.69
225.98	2.69
226.215	17.69
226.449	6.69
226.683	20.69
226.918	20.69
227.152	37.69
227.387	37.69
227.621	40.69
227.856	37.69
228.09	51.69
228.324	60.69
228.559	61.69
228.793	64.69
229.027	66.69
229.262	78.69
229.496	74.69
229.73	86.69
229.964	95.69
230.199	65.69
230.433	74.69
230.667	85.69
230.901	73.69
231.136	71.69
231.37	69.69
231.604	82.69
231.838	75.69
232.072	85.69
232.306	81.69
232.541	75.69
232.775	75.69
233.009	86.69
233.243	79.69
233.477	83.69
233.711	85.69
233.945	101.69
234.179	80.69
234.413	75.69
234.647	83.69
234.881	76.69
235.115	83.69
235.349	78.69
235.583	89.69
235.817	93.69
236.051	70.69
236.285	73.69
236.519	68.69
236.753	83.69
236.987	75.69
237.221	82.69
237.455	69.69
237.689	69.69
237.922	73.69
238.156	71.69
238.39	67.69
238.624	74.69
238.858	66.69
239.091	79.69
239.325	81.69
239.559	80.69
239.793	90.69
240.027	86.69
240.26	71.69
240.494	70.69
240.728	74.69
240.961	68.69
241.195	81.69
241.429	77.69
241.662	74.69
241.896	72.69
242.13	84.69
242.363	68.69
242.597	74.69
242.83	78.69
243.064	83.69
243.298	75.69
243.531	86.69
243.765	85.69
243.998	80.69
244.232	87.69
244.465	75.69
244.699	86.69
244.932	88.69
245.166	67.69
245.399	87.69
245.633	80.69
245.866	91.69
246.099	93.69
246.333	76.69
246.566	82.69
246.8	77.69
247.033	81.69
247.266	84.69
247.5	76.69
247.733	79.69
247.966	77.69
248.2	83.69
248.433	90.69
248.666	82.69
248.899	72.69
249.133	89.69
249.366	93.69
249.599	100.69
249.832	83.69
250.066	86.69
250.299	80.69
250.532	83.69
250.765	66.69
250.998	90.69
251.231	77.69
251.465	78.69
251.698	73.69
251.931	79.69
252.164	92.69
252.397	99.69
252.63	85.69
252.863	64.69
253.096	70.69
253.329	86.69
253.562	74.69
253.795	84.69
254.028	73.69
254.261	90.69
254.494	79.69
254.727	85.69
254.96	79.69
255.193	83.69
255.426	85.69
255.659	90.69
255.892	84.69
256.124	62.69
256.357	86.69
256.59	83.69
256.823	91.69
257.056	85.69
257.289	86.69
257.521	91.69
257.754	81.69
257.987	91.69
258.22	94.69
258.452	88.69
258.685	90.69
258.918	79.69
259.151	91.69
259.383	68.69
259.616	80.69
259.849	93.69
260.081	89.69
260.314	88.69
260.547	86.69
260.779	85.69
261.012	81.69
261.244	83.69
261.477	84.69
261.71	89.69
261.942	107.69
262.175	111.69
262.407	81.69
262.64	75.69
262.872	90.69
263.105	85.69
263.337	85.69
263.57	84.69
263.802	79.69
264.035	81.69
264.267	84.69
264.499	82.69
264.732	85.69
264.964	84.69
265.197	100.69
265.429	81.69
265.661	74.69
265.894	91.69
266.126	87.69
266.358	84.69
266.591	100.69
266.823	95.69
267.055	83.69
267.287	70.69
267.52	82.69
267.752	85.69
267.984	81.69
268.216	88.69
268.448	84.69
268.681	79.69
268.913	86.69
269.145	91.69
269.377	76.69
269.609	92.69
269.841	73.69
270.073	95.69
270.306	80.69
270.538	78.69
270.77	85.69
271.002	81.69
271.234	82.69
271.466	81.69
271.698	94.69
271.93	87.69
272.162	91.69
272.394	100.69
272.626	77.69
272.858	81.69
273.09	89.69
273.322	93.69
273.553	83.69
273.785	81.69
274.017	80.69
274.249	88.69
274.481	92.69
274.713	77.69
274.945	108.69
275.176	86.69
275.408	84.69
275.64	86.69
275.872	93.69
276.104	94.69
276.335	104.69
276.567	97.69
276.799	126.69
277.031	106.69
277.262	107.69
277.494	98.69
277.726	82.69
277.957	84.69
278.189	79.69
278.421	83.69
278.652	81.69
278.884	89.69
279.115	92.69
279.347	83.69
279.579	101.69
279.81	104.69
280.042	95.69
280.273	128.69
280.505	96.69
280.736	82.69
280.968	78.69
281.199	83.69
281.431	82.69
281.662	90.69
281.894	80.69
282.125	100.69
282.356	132.69
282.588	148.69
282.819	111.69
283.051	90.69
283.282	83.69
283.513	82.69
283.745	77.69
283.976	103.69
284.207	74.69
284.439	91.69
284.67	98.69
284.901	89.69
285.132	87.69
285.364	83.69
285.595	84.69
285.826	82.69
286.057	96.69
286.288	91.69
286.52	103.69
286.751	90.69
286.982	94.69
287.213	85.69
287.444	79.69
287.675	76.69
287.906	92.69
288.138	83.69
288.369	83.69
288.6	88.69
288.831	83.69
289.062	87.69
289.293	92.69
289.524	74.69
289.755	93.69
289.986	96.69
290.217	81.69
290.448	102.69
290.679	82.69
290.91	71.69
291.141	87.69
291.371	87.69
291.602	88.69
291.833	82.69
292.064	85.69
292.295	98.69
292.526	93.69
292.757	85.69
292.987	97.69
293.218	90.69
293.449	84.69
293.68	82.69
293.91	69.69
294.141	97.69
294.372	95.69
294.603	92.69
294.833	83.69
295.064	90.69
295.295	80.69
295.525	91.69
295.756	93.69
295.987	113.69
296.217	129.69
296.448	123.69
296.679	88.69
296.909	85.69
297.14	92.69
297.37	109.69
297.601	96.69
297.831	88.69
298.062	84.69
298.292	90.69
298.523	81.69
298.753	88.69
298.984	111.69
299.214	82.69
299.445	92.69
299.675	93.69
299.905	97.69
300.136	98.69
300.366	90.69
300.597	83.69
300.827	91.69
301.057	83.69
301.288	99.69
301.518	94.69
301.748	86.69
301.979	116.69
302.209	98.69
302.439	89.69
302.669	99.69
302.9	87.69
303.13	107.69
303.36	93.69
303.59	111.69
303.82	120.69
304.051	95.69
304.281	84.69
304.511	73.69
304.741	96.69
304.971	100.69
305.201	79.69
305.431	85.69
305.661	90.69
305.891	109.69
306.121	94.69
306.352	103.69
306.582	102.69
306.812	99.69
307.042	107.69
307.272	107.69
307.502	104.69
307.731	102.69
307.961	87.69
308.191	94.69
308.421	95.69
308.651	95.69
308.881	90.69
309.111	106.69
309.341	87.69
309.571	91.69
309.8	89.69
310.03	90.69
310.26	92.69
310.49	86.69
310.72	95.69
310.949	94.69
311.179	102.69
311.409	100.69
311.639	100.69
311.868	106.69
312.098	95.69
312.328	103.69
312.557	105.69
312.787	91.69
313.017	101.69
313.246	89.69
313.476	89.69
313.706	96.69
313.935	85.69
314.165	87.69
314.394	93.69
314.624	86.69
314.853	85.69
315.083	77.69
315.312	81.69
315.542	94.69
315.771	86.69
316.001	108.69
316.23	92.69
316.46	98.69
316.689	106.69
316.919	101.69
317.148	103.69
317.377	109.69
317.607	82.69
317.836	94.69
318.065	103.69
318.295	89.69
318.524	81.69
318.753	96.69
318.983	92.69
319.212	102.69
319.441	95.69
319.67	111.69
319.9	90.69
320.129	87.69
320.358	89.69
320.587	84.69
320.816	103.69
321.046	100.69
321.275	99.69
321.504	92.69
321.733	117.69
321.962	92.69
322.191	95.69
322.42	101.69
322.649	106.69
322.878	109.69
323.108	117.69
323.337	113.69
323.566	123.69
323.795	156.69
324.024	209.69
324.253	393.69
324.482	790.69
324.71	1625.69
324.939	2253.69
325.168	830.69
325.397	247.69
325.626	146.69
325.855	135.69
326.084	115.69
326.313	127.69
326.542	151.69
326.77	219.69
326.999	452.69
327.228	909.69
327.457	1710.69
327.686	1388.69
327.914	406.69
328.143	257.69
328.372	308.69
328.6	188.69
328.829	124.69
329.058	126.69
329.287	153.69
329.515	120.69
329.744	129.69
329.972	213.69
330.201	355.69
330.43	498.69
330.658	267.69
330.887	172.69
331.115	130.69
331.344	108.69
331.572	102.69
331.801	99.69
332.03	114.69
332.258	104.69
332.486	98.69
332.715	91.69
332.943	91.69
333.172	106.69
333.4	107.69
333.629	108.69
333.857	148.69
334.085	201.69
334.314	333.69
334.542	601.69
334.771	589.69
334.999	201.69
335.227	119.69
335.455	92.69
335.684	109.69
335.912	98.69
336.14	107.69
336.369	107.69
336.597	102.69
336.825	98.69
337.053	86.69
337.281	105.69
337.51	90.69
337.738	109.69
337.966	89.69
338.194	91.69
338.422	86.69
338.65	102.69
338.878	106.69
339.106	81.69
339.334	96.69
339.562	94.69
339.79	89.69
340.018	96.69
340.246	94.69
340.474	89.69
340.702	103.69
340.93	97.69
341.158	97.69
341.386	101.69
341.614	86.69
341.842	77.69
342.07	86.69
342.298	109.69
342.526	79.69
342.754	84.69
342.981	91.69
343.209	92.69
343.437	94.69
343.665	96.69
343.893	86.69
344.12	84.69
344.348	71.69
344.576	91.69
344.804	98.69
345.031	92.69
345.259	110.69
345.487	88.69
345.714	96.69
345.942	97.69
346.17	82.69
346.397	91.69
346.625	92.69
346.853	95.69
347.08	103.69
347.308	86.69
347.535	104.69
347.763	96.69
347.99	107.69
348.218	93.69
348.445	107.69
348.673	94.69
348.9	97.69
349.128	101.69
349.355	80.69
349.583	87.69
349.81	89.69
350.037	100.69
350.265	89.69
350.492	84.69
350.72	87.69
350.947	100.69
351.174	114.69
351.402	111.69
351.629	100.69
351.856	102.69
352.083	99.69
352.311	108.69
352.538	119.69
352.765	105.69
352.992	117.69
353.22	106.69
353.447	93.69
353.674	89.69
353.901	95.69
354.128	80.69
354.355	103.69
354.583	104.69
354.81	99.69
355.037	89.69
355.264	89.69
355.491	91.69
355.718	98.69
355.945	113.69
356.172	110.69
356.399	89.69
356.626	77.69
356.853	85.69
357.08	100.69
357.307	99.69
357.534	89.69
357.761	88.69
357.988	73.69
358.215	93.69
358.441	99.69
358.668	100.69
358.895	95.69
359.122	93.69
359.349	93.69
359.576	95.69
359.802	98.69
360.029	106.69
360.256	113.69
360.483	109.69
360.709	83.69
360.936	96.69
361.163	105.69
361.39	94.69
361.616	90.69
361.843	94.69
362.07	89.69
362.296	97.69
362.523	86.69
362.749	93.69
362.976	99.69
363.203	104.69
363.429	89.69
363.656	94.69
363.882	80.69
364.109	94.69
364.335	102.69
364.562	93.69
364.788	93.69
365.015	87.69
365.241	101.69
365.468	106.69
365.694	93.69
365.92	98.69
366.147	91.69
366.373	83.69
366.599	83.69
366.826	97.69
367.052	82.69
367.278	82.69
367.505	94.69
367.731	93.69
367.957	83.69
368.184	90.69
368.41	105.69
368.636	110.69
368.862	103.69
369.089	111.69
369.315	98.69
369.541	89.69
369.767	79.69
369.993	98.69
370.219	90.69
370.445	83.69
370.672	103.69
370.898	99.69
371.124	95.69
371.35	86.69
371.576	86.69
371.802	84.69
372.028	89.69
372.254	95.69
372.48	79.69
372.706	81.69
372.932	90.69
373.158	95.69
373.384	85.69
373.61	99.69
373.835	96.69
374.061	103.69
374.287	91.69
374.513	99.69
374.739	78.69
374.965	80.69
375.191	81.69
375.416	92.69
375.642	76.69
375.868	91.69
376.094	94.69
376.319	89.69
376.545	77.69
376.771	104.69
376.997	91.69
377.222	78.69
377.448	75.69
377.674	77.69
377.899	79.69
378.125	87.69
378.35	90.69
378.576	90.69
378.802	100.69
379.027	85.69
379.253	88.69
379.478	98.69
379.704	82.69
379.929	100.69
380.155	96.69
380.38	101.69
380.606	100.69
380.831	89.69
381.057	115.69
381.282	94.69
381.507	98.69
381.733	98.69
381.958	97.69
382.184	86.69
382.409	94.69
382.634	99.69
382.86	103.69
383.085	107.69
383.31	103.69
383.535	111.69
383.761	110.69
383.986	97.69
384.211	96.69
384.436	101.69
384.662	90.69
384.887	118.69
385.112	120.69
385.337	110.69
385.562	92.69
385.787	118.69
386.013	110.69
386.238	115.69
386.463	126.69
386.688	115.69
386.913	111.69
387.138	95.69
387.363	110.69
387.588	101.69
387.813	110.69
388.038	109.69
388.263	134.69
388.488	118.69
388.713	95.69
388.938	102.69
389.163	97.69
389.387	97.69
389.612	75.69
389.837	88.69
390.062	94.69
390.287	86.69
390.512	84.69
390.736	84.69
390.961	76.69
391.186	86.69
391.411	90.69
391.636	80.69
391.86	88.69
392.085	98.69
392.31	65.69
392.534	82.69
392.759	90.69
392.984	86.69
393.208	68.69
393.433	77.69
393.658	87.69
393.882	88.69
394.107	87.69
394.331	76.69
394.556	97.69
394.78	95.69
395.005	89.69
395.229	94.69
395.454	97.69
395.678	80.69
395.903	92.69
396.127	95.69
396.352	86.69
396.576	74.69
396.801	85.69
397.025	95.69
397.249	95.69
397.474	95.69
397.698	99.69
397.922	88.69
398.147	84.69
398.371	76.69
398.595	102.69
398.82	96.69
399.044	82.69
399.268	93.69
399.492	91.69
399.717	92.69
399.941	87.69
400.165	87.69
400.389	98.69
400.613	102.69
400.837	94.69
401.062	96.69
401.286	85.69
401.51	81.69
401.734	88.69
401.958	104.69
402.182	126.69
402.406	158.69
402.63	107.69
402.854	96.69
403.078	77.69
403.302	85.69
403.526	91.69
403.75	78.69
403.974	83.69
404.198	88.69
404.422	85.69
404.645	78.69
404.869	98.69
405.093	101.69
405.317	103.69
405.541	101.69
405.765	97.69
405.988	112.69
406.212	164.69
406.436	217.69
406.66	160.69
406.883	116.69
407.107	105.69
407.331	81.69
407.555	99.69
407.778	93.69
408.002	91.69
408.226	91.69
408.449	87.69
408.673	87.69
408.896	98.69
409.12	101.69
409.344	94.69
409.567	89.69
409.791	96.69
410.014	88.69
410.238	96.69
410.461	94.69
410.685	93.69
410.908	99.69
411.132	114.69
411.355	98.69
411.578	94.69
411.802	94.69
412.025	82.69
412.249	82.69
412.472	93.69
412.695	93.69
412.919	99.69
413.142	95.69
413.365	84.69
413.589	89.69
413.812	99.69
414.035	89.69
414.258	87.69
414.482	90.69
414.705	79.69
414.928	89.69
415.151	89.69
415.374	91.69
415.597	102.69
415.821	84.69
416.044	81.69
416.267	91.69
416.49	99.69
416.713	102.69
416.936	94.69
417.159	91.69
417.382	81.69
417.605	79.69
417.828	97.69
418.051	91.69
418.274	88.69
418.497	94.69
418.72	89.69
418.943	86.69
419.166	83.69
419.389	93.69
419.611	84.69
419.834	94.69
420.057	75.69
420.28	78.69
420.503	89.69
420.726	80.69
420.948	96.69
421.171	107.69
421.394	85.69
421.617	91.69
421.839	77.69
422.062	94.69
422.285	78.69
422.507	97.69
422.73	105.69
422.953	97.69
423.175	83.69
423.398	94.69
423.621	89.69
423.843	79.69
424.066	101.69
424.288	91.69
424.511	85.69
424.733	92.69
424.956	86.69
425.178	99.69
425.401	91.69
425.623	107.69
425.846	93.69
426.068	85.69
426.291	87.69
426.513	90.69
426.735	93.69
426.958	100.69
427.18	110.69
427.402	131.69
427.625	195.69
427.847	159.69
428.069	165.69
428.292	106.69
428.514	101.69
428.736	85.69
428.958	91.69
429.181	91.69
429.403	74.69
429.625	83.69
429.847	86.69
430.069	91.69
430.292	100.69
430.514	88.69
430.736	85.69
430.958	77.69
431.18	92.69
431.402	85.69
431.624	87.69
431.846	95.69
432.068	88.69
432.29	93.69
432.512	97.69
432.734	89.69
432.956	85.69
433.178	93.69
433.4	115.69
433.622	95.69
433.844	89.69
434.066	93.69
434.287	96.69
434.509	78.69
434.731	82.69
434.953	94.69
435.175	81.69
435.397	94.69
435.618	93.69
435.84	95.69
436.062	130.69
436.284	103.69
436.505	101.69
436.727	95.69
436.949	96.69
437.17	84.69
437.392	109.69
437.614	100.69
437.835	106.69
438.057	107.69
438.278	98.69
438.5	96.69
438.721	109.69
438.943	115.69
439.165	107.69
439.386	82.69
439.608	100.69
439.829	97.69
440.05	114.69
440.272	142.69
440.493	103.69
440.715	91.69
440.936	91.69
441.158	77.69
441.379	87.69
441.6	90.69
441.822	94.69
442.043	95.69
442.264	98.69
442.486	91.69
442.707	85.69
442.928	92.69
443.149	142.69
443.371	128.69
443.592	108.69
443.813	113.69
444.034	91.69
444.255	84.69
444.476	97.69
444.698	99.69
444.919	92.69
445.14	118.69
445.361	116.69
445.582	116.69
445.803	141.69
446.024	116.69
446.245	139.69
446.466	112.69
446.687	86.69
446.908	87.69
447.129	89.69
447.35	73.69
447.571	86.69
447.792	100.69
448.013	95.69
448.234	114.69
448.455	111.69
448.675	111.69
448.896	112.69
449.117	97.69
449.338	108.69
449.559	126.69
449.779	137.69
450	100.69
450.221	80.69
450.442	94.69
450.662	101.69
450.883	101.69
451.104	97.69
451.324	102.69
451.545	82.69
451.766	78.69
451.986	89.69
452.207	106.69
452.428	90.69
452.648	97.69
452.869	101.69
453.089	107.69
453.31	97.69
453.53	97.69
453.751	97.69
453.971	102.69
454.192	105.69
454.412	85.69
454.633	83.69
454.853	81.69
455.073	92.69
455.294	99.69
455.514	100.69
455.734	89.69
455.955	73.69
456.175	94.69
456.395	88.69
456.616	89.69
456.836	96.69
457.056	93.69
457.276	96.69
457.497	75.69
457.717	95.69
457.937	92.69
458.157	88.69
458.377	86.69
458.598	101.69
458.818	155.69
459.038	156.69
459.258	115.69
459.478	90.69
459.698	79.69
459.918	94.69
460.138	77.69
460.358	90.69
460.578	97.69
460.798	78.69
461.018	92.69
461.238	84.69
461.458	86.69
461.678	99.69
461.898	92.69
462.118	79.69
462.338	86.69
462.558	96.69
462.777	75.69
462.997	92.69
463.217	86.69
463.437	82.69
463.657	84.69
463.876	87.69
464.096	90.69
464.316	79.69
464.536	102.69
464.755	103.69
464.975	120.69
465.195	158.69
465.414	162.69
465.634	93.69
465.854	87.69
466.073	97.69
466.293	94.69
466.512	90.69
466.732	85.69
466.951	79.69
467.171	89.69
467.391	91.69
467.61	121.69
467.829	126.69
468.049	231.69
468.268	323.69
468.488	131.69
468.707	96.69
468.927	90.69
469.146	82.69
469.365	88.69
469.585	89.69
469.804	98.69
470.023	113.69
470.243	92.69
470.462	104.69
470.681	124.69
470.901	103.69
471.12	78.69
471.339	88.69
471.558	92.69
471.777	102.69
471.997	143.69
472.216	397.69
472.435	851.69
472.654	242.69
472.873	117.69
473.092	103.69
473.311	88.69
473.53	84.69
473.749	104.69
473.968	93.69
474.187	105.69
474.406	96.69
474.625	84.69
474.844	100.69
475.063	89.69
475.282	75.69
475.501	81.69
475.72	93.69
475.939	90.69
476.158	80.69
476.377	85.69
476.596	82.69
476.814	91.69
477.033	97.69
477.252	96.69
477.471	75.69
477.69	89.69
477.908	94.69
478.127	84.69
478.346	91.69
478.564	71.69
478.783	100.69
479.002	85.69
479.22	107.69
479.439	110.69
479.658	95.69
479.876	112.69
480.095	96.69
480.313	105.69
480.532	117.69
480.751	158.69
480.969	412.69
481.188	1485.69
481.406	910.69
481.624	187.69
481.843	98.69
482.061	87.69
482.28	94.69
482.498	91.69
482.717	74.69
482.935	93.69
483.153	94.69
483.372	90.69
483.59	103.69
483.808	90.69
484.027	103.69
484.245	86.69
484.463	90.69
484.681	86.69
484.9	93.69
485.118	89.69
485.336	91.69
485.554	101.69
485.772	96.69
485.99	112.69
486.209	103.69
486.427	108.69
486.645	104.69
486.863	121.69
487.081	103.69
487.299	93.69
487.517	99.69
487.735	93.69
487.953	73.69
488.171	95.69
488.389	102.69
488.607	99.69
488.825	90.69
489.043	102.69
489.261	97.69
489.479	86.69
489.696	80.69
489.914	78.69
490.132	92.69
490.35	88.69
490.568	73.69
490.786	94.69
491.003	94.69
491.221	74.69
491.439	105.69
491.657	90.69
491.874	95.69
492.092	91.69
492.31	78.69
492.527	86.69
492.745	80.69
492.963	82.69
493.18	86.69
493.398	77.69
493.615	98.69
493.833	91.69
494.05	106.69
494.268	102.69
494.485	86.69
494.703	84.69
494.92	85.69
495.138	85.69
495.355	95.69
495.573	87.69
495.79	80.69
496.008	86.69
496.225	95.69
496.442	89.69
496.66	98.69
496.877	89.69
497.094	98.69
497.312	99.69
497.529	109.69
497.746	98.69
497.963	92.69
498.181	87.69
498.398	92.69
498.615	100.69
498.832	102.69
499.049	98.69
499.267	93.69
499.484	98.69
499.701	88.69
499.918	89.69
500.135	90.69
500.352	97.69
500.569	88.69
500.786	103.69
501.003	90.69
501.22	83.69
501.437	89.69
501.654	100.69
501.871	102.69
502.088	89.69
502.305	81.69
502.522	94.69
502.739	98.69
502.956	86.69
503.172	86.69
503.389	94.69
503.606	113.69
503.823	86.69
504.04	98.69
504.256	86.69
504.473	82.69
504.69	96.69
504.907	103.69
505.123	88.69
505.34	91.69
505.557	97.69
505.773	88.69
505.99	83.69
506.207	87.69
506.423	89.69
506.64	86.69
506.856	98.69
507.073	94.69
507.289	98.69
507.506	91.69
507.722	99.69
507.939	111.69
508.155	92.69
508.372	91.69
508.588	91.69
508.805	110.69
509.021	94.69
509.238	87.69
509.454	99.69
509.67	83.69
509.887	101.69
510.103	116.69
510.319	195.69
510.536	661.69
510.752	2106.69
510.968	572.69
511.184	134.69
511.401	101.69
511.617	102.69
511.833	101.69
512.049	93.69
512.265	80.69
512.481	97.69
512.698	90.69
512.914	96.69
513.13	98.69
513.346	94.69
513.562	97.69
513.778	95.69
513.994	97.69
514.21	99.69
514.426	132.69
514.642	124.69
514.858	121.69
515.074	160.69
515.29	415.69
