Data from Circ_1992_H10_HRD10591_00025.txt Node
Date: Wed Jan 03 11:47:49 EST 2024
User: Yrep
Spectrometer: HR+D1059
Trigger mode: 1
Integration Time (sec): 1.000000E-1
Scans to average: 1
Electric dark correction enabled: true
Nonlinearity correction enabled: false
Boxcar width: 0
XAxis mode: Wavelengths
Number of Pixels in Spectrum: 2048
>>>>>Begin Spectral Data<<<<<
223.165	-23.69
223.4	-23.69
223.635	-23.69
223.869	-22.69
224.104	-18.69
224.338	-17.69
224.573	-12.69
224.808	-11.69
225.042	-4.69
225.277	-10.69
225.511	9.31
225.746	10.31
225.98	7.31
226.215	19.31
226.449	10.31
226.683	24.31
226.918	18.31
227.152	23.31
227.387	44.31
227.621	36.31
227.856	33.31
228.09	41.31
228.324	57.31
228.559	51.31
228.793	67.31
229.027	63.31
229.262	62.31
229.496	68.31
229.73	84.31
229.964	85.31
230.199	72.31
230.433	64.31
230.667	69.31
230.901	69.31
231.136	75.31
231.37	82.31
231.604	94.31
231.838	77.31
232.072	82.31
232.306	72.31
232.541	57.31
232.775	79.31
233.009	82.31
233.243	69.31
233.477	69.31
233.711	65.31
233.945	75.31
234.179	90.31
234.413	77.31
234.647	88.31
234.881	73.31
235.115	61.31
235.349	70.31
235.583	83.31
235.817	85.31
236.051	72.31
236.285	71.31
236.519	64.31
236.753	75.31
236.987	88.31
237.221	94.31
237.455	81.31
237.689	79.31
237.922	74.31
238.156	82.31
238.39	88.31
238.624	67.31
238.858	77.31
239.091	83.31
239.325	89.31
239.559	93.31
239.793	79.31
240.027	81.31
240.26	80.31
240.494	79.31
240.728	64.31
240.961	73.31
241.195	95.31
241.429	75.31
241.662	70.31
241.896	83.31
242.13	66.31
242.363	83.31
242.597	75.31
242.83	88.31
243.064	85.31
243.298	82.31
243.531	71.31
243.765	63.31
243.998	77.31
244.232	75.31
244.465	91.31
244.699	96.31
244.932	76.31
245.166	89.31
245.399	79.31
245.633	80.31
245.866	92.31
246.099	69.31
246.333	73.31
246.566	81.31
246.8	78.31
247.033	77.31
247.266	71.31
247.5	84.31
247.733	80.31
247.966	82.31
248.2	96.31
248.433	80.31
248.666	56.31
248.899	88.31
249.133	95.31
249.366	97.31
249.599	115.31
249.832	89.31
250.066	88.31
250.299	81.31
250.532	81.31
250.765	81.31
250.998	92.31
251.231	86.31
251.465	80.31
251.698	69.31
251.931	94.31
252.164	70.31
252.397	75.31
252.63	90.31
252.863	66.31
253.096	62.31
253.329	69.31
253.562	82.31
253.795	64.31
254.028	68.31
254.261	87.31
254.494	89.31
254.727	80.31
254.96	72.31
255.193	64.31
255.426	90.31
255.659	76.31
255.892	72.31
256.124	79.31
256.357	81.31
256.59	82.31
256.823	72.31
257.056	72.31
257.289	94.31
257.521	83.31
257.754	78.31
257.987	74.31
258.22	72.31
258.452	64.31
258.685	75.31
258.918	66.31
259.151	96.31
259.383	78.31
259.616	75.31
259.849	86.31
260.081	76.31
260.314	93.31
260.547	80.31
260.779	87.31
261.012	82.31
261.244	91.31
261.477	92.31
261.71	96.31
261.942	114.31
262.175	117.31
262.407	95.31
262.64	96.31
262.872	84.31
263.105	88.31
263.337	93.31
263.57	78.31
263.802	75.31
264.035	84.31
264.267	78.31
264.499	72.31
264.732	78.31
264.964	74.31
265.197	88.31
265.429	93.31
265.661	80.31
265.894	78.31
266.126	92.31
266.358	73.31
266.591	80.31
266.823	79.31
267.055	81.31
267.287	80.31
267.52	77.31
267.752	92.31
267.984	82.31
268.216	88.31
268.448	79.31
268.681	76.31
268.913	88.31
269.145	83.31
269.377	90.31
269.609	89.31
269.841	95.31
270.073	81.31
270.306	76.31
270.538	71.31
270.77	82.31
271.002	73.31
271.234	81.31
271.466	88.31
271.698	84.31
271.93	77.31
272.162	96.31
272.394	84.31
272.626	73.31
272.858	93.31
273.09	74.31
273.322	87.31
273.553	95.31
273.785	85.31
274.017	83.31
274.249	89.31
274.481	93.31
274.713	80.31
274.945	103.31
275.176	83.31
275.408	89.31
275.64	88.31
275.872	99.31
276.104	85.31
276.335	90.31
276.567	100.31
276.799	116.31
277.031	102.31
277.262	114.31
277.494	94.31
277.726	80.31
277.957	95.31
278.189	88.31
278.421	86.31
278.652	93.31
278.884	89.31
279.115	86.31
279.347	82.31
279.579	89.31
279.81	82.31
280.042	99.31
280.273	129.31
280.505	104.31
280.736	105.31
280.968	88.31
281.199	89.31
281.431	92.31
281.662	100.31
281.894	99.31
282.125	93.31
282.356	112.31
282.588	126.31
282.819	112.31
283.051	85.31
283.282	89.31
283.513	68.31
283.745	73.31
283.976	93.31
284.207	84.31
284.439	83.31
284.67	82.31
284.901	80.31
285.132	81.31
285.364	92.31
285.595	81.31
285.826	83.31
286.057	89.31
286.288	87.31
286.52	90.31
286.751	89.31
286.982	86.31
287.213	111.31
287.444	93.31
287.675	93.31
287.906	87.31
288.138	87.31
288.369	72.31
288.6	89.31
288.831	76.31
289.062	81.31
289.293	91.31
289.524	91.31
289.755	93.31
289.986	82.31
290.217	89.31
290.448	75.31
290.679	82.31
290.91	88.31
291.141	74.31
291.371	75.31
291.602	93.31
291.833	78.31
292.064	83.31
292.295	83.31
292.526	96.31
292.757	100.31
292.987	93.31
293.218	84.31
293.449	89.31
293.68	99.31
293.91	87.31
294.141	79.31
294.372	83.31
294.603	100.31
294.833	92.31
295.064	92.31
295.295	96.31
295.525	85.31
295.756	88.31
295.987	125.31
296.217	143.31
296.448	125.31
296.679	86.31
296.909	89.31
297.14	94.31
297.37	90.31
297.601	87.31
297.831	85.31
298.062	87.31
298.292	88.31
298.523	87.31
298.753	86.31
298.984	104.31
299.214	91.31
299.445	89.31
299.675	91.31
299.905	105.31
300.136	96.31
300.366	83.31
300.597	98.31
300.827	106.31
301.057	97.31
301.288	105.31
301.518	89.31
301.748	88.31
301.979	101.31
302.209	101.31
302.439	90.31
302.669	91.31
302.9	87.31
303.13	76.31
303.36	92.31
303.59	91.31
303.82	126.31
304.051	93.31
304.281	98.31
304.511	86.31
304.741	92.31
304.971	86.31
305.201	90.31
305.431	82.31
305.661	90.31
305.891	88.31
306.121	91.31
306.352	106.31
306.582	100.31
306.812	89.31
307.042	86.31
307.272	110.31
307.502	119.31
307.731	113.31
307.961	96.31
308.191	85.31
308.421	101.31
308.651	99.31
308.881	99.31
309.111	89.31
309.341	91.31
309.571	105.31
309.8	92.31
310.03	107.31
310.26	87.31
310.49	95.31
310.72	105.31
310.949	119.31
311.179	104.31
311.409	108.31
311.639	92.31
311.868	97.31
312.098	84.31
312.328	98.31
312.557	110.31
312.787	102.31
313.017	99.31
313.246	94.31
313.476	94.31
313.706	106.31
313.935	103.31
314.165	84.31
314.394	101.31
314.624	94.31
314.853	87.31
315.083	96.31
315.312	95.31
315.542	107.31
315.771	97.31
316.001	99.31
316.23	82.31
316.46	93.31
316.689	89.31
316.919	90.31
317.148	89.31
317.377	80.31
317.607	80.31
317.836	85.31
318.065	97.31
318.295	85.31
318.524	93.31
318.753	105.31
318.983	107.31
319.212	88.31
319.441	103.31
319.67	96.31
319.9	99.31
320.129	97.31
320.358	86.31
320.587	93.31
320.816	106.31
321.046	99.31
321.275	93.31
321.504	91.31
321.733	97.31
321.962	89.31
322.191	83.31
322.42	102.31
322.649	122.31
322.878	111.31
323.108	117.31
323.337	116.31
323.566	127.31
323.795	147.31
324.024	221.31
324.253	381.31
324.482	789.31
324.71	1636.31
324.939	2132.31
325.168	792.31
325.397	230.31
325.626	163.31
325.855	114.31
326.084	118.31
326.313	125.31
326.542	157.31
326.77	227.31
326.999	443.31
327.228	912.31
327.457	1588.31
327.686	1316.31
327.914	417.31
328.143	279.31
328.372	329.31
328.6	195.31
328.829	119.31
329.058	142.31
329.287	145.31
329.515	122.31
329.744	136.31
329.972	221.31
330.201	394.31
330.43	555.31
330.658	283.31
330.887	189.31
331.115	142.31
331.344	115.31
331.572	105.31
331.801	116.31
332.03	108.31
332.258	102.31
332.486	96.31
332.715	93.31
332.943	101.31
333.172	105.31
333.4	92.31
333.629	119.31
333.857	147.31
334.085	229.31
334.314	396.31
334.542	696.31
334.771	658.31
334.999	221.31
335.227	118.31
335.455	96.31
335.684	112.31
335.912	105.31
336.14	95.31
336.369	91.31
336.597	109.31
336.825	94.31
337.053	81.31
337.281	82.31
337.51	80.31
337.738	91.31
337.966	93.31
338.194	113.31
338.422	109.31
338.65	95.31
338.878	91.31
339.106	79.31
339.334	87.31
339.562	84.31
339.79	98.31
340.018	97.31
340.246	83.31
340.474	77.31
340.702	89.31
340.93	102.31
341.158	84.31
341.386	112.31
341.614	96.31
341.842	88.31
342.07	94.31
342.298	98.31
342.526	91.31
342.754	82.31
342.981	91.31
343.209	82.31
343.437	102.31
343.665	81.31
343.893	85.31
344.12	90.31
344.348	92.31
344.576	86.31
344.804	94.31
345.031	99.31
345.259	109.31
345.487	94.31
345.714	94.31
345.942	92.31
346.17	90.31
346.397	90.31
346.625	91.31
346.853	84.31
347.08	93.31
347.308	86.31
347.535	105.31
347.763	108.31
347.99	99.31
348.218	92.31
348.445	112.31
348.673	97.31
348.9	105.31
349.128	98.31
349.355	89.31
349.583	89.31
349.81	92.31
350.037	104.31
350.265	85.31
350.492	85.31
350.72	92.31
350.947	95.31
351.174	95.31
351.402	98.31
351.629	118.31
351.856	104.31
352.083	99.31
352.311	103.31
352.538	92.31
352.765	114.31
352.992	117.31
353.22	126.31
353.447	111.31
353.674	115.31
353.901	108.31
354.128	92.31
354.355	94.31
354.583	114.31
354.81	110.31
355.037	92.31
355.264	91.31
355.491	97.31
355.718	81.31
355.945	92.31
356.172	93.31
356.399	98.31
356.626	80.31
356.853	101.31
357.08	90.31
357.307	88.31
357.534	108.31
357.761	100.31
357.988	83.31
358.215	82.31
358.441	96.31
358.668	84.31
358.895	80.31
359.122	75.31
359.349	83.31
359.576	95.31
359.802	102.31
360.029	130.31
360.256	114.31
360.483	100.31
360.709	89.31
360.936	97.31
361.163	99.31
361.39	106.31
361.616	93.31
361.843	98.31
362.07	74.31
362.296	106.31
362.523	82.31
362.749	101.31
362.976	79.31
363.203	100.31
363.429	93.31
363.656	92.31
363.882	85.31
364.109	92.31
364.335	87.31
364.562	90.31
364.788	95.31
365.015	100.31
365.241	92.31
365.468	111.31
365.694	97.31
365.92	95.31
366.147	95.31
366.373	88.31
366.599	76.31
366.826	90.31
367.052	86.31
367.278	107.31
367.505	84.31
367.731	95.31
367.957	85.31
368.184	102.31
368.41	91.31
368.636	109.31
368.862	113.31
369.089	115.31
369.315	96.31
369.541	99.31
369.767	92.31
369.993	80.31
370.219	84.31
370.445	80.31
370.672	90.31
370.898	83.31
371.124	73.31
371.35	100.31
371.576	74.31
371.802	85.31
372.028	96.31
372.254	77.31
372.48	79.31
372.706	79.31
372.932	77.31
373.158	95.31
373.384	94.31
373.61	87.31
373.835	80.31
374.061	95.31
374.287	96.31
374.513	96.31
374.739	83.31
374.965	92.31
375.191	86.31
375.416	95.31
375.642	79.31
375.868	98.31
376.094	102.31
376.319	102.31
376.545	87.31
376.771	89.31
376.997	89.31
377.222	83.31
377.448	96.31
377.674	73.31
377.899	87.31
378.125	92.31
378.35	91.31
378.576	71.31
378.802	93.31
379.027	95.31
379.253	91.31
379.478	97.31
379.704	92.31
379.929	101.31
380.155	108.31
380.38	88.31
380.606	91.31
380.831	99.31
381.057	87.31
381.282	104.31
381.507	96.31
381.733	90.31
381.958	95.31
382.184	100.31
382.409	97.31
382.634	94.31
382.86	97.31
383.085	85.31
383.31	102.31
383.535	109.31
383.761	113.31
383.986	105.31
384.211	103.31
384.436	98.31
384.662	101.31
384.887	92.31
385.112	113.31
385.337	99.31
385.562	99.31
385.787	109.31
386.013	120.31
386.238	130.31
386.463	103.31
386.688	106.31
386.913	113.31
387.138	115.31
387.363	110.31
387.588	106.31
387.813	116.31
388.038	122.31
388.263	116.31
388.488	116.31
388.713	92.31
388.938	86.31
389.163	84.31
389.387	90.31
389.612	86.31
389.837	100.31
390.062	79.31
390.287	85.31
390.512	93.31
390.736	93.31
390.961	104.31
391.186	95.31
391.411	105.31
391.636	87.31
391.86	72.31
392.085	93.31
392.31	66.31
392.534	86.31
392.759	92.31
392.984	75.31
393.208	92.31
393.433	82.31
393.658	76.31
393.882	83.31
394.107	81.31
394.331	93.31
394.556	87.31
394.78	91.31
395.005	66.31
395.229	73.31
395.454	97.31
395.678	81.31
395.903	90.31
396.127	71.31
396.352	79.31
396.576	92.31
396.801	77.31
397.025	81.31
397.249	87.31
397.474	89.31
397.698	93.31
397.922	90.31
398.147	73.31
398.371	81.31
398.595	80.31
398.82	96.31
399.044	96.31
399.268	83.31
399.492	81.31
399.717	94.31
399.941	77.31
400.165	89.31
400.389	92.31
400.613	77.31
400.837	87.31
401.062	96.31
401.286	72.31
401.51	88.31
401.734	81.31
401.958	88.31
402.182	129.31
402.406	169.31
402.63	129.31
402.854	93.31
403.078	85.31
403.302	80.31
403.526	84.31
403.75	96.31
403.974	82.31
404.198	84.31
404.422	83.31
404.645	86.31
404.869	101.31
405.093	94.31
405.317	110.31
405.541	127.31
405.765	107.31
405.988	113.31
406.212	178.31
406.436	260.31
406.66	164.31
406.883	105.31
407.107	98.31
407.331	94.31
407.555	105.31
407.778	101.31
408.002	100.31
408.226	92.31
408.449	91.31
408.673	95.31
408.896	92.31
409.12	89.31
409.344	106.31
409.567	104.31
409.791	89.31
410.014	77.31
410.238	99.31
410.461	86.31
410.685	77.31
410.908	97.31
411.132	101.31
411.355	105.31
411.578	89.31
411.802	80.31
412.025	88.31
412.249	100.31
412.472	99.31
412.695	111.31
412.919	99.31
413.142	87.31
413.365	104.31
413.589	84.31
413.812	93.31
414.035	77.31
414.258	90.31
414.482	90.31
414.705	86.31
414.928	100.31
415.151	91.31
415.374	84.31
415.597	98.31
415.821	80.31
416.044	96.31
416.267	96.31
416.49	84.31
416.713	92.31
416.936	85.31
417.159	90.31
417.382	92.31
417.605	84.31
417.828	87.31
418.051	89.31
418.274	88.31
418.497	84.31
418.72	83.31
418.943	103.31
419.166	100.31
419.389	77.31
419.611	79.31
419.834	106.31
420.057	79.31
420.28	89.31
420.503	90.31
420.726	90.31
420.948	94.31
421.171	108.31
421.394	85.31
421.617	93.31
421.839	97.31
422.062	89.31
422.285	81.31
422.507	96.31
422.73	99.31
422.953	81.31
423.175	90.31
423.398	81.31
423.621	91.31
423.843	89.31
424.066	80.31
424.288	74.31
424.511	97.31
424.733	87.31
424.956	90.31
425.178	100.31
425.401	101.31
425.623	96.31
425.846	90.31
426.068	96.31
426.291	93.31
426.513	89.31
426.735	78.31
426.958	99.31
427.18	107.31
427.402	151.31
427.625	192.31
427.847	166.31
428.069	147.31
428.292	84.31
428.514	70.31
428.736	93.31
428.958	88.31
429.181	87.31
429.403	77.31
429.625	83.31
429.847	97.31
430.069	109.31
430.292	80.31
430.514	86.31
430.736	109.31
430.958	92.31
431.18	77.31
431.402	80.31
431.624	73.31
431.846	75.31
432.068	80.31
432.29	66.31
432.512	78.31
432.734	96.31
432.956	93.31
433.178	100.31
433.4	85.31
433.622	77.31
433.844	90.31
434.066	101.31
434.287	100.31
434.509	96.31
434.731	88.31
434.953	92.31
435.175	83.31
435.397	87.31
435.618	89.31
435.84	108.31
436.062	126.31
436.284	125.31
436.505	120.31
436.727	101.31
436.949	103.31
437.17	81.31
437.392	84.31
437.614	99.31
437.835	104.31
438.057	122.31
438.278	122.31
438.5	94.31
438.721	119.31
438.943	104.31
439.165	97.31
439.386	92.31
439.608	85.31
439.829	101.31
440.05	141.31
440.272	170.31
440.493	99.31
440.715	96.31
440.936	90.31
441.158	90.31
441.379	93.31
441.6	100.31
441.822	110.31
442.043	107.31
442.264	106.31
442.486	103.31
442.707	90.31
442.928	114.31
443.149	143.31
443.371	152.31
443.592	111.31
443.813	122.31
444.034	115.31
444.255	90.31
444.476	100.31
444.698	89.31
444.919	95.31
445.14	122.31
445.361	108.31
445.582	110.31
445.803	152.31
446.024	160.31
446.245	125.31
446.466	114.31
446.687	98.31
446.908	93.31
447.129	89.31
447.35	81.31
447.571	109.31
447.792	111.31
448.013	109.31
448.234	116.31
448.455	101.31
448.675	115.31
448.896	121.31
449.117	99.31
449.338	109.31
449.559	120.31
449.779	131.31
450	101.31
450.221	97.31
450.442	73.31
450.662	85.31
450.883	112.31
451.104	126.31
451.324	101.31
451.545	77.31
451.766	81.31
451.986	100.31
452.207	92.31
452.428	88.31
452.648	96.31
452.869	122.31
453.089	116.31
453.31	114.31
453.53	99.31
453.751	100.31
453.971	98.31
454.192	121.31
454.412	91.31
454.633	85.31
454.853	76.31
455.073	89.31
455.294	67.31
455.514	91.31
455.734	94.31
455.955	97.31
456.175	84.31
456.395	85.31
456.616	87.31
456.836	85.31
457.056	72.31
457.276	84.31
457.497	83.31
457.717	80.31
457.937	82.31
458.157	80.31
458.377	91.31
458.598	113.31
458.818	161.31
459.038	187.31
459.258	131.31
459.478	79.31
459.698	99.31
459.918	95.31
460.138	91.31
460.358	72.31
460.578	74.31
460.798	97.31
461.018	100.31
461.238	71.31
461.458	71.31
461.678	68.31
461.898	73.31
462.118	102.31
462.338	88.31
462.558	79.31
462.777	103.31
462.997	97.31
463.217	95.31
463.437	83.31
463.657	85.31
463.876	79.31
464.096	84.31
464.316	95.31
464.536	104.31
464.755	94.31
464.975	124.31
465.195	165.31
465.414	187.31
465.634	93.31
465.854	91.31
466.073	81.31
466.293	75.31
466.512	91.31
466.732	80.31
466.951	87.31
467.171	102.31
467.391	95.31
467.61	117.31
467.829	124.31
468.049	234.31
468.268	339.31
468.488	128.31
468.707	81.31
468.927	75.31
469.146	100.31
469.365	81.31
469.585	86.31
469.804	117.31
470.023	112.31
470.243	93.31
470.462	121.31
470.681	117.31
470.901	79.31
471.12	91.31
471.339	92.31
471.558	89.31
471.777	100.31
471.997	148.31
472.216	444.31
472.435	903.31
472.654	251.31
472.873	111.31
473.092	99.31
473.311	79.31
473.53	87.31
473.749	79.31
473.968	97.31
474.187	122.31
474.406	86.31
474.625	92.31
474.844	93.31
475.063	73.31
475.282	89.31
475.501	94.31
475.72	88.31
475.939	91.31
476.158	85.31
476.377	76.31
476.596	87.31
476.814	85.31
477.033	93.31
477.252	84.31
477.471	90.31
477.69	104.31
477.908	90.31
478.127	95.31
478.346	93.31
478.564	95.31
478.783	94.31
479.002	98.31
479.22	95.31
479.439	116.31
479.658	107.31
479.876	92.31
480.095	112.31
480.313	116.31
480.532	132.31
480.751	174.31
480.969	447.31
481.188	1595.31
481.406	985.31
481.624	185.31
481.843	97.31
482.061	90.31
482.28	94.31
482.498	87.31
482.717	89.31
482.935	83.31
483.153	85.31
483.372	71.31
483.59	82.31
483.808	98.31
484.027	86.31
484.245	97.31
484.463	87.31
484.681	92.31
484.9	97.31
485.118	107.31
485.336	89.31
485.554	100.31
485.772	98.31
485.99	100.31
486.209	104.31
486.427	103.31
486.645	107.31
486.863	115.31
487.081	93.31
487.299	96.31
487.517	88.31
487.735	90.31
487.953	85.31
488.171	102.31
488.389	90.31
488.607	105.31
488.825	96.31
489.043	92.31
489.261	89.31
489.479	88.31
489.696	84.31
489.914	93.31
490.132	83.31
490.35	69.31
490.568	97.31
490.786	82.31
491.003	80.31
491.221	83.31
491.439	94.31
491.657	85.31
491.874	102.31
492.092	107.31
492.31	85.31
492.527	95.31
492.745	87.31
492.963	92.31
493.18	81.31
493.398	83.31
493.615	88.31
493.833	89.31
494.05	78.31
494.268	93.31
494.485	88.31
494.703	87.31
494.92	89.31
495.138	73.31
495.355	90.31
495.573	84.31
495.79	88.31
496.008	82.31
496.225	93.31
496.442	80.31
496.66	85.31
496.877	89.31
497.094	79.31
497.312	87.31
497.529	88.31
497.746	92.31
497.963	86.31
498.181	93.31
498.398	99.31
498.615	103.31
498.832	93.31
499.049	102.31
499.267	108.31
499.484	90.31
499.701	87.31
499.918	91.31
500.135	80.31
500.352	84.31
500.569	98.31
500.786	102.31
501.003	103.31
501.22	96.31
501.437	87.31
501.654	89.31
501.871	115.31
502.088	95.31
502.305	83.31
502.522	83.31
502.739	82.31
502.956	93.31
503.172	84.31
503.389	103.31
503.606	112.31
503.823	98.31
504.04	95.31
504.256	92.31
504.473	101.31
504.69	81.31
504.907	100.31
505.123	93.31
505.34	84.31
505.557	87.31
505.773	89.31
505.99	101.31
506.207	93.31
506.423	84.31
506.64	100.31
506.856	90.31
507.073	86.31
507.289	86.31
507.506	105.31
507.722	114.31
507.939	123.31
508.155	93.31
508.372	92.31
508.588	107.31
508.805	94.31
509.021	91.31
509.238	97.31
509.454	93.31
509.67	108.31
509.887	105.31
510.103	131.31
510.319	193.31
510.536	774.31
510.752	2593.31
510.968	701.31
511.184	162.31
511.401	113.31
511.617	99.31
511.833	97.31
512.049	95.31
512.265	99.31
512.481	82.31
512.698	98.31
512.914	96.31
513.13	94.31
513.346	85.31
513.562	105.31
513.778	99.31
513.994	101.31
514.21	93.31
514.426	107.31
514.642	124.31
514.858	138.31
515.074	185.31
