Data from Circ_1992_H10_HRD10591_00090.txt Node
Date: Wed Jan 03 11:48:02 EST 2024
User: Yrep
Spectrometer: HR+D1059
Trigger mode: 1
Integration Time (sec): 1.000000E-1
Scans to average: 1
Electric dark correction enabled: true
Nonlinearity correction enabled: false
Boxcar width: 0
XAxis mode: Wavelengths
Number of Pixels in Spectrum: 2048
>>>>>Begin Spectral Data<<<<<
223.165	-11.5
223.4	-11.5
223.635	-11.5
223.869	-11.5
224.104	-11.5
224.338	-16.5
224.573	-12.5
224.808	-31.5
225.042	6.5
225.277	-11.5
225.511	-4.5
225.746	2.5
225.98	6.5
226.215	19.5
226.449	24.5
226.683	26.5
226.918	7.5
227.152	17.5
227.387	45.5
227.621	47.5
227.856	44.5
228.09	36.5
228.324	55.5
228.559	57.5
228.793	51.5
229.027	71.5
229.262	69.5
229.496	81.5
229.73	95.5
229.964	99.5
230.199	81.5
230.433	89.5
230.667	82.5
230.901	80.5
231.136	78.5
231.37	82.5
231.604	81.5
231.838	81.5
232.072	88.5
232.306	89.5
232.541	96.5
232.775	87.5
233.009	79.5
233.243	91.5
233.477	85.5
233.711	85.5
233.945	85.5
234.179	79.5
234.413	85.5
234.647	85.5
234.881	83.5
235.115	82.5
235.349	83.5
235.583	96.5
235.817	83.5
236.051	83.5
236.285	76.5
236.519	85.5
236.753	83.5
236.987	85.5
237.221	87.5
237.455	98.5
237.689	81.5
237.922	80.5
238.156	100.5
238.39	75.5
238.624	69.5
238.858	71.5
239.091	81.5
239.325	89.5
239.559	89.5
239.793	83.5
240.027	84.5
240.26	84.5
240.494	84.5
240.728	77.5
240.961	77.5
241.195	88.5
241.429	76.5
241.662	77.5
241.896	76.5
242.13	68.5
242.363	85.5
242.597	82.5
242.83	71.5
243.064	71.5
243.298	85.5
243.531	89.5
243.765	70.5
243.998	68.5
244.232	84.5
244.465	93.5
244.699	96.5
244.932	77.5
245.166	92.5
245.399	80.5
245.633	72.5
245.866	66.5
246.099	98.5
246.333	77.5
246.566	91.5
246.8	67.5
247.033	91.5
247.266	88.5
247.5	71.5
247.733	78.5
247.966	67.5
248.2	71.5
248.433	90.5
248.666	86.5
248.899	68.5
249.133	109.5
249.366	86.5
249.599	95.5
249.832	96.5
250.066	76.5
250.299	84.5
250.532	92.5
250.765	93.5
250.998	86.5
251.231	78.5
251.465	93.5
251.698	91.5
251.931	87.5
252.164	71.5
252.397	81.5
252.63	70.5
252.863	72.5
253.096	76.5
253.329	69.5
253.562	88.5
253.795	86.5
254.028	87.5
254.261	84.5
254.494	84.5
254.727	87.5
254.96	78.5
255.193	92.5
255.426	80.5
255.659	91.5
255.892	103.5
256.124	87.5
256.357	93.5
256.59	93.5
256.823	94.5
257.056	101.5
257.289	109.5
257.521	106.5
257.754	84.5
257.987	79.5
258.22	104.5
258.452	76.5
258.685	93.5
258.918	79.5
259.151	80.5
259.383	101.5
259.616	102.5
259.849	81.5
260.081	87.5
260.314	83.5
260.547	79.5
260.779	102.5
261.012	109.5
261.244	111.5
261.477	100.5
261.71	104.5
261.942	138.5
262.175	154.5
262.407	100.5
262.64	99.5
262.872	77.5
263.105	100.5
263.337	93.5
263.57	79.5
263.802	88.5
264.035	88.5
264.267	80.5
264.499	78.5
264.732	90.5
264.964	81.5
265.197	100.5
265.429	86.5
265.661	78.5
265.894	85.5
266.126	83.5
266.358	88.5
266.591	86.5
266.823	84.5
267.055	83.5
267.287	85.5
267.52	85.5
267.752	96.5
267.984	73.5
268.216	77.5
268.448	64.5
268.681	87.5
268.913	92.5
269.145	79.5
269.377	87.5
269.609	93.5
269.841	79.5
270.073	84.5
270.306	96.5
270.538	93.5
270.77	87.5
271.002	92.5
271.234	83.5
271.466	98.5
271.698	106.5
271.93	86.5
272.162	73.5
272.394	86.5
272.626	85.5
272.858	83.5
273.09	90.5
273.322	91.5
273.553	88.5
273.785	86.5
274.017	98.5
274.249	83.5
274.481	84.5
274.713	82.5
274.945	94.5
275.176	101.5
275.408	98.5
275.64	103.5
275.872	113.5
276.104	102.5
276.335	102.5
276.567	105.5
276.799	138.5
277.031	138.5
277.262	166.5
277.494	133.5
277.726	98.5
277.957	94.5
278.189	86.5
278.421	92.5
278.652	85.5
278.884	87.5
279.115	86.5
279.347	93.5
279.579	98.5
279.81	115.5
280.042	172.5
280.273	230.5
280.505	153.5
280.736	120.5
280.968	84.5
281.199	89.5
281.431	90.5
281.662	92.5
281.894	97.5
282.125	119.5
282.356	142.5
282.588	165.5
282.819	126.5
283.051	82.5
283.282	104.5
283.513	82.5
283.745	90.5
283.976	77.5
284.207	88.5
284.439	105.5
284.67	98.5
284.901	98.5
285.132	82.5
285.364	82.5
285.595	81.5
285.826	85.5
286.057	95.5
286.288	91.5
286.52	87.5
286.751	86.5
286.982	86.5
287.213	96.5
287.444	95.5
287.675	103.5
287.906	87.5
288.138	96.5
288.369	104.5
288.6	100.5
288.831	81.5
289.062	79.5
289.293	98.5
289.524	95.5
289.755	98.5
289.986	92.5
290.217	83.5
290.448	98.5
290.679	96.5
290.91	92.5
291.141	87.5
291.371	85.5
291.602	90.5
291.833	94.5
292.064	92.5
292.295	83.5
292.526	95.5
292.757	80.5
292.987	90.5
293.218	90.5
293.449	91.5
293.68	91.5
293.91	101.5
294.141	104.5
294.372	82.5
294.603	99.5
294.833	85.5
295.064	102.5
295.295	106.5
295.525	104.5
295.756	107.5
295.987	130.5
296.217	163.5
296.448	145.5
296.679	87.5
296.909	88.5
297.14	85.5
297.37	87.5
297.601	93.5
297.831	96.5
298.062	104.5
298.292	104.5
298.523	101.5
298.753	95.5
298.984	87.5
299.214	92.5
299.445	104.5
299.675	102.5
299.905	114.5
300.136	104.5
300.366	81.5
300.597	89.5
300.827	86.5
301.057	106.5
301.288	108.5
301.518	114.5
301.748	98.5
301.979	112.5
302.209	102.5
302.439	116.5
302.669	97.5
302.9	99.5
303.13	111.5
303.36	104.5
303.59	129.5
303.82	138.5
304.051	108.5
304.281	115.5
304.511	91.5
304.741	105.5
304.971	85.5
305.201	88.5
305.431	96.5
305.661	106.5
305.891	107.5
306.121	111.5
306.352	99.5
306.582	107.5
306.812	100.5
307.042	116.5
307.272	164.5
307.502	179.5
307.731	149.5
307.961	110.5
308.191	111.5
308.421	96.5
308.651	93.5
308.881	92.5
309.111	92.5
309.341	90.5
309.571	105.5
309.8	94.5
310.03	97.5
310.26	108.5
310.49	99.5
310.72	103.5
310.949	130.5
311.179	112.5
311.409	106.5
311.639	108.5
311.868	109.5
312.098	99.5
312.328	104.5
312.557	121.5
312.787	128.5
313.017	128.5
313.246	111.5
313.476	97.5
313.706	97.5
313.935	110.5
314.165	99.5
314.394	129.5
314.624	110.5
314.853	100.5
315.083	96.5
315.312	105.5
315.542	95.5
315.771	97.5
316.001	96.5
316.23	95.5
316.46	100.5
316.689	90.5
316.919	98.5
317.148	103.5
317.377	102.5
317.607	98.5
317.836	118.5
318.065	88.5
318.295	89.5
318.524	96.5
318.753	108.5
318.983	105.5
319.212	114.5
319.441	113.5
319.67	133.5
319.9	104.5
320.129	101.5
320.358	81.5
320.587	106.5
320.816	105.5
321.046	109.5
321.275	119.5
321.504	110.5
321.733	100.5
321.962	96.5
322.191	109.5
322.42	122.5
322.649	117.5
322.878	125.5
323.108	119.5
323.337	127.5
323.566	165.5
323.795	197.5
324.024	253.5
324.253	552.5
324.482	1127.5
324.71	2372.5
324.939	3151.5
325.168	1119.5
325.397	320.5
325.626	192.5
325.855	145.5
326.084	151.5
326.313	169.5
326.542	192.5
326.77	287.5
326.999	597.5
327.228	1203.5
327.457	2290.5
327.686	1763.5
327.914	556.5
328.143	448.5
328.372	570.5
328.6	328.5
328.829	181.5
329.058	171.5
329.287	186.5
329.515	168.5
329.744	222.5
329.972	389.5
330.201	795.5
330.43	1135.5
330.658	542.5
330.887	267.5
331.115	192.5
331.344	137.5
331.572	120.5
331.801	126.5
332.03	142.5
332.258	114.5
332.486	117.5
332.715	120.5
332.943	123.5
333.172	117.5
333.4	126.5
333.629	153.5
333.857	232.5
334.085	352.5
334.314	728.5
334.542	1421.5
334.771	1370.5
334.999	372.5
335.227	161.5
335.455	119.5
335.684	113.5
335.912	111.5
336.14	110.5
336.369	120.5
336.597	122.5
336.825	109.5
337.053	86.5
337.281	103.5
337.51	98.5
337.738	97.5
337.966	100.5
338.194	115.5
338.422	91.5
338.65	104.5
338.878	98.5
339.106	104.5
339.334	97.5
339.562	95.5
339.79	99.5
340.018	99.5
340.246	107.5
340.474	94.5
340.702	110.5
340.93	113.5
341.158	105.5
341.386	97.5
341.614	101.5
341.842	123.5
342.07	88.5
342.298	107.5
342.526	92.5
342.754	93.5
342.981	100.5
343.209	112.5
343.437	108.5
343.665	113.5
343.893	97.5
344.12	100.5
344.348	94.5
344.576	98.5
344.804	94.5
345.031	104.5
345.259	102.5
345.487	113.5
345.714	103.5
345.942	101.5
346.17	99.5
346.397	85.5
346.625	96.5
346.853	98.5
347.08	98.5
347.308	108.5
347.535	97.5
347.763	113.5
347.99	125.5
348.218	119.5
348.445	120.5
348.673	109.5
348.9	99.5
349.128	101.5
349.355	99.5
349.583	91.5
349.81	105.5
350.037	94.5
350.265	104.5
350.492	103.5
350.72	100.5
350.947	92.5
351.174	122.5
351.402	124.5
351.629	109.5
351.856	115.5
352.083	105.5
352.311	105.5
352.538	139.5
352.765	116.5
352.992	112.5
353.22	121.5
353.447	111.5
353.674	92.5
353.901	102.5
354.128	92.5
354.355	101.5
354.583	124.5
354.81	95.5
355.037	84.5
355.264	101.5
355.491	88.5
355.718	95.5
355.945	93.5
356.172	99.5
356.399	93.5
356.626	97.5
356.853	94.5
357.08	106.5
357.307	111.5
357.534	93.5
357.761	96.5
357.988	99.5
358.215	101.5
358.441	107.5
358.668	111.5
358.895	92.5
359.122	93.5
359.349	97.5
359.576	104.5
359.802	127.5
360.029	150.5
360.256	151.5
360.483	119.5
360.709	73.5
360.936	96.5
361.163	109.5
361.39	115.5
361.616	104.5
361.843	115.5
362.07	111.5
362.296	118.5
362.523	106.5
362.749	114.5
362.976	93.5
363.203	106.5
363.429	93.5
363.656	109.5
363.882	95.5
364.109	95.5
364.335	112.5
364.562	92.5
364.788	99.5
365.015	99.5
365.241	111.5
365.468	113.5
365.694	115.5
365.92	116.5
366.147	95.5
366.373	89.5
366.599	92.5
366.826	106.5
367.052	109.5
367.278	105.5
367.505	100.5
367.731	91.5
367.957	112.5
368.184	98.5
368.41	119.5
368.636	135.5
368.862	115.5
369.089	121.5
369.315	95.5
369.541	95.5
369.767	102.5
369.993	99.5
370.219	101.5
370.445	97.5
370.672	97.5
370.898	97.5
371.124	101.5
371.35	91.5
371.576	92.5
371.802	98.5
372.028	92.5
372.254	87.5
372.48	97.5
372.706	87.5
372.932	89.5
373.158	97.5
373.384	92.5
373.61	103.5
373.835	83.5
374.061	94.5
374.287	85.5
374.513	87.5
374.739	102.5
374.965	88.5
375.191	93.5
375.416	96.5
375.642	92.5
375.868	97.5
376.094	90.5
376.319	88.5
376.545	97.5
376.771	102.5
376.997	105.5
377.222	101.5
377.448	91.5
377.674	88.5
377.899	104.5
378.125	94.5
378.35	67.5
378.576	92.5
378.802	99.5
379.027	89.5
379.253	101.5
379.478	91.5
379.704	77.5
379.929	93.5
380.155	115.5
380.38	91.5
380.606	97.5
380.831	95.5
381.057	112.5
381.282	103.5
381.507	99.5
381.733	101.5
381.958	104.5
382.184	98.5
382.409	108.5
382.634	115.5
382.86	107.5
383.085	104.5
383.31	106.5
383.535	109.5
383.761	91.5
383.986	102.5
384.211	111.5
384.436	96.5
384.662	100.5
384.887	96.5
385.112	118.5
385.337	112.5
385.562	108.5
385.787	109.5
386.013	113.5
386.238	126.5
386.463	105.5
386.688	107.5
386.913	114.5
387.138	115.5
387.363	112.5
387.588	100.5
387.813	107.5
388.038	100.5
388.263	116.5
388.488	111.5
388.713	110.5
388.938	117.5
389.163	109.5
389.387	97.5
389.612	109.5
389.837	97.5
390.062	109.5
390.287	104.5
390.512	95.5
390.736	88.5
390.961	96.5
391.186	86.5
391.411	104.5
391.636	96.5
391.86	99.5
392.085	86.5
392.31	94.5
392.534	83.5
392.759	83.5
392.984	105.5
393.208	99.5
393.433	97.5
393.658	87.5
393.882	88.5
394.107	96.5
394.331	94.5
394.556	79.5
394.78	81.5
395.005	78.5
395.229	76.5
395.454	98.5
395.678	98.5
395.903	84.5
396.127	91.5
396.352	92.5
396.576	84.5
396.801	85.5
397.025	84.5
397.249	85.5
397.474	87.5
397.698	94.5
397.922	93.5
398.147	99.5
398.371	79.5
398.595	101.5
398.82	83.5
399.044	81.5
399.268	96.5
399.492	83.5
399.717	108.5
399.941	106.5
400.165	100.5
400.389	102.5
400.613	98.5
400.837	69.5
401.062	95.5
401.286	102.5
401.51	92.5
401.734	93.5
401.958	116.5
402.182	141.5
402.406	201.5
402.63	165.5
402.854	112.5
403.078	87.5
403.302	96.5
403.526	99.5
403.75	99.5
403.974	89.5
404.198	94.5
404.422	97.5
404.645	100.5
404.869	80.5
405.093	127.5
405.317	136.5
405.541	135.5
405.765	131.5
405.988	162.5
406.212	236.5
406.436	308.5
406.66	197.5
406.883	125.5
407.107	108.5
407.331	117.5
407.555	102.5
407.778	98.5
408.002	113.5
408.226	91.5
408.449	87.5
408.673	88.5
408.896	100.5
409.12	113.5
409.344	94.5
409.567	87.5
409.791	103.5
410.014	107.5
410.238	98.5
410.461	98.5
410.685	103.5
410.908	97.5
411.132	115.5
411.355	87.5
411.578	93.5
411.802	88.5
412.025	100.5
412.249	107.5
412.472	119.5
412.695	139.5
412.919	97.5
413.142	105.5
413.365	96.5
413.589	102.5
413.812	99.5
414.035	76.5
414.258	100.5
414.482	108.5
414.705	100.5
414.928	102.5
415.151	96.5
415.374	85.5
415.597	108.5
415.821	100.5
416.044	97.5
416.267	91.5
416.49	79.5
416.713	84.5
416.936	92.5
417.159	106.5
417.382	107.5
417.605	113.5
417.828	110.5
418.051	88.5
418.274	83.5
418.497	100.5
418.72	104.5
418.943	92.5
419.166	93.5
419.389	91.5
419.611	92.5
419.834	102.5
420.057	89.5
420.28	106.5
420.503	95.5
420.726	105.5
420.948	94.5
421.171	105.5
421.394	106.5
421.617	95.5
421.839	94.5
422.062	86.5
422.285	99.5
422.507	111.5
422.73	122.5
422.953	109.5
423.175	101.5
423.398	91.5
423.621	87.5
423.843	77.5
424.066	93.5
424.288	87.5
424.511	96.5
424.733	110.5
424.956	121.5
425.178	109.5
425.401	111.5
425.623	117.5
425.846	109.5
426.068	86.5
426.291	92.5
426.513	103.5
426.735	109.5
426.958	101.5
427.18	128.5
427.402	176.5
427.625	272.5
427.847	244.5
428.069	210.5
428.292	139.5
428.514	92.5
428.736	97.5
428.958	97.5
429.181	96.5
429.403	86.5
429.625	79.5
429.847	103.5
430.069	104.5
430.292	110.5
430.514	90.5
430.736	100.5
430.958	100.5
431.18	98.5
431.402	82.5
431.624	92.5
431.846	91.5
432.068	94.5
432.29	94.5
432.512	91.5
432.734	97.5
432.956	96.5
433.178	109.5
433.4	98.5
433.622	93.5
433.844	90.5
434.066	91.5
434.287	88.5
434.509	104.5
434.731	111.5
434.953	98.5
435.175	103.5
435.397	85.5
435.618	93.5
435.84	122.5
436.062	135.5
436.284	137.5
436.505	119.5
436.727	113.5
436.949	87.5
437.17	97.5
437.392	106.5
437.614	104.5
437.835	131.5
438.057	141.5
438.278	133.5
438.5	122.5
438.721	126.5
438.943	120.5
439.165	91.5
439.386	76.5
439.608	89.5
439.829	113.5
440.05	145.5
440.272	199.5
440.493	114.5
440.715	99.5
440.936	88.5
441.158	89.5
441.379	92.5
441.6	97.5
441.822	109.5
442.043	109.5
442.264	120.5
442.486	125.5
442.707	109.5
442.928	125.5
443.149	162.5
443.371	195.5
443.592	143.5
443.813	143.5
444.034	130.5
444.255	104.5
444.476	109.5
444.698	91.5
444.919	82.5
445.14	141.5
445.361	125.5
445.582	151.5
445.803	185.5
446.024	159.5
446.245	185.5
446.466	127.5
446.687	102.5
446.908	90.5
447.129	93.5
447.35	97.5
447.571	103.5
447.792	99.5
448.013	113.5
448.234	112.5
448.455	130.5
448.675	129.5
448.896	136.5
449.117	122.5
449.338	120.5
449.559	140.5
449.779	167.5
450	108.5
450.221	87.5
450.442	93.5
450.662	118.5
450.883	127.5
451.104	148.5
451.324	98.5
451.545	90.5
451.766	95.5
451.986	92.5
452.207	100.5
452.428	99.5
452.648	113.5
452.869	132.5
453.089	138.5
453.31	144.5
453.53	109.5
453.751	96.5
453.971	110.5
454.192	133.5
454.412	113.5
454.633	103.5
454.853	96.5
455.073	98.5
455.294	110.5
455.514	104.5
455.734	95.5
455.955	92.5
456.175	93.5
456.395	98.5
456.616	92.5
456.836	94.5
457.056	73.5
457.276	89.5
457.497	79.5
457.717	92.5
457.937	91.5
458.157	94.5
458.377	85.5
458.598	131.5
458.818	213.5
459.038	245.5
459.258	124.5
459.478	103.5
459.698	88.5
459.918	94.5
460.138	93.5
460.358	79.5
460.578	89.5
460.798	111.5
461.018	85.5
461.238	87.5
461.458	87.5
461.678	92.5
461.898	102.5
462.118	95.5
462.338	99.5
462.558	98.5
462.777	92.5
462.997	97.5
463.217	119.5
463.437	90.5
463.657	91.5
463.876	99.5
464.096	94.5
464.316	104.5
464.536	96.5
464.755	102.5
464.975	101.5
465.195	227.5
465.414	228.5
465.634	100.5
465.854	100.5
466.073	96.5
466.293	90.5
466.512	96.5
466.732	95.5
466.951	99.5
467.171	98.5
467.391	110.5
467.61	135.5
467.829	181.5
468.049	462.5
468.268	659.5
468.488	191.5
468.707	114.5
468.927	115.5
469.146	69.5
469.365	98.5
469.585	100.5
469.804	116.5
470.023	124.5
470.243	113.5
470.462	121.5
470.681	143.5
470.901	109.5
471.12	102.5
471.339	109.5
471.558	113.5
471.777	136.5
471.997	263.5
472.216	889.5
472.435	2005.5
472.654	488.5
472.873	136.5
473.092	95.5
473.311	102.5
473.53	98.5
473.749	103.5
473.968	104.5
474.187	131.5
474.406	116.5
474.625	89.5
474.844	97.5
475.063	87.5
475.282	92.5
475.501	101.5
475.72	100.5
475.939	94.5
476.158	84.5
476.377	95.5
476.596	110.5
476.814	99.5
477.033	110.5
477.252	99.5
477.471	94.5
477.69	105.5
477.908	108.5
478.127	83.5
478.346	94.5
478.564	99.5
478.783	104.5
479.002	97.5
479.22	113.5
479.439	117.5
479.658	121.5
479.876	133.5
480.095	125.5
480.313	135.5
480.532	156.5
480.751	241.5
480.969	854.5
481.188	3545.5
481.406	2035.5
481.624	313.5
481.843	135.5
482.061	116.5
482.28	101.5
482.498	94.5
482.717	84.5
482.935	102.5
483.153	100.5
483.372	109.5
483.59	87.5
483.808	100.5
484.027	87.5
484.245	92.5
484.463	89.5
484.681	108.5
484.9	107.5
485.118	114.5
485.336	112.5
485.554	92.5
485.772	103.5
485.99	100.5
486.209	98.5
486.427	127.5
486.645	141.5
486.863	140.5
487.081	117.5
487.299	101.5
487.517	95.5
487.735	84.5
487.953	80.5
488.171	109.5
488.389	103.5
488.607	121.5
488.825	107.5
489.043	93.5
489.261	91.5
489.479	89.5
489.696	94.5
489.914	93.5
490.132	90.5
490.35	99.5
490.568	97.5
490.786	92.5
491.003	83.5
491.221	97.5
491.439	104.5
491.657	89.5
491.874	94.5
492.092	96.5
492.31	101.5
492.527	112.5
492.745	108.5
492.963	97.5
493.18	109.5
493.398	91.5
493.615	104.5
493.833	84.5
494.05	103.5
494.268	97.5
494.485	97.5
494.703	95.5
494.92	94.5
495.138	89.5
495.355	99.5
495.573	92.5
495.79	83.5
496.008	82.5
496.225	95.5
496.442	86.5
496.66	95.5
496.877	95.5
497.094	102.5
497.312	100.5
497.529	100.5
497.746	89.5
497.963	92.5
498.181	83.5
498.398	117.5
498.615	123.5
498.832	114.5
499.049	92.5
499.267	108.5
499.484	97.5
499.701	104.5
499.918	81.5
500.135	103.5
500.352	102.5
500.569	96.5
500.786	111.5
501.003	100.5
501.22	85.5
501.437	85.5
501.654	93.5
501.871	103.5
502.088	104.5
502.305	75.5
502.522	102.5
502.739	102.5
502.956	114.5
503.172	89.5
503.389	128.5
503.606	124.5
503.823	99.5
504.04	96.5
504.256	97.5
504.473	84.5
504.69	97.5
504.907	103.5
505.123	87.5
505.34	84.5
505.557	93.5
505.773	97.5
505.99	108.5
506.207	96.5
506.423	95.5
506.64	87.5
506.856	99.5
507.073	97.5
507.289	89.5
507.506	104.5
507.722	144.5
507.939	121.5
508.155	115.5
508.372	100.5
508.588	98.5
508.805	84.5
509.021	96.5
509.238	121.5
509.454	108.5
509.67	108.5
509.887	120.5
510.103	142.5
510.319	257.5
510.536	941.5
510.752	3245.5
510.968	841.5
511.184	183.5
511.401	121.5
511.617	80.5
511.833	110.5
512.049	101.5
512.265	97.5
512.481	99.5
512.698	100.5
512.914	101.5
513.13	111.5
513.346	96.5
513.562	94.5
513.778	115.5
513.994	104.5
514.21	98.5
514.426	134.5
514.642	177.5
514.858	155.5
515.074	228.5
515.29	691.5
515.506	2511.5
515.721	873.5
515.937	209.5
516.153	131.5
516.369	113.5
516.585	90.5
516.801	111.5
517.016	118.5
517.232	91.5
517.448	96.5
517.664	91.5
517.879	96.5
518.095	101.5
518.311	107.5
518.527	107.5
518.742	110.5
518.958	98.5
519.173	98.5
519.389	95.5
519.605	114.5
519.82	105.5
520.036	113.5
520.251	145.5
520.467	131.5
520.682	126.5
520.898	120.5
521.113	130.5
521.329	181.5
521.544	309.5
521.76	910.5
521.975	4267.5
522.19	2469.5
522.406	486.5
522.621	176.5
522.836	106.5
523.052	116.5
523.267	102.5
523.482	110.5
523.698	110.5
523.913	141.5
524.128	114.5
524.343	112.5
524.559	94.5
524.774	96.5
524.989	113.5
525.204	112.5
525.419	97.5
525.634	96.5
525.849	71.5
526.064	95.5
526.28	96.5
526.495	98.5
526.71	113.5
526.925	93.5
527.14	99.5
527.355	90.5
527.57	93.5
527.785	94.5
527.999	90.5
528.214	103.5
528.429	91.5
528.644	110.5
528.859	103.5
529.074	104.5
529.289	139.5
529.503	269.5
529.718	125.5
529.933	84.5
530.148	88.5
530.363	93.5
