Data from Circ_1992_H10_HRD10591_00015.txt Node
Date: Wed Jan 03 11:47:47 EST 2024
User: Yrep
Spectrometer: HR+D1059
Trigger mode: 1
Integration Time (sec): 1.000000E-1
Scans to average: 1
Electric dark correction enabled: true
Nonlinearity correction enabled: false
Boxcar width: 0
XAxis mode: Wavelengths
Number of Pixels in Spectrum: 2048
>>>>>Begin Spectral Data<<<<<
223.165	-15.5
223.4	-15.5
223.635	-15.5
223.869	-12.5
224.104	-26.5
224.338	-24.5
224.573	-26.5
224.808	-14.5
225.042	-3.5
225.277	-5.5
225.511	2.5
225.746	9.5
225.98	7.5
226.215	18.5
226.449	10.5
226.683	19.5
226.918	29.5
227.152	31.5
227.387	35.5
227.621	39.5
227.856	44.5
228.09	40.5
228.324	55.5
228.559	65.5
228.793	174.5
229.027	461.5
229.262	510.5
229.496	604.5
229.73	815.5
229.964	839.5
230.199	556.5
230.433	470.5
230.667	485.5
230.901	474.5
231.136	429.5
231.37	462.5
231.604	444.5
231.838	468.5
232.072	470.5
232.306	464.5
232.541	478.5
232.775	488.5
233.009	495.5
233.243	481.5
233.477	491.5
233.711	482.5
233.945	517.5
234.179	516.5
234.413	511.5
234.647	534.5
234.881	523.5
235.115	546.5
235.349	542.5
235.583	572.5
235.817	613.5
236.051	638.5
236.285	603.5
236.519	643.5
236.753	718.5
236.987	930.5
237.221	1370.5
237.455	1509.5
237.689	889.5
237.922	744.5
238.156	732.5
238.39	682.5
238.624	670.5
238.858	674.5
239.091	659.5
239.325	659.5
239.559	693.5
239.793	717.5
240.027	790.5
240.26	938.5
240.494	988.5
240.728	947.5
240.961	912.5
241.195	825.5
241.429	826.5
241.662	806.5
241.896	803.5
242.13	791.5
242.363	825.5
242.597	830.5
242.83	836.5
243.064	884.5
243.298	871.5
243.531	894.5
243.765	907.5
243.998	912.5
244.232	934.5
244.465	940.5
244.699	957.5
244.932	923.5
245.166	941.5
245.399	954.5
245.633	938.5
245.866	956.5
246.099	966.5
246.333	967.5
246.566	1006.5
246.8	1018.5
247.033	1073.5
247.266	1110.5
247.5	1132.5
247.733	1193.5
247.966	1198.5
248.2	1199.5
248.433	1217.5
248.666	1280.5
248.899	1381.5
249.133	1516.5
249.366	1552.5
249.599	1469.5
249.832	1359.5
250.066	1570.5
250.299	2022.5
250.532	2545.5
250.765	2494.5
250.998	2167.5
251.231	1872.5
251.465	1596.5
251.698	1588.5
251.931	1506.5
252.164	1465.5
252.397	1460.5
252.63	1513.5
252.863	1615.5
253.096	1740.5
253.329	1775.5
253.562	1652.5
253.795	1634.5
254.028	1586.5
254.261	1714.5
254.494	1887.5
254.727	2271.5
254.96	2295.5
255.193	2134.5
255.426	2077.5
255.659	2407.5
255.892	3354.5
256.124	4399.5
256.357	3592.5
256.59	2638.5
256.823	2186.5
257.056	1922.5
257.289	1886.5
257.521	1807.5
257.754	1767.5
257.987	1712.5
258.22	1731.5
258.452	1677.5
258.685	1643.5
258.918	1638.5
259.151	1720.5
259.383	1727.5
259.616	1747.5
259.849	1829.5
260.081	2014.5
260.314	2144.5
260.547	2017.5
260.779	1837.5
261.012	1850.5
261.244	1760.5
261.477	1764.5
261.71	1758.5
261.942	1824.5
262.175	1863.5
262.407	1749.5
262.64	1694.5
262.872	1706.5
263.105	1698.5
263.337	1742.5
263.57	1718.5
263.802	1694.5
264.035	1774.5
264.267	1722.5
264.499	1695.5
264.732	1740.5
264.964	1733.5
265.197	1779.5
265.429	1791.5
265.661	1771.5
265.894	1839.5
266.126	1811.5
266.358	1840.5
266.591	1848.5
266.823	1902.5
267.055	1941.5
267.287	1908.5
267.52	1902.5
267.752	1887.5
267.984	1904.5
268.216	1902.5
268.448	1994.5
268.681	2027.5
268.913	2191.5
269.145	2328.5
269.377	2371.5
269.609	2246.5
269.841	2222.5
270.073	2352.5
270.306	2648.5
270.538	2808.5
270.77	2615.5
271.002	2444.5
271.234	2460.5
271.466	2614.5
271.698	2773.5
271.93	2684.5
272.162	2685.5
272.394	2689.5
272.626	2503.5
272.858	2355.5
273.09	2300.5
273.322	2354.5
273.553	2262.5
273.785	2228.5
274.017	2291.5
274.249	2306.5
274.481	2356.5
274.713	2336.5
274.945	2398.5
275.176	2396.5
275.408	2432.5
275.64	2424.5
275.872	2467.5
276.104	2452.5
276.335	2475.5
276.567	2579.5
276.799	2791.5
277.031	3073.5
277.262	3205.5
277.494	3053.5
277.726	2808.5
277.957	2625.5
278.189	2638.5
278.421	2557.5
278.652	2572.5
278.884	2530.5
279.115	2516.5
279.347	2564.5
279.579	2576.5
279.81	2604.5
280.042	2719.5
280.273	2880.5
280.505	2848.5
280.736	2705.5
280.968	2639.5
281.199	2601.5
281.431	2646.5
281.662	2593.5
281.894	2600.5
282.125	2615.5
282.356	2801.5
282.588	2981.5
282.819	2790.5
283.051	2652.5
283.282	2658.5
283.513	2649.5
283.745	2701.5
283.976	2706.5
284.207	2707.5
284.439	2718.5
284.67	2708.5
284.901	2677.5
285.132	2689.5
285.364	2735.5
285.595	2712.5
285.826	2739.5
286.057	2756.5
286.288	2748.5
286.52	2770.5
286.751	2766.5
286.982	2792.5
287.213	2831.5
287.444	2792.5
287.675	2856.5
287.906	3005.5
288.138	3014.5
288.369	3021.5
288.6	3027.5
288.831	2891.5
289.062	2918.5
289.293	2889.5
289.524	2901.5
289.755	2879.5
289.986	2869.5
290.217	2879.5
290.448	2904.5
290.679	2878.5
290.91	2884.5
291.141	2846.5
291.371	2909.5
291.602	2896.5
291.833	2828.5
292.064	2912.5
292.295	2850.5
292.526	2926.5
292.757	2880.5
292.987	2844.5
293.218	2823.5
293.449	2926.5
293.68	2856.5
293.91	2920.5
294.141	2862.5
294.372	2884.5
294.603	2904.5
294.833	2978.5
295.064	2910.5
295.295	2899.5
295.525	2940.5
295.756	3020.5
295.987	3080.5
296.217	3183.5
296.448	3116.5
296.679	3002.5
296.909	2943.5
297.14	3028.5
297.37	3127.5
297.601	3054.5
297.831	3070.5
298.062	3093.5
298.292	3130.5
298.523	3174.5
298.753	3197.5
298.984	3092.5
299.214	3120.5
299.445	3102.5
299.675	3156.5
299.905	3252.5
300.136	3160.5
300.366	3202.5
300.597	3230.5
300.827	3357.5
301.057	3386.5
301.288	3440.5
301.518	3410.5
301.748	3415.5
301.979	3478.5
302.209	3481.5
302.439	3453.5
302.669	3395.5
302.9	3380.5
303.13	3369.5
303.36	3403.5
303.59	3504.5
303.82	3507.5
304.051	3528.5
304.281	3400.5
304.511	3331.5
304.741	3324.5
304.971	3366.5
305.201	3354.5
305.431	3327.5
305.661	3350.5
305.891	3266.5
306.121	3328.5
306.352	3390.5
306.582	3368.5
306.812	3385.5
307.042	3413.5
307.272	3492.5
307.502	3525.5
307.731	3448.5
307.961	3389.5
308.191	3366.5
308.421	3410.5
308.651	3371.5
308.881	3399.5
309.111	3444.5
309.341	3442.5
309.571	3521.5
309.8	3630.5
310.03	3675.5
310.26	3670.5
310.49	3631.5
310.72	3792.5
310.949	3870.5
311.179	3879.5
311.409	3734.5
311.639	3706.5
311.868	3717.5
312.098	3768.5
312.328	3826.5
312.557	3930.5
312.787	4037.5
313.017	3877.5
313.246	3853.5
313.476	3768.5
313.706	3827.5
313.935	3906.5
314.165	3983.5
314.394	4042.5
314.624	3974.5
314.853	3907.5
315.083	3864.5
315.312	3782.5
315.542	3762.5
315.771	3745.5
316.001	3714.5
316.23	3733.5
316.46	3721.5
316.689	3750.5
316.919	3817.5
317.148	3912.5
317.377	3807.5
317.607	3830.5
317.836	3735.5
318.065	3773.5
318.295	3721.5
318.524	3758.5
318.753	3749.5
318.983	3711.5
319.212	3770.5
319.441	3856.5
319.67	3876.5
319.9	3758.5
320.129	3778.5
320.358	3813.5
320.587	3819.5
320.816	3925.5
321.046	3913.5
321.275	3897.5
321.504	3919.5
321.733	3940.5
321.962	4040.5
322.191	4121.5
322.42	4254.5
322.649	4274.5
322.878	4369.5
323.108	4507.5
323.337	4701.5
323.566	4858.5
323.795	5173.5
324.024	5843.5
324.253	7600.5
324.482	11444.5
324.71	15624.5
324.939	15624.5
325.168	13326.5
325.397	6572.5
325.626	5396.5
325.855	5041.5
326.084	4987.5
326.313	5032.5
326.542	5259.5
326.77	5893.5
326.999	7602.5
327.228	11006.5
327.457	15045.5
327.686	14449.5
327.914	8548.5
328.143	7858.5
328.372	8094.5
328.6	6940.5
328.829	6219.5
329.058	6320.5
329.287	6518.5
329.515	6344.5
329.744	6880.5
329.972	8353.5
330.201	10616.5
330.43	11710.5
330.658	9024.5
330.887	7582.5
331.115	6503.5
331.344	5865.5
331.572	5575.5
331.801	5750.5
332.03	5679.5
332.258	5595.5
332.486	5642.5
332.715	5772.5
332.943	5994.5
333.172	6232.5
333.4	6659.5
333.629	7133.5
333.857	7980.5
334.085	9562.5
334.314	12107.5
334.542	14341.5
334.771	13543.5
334.999	8682.5
335.227	6983.5
335.455	6346.5
335.684	5912.5
335.912	5749.5
336.14	5452.5
336.369	5435.5
336.597	5459.5
336.825	5254.5
337.053	5223.5
337.281	5015.5
337.51	5015.5
337.738	4953.5
337.966	4914.5
338.194	4853.5
338.422	4867.5
338.65	4670.5
338.878	4679.5
339.106	4679.5
339.334	4651.5
339.562	4548.5
339.79	4519.5
340.018	4576.5
340.246	4575.5
340.474	4493.5
340.702	4529.5
340.93	4452.5
341.158	4544.5
341.386	4540.5
341.614	4507.5
341.842	4463.5
342.07	4396.5
342.298	4368.5
342.526	4376.5
342.754	4372.5
342.981	4405.5
343.209	4435.5
343.437	4637.5
343.665	4981.5
343.893	5192.5
344.12	5206.5
344.348	5104.5
344.576	4787.5
344.804	4745.5
345.031	4699.5
345.259	4661.5
345.487	4528.5
345.714	4376.5
345.942	4339.5
346.17	4292.5
346.397	4297.5
346.625	4230.5
346.853	4223.5
347.08	4205.5
347.308	4226.5
347.535	4370.5
347.763	4407.5
347.99	4338.5
348.218	4336.5
348.445	4392.5
348.673	4304.5
348.9	4199.5
349.128	4208.5
349.355	4102.5
349.583	4103.5
349.81	4119.5
350.037	4088.5
350.265	4126.5
350.492	4107.5
350.72	4102.5
350.947	4232.5
351.174	4312.5
351.402	4311.5
351.629	4234.5
351.856	4226.5
352.083	4359.5
352.311	4330.5
352.538	4367.5
352.765	4323.5
352.992	4214.5
353.22	4207.5
353.447	4142.5
353.674	4052.5
353.901	4024.5
354.128	4053.5
354.355	3991.5
354.583	4012.5
354.81	4027.5
355.037	3986.5
355.264	3973.5
355.491	3945.5
355.718	4006.5
355.945	3974.5
356.172	3983.5
356.399	3958.5
356.626	3972.5
356.853	4005.5
357.08	3902.5
357.307	3990.5
357.534	3971.5
357.761	4024.5
357.988	3971.5
358.215	3994.5
358.441	4009.5
358.668	4071.5
358.895	4095.5
359.122	4073.5
359.349	4189.5
359.576	4325.5
359.802	4508.5
360.029	4687.5
360.256	4662.5
360.483	4477.5
360.709	4230.5
360.936	4190.5
361.163	4279.5
361.39	4262.5
361.616	4286.5
361.843	4187.5
362.07	4264.5
362.296	4306.5
362.523	4211.5
362.749	4272.5
362.976	4126.5
363.203	4101.5
363.429	4060.5
363.656	4026.5
363.882	4036.5
364.109	4097.5
364.335	4134.5
364.562	4050.5
364.788	4108.5
365.015	4074.5
365.241	4131.5
365.468	4133.5
365.694	4198.5
365.92	4119.5
366.147	4119.5
366.373	4095.5
366.599	4114.5
366.826	4010.5
367.052	4079.5
367.278	4120.5
367.505	4015.5
367.731	4139.5
367.957	4137.5
368.184	4155.5
368.41	4190.5
368.636	4246.5
368.862	4338.5
369.089	4191.5
369.315	4226.5
369.541	4222.5
369.767	4196.5
369.993	4220.5
370.219	4205.5
370.445	4179.5
370.672	4254.5
370.898	4287.5
371.124	4302.5
371.35	4347.5
371.576	4322.5
371.802	4296.5
372.028	4269.5
372.254	4334.5
372.48	4338.5
372.706	4430.5
372.932	4418.5
373.158	4393.5
373.384	4375.5
373.61	4336.5
373.835	4325.5
374.061	4377.5
374.287	4460.5
374.513	4521.5
374.739	4647.5
374.965	4748.5
375.191	4740.5
375.416	4663.5
375.642	4533.5
375.868	4478.5
376.094	4429.5
376.319	4436.5
376.545	4424.5
376.771	4322.5
376.997	4336.5
377.222	4356.5
377.448	4274.5
377.674	4285.5
377.899	4274.5
378.125	4319.5
378.35	4262.5
378.576	4266.5
378.802	4230.5
379.027	4238.5
379.253	4265.5
379.478	4217.5
379.704	4242.5
379.929	4352.5
380.155	4307.5
380.38	4276.5
380.606	4365.5
380.831	4271.5
381.057	4364.5
381.282	4300.5
381.507	4405.5
381.733	4318.5
381.958	4462.5
382.184	4494.5
382.409	4484.5
382.634	4547.5
382.86	4605.5
383.085	4626.5
383.31	4694.5
383.535	4734.5
383.761	4827.5
383.986	4810.5
384.211	4950.5
384.436	5041.5
384.662	5076.5
384.887	5138.5
385.112	5176.5
385.337	5222.5
385.562	5187.5
385.787	5183.5
386.013	5314.5
386.238	5410.5
386.463	5276.5
386.688	5359.5
386.913	5286.5
387.138	5213.5
387.363	5152.5
387.588	5100.5
387.813	5202.5
388.038	5140.5
388.263	5160.5
388.488	5203.5
388.713	5130.5
388.938	5127.5
389.163	5122.5
389.387	5077.5
389.612	4975.5
389.837	5089.5
390.062	5074.5
390.287	5096.5
390.512	5085.5
390.736	5106.5
390.961	5319.5
391.186	5270.5
391.411	5405.5
391.636	5618.5
391.86	5743.5
392.085	5774.5
392.31	5618.5
392.534	5514.5
392.759	5418.5
392.984	5332.5
393.208	5352.5
393.433	5359.5
393.658	5302.5
393.882	5295.5
394.107	5403.5
394.331	5388.5
394.556	5382.5
394.78	5401.5
395.005	5440.5
395.229	5509.5
395.454	5741.5
395.678	5807.5
395.903	5835.5
396.127	5874.5
396.352	5711.5
396.576	5442.5
396.801	5404.5
397.025	5541.5
397.249	5622.5
397.474	5727.5
397.698	5813.5
397.922	5936.5
398.147	6029.5
398.371	6086.5
398.595	6225.5
398.82	6527.5
399.044	7086.5
399.268	7797.5
399.492	8751.5
399.717	9441.5
399.941	9158.5
400.165	8690.5
400.389	7958.5
400.613	7238.5
400.837	6749.5
401.062	6676.5
401.286	6467.5
401.51	6446.5
401.734	6510.5
401.958	6595.5
402.182	6706.5
402.406	6794.5
402.63	6896.5
402.854	6991.5
403.078	7054.5
403.302	7188.5
403.526	7301.5
403.75	7326.5
403.974	7418.5
404.198	7478.5
404.422	7598.5
404.645	7776.5
404.869	7964.5
405.093	8514.5
405.317	9077.5
405.541	8983.5
405.765	8092.5
405.988	7589.5
406.212	7667.5
406.436	7696.5
406.66	7832.5
406.883	7790.5
407.107	8316.5
407.331	8842.5
407.555	9309.5
407.778	9022.5
408.002	8225.5
408.226	7855.5
408.449	7742.5
408.673	7618.5
408.896	7819.5
409.12	7992.5
409.344	7533.5
409.567	7151.5
409.791	7165.5
410.014	7016.5
410.238	7018.5
410.461	7105.5
410.685	7096.5
410.908	7105.5
411.132	7407.5
411.355	7414.5
411.578	7007.5
411.802	6970.5
412.025	7114.5
412.249	7640.5
412.472	8195.5
412.695	8914.5
412.919	8136.5
413.142	7566.5
413.365	7197.5
413.589	7041.5
413.812	6788.5
414.035	6523.5
414.258	6636.5
414.482	6543.5
414.705	6603.5
414.928	6544.5
415.151	6522.5
415.374	6446.5
415.597	6445.5
415.821	6394.5
416.044	6448.5
416.267	6430.5
416.49	6339.5
416.713	6260.5
416.936	6391.5
417.159	6387.5
417.382	6560.5
417.605	6762.5
417.828	6860.5
418.051	6709.5
418.274	6577.5
418.497	6545.5
418.72	6638.5
418.943	6567.5
419.166	7038.5
419.389	7337.5
419.611	7342.5
419.834	7324.5
420.057	7512.5
420.28	7718.5
420.503	7497.5
420.726	7189.5
420.948	7122.5
421.171	7463.5
421.394	7178.5
421.617	6626.5
421.839	6660.5
422.062	6675.5
422.285	6799.5
422.507	7494.5
422.73	8068.5
422.953	7325.5
423.175	7034.5
423.398	6968.5
423.621	6955.5
423.843	7207.5
424.066	7116.5
424.288	6979.5
424.511	7173.5
424.733	7758.5
424.956	8198.5
425.178	7715.5
425.401	7820.5
425.623	7690.5
425.846	6759.5
426.068	6576.5
426.291	6573.5
426.513	6589.5
426.735	6682.5
426.958	7132.5
427.18	8020.5
427.402	9274.5
427.625	9564.5
427.847	8778.5
428.069	8579.5
428.292	7019.5
428.514	6269.5
428.736	6064.5
428.958	6031.5
429.181	5858.5
429.403	5791.5
429.625	6075.5
429.847	6286.5
430.069	6911.5
430.292	6378.5
430.514	5893.5
430.736	5877.5
430.958	5701.5
431.18	5644.5
431.402	5651.5
431.624	5602.5
431.846	5710.5
432.068	5645.5
432.29	5777.5
432.512	5713.5
432.734	5838.5
432.956	5731.5
433.178	5790.5
433.4	5788.5
433.622	5714.5
433.844	5759.5
434.066	5788.5
434.287	5809.5
434.509	6075.5
434.731	6278.5
434.953	6408.5
435.175	6537.5
435.397	6638.5
435.618	6528.5
435.84	7019.5
436.062	7933.5
436.284	7760.5
436.505	6492.5
436.727	6228.5
436.949	5910.5
437.17	5745.5
437.392	5800.5
437.614	5874.5
437.835	6340.5
438.057	7403.5
438.278	8041.5
438.5	7764.5
438.721	8757.5
438.943	7505.5
439.165	6254.5
439.386	6234.5
439.608	6196.5
439.829	6334.5
440.05	6775.5
440.272	7143.5
440.493	6390.5
440.715	6098.5
440.936	6038.5
441.158	6064.5
441.379	6160.5
441.6	6542.5
441.822	6769.5
442.043	7236.5
442.264	8044.5
442.486	7649.5
442.707	6777.5
442.928	6706.5
443.149	6914.5
443.371	7202.5
443.592	7644.5
443.813	8697.5
444.034	8564.5
444.255	7397.5
444.476	7188.5
444.698	7451.5
444.919	7429.5
445.14	7251.5
445.361	7173.5
445.582	7362.5
445.803	8231.5
446.024	8893.5
446.245	8454.5
446.466	7423.5
446.687	6314.5
446.908	6012.5
447.129	5780.5
447.35	5660.5
447.571	5548.5
447.792	5508.5
448.013	5638.5
448.234	5840.5
448.455	6470.5
448.675	7815.5
448.896	8231.5
449.117	6666.5
449.338	6950.5
449.559	8332.5
449.779	8476.5
450	6342.5
450.221	5748.5
450.442	5462.5
450.662	5490.5
450.883	5505.5
451.104	5638.5
451.324	5470.5
451.545	5268.5
451.766	5122.5
451.986	5074.5
452.207	5104.5
452.428	5070.5
452.648	5093.5
452.869	5096.5
453.089	5109.5
453.31	5235.5
453.53	5067.5
453.751	4956.5
453.971	5015.5
454.192	5203.5
454.412	5020.5
454.633	4888.5
454.853	4869.5
455.073	4918.5
455.294	5341.5
455.514	5944.5
455.734	5386.5
455.955	4796.5
456.175	4719.5
456.395	4669.5
456.616	4624.5
456.836	4626.5
457.056	4617.5
457.276	4629.5
457.497	4749.5
457.717	4719.5
457.937	4849.5
458.157	4914.5
458.377	4970.5
458.598	5332.5
458.818	6096.5
459.038	6867.5
459.258	6757.5
459.478	6002.5
459.698	5828.5
459.918	5927.5
460.138	6095.5
460.358	6218.5
460.578	6260.5
460.798	6336.5
461.018	6363.5
461.238	6239.5
461.458	6128.5
461.678	6159.5
461.898	6306.5
462.118	6355.5
462.338	6608.5
462.558	6819.5
462.777	7078.5
462.997	7578.5
463.217	8032.5
463.437	7762.5
463.657	7276.5
463.876	7076.5
464.096	7079.5
464.316	7125.5
464.536	7143.5
464.755	6900.5
464.975	6810.5
465.195	7197.5
465.414	7239.5
465.634	6263.5
465.854	5900.5
466.073	5720.5
466.293	5524.5
466.512	5360.5
466.732	5233.5
466.951	5225.5
467.171	5342.5
467.391	5355.5
467.61	5507.5
467.829	5606.5
468.049	6252.5
468.268	6820.5
468.488	5861.5
468.707	5409.5
468.927	5237.5
469.146	5178.5
469.365	5144.5
469.585	5210.5
469.804	5399.5
470.023	5616.5
470.243	5466.5
470.462	5563.5
470.681	5798.5
470.901	5627.5
471.12	5490.5
471.339	5563.5
471.558	5550.5
471.777	5530.5
471.997	5847.5
472.216	7558.5
472.435	10788.5
472.654	8176.5
472.873	6431.5
473.092	5859.5
473.311	5647.5
473.53	5515.5
473.749	5582.5
473.968	6006.5
474.187	7161.5
474.406	6502.5
474.625	5448.5
474.844	5188.5
475.063	5167.5
475.282	5207.5
475.501	5280.5
475.72	5306.5
475.939	5240.5
476.158	5331.5
476.377	5328.5
476.596	5304.5
476.814	5445.5
477.033	5528.5
477.252	5600.5
477.471	5763.5
477.69	5796.5
477.908	5909.5
478.127	6013.5
478.346	6083.5
478.564	6288.5
478.783	6337.5
479.002	6434.5
479.22	6485.5
479.439	6549.5
479.658	6796.5
479.876	6951.5
480.095	7106.5
480.313	7622.5
480.532	7587.5
480.751	7951.5
480.969	9594.5
481.188	14546.5
481.406	14615.5
481.624	10050.5
481.843	8284.5
482.061	7596.5
482.28	7023.5
482.498	6742.5
482.717	6596.5
482.935	6507.5
483.153	6425.5
483.372	6387.5
483.59	6323.5
483.808	6274.5
484.027	6322.5
484.245	6323.5
484.463	6285.5
484.681	6372.5
484.9	6371.5
485.118	6515.5
485.336	6494.5
485.554	6595.5
485.772	6572.5
485.99	6541.5
486.209	6598.5
486.427	6686.5
486.645	6676.5
486.863	6838.5
487.081	6752.5
487.299	6718.5
487.517	6617.5
487.735	6620.5
487.953	6628.5
488.171	6660.5
488.389	6631.5
488.607	6623.5
488.825	6761.5
489.043	6847.5
489.261	6972.5
489.479	6980.5
489.696	7038.5
489.914	7110.5
490.132	7192.5
490.35	7393.5
490.568	7523.5
490.786	7668.5
491.003	7986.5
491.221	8439.5
491.439	8902.5
491.657	8874.5
491.874	8935.5
492.092	9036.5
492.31	9224.5
492.527	9513.5
492.745	9638.5
492.963	9620.5
493.18	9404.5
493.398	9354.5
493.615	9227.5
493.833	9048.5
494.05	8903.5
494.268	8734.5
494.485	8627.5
494.703	8501.5
494.92	8479.5
495.138	8338.5
495.355	8287.5
495.573	8232.5
495.79	8199.5
496.008	8197.5
496.225	8058.5
496.442	8021.5
496.66	8063.5
496.877	8099.5
497.094	8134.5
497.312	8234.5
497.529	8478.5
497.746	8609.5
497.963	8787.5
498.181	9195.5
498.398	9314.5
498.615	9832.5
498.832	10197.5
499.049	10743.5
499.267	11119.5
499.484	11994.5
499.701	12791.5
499.918	13469.5
500.135	14237.5
500.352	14872.5
500.569	15089.5
500.786	15073.5
501.003	14643.5
501.22	13943.5
501.437	13124.5
501.654	12270.5
501.871	11651.5
502.088	10966.5
502.305	10211.5
502.522	9741.5
502.739	9380.5
502.956	8980.5
503.172	8644.5
503.389	8384.5
