Data from Circ_1992_H10_HRD10591_00019.txt Node
Date: Wed Jan 03 11:47:48 EST 2024
User: Yrep
Spectrometer: HR+D1059
Trigger mode: 1
Integration Time (sec): 1.000000E-1
Scans to average: 1
Electric dark correction enabled: true
Nonlinearity correction enabled: false
Boxcar width: 0
XAxis mode: Wavelengths
Number of Pixels in Spectrum: 2048
>>>>>Begin Spectral Data<<<<<
223.165	-14.38
223.4	-14.38
223.635	-14.38
223.869	-12.38
224.104	-17.38
224.338	-18.38
224.573	-14.38
224.808	-25.38
225.042	11.62
225.277	-15.38
225.511	1.62
225.746	8.62
225.98	8.62
226.215	13.62
226.449	11.62
226.683	14.62
226.918	23.62
227.152	23.62
227.387	27.62
227.621	34.62
227.856	43.62
228.09	41.62
228.324	49.62
228.559	49.62
228.793	44.62
229.027	64.62
229.262	54.62
229.496	75.62
229.73	95.62
229.964	79.62
230.199	61.62
230.433	80.62
230.667	84.62
230.901	73.62
231.136	70.62
231.37	76.62
231.604	68.62
231.838	82.62
232.072	78.62
232.306	67.62
232.541	72.62
232.775	79.62
233.009	84.62
233.243	74.62
233.477	73.62
233.711	80.62
233.945	71.62
234.179	76.62
234.413	79.62
234.647	68.62
234.881	82.62
235.115	79.62
235.349	82.62
235.583	88.62
235.817	72.62
236.051	77.62
236.285	93.62
236.519	70.62
236.753	74.62
236.987	90.62
237.221	76.62
237.455	90.62
237.689	76.62
237.922	81.62
238.156	67.62
238.39	79.62
238.624	75.62
238.858	84.62
239.091	75.62
239.325	75.62
239.559	87.62
239.793	73.62
240.027	81.62
240.26	77.62
240.494	80.62
240.728	84.62
240.961	75.62
241.195	73.62
241.429	76.62
241.662	72.62
241.896	82.62
242.13	80.62
242.363	68.62
242.597	71.62
242.83	75.62
243.064	77.62
243.298	85.62
243.531	77.62
243.765	88.62
243.998	81.62
244.232	79.62
244.465	87.62
244.699	82.62
244.932	85.62
245.166	67.62
245.399	65.62
245.633	73.62
245.866	80.62
246.099	74.62
246.333	76.62
246.566	74.62
246.8	69.62
247.033	69.62
247.266	82.62
247.5	73.62
247.733	80.62
247.966	88.62
248.2	72.62
248.433	66.62
248.666	76.62
248.899	90.62
249.133	76.62
249.366	107.62
249.599	98.62
249.832	70.62
250.066	75.62
250.299	77.62
250.532	84.62
250.765	75.62
250.998	76.62
251.231	71.62
251.465	85.62
251.698	91.62
251.931	74.62
252.164	65.62
252.397	66.62
252.63	77.62
252.863	81.62
253.096	89.62
253.329	73.62
253.562	75.62
253.795	78.62
254.028	78.62
254.261	79.62
254.494	79.62
254.727	85.62
254.96	63.62
255.193	77.62
255.426	87.62
255.659	77.62
255.892	88.62
256.124	83.62
256.357	76.62
256.59	90.62
256.823	80.62
257.056	81.62
257.289	68.62
257.521	79.62
257.754	82.62
257.987	96.62
258.22	78.62
258.452	87.62
258.685	79.62
258.918	83.62
259.151	87.62
259.383	77.62
259.616	75.62
259.849	73.62
260.081	83.62
260.314	93.62
260.547	88.62
260.779	85.62
261.012	80.62
261.244	83.62
261.477	102.62
261.71	84.62
261.942	110.62
262.175	128.62
262.407	99.62
262.64	91.62
262.872	90.62
263.105	81.62
263.337	78.62
263.57	64.62
263.802	77.62
264.035	83.62
264.267	79.62
264.499	76.62
264.732	70.62
264.964	87.62
265.197	83.62
265.429	75.62
265.661	88.62
265.894	79.62
266.126	84.62
266.358	85.62
266.591	82.62
266.823	80.62
267.055	75.62
267.287	65.62
267.52	76.62
267.752	85.62
267.984	78.62
268.216	82.62
268.448	62.62
268.681	75.62
268.913	83.62
269.145	76.62
269.377	75.62
269.609	74.62
269.841	87.62
270.073	84.62
270.306	87.62
270.538	95.62
270.77	85.62
271.002	91.62
271.234	78.62
271.466	86.62
271.698	87.62
271.93	83.62
272.162	92.62
272.394	94.62
272.626	84.62
272.858	86.62
273.09	76.62
273.322	71.62
273.553	75.62
273.785	85.62
274.017	90.62
274.249	98.62
274.481	78.62
274.713	89.62
274.945	98.62
275.176	76.62
275.408	77.62
275.64	81.62
275.872	95.62
276.104	96.62
276.335	85.62
276.567	108.62
276.799	120.62
277.031	143.62
277.262	129.62
277.494	111.62
277.726	90.62
277.957	86.62
278.189	84.62
278.421	94.62
278.652	91.62
278.884	76.62
279.115	80.62
279.347	75.62
279.579	90.62
279.81	107.62
280.042	112.62
280.273	140.62
280.505	113.62
280.736	89.62
280.968	100.62
281.199	85.62
281.431	88.62
281.662	92.62
281.894	94.62
282.125	103.62
282.356	128.62
282.588	138.62
282.819	127.62
283.051	96.62
283.282	82.62
283.513	89.62
283.745	91.62
283.976	90.62
284.207	91.62
284.439	81.62
284.67	87.62
284.901	81.62
285.132	90.62
285.364	88.62
285.595	87.62
285.826	77.62
286.057	88.62
286.288	84.62
286.52	81.62
286.751	93.62
286.982	82.62
287.213	88.62
287.444	85.62
287.675	88.62
287.906	84.62
288.138	81.62
288.369	92.62
288.6	101.62
288.831	91.62
289.062	86.62
289.293	93.62
289.524	60.62
289.755	83.62
289.986	83.62
290.217	95.62
290.448	83.62
290.679	81.62
290.91	83.62
291.141	71.62
291.371	88.62
291.602	92.62
291.833	86.62
292.064	90.62
292.295	82.62
292.526	81.62
292.757	85.62
292.987	102.62
293.218	78.62
293.449	100.62
293.68	95.62
293.91	83.62
294.141	89.62
294.372	89.62
294.603	88.62
294.833	85.62
295.064	84.62
295.295	92.62
295.525	90.62
295.756	90.62
295.987	120.62
296.217	155.62
296.448	122.62
296.679	91.62
296.909	96.62
297.14	92.62
297.37	79.62
297.601	87.62
297.831	64.62
298.062	87.62
298.292	94.62
298.523	101.62
298.753	89.62
298.984	96.62
299.214	94.62
299.445	86.62
299.675	84.62
299.905	81.62
300.136	90.62
300.366	94.62
300.597	95.62
300.827	96.62
301.057	108.62
301.288	109.62
301.518	89.62
301.748	96.62
301.979	102.62
302.209	92.62
302.439	89.62
302.669	98.62
302.9	96.62
303.13	91.62
303.36	103.62
303.59	109.62
303.82	126.62
304.051	102.62
304.281	69.62
304.511	91.62
304.741	77.62
304.971	84.62
305.201	85.62
305.431	80.62
305.661	87.62
305.891	88.62
306.121	101.62
306.352	104.62
306.582	111.62
306.812	101.62
307.042	115.62
307.272	111.62
307.502	136.62
307.731	110.62
307.961	93.62
308.191	89.62
308.421	90.62
308.651	94.62
308.881	93.62
309.111	91.62
309.341	90.62
309.571	87.62
309.8	88.62
310.03	116.62
310.26	96.62
310.49	93.62
310.72	95.62
310.949	102.62
311.179	108.62
311.409	90.62
311.639	95.62
311.868	105.62
312.098	91.62
312.328	94.62
312.557	102.62
312.787	108.62
313.017	115.62
313.246	96.62
313.476	80.62
313.706	95.62
313.935	87.62
314.165	109.62
314.394	105.62
314.624	104.62
314.853	93.62
315.083	83.62
315.312	101.62
315.542	84.62
315.771	90.62
316.001	89.62
316.23	97.62
316.46	92.62
316.689	86.62
316.919	89.62
317.148	98.62
317.377	111.62
317.607	104.62
317.836	91.62
318.065	89.62
318.295	91.62
318.524	94.62
318.753	89.62
318.983	85.62
319.212	109.62
319.441	117.62
319.67	104.62
319.9	100.62
320.129	96.62
320.358	99.62
320.587	107.62
320.816	110.62
321.046	107.62
321.275	102.62
321.504	88.62
321.733	94.62
321.962	93.62
322.191	92.62
322.42	92.62
322.649	115.62
322.878	114.62
323.108	103.62
323.337	134.62
323.566	126.62
323.795	145.62
324.024	203.62
324.253	385.62
324.482	777.62
324.71	1594.62
324.939	2041.62
325.168	763.62
325.397	238.62
325.626	149.62
325.855	116.62
326.084	124.62
326.313	143.62
326.542	151.62
326.77	224.62
326.999	404.62
327.228	852.62
327.457	1512.62
327.686	1183.62
327.914	390.62
328.143	315.62
328.372	336.62
328.6	208.62
328.829	132.62
329.058	153.62
329.287	154.62
329.515	141.62
329.744	168.62
329.972	237.62
330.201	424.62
330.43	611.62
330.658	318.62
330.887	195.62
331.115	129.62
331.344	108.62
331.572	107.62
331.801	100.62
332.03	125.62
332.258	98.62
332.486	89.62
332.715	105.62
332.943	101.62
333.172	101.62
333.4	109.62
333.629	141.62
333.857	148.62
334.085	221.62
334.314	429.62
334.542	779.62
334.771	695.62
334.999	228.62
335.227	128.62
335.455	111.62
335.684	103.62
335.912	93.62
336.14	85.62
336.369	99.62
336.597	94.62
336.825	103.62
337.053	80.62
337.281	101.62
337.51	99.62
337.738	86.62
337.966	104.62
338.194	97.62
338.422	94.62
338.65	105.62
338.878	93.62
339.106	95.62
339.334	108.62
339.562	83.62
339.79	75.62
340.018	88.62
340.246	85.62
340.474	100.62
340.702	105.62
340.93	95.62
341.158	98.62
341.386	97.62
341.614	112.62
341.842	99.62
342.07	102.62
342.298	87.62
342.526	95.62
342.754	78.62
342.981	77.62
343.209	83.62
343.437	95.62
343.665	93.62
343.893	89.62
344.12	84.62
344.348	83.62
344.576	76.62
344.804	96.62
345.031	80.62
345.259	103.62
345.487	93.62
345.714	97.62
345.942	99.62
346.17	103.62
346.397	85.62
346.625	81.62
346.853	76.62
347.08	82.62
347.308	96.62
347.535	82.62
347.763	105.62
347.99	96.62
348.218	104.62
348.445	116.62
348.673	104.62
348.9	104.62
349.128	91.62
349.355	85.62
349.583	93.62
349.81	82.62
350.037	71.62
350.265	91.62
350.492	81.62
350.72	88.62
350.947	94.62
351.174	100.62
351.402	112.62
351.629	97.62
351.856	96.62
352.083	81.62
352.311	111.62
352.538	110.62
352.765	105.62
352.992	114.62
353.22	103.62
353.447	104.62
353.674	92.62
353.901	94.62
354.128	91.62
354.355	93.62
354.583	83.62
354.81	93.62
355.037	90.62
355.264	88.62
355.491	85.62
355.718	101.62
355.945	94.62
356.172	91.62
356.399	82.62
356.626	99.62
356.853	84.62
357.08	91.62
357.307	83.62
357.534	88.62
357.761	75.62
357.988	103.62
358.215	82.62
358.441	105.62
358.668	89.62
358.895	90.62
359.122	88.62
359.349	76.62
359.576	101.62
359.802	98.62
360.029	100.62
360.256	123.62
360.483	109.62
360.709	93.62
360.936	92.62
361.163	81.62
361.39	101.62
361.616	84.62
361.843	81.62
362.07	98.62
362.296	100.62
362.523	98.62
362.749	99.62
362.976	99.62
363.203	89.62
363.429	91.62
363.656	89.62
363.882	80.62
364.109	93.62
364.335	89.62
364.562	91.62
364.788	105.62
365.015	91.62
365.241	91.62
365.468	107.62
365.694	101.62
365.92	101.62
366.147	83.62
366.373	82.62
366.599	91.62
366.826	84.62
367.052	89.62
367.278	88.62
367.505	89.62
367.731	86.62
367.957	80.62
368.184	92.62
368.41	97.62
368.636	111.62
368.862	129.62
369.089	113.62
369.315	78.62
369.541	88.62
369.767	89.62
369.993	91.62
370.219	88.62
370.445	90.62
370.672	79.62
370.898	83.62
371.124	88.62
371.35	84.62
371.576	76.62
371.802	90.62
372.028	88.62
372.254	100.62
372.48	91.62
372.706	82.62
372.932	76.62
373.158	81.62
373.384	91.62
373.61	88.62
373.835	79.62
374.061	89.62
374.287	92.62
374.513	89.62
374.739	93.62
374.965	92.62
375.191	99.62
375.416	97.62
375.642	75.62
375.868	83.62
376.094	99.62
376.319	94.62
376.545	96.62
376.771	91.62
376.997	76.62
377.222	95.62
377.448	97.62
377.674	82.62
377.899	89.62
378.125	80.62
378.35	87.62
378.576	85.62
378.802	102.62
379.027	69.62
379.253	92.62
379.478	94.62
379.704	90.62
379.929	87.62
380.155	88.62
380.38	94.62
380.606	86.62
380.831	93.62
381.057	101.62
381.282	95.62
381.507	96.62
381.733	97.62
381.958	88.62
382.184	93.62
382.409	89.62
382.634	106.62
382.86	94.62
383.085	119.62
383.31	94.62
383.535	107.62
383.761	90.62
383.986	88.62
384.211	93.62
384.436	98.62
384.662	114.62
384.887	109.62
385.112	91.62
385.337	108.62
385.562	110.62
385.787	107.62
386.013	104.62
386.238	117.62
386.463	115.62
386.688	106.62
386.913	103.62
387.138	100.62
387.363	97.62
387.588	89.62
387.813	107.62
388.038	106.62
388.263	116.62
388.488	117.62
388.713	100.62
388.938	91.62
389.163	89.62
389.387	77.62
389.612	81.62
389.837	82.62
390.062	91.62
390.287	85.62
390.512	84.62
390.736	77.62
390.961	83.62
391.186	84.62
391.411	89.62
391.636	93.62
391.86	95.62
392.085	97.62
392.31	79.62
392.534	79.62
392.759	89.62
392.984	92.62
393.208	81.62
393.433	92.62
393.658	75.62
393.882	78.62
394.107	88.62
394.331	76.62
394.556	80.62
394.78	79.62
395.005	109.62
395.229	76.62
395.454	75.62
395.678	91.62
395.903	71.62
396.127	97.62
396.352	95.62
396.576	99.62
396.801	95.62
397.025	81.62
397.249	84.62
397.474	80.62
397.698	73.62
397.922	69.62
398.147	95.62
398.371	81.62
398.595	72.62
398.82	84.62
399.044	63.62
399.268	68.62
399.492	91.62
399.717	81.62
399.941	84.62
400.165	93.62
400.389	79.62
400.613	77.62
400.837	76.62
401.062	83.62
401.286	82.62
401.51	96.62
401.734	97.62
401.958	116.62
402.182	137.62
402.406	164.62
402.63	145.62
402.854	93.62
403.078	79.62
403.302	87.62
403.526	76.62
403.75	96.62
403.974	66.62
404.198	76.62
404.422	75.62
404.645	97.62
404.869	93.62
405.093	103.62
405.317	107.62
405.541	108.62
405.765	98.62
405.988	121.62
406.212	185.62
406.436	255.62
406.66	171.62
406.883	113.62
407.107	87.62
407.331	95.62
407.555	94.62
407.778	93.62
408.002	91.62
408.226	77.62
408.449	85.62
408.673	83.62
408.896	87.62
409.12	92.62
409.344	100.62
409.567	85.62
409.791	87.62
410.014	80.62
410.238	96.62
410.461	90.62
410.685	88.62
410.908	100.62
411.132	96.62
411.355	95.62
411.578	79.62
411.802	69.62
412.025	101.62
412.249	104.62
412.472	101.62
412.695	115.62
412.919	91.62
413.142	97.62
413.365	73.62
413.589	69.62
413.812	74.62
414.035	102.62
414.258	98.62
414.482	83.62
414.705	73.62
414.928	89.62
415.151	82.62
415.374	82.62
415.597	90.62
415.821	82.62
416.044	86.62
416.267	83.62
416.49	86.62
416.713	82.62
416.936	91.62
417.159	77.62
417.382	84.62
417.605	75.62
417.828	87.62
418.051	82.62
418.274	89.62
418.497	85.62
418.72	79.62
418.943	71.62
419.166	84.62
419.389	89.62
419.611	83.62
419.834	89.62
420.057	97.62
420.28	90.62
420.503	81.62
420.726	75.62
420.948	95.62
421.171	98.62
421.394	80.62
421.617	88.62
421.839	90.62
422.062	72.62
422.285	88.62
422.507	105.62
422.73	88.62
422.953	84.62
423.175	79.62
423.398	82.62
423.621	87.62
423.843	73.62
424.066	85.62
424.288	87.62
424.511	93.62
424.733	74.62
424.956	117.62
425.178	89.62
425.401	103.62
425.623	88.62
425.846	79.62
426.068	97.62
426.291	87.62
426.513	103.62
426.735	91.62
426.958	77.62
427.18	108.62
427.402	129.62
427.625	187.62
427.847	177.62
428.069	168.62
428.292	106.62
428.514	103.62
428.736	84.62
428.958	82.62
429.181	96.62
429.403	92.62
429.625	81.62
429.847	107.62
430.069	93.62
430.292	87.62
430.514	72.62
430.736	80.62
430.958	81.62
431.18	79.62
431.402	83.62
431.624	88.62
431.846	77.62
432.068	73.62
432.29	82.62
432.512	88.62
432.734	79.62
432.956	86.62
433.178	92.62
433.4	94.62
433.622	88.62
433.844	92.62
434.066	89.62
434.287	92.62
434.509	83.62
434.731	87.62
434.953	79.62
435.175	90.62
435.397	99.62
435.618	92.62
435.84	107.62
436.062	122.62
436.284	104.62
436.505	101.62
436.727	96.62
436.949	90.62
437.17	78.62
437.392	71.62
437.614	95.62
437.835	122.62
438.057	120.62
438.278	101.62
438.5	113.62
438.721	117.62
438.943	102.62
439.165	93.62
439.386	97.62
439.608	77.62
439.829	108.62
440.05	130.62
440.272	157.62
440.493	99.62
440.715	79.62
440.936	84.62
441.158	84.62
441.379	83.62
441.6	92.62
441.822	94.62
442.043	94.62
442.264	104.62
442.486	87.62
442.707	89.62
442.928	109.62
443.149	149.62
443.371	128.62
443.592	115.62
443.813	110.62
444.034	111.62
444.255	91.62
444.476	95.62
444.698	98.62
444.919	87.62
445.14	119.62
445.361	128.62
445.582	126.62
445.803	156.62
446.024	135.62
446.245	133.62
446.466	106.62
446.687	99.62
446.908	90.62
447.129	87.62
447.35	83.62
447.571	85.62
447.792	87.62
448.013	104.62
448.234	104.62
448.455	117.62
448.675	115.62
448.896	121.62
449.117	77.62
449.338	101.62
449.559	127.62
449.779	112.62
450	87.62
450.221	95.62
450.442	88.62
450.662	102.62
450.883	124.62
451.104	122.62
451.324	97.62
451.545	93.62
451.766	86.62
451.986	94.62
452.207	85.62
452.428	97.62
452.648	101.62
452.869	126.62
453.089	120.62
453.31	122.62
453.53	96.62
453.751	83.62
453.971	97.62
454.192	116.62
454.412	102.62
454.633	86.62
454.853	90.62
455.073	76.62
455.294	77.62
455.514	96.62
455.734	72.62
455.955	84.62
456.175	84.62
456.395	95.62
456.616	86.62
456.836	73.62
457.056	75.62
457.276	91.62
457.497	72.62
457.717	72.62
457.937	93.62
458.157	71.62
458.377	84.62
458.598	105.62
458.818	165.62
459.038	196.62
459.258	127.62
459.478	109.62
459.698	69.62
459.918	77.62
460.138	68.62
460.358	100.62
460.578	92.62
460.798	88.62
461.018	85.62
461.238	73.62
461.458	80.62
461.678	90.62
461.898	67.62
462.118	77.62
462.338	75.62
462.558	77.62
462.777	86.62
462.997	87.62
463.217	89.62
463.437	97.62
463.657	88.62
463.876	79.62
464.096	96.62
464.316	98.62
464.536	110.62
464.755	99.62
464.975	110.62
465.195	180.62
465.414	183.62
465.634	103.62
465.854	89.62
466.073	91.62
466.293	83.62
466.512	83.62
466.732	88.62
466.951	91.62
467.171	90.62
467.391	95.62
467.61	108.62
467.829	139.62
468.049	272.62
468.268	360.62
468.488	138.62
468.707	91.62
468.927	78.62
469.146	83.62
469.365	87.62
469.585	92.62
469.804	91.62
470.023	92.62
470.243	88.62
470.462	99.62
470.681	125.62
470.901	104.62
471.12	92.62
471.339	89.62
471.558	103.62
471.777	116.62
471.997	161.62
472.216	485.62
472.435	1001.62
472.654	289.62
472.873	100.62
473.092	75.62
473.311	87.62
473.53	76.62
473.749	87.62
473.968	111.62
474.187	113.62
474.406	98.62
474.625	89.62
474.844	87.62
475.063	89.62
475.282	85.62
475.501	88.62
475.72	86.62
475.939	81.62
476.158	95.62
476.377	74.62
476.596	85.62
476.814	98.62
477.033	99.62
477.252	85.62
477.471	95.62
477.69	95.62
477.908	85.62
478.127	87.62
478.346	95.62
478.564	89.62
478.783	93.62
479.002	95.62
479.22	109.62
479.439	109.62
479.658	111.62
479.876	112.62
480.095	100.62
480.313	106.62
480.532	121.62
480.751	172.62
480.969	453.62
481.188	1760.62
481.406	1000.62
481.624	194.62
481.843	107.62
482.061	82.62
482.28	96.62
482.498	100.62
482.717	76.62
482.935	83.62
483.153	75.62
483.372	82.62
483.59	101.62
483.808	85.62
484.027	92.62
484.245	93.62
484.463	86.62
484.681	85.62
484.9	84.62
485.118	96.62
485.336	97.62
485.554	82.62
485.772	90.62
485.99	100.62
486.209	80.62
486.427	83.62
486.645	110.62
486.863	114.62
487.081	87.62
487.299	74.62
487.517	99.62
487.735	80.62
487.953	89.62
488.171	97.62
488.389	87.62
488.607	99.62
488.825	82.62
489.043	88.62
489.261	84.62
489.479	94.62
489.696	80.62
489.914	90.62
490.132	78.62
490.35	77.62
490.568	75.62
490.786	81.62
491.003	78.62
491.221	88.62
491.439	92.62
491.657	79.62
491.874	100.62
492.092	104.62
492.31	76.62
492.527	93.62
492.745	85.62
492.963	77.62
493.18	91.62
493.398	90.62
493.615	81.62
493.833	89.62
494.05	83.62
494.268	77.62
494.485	80.62
494.703	78.62
494.92	96.62
495.138	82.62
495.355	78.62
495.573	87.62
495.79	76.62
496.008	77.62
496.225	84.62
496.442	80.62
496.66	86.62
496.877	91.62
497.094	94.62
497.312	89.62
497.529	91.62
497.746	88.62
497.963	83.62
498.181	75.62
498.398	91.62
498.615	100.62
498.832	102.62
499.049	87.62
499.267	77.62
499.484	72.62
499.701	89.62
499.918	90.62
500.135	98.62
500.352	106.62
500.569	87.62
500.786	98.62
501.003	82.62
501.22	91.62
501.437	83.62
501.654	94.62
501.871	111.62
502.088	91.62
502.305	97.62
502.522	102.62
502.739	89.62
502.956	95.62
503.172	94.62
503.389	100.62
503.606	112.62
503.823	110.62
504.04	88.62
504.256	103.62
504.473	83.62
504.69	85.62
504.907	87.62
505.123	86.62
505.34	76.62
505.557	83.62
505.773	83.62
505.99	68.62
506.207	87.62
506.423	93.62
506.64	101.62
506.856	103.62
507.073	87.62
507.289	97.62
507.506	95.62
507.722	121.62
507.939	111.62
508.155	93.62
508.372	102.62
508.588	90.62
508.805	98.62
509.021	96.62
509.238	92.62
509.454	92.62
509.67	90.62
509.887	101.62
510.103	120.62
510.319	216.62
510.536	784.62
510.752	2564.62
510.968	704.62
511.184	175.62
511.401	114.62
511.617	94.62
511.833	97.62
512.049	90.62
512.265	89.62
512.481	80.62
512.698	80.62
512.914	83.62
513.13	97.62
513.346	96.62
513.562	85.62
513.778	97.62
513.994	97.62
514.21	100.62
514.426	130.62
514.642	158.62
514.858	137.62
515.074	159.62
515.29	565.62
