Data from Circ_1992_H10_HRD10591_00023.txt Node
Date: Wed Jan 03 11:47:49 EST 2024
User: Yrep
Spectrometer: HR+D1059
Trigger mode: 1
Integration Time (sec): 1.000000E-1
Scans to average: 1
Electric dark correction enabled: true
Nonlinearity correction enabled: false
Boxcar width: 0
XAxis mode: Wavelengths
Number of Pixels in Spectrum: 2048
>>>>>Begin Spectral Data<<<<<
223.165	-18.75
223.4	-18.75
223.635	-18.75
223.869	-30.75
224.104	-4.75
224.338	-8.75
224.573	-11.75
224.808	-20.75
225.042	-7.75
225.277	-1.75
225.511	-9.75
225.746	7.25
225.98	7.25
226.215	6.25
226.449	14.25
226.683	25.25
226.918	36.25
227.152	18.25
227.387	28.25
227.621	42.25
227.856	36.25
228.09	47.25
228.324	57.25
228.559	66.25
228.793	158.25
229.027	420.25
229.262	484.25
229.496	578.25
229.73	786.25
229.964	783.25
230.199	531.25
230.433	452.25
230.667	440.25
230.901	451.25
231.136	431.25
231.37	455.25
231.604	441.25
231.838	451.25
232.072	460.25
232.306	451.25
232.541	446.25
232.775	481.25
233.009	458.25
233.243	458.25
233.477	471.25
233.711	489.25
233.945	491.25
234.179	498.25
234.413	520.25
234.647	510.25
234.881	534.25
235.115	507.25
235.349	536.25
235.583	522.25
235.817	584.25
236.051	596.25
236.285	605.25
236.519	590.25
236.753	691.25
236.987	870.25
237.221	1331.25
237.455	1444.25
237.689	862.25
237.922	732.25
238.156	713.25
238.39	671.25
238.624	628.25
238.858	644.25
239.091	645.25
239.325	635.25
239.559	694.25
239.793	708.25
240.027	762.25
240.26	928.25
240.494	944.25
240.728	941.25
240.961	854.25
241.195	792.25
241.429	795.25
241.662	751.25
241.896	785.25
242.13	771.25
242.363	783.25
242.597	803.25
242.83	844.25
243.064	831.25
243.298	862.25
243.531	866.25
243.765	859.25
243.998	854.25
244.232	887.25
244.465	919.25
244.699	894.25
244.932	918.25
245.166	906.25
245.399	897.25
245.633	902.25
245.866	922.25
246.099	932.25
246.333	967.25
246.566	972.25
246.8	1000.25
247.033	1031.25
247.266	1060.25
247.5	1098.25
247.733	1139.25
247.966	1149.25
248.2	1167.25
248.433	1208.25
248.666	1217.25
248.899	1331.25
249.133	1448.25
249.366	1495.25
249.599	1421.25
249.832	1379.25
250.066	1514.25
250.299	1966.25
250.532	2535.25
250.765	2427.25
250.998	2153.25
251.231	1850.25
251.465	1610.25
251.698	1469.25
251.931	1450.25
252.164	1437.25
252.397	1437.25
252.63	1475.25
252.863	1578.25
253.096	1699.25
253.329	1725.25
253.562	1582.25
253.795	1547.25
254.028	1569.25
254.261	1650.25
254.494	1840.25
254.727	2152.25
254.96	2249.25
255.193	2030.25
255.426	2043.25
255.659	2363.25
255.892	3395.25
256.124	4443.25
256.357	3627.25
256.59	2586.25
256.823	2164.25
257.056	1960.25
257.289	1829.25
257.521	1792.25
257.754	1722.25
257.987	1680.25
258.22	1687.25
258.452	1635.25
258.685	1631.25
258.918	1625.25
259.151	1686.25
259.383	1731.25
259.616	1753.25
259.849	1810.25
260.081	1912.25
260.314	2061.25
260.547	2001.25
260.779	1826.25
261.012	1762.25
261.244	1714.25
261.477	1676.25
261.71	1725.25
261.942	1790.25
262.175	1824.25
262.407	1739.25
262.64	1640.25
262.872	1656.25
263.105	1678.25
263.337	1689.25
263.57	1680.25
263.802	1705.25
264.035	1668.25
264.267	1724.25
264.499	1658.25
264.732	1690.25
264.964	1664.25
265.197	1722.25
265.429	1769.25
265.661	1749.25
265.894	1725.25
266.126	1787.25
266.358	1788.25
266.591	1838.25
266.823	1876.25
267.055	1873.25
267.287	1887.25
267.52	1891.25
267.752	1843.25
267.984	1894.25
268.216	1895.25
268.448	1905.25
268.681	1961.25
268.913	2087.25
269.145	2294.25
269.377	2275.25
269.609	2166.25
269.841	2168.25
270.073	2326.25
270.306	2513.25
270.538	2681.25
270.77	2552.25
271.002	2397.25
271.234	2363.25
271.466	2548.25
271.698	2682.25
271.93	2610.25
272.162	2579.25
272.394	2571.25
272.626	2392.25
272.858	2275.25
273.09	2242.25
273.322	2211.25
273.553	2209.25
273.785	2255.25
274.017	2243.25
274.249	2248.25
274.481	2286.25
274.713	2277.25
274.945	2334.25
275.176	2395.25
275.408	2362.25
275.64	2322.25
275.872	2399.25
276.104	2420.25
276.335	2484.25
276.567	2577.25
276.799	2730.25
277.031	2993.25
277.262	3217.25
277.494	2984.25
277.726	2700.25
277.957	2623.25
278.189	2559.25
278.421	2504.25
278.652	2513.25
278.884	2519.25
279.115	2494.25
279.347	2557.25
279.579	2555.25
279.81	2662.25
280.042	2706.25
280.273	2874.25
280.505	2783.25
280.736	2625.25
280.968	2623.25
281.199	2591.25
281.431	2555.25
281.662	2570.25
281.894	2549.25
282.125	2611.25
282.356	2736.25
282.588	2898.25
282.819	2787.25
283.051	2590.25
283.282	2520.25
283.513	2616.25
283.745	2638.25
283.976	2658.25
284.207	2616.25
284.439	2662.25
284.67	2593.25
284.901	2670.25
285.132	2655.25
285.364	2636.25
285.595	2682.25
285.826	2660.25
286.057	2696.25
286.288	2702.25
286.52	2709.25
286.751	2734.25
286.982	2747.25
287.213	2755.25
287.444	2762.25
287.675	2826.25
287.906	2902.25
288.138	2921.25
288.369	2862.25
288.6	2889.25
288.831	2830.25
289.062	2807.25
289.293	2813.25
289.524	2856.25
289.755	2795.25
289.986	2826.25
290.217	2728.25
290.448	2838.25
290.679	2840.25
290.91	2786.25
291.141	2781.25
291.371	2796.25
291.602	2783.25
291.833	2770.25
292.064	2785.25
292.295	2843.25
292.526	2797.25
292.757	2805.25
292.987	2787.25
293.218	2768.25
293.449	2827.25
293.68	2807.25
293.91	2775.25
294.141	2815.25
294.372	2777.25
294.603	2810.25
294.833	2818.25
295.064	2854.25
295.295	2813.25
295.525	2840.25
295.756	2928.25
295.987	3011.25
296.217	3114.25
296.448	3114.25
296.679	2938.25
296.909	2891.25
297.14	2921.25
297.37	2972.25
297.601	2964.25
297.831	3011.25
298.062	2987.25
298.292	3023.25
298.523	3078.25
298.753	3114.25
298.984	3009.25
299.214	3081.25
299.445	3063.25
299.675	3123.25
299.905	3158.25
300.136	3109.25
300.366	3138.25
300.597	3194.25
300.827	3262.25
301.057	3362.25
301.288	3380.25
301.518	3318.25
301.748	3329.25
301.979	3310.25
302.209	3376.25
302.439	3403.25
302.669	3357.25
302.9	3263.25
303.13	3270.25
303.36	3370.25
303.59	3432.25
303.82	3522.25
304.051	3378.25
304.281	3299.25
304.511	3255.25
304.741	3238.25
304.971	3265.25
305.201	3189.25
305.431	3228.25
305.661	3234.25
305.891	3228.25
306.121	3287.25
306.352	3313.25
306.582	3288.25
306.812	3292.25
307.042	3369.25
307.272	3434.25
307.502	3500.25
307.731	3492.25
307.961	3333.25
308.191	3283.25
308.421	3331.25
308.651	3304.25
308.881	3273.25
309.111	3290.25
309.341	3342.25
309.571	3432.25
309.8	3486.25
310.03	3544.25
310.26	3559.25
310.49	3533.25
310.72	3738.25
310.949	3829.25
311.179	3769.25
311.409	3611.25
311.639	3616.25
311.868	3605.25
312.098	3676.25
312.328	3730.25
312.557	3934.25
312.787	3974.25
313.017	3838.25
313.246	3736.25
313.476	3626.25
313.706	3721.25
313.935	3820.25
314.165	3935.25
314.394	3914.25
314.624	3855.25
314.853	3786.25
315.083	3703.25
315.312	3682.25
315.542	3673.25
315.771	3664.25
316.001	3651.25
316.23	3619.25
316.46	3623.25
316.689	3714.25
316.919	3784.25
317.148	3816.25
317.377	3769.25
317.607	3782.25
317.836	3750.25
318.065	3712.25
318.295	3668.25
318.524	3660.25
318.753	3693.25
318.983	3674.25
319.212	3633.25
319.441	3766.25
319.67	3698.25
319.9	3740.25
320.129	3696.25
320.358	3688.25
320.587	3724.25
320.816	3787.25
321.046	3932.25
321.275	3831.25
321.504	3796.25
321.733	3870.25
321.962	3874.25
322.191	4043.25
322.42	4134.25
322.649	4246.25
322.878	4321.25
323.108	4383.25
323.337	4678.25
323.566	4790.25
323.795	5081.25
324.024	5648.25
324.253	7350.25
324.482	11142.25
324.71	15484.25
324.939	15620.25
325.168	13041.25
325.397	6500.25
325.626	5347.25
325.855	5034.25
326.084	4864.25
326.313	4938.25
326.542	5135.25
326.77	5730.25
326.999	7224.25
327.228	10724.25
327.457	14764.25
327.686	14204.25
327.914	8496.25
328.143	7987.25
328.372	8363.25
328.6	7032.25
328.829	6234.25
329.058	6364.25
329.287	6466.25
329.515	6376.25
329.744	7020.25
329.972	8615.25
330.201	11066.25
330.43	12498.25
330.658	9254.25
330.887	7682.25
331.115	6555.25
331.344	5741.25
331.572	5568.25
331.801	5619.25
332.03	5608.25
332.258	5449.25
332.486	5553.25
332.715	5684.25
332.943	5881.25
333.172	6183.25
333.4	6650.25
333.629	7123.25
333.857	8106.25
334.085	9750.25
334.314	12650.25
334.542	14800.25
334.771	14150.25
334.999	9087.25
335.227	7062.25
335.455	6305.25
335.684	5887.25
335.912	5643.25
336.14	5389.25
336.369	5299.25
336.597	5363.25
336.825	5207.25
337.053	5072.25
337.281	4982.25
337.51	4847.25
337.738	4853.25
337.966	4833.25
338.194	4779.25
338.422	4724.25
338.65	4595.25
338.878	4554.25
339.106	4611.25
339.334	4550.25
339.562	4488.25
339.79	4380.25
340.018	4398.25
340.246	4436.25
340.474	4446.25
340.702	4415.25
340.93	4442.25
341.158	4442.25
341.386	4402.25
341.614	4486.25
341.842	4358.25
342.07	4318.25
342.298	4300.25
342.526	4311.25
342.754	4177.25
342.981	4255.25
343.209	4327.25
343.437	4546.25
343.665	4830.25
343.893	5016.25
344.12	5027.25
344.348	4819.25
344.576	4688.25
344.804	4721.25
345.031	4568.25
345.259	4559.25
345.487	4431.25
345.714	4217.25
345.942	4182.25
346.17	4118.25
346.397	4119.25
346.625	4151.25
346.853	4117.25
347.08	4089.25
347.308	4191.25
347.535	4304.25
347.763	4286.25
347.99	4220.25
348.218	4320.25
348.445	4322.25
348.673	4244.25
348.9	4151.25
349.128	4091.25
349.355	3969.25
349.583	3996.25
349.81	3972.25
350.037	3955.25
350.265	4007.25
350.492	4004.25
350.72	3990.25
350.947	4030.25
351.174	4147.25
351.402	4188.25
351.629	4146.25
351.856	4157.25
352.083	4257.25
352.311	4244.25
352.538	4299.25
352.765	4214.25
352.992	4161.25
353.22	4077.25
353.447	3994.25
353.674	4020.25
353.901	3984.25
354.128	3867.25
354.355	3958.25
354.583	3932.25
354.81	3868.25
355.037	3920.25
355.264	3883.25
355.491	3829.25
355.718	3884.25
355.945	3858.25
356.172	3927.25
356.399	3854.25
356.626	3909.25
356.853	3902.25
357.08	3885.25
357.307	3886.25
357.534	3899.25
357.761	3888.25
357.988	3966.25
358.215	3908.25
358.441	3936.25
358.668	3904.25
358.895	3953.25
359.122	3950.25
359.349	4049.25
359.576	4180.25
359.802	4434.25
360.029	4623.25
360.256	4564.25
360.483	4397.25
360.709	4152.25
360.936	4159.25
361.163	4129.25
361.39	4126.25
361.616	4146.25
361.843	4126.25
362.07	4156.25
362.296	4127.25
362.523	4070.25
362.749	4140.25
362.976	4102.25
363.203	4005.25
363.429	4024.25
363.656	4019.25
363.882	4052.25
364.109	3967.25
364.335	3980.25
364.562	3995.25
364.788	4048.25
365.015	4041.25
365.241	4042.25
365.468	4027.25
365.694	4057.25
365.92	4082.25
366.147	4007.25
366.373	4042.25
366.599	3968.25
366.826	3968.25
367.052	3931.25
367.278	4027.25
367.505	4038.25
367.731	4058.25
367.957	3995.25
368.184	4025.25
368.41	4127.25
368.636	4212.25
368.862	4205.25
369.089	4070.25
369.315	4005.25
369.541	4117.25
369.767	4105.25
369.993	4154.25
370.219	4125.25
370.445	4127.25
370.672	4164.25
370.898	4165.25
371.124	4172.25
371.35	4242.25
371.576	4193.25
371.802	4149.25
372.028	4232.25
372.254	4217.25
372.48	4183.25
372.706	4296.25
372.932	4350.25
373.158	4270.25
373.384	4273.25
373.61	4219.25
373.835	4278.25
374.061	4327.25
374.287	4378.25
374.513	4426.25
374.739	4554.25
374.965	4647.25
375.191	4532.25
375.416	4528.25
375.642	4407.25
375.868	4380.25
376.094	4282.25
376.319	4286.25
376.545	4227.25
376.771	4259.25
376.997	4258.25
377.222	4219.25
377.448	4208.25
377.674	4215.25
377.899	4159.25
378.125	4172.25
378.35	4149.25
378.576	4109.25
378.802	4091.25
379.027	4120.25
379.253	4172.25
379.478	4152.25
379.704	4145.25
379.929	4161.25
380.155	4184.25
380.38	4256.25
380.606	4266.25
380.831	4213.25
381.057	4337.25
381.282	4274.25
381.507	4290.25
381.733	4290.25
381.958	4308.25
382.184	4356.25
382.409	4423.25
382.634	4410.25
382.86	4494.25
383.085	4496.25
383.31	4537.25
383.535	4565.25
383.761	4706.25
383.986	4704.25
384.211	4839.25
384.436	4863.25
384.662	4950.25
384.887	5039.25
385.112	4999.25
385.337	5014.25
385.562	5054.25
385.787	5092.25
386.013	5130.25
386.238	5180.25
386.463	5186.25
386.688	5096.25
386.913	5016.25
387.138	4995.25
387.363	5037.25
387.588	4970.25
387.813	4963.25
388.038	4975.25
388.263	5103.25
388.488	5040.25
388.713	5028.25
388.938	4894.25
389.163	4999.25
389.387	4975.25
389.612	4866.25
389.837	4960.25
390.062	4870.25
390.287	4945.25
390.512	4902.25
390.736	5045.25
390.961	5121.25
391.186	5130.25
391.411	5233.25
391.636	5424.25
391.86	5546.25
392.085	5615.25
392.31	5500.25
392.534	5449.25
392.759	5283.25
392.984	5236.25
393.208	5161.25
393.433	5126.25
393.658	5169.25
393.882	5183.25
394.107	5226.25
394.331	5307.25
394.556	5275.25
394.78	5302.25
395.005	5435.25
395.229	5402.25
395.454	5539.25
395.678	5603.25
395.903	5620.25
396.127	5690.25
396.352	5518.25
396.576	5399.25
396.801	5285.25
397.025	5358.25
397.249	5496.25
397.474	5597.25
397.698	5692.25
397.922	5821.25
398.147	5906.25
398.371	6040.25
398.595	6124.25
398.82	6439.25
399.044	6920.25
399.268	7609.25
399.492	8672.25
399.717	9128.25
399.941	9019.25
400.165	8396.25
400.389	7763.25
400.613	7014.25
400.837	6618.25
401.062	6443.25
401.286	6362.25
401.51	6314.25
401.734	6289.25
401.958	6465.25
402.182	6581.25
402.406	6630.25
402.63	6709.25
402.854	6848.25
403.078	6860.25
403.302	6959.25
403.526	7140.25
403.75	7118.25
403.974	7289.25
404.198	7294.25
404.422	7512.25
404.645	7582.25
404.869	7729.25
405.093	8352.25
405.317	8930.25
405.541	8770.25
405.765	7825.25
405.988	7510.25
406.212	7434.25
406.436	7555.25
406.66	7623.25
406.883	7638.25
407.107	8114.25
407.331	8523.25
407.555	9035.25
407.778	8696.25
408.002	8012.25
408.226	7646.25
408.449	7522.25
408.673	7448.25
408.896	7631.25
409.12	7722.25
409.344	7305.25
409.567	6947.25
409.791	6943.25
410.014	6832.25
410.238	6826.25
410.461	6849.25
410.685	6856.25
410.908	6996.25
411.132	7252.25
411.355	7211.25
411.578	6900.25
411.802	6689.25
412.025	7000.25
412.249	7454.25
412.472	8096.25
412.695	8684.25
412.919	8003.25
413.142	7384.25
413.365	7057.25
413.589	6802.25
413.812	6506.25
414.035	6424.25
414.258	6465.25
414.482	6460.25
414.705	6507.25
414.928	6337.25
415.151	6334.25
415.374	6342.25
415.597	6260.25
415.821	6237.25
416.044	6206.25
416.267	6209.25
416.49	6120.25
416.713	6125.25
416.936	6121.25
417.159	6215.25
417.382	6423.25
417.605	6495.25
417.828	6716.25
418.051	6648.25
418.274	6419.25
418.497	6321.25
418.72	6398.25
418.943	6420.25
419.166	6826.25
419.389	7180.25
419.611	7179.25
419.834	7093.25
420.057	7336.25
420.28	7627.25
420.503	7456.25
420.726	7070.25
420.948	7015.25
421.171	7240.25
421.394	7044.25
421.617	6535.25
421.839	6461.25
422.062	6503.25
422.285	6625.25
422.507	7282.25
422.73	7770.25
422.953	7199.25
423.175	6740.25
423.398	6810.25
423.621	6819.25
423.843	7030.25
424.066	6990.25
424.288	6892.25
424.511	7124.25
424.733	7489.25
424.956	7978.25
425.178	7571.25
425.401	7507.25
425.623	7528.25
425.846	6562.25
426.068	6429.25
426.291	6386.25
426.513	6290.25
426.735	6438.25
426.958	6956.25
427.18	7754.25
427.402	8938.25
427.625	9425.25
427.847	8658.25
428.069	8411.25
428.292	7071.25
428.514	6218.25
428.736	5936.25
428.958	5912.25
429.181	5726.25
429.403	5721.25
429.625	5822.25
429.847	6124.25
430.069	6732.25
430.292	6197.25
430.514	5670.25
430.736	5653.25
430.958	5608.25
431.18	5524.25
431.402	5565.25
431.624	5467.25
431.846	5589.25
432.068	5500.25
432.29	5632.25
432.512	5579.25
432.734	5667.25
432.956	5644.25
433.178	5616.25
433.4	5747.25
433.622	5617.25
433.844	5638.25
434.066	5629.25
434.287	5601.25
434.509	5946.25
434.731	6076.25
434.953	6253.25
435.175	6356.25
435.397	6479.25
435.618	6268.25
435.84	6808.25
436.062	7638.25
436.284	7500.25
436.505	6393.25
436.727	5981.25
436.949	5742.25
437.17	5704.25
437.392	5558.25
437.614	5803.25
437.835	6221.25
438.057	7130.25
438.278	7840.25
438.5	7624.25
438.721	8496.25
438.943	7274.25
439.165	6145.25
439.386	6001.25
439.608	6092.25
439.829	6221.25
440.05	6672.25
440.272	6986.25
440.493	6217.25
440.715	5928.25
440.936	5910.25
441.158	5902.25
441.379	6060.25
441.6	6350.25
441.822	6611.25
442.043	6980.25
442.264	7914.25
442.486	7447.25
442.707	6623.25
442.928	6539.25
443.149	6718.25
443.371	7010.25
443.592	7382.25
443.813	8456.25
444.034	8295.25
444.255	7247.25
444.476	6990.25
444.698	7180.25
444.919	7312.25
445.14	7069.25
445.361	7051.25
445.582	7276.25
445.803	7927.25
446.024	8657.25
446.245	8139.25
446.466	7251.25
446.687	6237.25
446.908	5855.25
447.129	5548.25
447.35	5513.25
447.571	5460.25
447.792	5327.25
448.013	5457.25
448.234	5621.25
448.455	6248.25
448.675	7522.25
448.896	7942.25
449.117	6431.25
449.338	6634.25
449.559	8036.25
449.779	8177.25
450	6163.25
450.221	5527.25
450.442	5372.25
450.662	5299.25
450.883	5426.25
451.104	5524.25
451.324	5388.25
451.545	5200.25
451.766	5014.25
451.986	4900.25
452.207	4896.25
452.428	4942.25
452.648	4951.25
452.869	4983.25
453.089	5070.25
453.31	5136.25
453.53	4924.25
453.751	4906.25
453.971	4894.25
454.192	5085.25
454.412	4844.25
454.633	4816.25
454.853	4740.25
455.073	4845.25
455.294	5234.25
455.514	5777.25
455.734	5219.25
455.955	4720.25
456.175	4609.25
456.395	4570.25
456.616	4492.25
456.836	4556.25
457.056	4518.25
457.276	4477.25
457.497	4646.25
457.717	4701.25
457.937	4722.25
458.157	4740.25
458.377	4842.25
458.598	5170.25
458.818	5928.25
459.038	6702.25
459.258	6501.25
459.478	5744.25
459.698	5706.25
459.918	5788.25
460.138	5903.25
460.358	6032.25
460.578	6133.25
460.798	6128.25
461.018	6171.25
461.238	6061.25
461.458	5964.25
461.678	6073.25
461.898	6128.25
462.118	6185.25
462.338	6466.25
462.558	6673.25
462.777	6879.25
462.997	7408.25
463.217	7822.25
463.437	7601.25
463.657	7184.25
463.876	6984.25
464.096	6988.25
464.316	6993.25
464.536	7049.25
464.755	6838.25
464.975	6739.25
465.195	6963.25
465.414	7163.25
465.634	6153.25
465.854	5778.25
466.073	5579.25
466.293	5359.25
466.512	5298.25
466.732	5134.25
466.951	5112.25
467.171	5126.25
467.391	5286.25
467.61	5366.25
467.829	5498.25
468.049	6184.25
468.268	6980.25
468.488	5864.25
468.707	5366.25
468.927	5162.25
469.146	5135.25
469.365	5131.25
469.585	5116.25
469.804	5297.25
470.023	5397.25
470.243	5318.25
470.462	5546.25
470.681	5694.25
470.901	5547.25
471.12	5370.25
471.339	5395.25
471.558	5438.25
471.777	5495.25
471.997	5869.25
472.216	7755.25
472.435	11563.25
472.654	8620.25
472.873	6573.25
473.092	5834.25
473.311	5558.25
473.53	5422.25
473.749	5430.25
473.968	5880.25
474.187	6889.25
474.406	6355.25
474.625	5420.25
474.844	5146.25
475.063	5070.25
475.282	5095.25
475.501	5133.25
475.72	5102.25
475.939	5172.25
476.158	5194.25
476.377	5228.25
476.596	5242.25
476.814	5371.25
477.033	5452.25
477.252	5430.25
477.471	5540.25
477.69	5657.25
477.908	5694.25
478.127	5906.25
478.346	5909.25
478.564	6077.25
478.783	6207.25
479.002	6358.25
479.22	6296.25
479.439	6429.25
479.658	6683.25
479.876	6695.25
480.095	6953.25
480.313	7420.25
480.532	7467.25
480.751	7798.25
480.969	9774.25
481.188	15013.25
481.406	15191.25
481.624	10431.25
481.843	8352.25
482.061	7470.25
482.28	7048.25
482.498	6774.25
482.717	6486.25
482.935	6385.25
483.153	6280.25
483.372	6256.25
483.59	6194.25
483.808	6096.25
484.027	6103.25
484.245	6183.25
484.463	6190.25
484.681	6288.25
484.9	6295.25
485.118	6222.25
485.336	6392.25
485.554	6438.25
485.772	6464.25
485.99	6371.25
486.209	6538.25
486.427	6497.25
486.645	6523.25
486.863	6700.25
487.081	6653.25
487.299	6546.25
487.517	6466.25
487.735	6559.25
