Data from Circ_1992_H10_HRD10591_00004.txt Node
Date: Wed Jan 03 11:47:45 EST 2024
User: Yrep
Spectrometer: HR+D1059
Trigger mode: 1
Integration Time (sec): 1.000000E-1
Scans to average: 1
Electric dark correction enabled: true
Nonlinearity correction enabled: false
Boxcar width: 0
XAxis mode: Wavelengths
Number of Pixels in Spectrum: 2048
>>>>>Begin Spectral Data<<<<<
223.165	-15.44
223.4	-15.44
223.635	-15.44
223.869	-25.44
224.104	-27.44
224.338	-7.44
224.573	-25.44
224.808	-14.44
225.042	-5.44
225.277	-0.44
225.511	1.56
225.746	11.56
225.98	-5.44
226.215	12.56
226.449	24.56
226.683	22.56
226.918	21.56
227.152	32.56
227.387	39.56
227.621	41.56
227.856	20.56
228.09	36.56
228.324	45.56
228.559	55.56
228.793	56.56
229.027	59.56
229.262	72.56
229.496	76.56
229.73	73.56
229.964	86.56
230.199	78.56
230.433	78.56
230.667	76.56
230.901	82.56
231.136	75.56
231.37	76.56
231.604	82.56
231.838	81.56
232.072	84.56
232.306	86.56
232.541	77.56
232.775	65.56
233.009	83.56
233.243	96.56
233.477	76.56
233.711	81.56
233.945	79.56
234.179	91.56
234.413	66.56
234.647	79.56
234.881	81.56
235.115	78.56
235.349	74.56
235.583	74.56
235.817	78.56
236.051	73.56
236.285	83.56
236.519	65.56
236.753	73.56
236.987	90.56
237.221	91.56
237.455	93.56
237.689	76.56
237.922	69.56
238.156	76.56
238.39	74.56
238.624	79.56
238.858	70.56
239.091	74.56
239.325	82.56
239.559	94.56
239.793	82.56
240.027	85.56
240.26	75.56
240.494	77.56
240.728	65.56
240.961	72.56
241.195	89.56
241.429	91.56
241.662	79.56
241.896	89.56
242.13	78.56
242.363	74.56
242.597	64.56
242.83	72.56
243.064	80.56
243.298	75.56
243.531	62.56
243.765	84.56
243.998	88.56
244.232	82.56
244.465	73.56
244.699	81.56
244.932	88.56
245.166	68.56
245.399	76.56
245.633	69.56
245.866	82.56
246.099	67.56
246.333	72.56
246.566	74.56
246.8	67.56
247.033	77.56
247.266	76.56
247.5	102.56
247.733	86.56
247.966	83.56
248.2	80.56
248.433	81.56
248.666	77.56
248.899	74.56
249.133	90.56
249.366	93.56
249.599	97.56
249.832	96.56
250.066	93.56
250.299	80.56
250.532	77.56
250.765	72.56
250.998	80.56
251.231	93.56
251.465	79.56
251.698	78.56
251.931	79.56
252.164	80.56
252.397	76.56
252.63	81.56
252.863	85.56
253.096	86.56
253.329	85.56
253.562	79.56
253.795	84.56
254.028	76.56
254.261	94.56
254.494	86.56
254.727	81.56
254.96	79.56
255.193	79.56
255.426	88.56
255.659	84.56
255.892	83.56
256.124	78.56
256.357	90.56
256.59	68.56
256.823	68.56
257.056	73.56
257.289	78.56
257.521	86.56
257.754	78.56
257.987	74.56
258.22	77.56
258.452	76.56
258.685	94.56
258.918	87.56
259.151	85.56
259.383	100.56
259.616	83.56
259.849	81.56
260.081	79.56
260.314	67.56
260.547	97.56
260.779	89.56
261.012	94.56
261.244	93.56
261.477	85.56
261.71	78.56
261.942	109.56
262.175	114.56
262.407	99.56
262.64	93.56
262.872	83.56
263.105	81.56
263.337	81.56
263.57	70.56
263.802	89.56
264.035	70.56
264.267	99.56
264.499	89.56
264.732	88.56
264.964	88.56
265.197	90.56
265.429	86.56
265.661	88.56
265.894	86.56
266.126	72.56
266.358	76.56
266.591	80.56
266.823	76.56
267.055	75.56
267.287	89.56
267.52	61.56
267.752	79.56
267.984	92.56
268.216	74.56
268.448	79.56
268.681	88.56
268.913	82.56
269.145	88.56
269.377	76.56
269.609	81.56
269.841	84.56
270.073	83.56
270.306	91.56
270.538	82.56
270.77	72.56
271.002	77.56
271.234	99.56
271.466	85.56
271.698	91.56
271.93	90.56
272.162	105.56
272.394	99.56
272.626	100.56
272.858	84.56
273.09	83.56
273.322	96.56
273.553	92.56
273.785	85.56
274.017	86.56
274.249	84.56
274.481	100.56
274.713	108.56
274.945	72.56
275.176	95.56
275.408	100.56
275.64	84.56
275.872	88.56
276.104	90.56
276.335	83.56
276.567	110.56
276.799	109.56
277.031	114.56
277.262	124.56
277.494	93.56
277.726	102.56
277.957	76.56
278.189	80.56
278.421	98.56
278.652	83.56
278.884	88.56
279.115	75.56
279.347	77.56
279.579	84.56
279.81	107.56
280.042	100.56
280.273	125.56
280.505	99.56
280.736	89.56
280.968	94.56
281.199	90.56
281.431	74.56
281.662	86.56
281.894	85.56
282.125	98.56
282.356	115.56
282.588	130.56
282.819	118.56
283.051	78.56
283.282	91.56
283.513	80.56
283.745	67.56
283.976	83.56
284.207	86.56
284.439	92.56
284.67	87.56
284.901	78.56
285.132	80.56
285.364	94.56
285.595	92.56
285.826	87.56
286.057	84.56
286.288	88.56
286.52	82.56
286.751	83.56
286.982	81.56
287.213	83.56
287.444	92.56
287.675	100.56
287.906	93.56
288.138	81.56
288.369	83.56
288.6	91.56
288.831	92.56
289.062	79.56
289.293	76.56
289.524	79.56
289.755	74.56
289.986	88.56
290.217	96.56
290.448	74.56
290.679	81.56
290.91	84.56
291.141	86.56
291.371	94.56
291.602	97.56
291.833	98.56
292.064	83.56
292.295	74.56
292.526	105.56
292.757	94.56
292.987	88.56
293.218	78.56
293.449	84.56
293.68	83.56
293.91	90.56
294.141	97.56
294.372	88.56
294.603	100.56
294.833	86.56
295.064	99.56
295.295	96.56
295.525	99.56
295.756	102.56
295.987	110.56
296.217	137.56
296.448	118.56
296.679	85.56
296.909	75.56
297.14	82.56
297.37	83.56
297.601	84.56
297.831	80.56
298.062	93.56
298.292	90.56
298.523	82.56
298.753	90.56
298.984	83.56
299.214	93.56
299.445	97.56
299.675	88.56
299.905	99.56
300.136	93.56
300.366	84.56
300.597	82.56
300.827	95.56
301.057	113.56
301.288	102.56
301.518	112.56
301.748	84.56
301.979	106.56
302.209	88.56
302.439	89.56
302.669	99.56
302.9	96.56
303.13	81.56
303.36	86.56
303.59	115.56
303.82	98.56
304.051	106.56
304.281	99.56
304.511	92.56
304.741	74.56
304.971	91.56
305.201	107.56
305.431	88.56
305.661	82.56
305.891	80.56
306.121	93.56
306.352	101.56
306.582	109.56
306.812	93.56
307.042	93.56
307.272	91.56
307.502	107.56
307.731	125.56
307.961	88.56
308.191	94.56
308.421	92.56
308.651	93.56
308.881	81.56
309.111	83.56
309.341	98.56
309.571	86.56
309.8	91.56
310.03	95.56
310.26	99.56
310.49	101.56
310.72	102.56
310.949	94.56
311.179	107.56
311.409	106.56
311.639	104.56
311.868	91.56
312.098	86.56
312.328	91.56
312.557	100.56
312.787	116.56
313.017	109.56
313.246	96.56
313.476	91.56
313.706	84.56
313.935	98.56
314.165	102.56
314.394	93.56
314.624	89.56
314.853	108.56
315.083	95.56
315.312	93.56
315.542	77.56
315.771	100.56
316.001	91.56
316.23	94.56
316.46	85.56
316.689	91.56
316.919	97.56
317.148	80.56
317.377	111.56
317.607	98.56
317.836	106.56
318.065	96.56
318.295	83.56
318.524	88.56
318.753	100.56
318.983	88.56
319.212	107.56
319.441	103.56
319.67	105.56
319.9	92.56
320.129	87.56
320.358	87.56
320.587	97.56
320.816	104.56
321.046	98.56
321.275	89.56
321.504	97.56
321.733	85.56
321.962	96.56
322.191	107.56
322.42	115.56
322.649	117.56
322.878	121.56
323.108	117.56
323.337	135.56
323.566	130.56
323.795	158.56
324.024	208.56
324.253	392.56
324.482	814.56
324.71	1720.56
324.939	2371.56
325.168	848.56
325.397	266.56
325.626	158.56
325.855	128.56
326.084	132.56
326.313	121.56
326.542	144.56
326.77	240.56
326.999	470.56
327.228	963.56
327.457	1777.56
327.686	1452.56
327.914	404.56
328.143	284.56
328.372	254.56
328.6	174.56
328.829	133.56
329.058	133.56
329.287	134.56
329.515	131.56
329.744	157.56
329.972	202.56
330.201	323.56
330.43	481.56
330.658	253.56
330.887	192.56
331.115	143.56
331.344	105.56
331.572	106.56
331.801	112.56
332.03	98.56
332.258	103.56
332.486	94.56
332.715	101.56
332.943	106.56
333.172	84.56
333.4	98.56
333.629	113.56
333.857	129.56
334.085	186.56
334.314	314.56
334.542	584.56
334.771	582.56
334.999	195.56
335.227	105.56
335.455	112.56
335.684	91.56
335.912	97.56
336.14	90.56
336.369	108.56
336.597	97.56
336.825	88.56
337.053	94.56
337.281	96.56
337.51	95.56
337.738	96.56
337.966	97.56
338.194	88.56
338.422	109.56
338.65	97.56
338.878	90.56
339.106	87.56
339.334	79.56
339.562	80.56
339.79	81.56
340.018	89.56
340.246	102.56
340.474	98.56
340.702	92.56
340.93	83.56
341.158	98.56
341.386	98.56
341.614	116.56
341.842	89.56
342.07	91.56
342.298	85.56
342.526	86.56
342.754	93.56
342.981	91.56
343.209	97.56
343.437	97.56
343.665	86.56
343.893	72.56
344.12	98.56
344.348	100.56
344.576	92.56
344.804	86.56
345.031	97.56
345.259	97.56
345.487	79.56
345.714	79.56
345.942	100.56
346.17	92.56
346.397	92.56
346.625	104.56
346.853	100.56
347.08	74.56
347.308	97.56
347.535	92.56
347.763	111.56
347.99	102.56
348.218	98.56
348.445	101.56
348.673	91.56
348.9	99.56
349.128	98.56
349.355	73.56
349.583	93.56
349.81	83.56
350.037	97.56
350.265	94.56
350.492	88.56
350.72	109.56
350.947	106.56
351.174	102.56
351.402	104.56
351.629	89.56
351.856	95.56
352.083	101.56
352.311	112.56
352.538	104.56
352.765	110.56
352.992	124.56
353.22	116.56
353.447	86.56
353.674	97.56
353.901	112.56
354.128	88.56
354.355	101.56
354.583	98.56
354.81	110.56
355.037	107.56
355.264	98.56
355.491	108.56
355.718	104.56
355.945	99.56
356.172	83.56
356.399	97.56
356.626	103.56
356.853	100.56
357.08	99.56
357.307	93.56
357.534	86.56
357.761	91.56
357.988	97.56
358.215	88.56
358.441	107.56
358.668	122.56
358.895	102.56
359.122	114.56
359.349	111.56
359.576	93.56
359.802	102.56
360.029	123.56
360.256	128.56
360.483	95.56
360.709	78.56
360.936	96.56
361.163	97.56
361.39	106.56
361.616	95.56
361.843	94.56
362.07	80.56
362.296	99.56
362.523	101.56
362.749	97.56
362.976	90.56
363.203	94.56
363.429	72.56
363.656	83.56
363.882	86.56
364.109	100.56
364.335	94.56
364.562	80.56
364.788	100.56
365.015	101.56
365.241	104.56
365.468	117.56
365.694	112.56
365.92	81.56
366.147	95.56
366.373	89.56
366.599	84.56
366.826	90.56
367.052	83.56
367.278	84.56
367.505	96.56
367.731	90.56
367.957	85.56
368.184	90.56
368.41	103.56
368.636	102.56
368.862	119.56
369.089	108.56
369.315	83.56
369.541	88.56
369.767	82.56
369.993	83.56
370.219	99.56
370.445	104.56
370.672	98.56
370.898	87.56
371.124	91.56
371.35	90.56
371.576	94.56
371.802	93.56
372.028	88.56
372.254	106.56
372.48	92.56
372.706	95.56
372.932	93.56
373.158	75.56
373.384	84.56
373.61	88.56
373.835	91.56
374.061	82.56
374.287	96.56
374.513	91.56
374.739	90.56
374.965	80.56
375.191	93.56
375.416	88.56
375.642	92.56
375.868	91.56
376.094	88.56
376.319	85.56
376.545	93.56
376.771	82.56
376.997	101.56
377.222	91.56
377.448	100.56
377.674	106.56
377.899	103.56
378.125	112.56
378.35	98.56
378.576	90.56
378.802	88.56
379.027	109.56
379.253	99.56
379.478	98.56
379.704	108.56
379.929	97.56
380.155	113.56
380.38	98.56
380.606	84.56
380.831	107.56
381.057	120.56
381.282	116.56
381.507	114.56
381.733	121.56
381.958	97.56
382.184	116.56
382.409	109.56
382.634	117.56
382.86	116.56
383.085	137.56
383.31	125.56
383.535	101.56
383.761	133.56
383.986	120.56
384.211	132.56
384.436	136.56
384.662	128.56
384.887	125.56
385.112	141.56
385.337	136.56
385.562	145.56
385.787	136.56
386.013	152.56
386.238	159.56
386.463	124.56
386.688	142.56
386.913	141.56
387.138	157.56
387.363	147.56
387.588	128.56
387.813	128.56
388.038	132.56
388.263	176.56
388.488	175.56
388.713	116.56
388.938	95.56
389.163	97.56
389.387	92.56
389.612	83.56
389.837	96.56
390.062	88.56
390.287	96.56
390.512	81.56
390.736	97.56
390.961	105.56
391.186	97.56
391.411	86.56
391.636	80.56
391.86	94.56
392.085	93.56
392.31	85.56
392.534	82.56
392.759	79.56
392.984	85.56
393.208	82.56
393.433	109.56
393.658	70.56
393.882	98.56
394.107	97.56
394.331	100.56
394.556	92.56
394.78	85.56
395.005	96.56
395.229	81.56
395.454	89.56
395.678	93.56
395.903	88.56
396.127	88.56
396.352	92.56
396.576	110.56
396.801	90.56
397.025	89.56
397.249	81.56
397.474	104.56
397.698	80.56
397.922	88.56
398.147	86.56
398.371	96.56
398.595	79.56
398.82	86.56
399.044	90.56
399.268	96.56
399.492	86.56
399.717	86.56
399.941	84.56
400.165	89.56
400.389	94.56
400.613	83.56
400.837	96.56
401.062	85.56
401.286	86.56
401.51	91.56
401.734	82.56
401.958	95.56
402.182	127.56
402.406	153.56
402.63	121.56
402.854	93.56
403.078	89.56
403.302	90.56
403.526	80.56
403.75	99.56
403.974	83.56
404.198	89.56
404.422	83.56
404.645	100.56
404.869	88.56
405.093	106.56
405.317	118.56
405.541	119.56
405.765	98.56
405.988	125.56
406.212	175.56
406.436	230.56
406.66	158.56
406.883	111.56
407.107	94.56
407.331	98.56
407.555	114.56
407.778	107.56
408.002	88.56
408.226	79.56
408.449	80.56
408.673	84.56
408.896	100.56
409.12	105.56
409.344	97.56
409.567	95.56
409.791	96.56
410.014	77.56
410.238	77.56
410.461	79.56
410.685	84.56
410.908	99.56
411.132	111.56
411.355	101.56
411.578	82.56
411.802	96.56
412.025	99.56
412.249	92.56
412.472	109.56
412.695	122.56
412.919	107.56
413.142	96.56
413.365	94.56
413.589	91.56
413.812	106.56
414.035	89.56
414.258	96.56
414.482	100.56
414.705	80.56
414.928	87.56
415.151	85.56
415.374	84.56
415.597	87.56
415.821	101.56
416.044	95.56
416.267	98.56
416.49	91.56
416.713	95.56
416.936	84.56
417.159	98.56
417.382	86.56
417.605	90.56
417.828	82.56
418.051	95.56
418.274	90.56
418.497	83.56
418.72	80.56
418.943	85.56
419.166	96.56
419.389	81.56
419.611	104.56
419.834	91.56
420.057	96.56
420.28	94.56
420.503	87.56
420.726	90.56
420.948	84.56
421.171	90.56
421.394	98.56
421.617	87.56
421.839	79.56
422.062	92.56
422.285	98.56
422.507	104.56
422.73	108.56
422.953	84.56
423.175	82.56
423.398	87.56
423.621	82.56
423.843	82.56
424.066	81.56
424.288	77.56
424.511	100.56
424.733	106.56
424.956	109.56
425.178	108.56
425.401	93.56
425.623	97.56
425.846	83.56
426.068	106.56
426.291	90.56
426.513	95.56
426.735	88.56
426.958	91.56
427.18	98.56
427.402	140.56
427.625	196.56
427.847	167.56
428.069	167.56
428.292	100.56
428.514	75.56
428.736	83.56
428.958	83.56
429.181	85.56
429.403	92.56
429.625	78.56
429.847	110.56
430.069	97.56
430.292	107.56
430.514	93.56
430.736	84.56
430.958	78.56
431.18	83.56
431.402	91.56
431.624	73.56
431.846	75.56
432.068	95.56
432.29	70.56
432.512	89.56
432.734	75.56
432.956	69.56
433.178	92.56
433.4	100.56
433.622	94.56
433.844	95.56
434.066	106.56
434.287	102.56
434.509	95.56
434.731	91.56
434.953	89.56
435.175	91.56
435.397	82.56
435.618	75.56
435.84	105.56
436.062	126.56
436.284	116.56
436.505	114.56
436.727	101.56
436.949	89.56
437.17	87.56
437.392	89.56
437.614	99.56
437.835	104.56
438.057	127.56
438.278	121.56
438.5	101.56
438.721	128.56
438.943	93.56
439.165	104.56
439.386	85.56
439.608	96.56
439.829	103.56
440.05	132.56
440.272	161.56
440.493	97.56
440.715	101.56
440.936	64.56
441.158	64.56
441.379	101.56
441.6	102.56
441.822	95.56
442.043	90.56
442.264	114.56
442.486	101.56
442.707	103.56
442.928	104.56
443.149	136.56
443.371	136.56
443.592	133.56
443.813	112.56
444.034	123.56
444.255	103.56
444.476	88.56
444.698	81.56
444.919	89.56
445.14	122.56
445.361	109.56
445.582	122.56
445.803	147.56
446.024	158.56
446.245	137.56
446.466	128.56
446.687	86.56
446.908	85.56
447.129	93.56
447.35	105.56
447.571	95.56
447.792	102.56
448.013	80.56
448.234	96.56
448.455	94.56
448.675	116.56
448.896	133.56
449.117	89.56
449.338	112.56
449.559	130.56
449.779	133.56
450	99.56
450.221	90.56
450.442	84.56
450.662	101.56
450.883	101.56
451.104	112.56
451.324	94.56
451.545	103.56
451.766	87.56
451.986	94.56
452.207	84.56
452.428	89.56
452.648	116.56
452.869	106.56
453.089	111.56
453.31	112.56
453.53	88.56
453.751	83.56
453.971	91.56
454.192	108.56
454.412	93.56
454.633	98.56
454.853	96.56
455.073	94.56
455.294	86.56
455.514	115.56
455.734	97.56
455.955	99.56
456.175	80.56
456.395	77.56
456.616	85.56
456.836	83.56
457.056	99.56
457.276	88.56
457.497	70.56
457.717	81.56
457.937	86.56
458.157	82.56
458.377	90.56
458.598	114.56
458.818	163.56
459.038	183.56
459.258	113.56
459.478	90.56
459.698	88.56
459.918	89.56
460.138	87.56
460.358	97.56
460.578	88.56
460.798	93.56
461.018	85.56
461.238	89.56
461.458	84.56
461.678	87.56
461.898	82.56
462.118	96.56
462.338	82.56
462.558	88.56
462.777	83.56
462.997	87.56
463.217	78.56
463.437	74.56
463.657	95.56
463.876	92.56
464.096	96.56
464.316	96.56
464.536	94.56
464.755	88.56
464.975	104.56
465.195	177.56
465.414	164.56
465.634	99.56
465.854	90.56
466.073	97.56
466.293	75.56
466.512	79.56
466.732	79.56
466.951	93.56
467.171	94.56
467.391	78.56
467.61	99.56
467.829	123.56
468.049	205.56
468.268	286.56
468.488	106.56
468.707	90.56
468.927	101.56
469.146	99.56
469.365	77.56
469.585	97.56
469.804	100.56
470.023	104.56
470.243	97.56
470.462	110.56
470.681	125.56
470.901	101.56
471.12	93.56
471.339	92.56
471.558	83.56
471.777	106.56
471.997	142.56
472.216	348.56
472.435	746.56
472.654	216.56
472.873	117.56
473.092	86.56
473.311	91.56
473.53	88.56
473.749	84.56
473.968	90.56
474.187	104.56
474.406	105.56
474.625	81.56
474.844	80.56
475.063	95.56
475.282	86.56
475.501	84.56
475.72	83.56
475.939	88.56
476.158	83.56
476.377	91.56
476.596	79.56
476.814	109.56
477.033	72.56
477.252	83.56
477.471	90.56
477.69	91.56
477.908	88.56
478.127	91.56
478.346	100.56
478.564	83.56
478.783	90.56
479.002	91.56
479.22	95.56
479.439	106.56
479.658	96.56
479.876	104.56
480.095	93.56
480.313	109.56
480.532	106.56
480.751	140.56
480.969	345.56
481.188	1231.56
481.406	784.56
481.624	176.56
481.843	102.56
482.061	93.56
482.28	85.56
482.498	97.56
482.717	92.56
482.935	83.56
483.153	85.56
483.372	86.56
483.59	99.56
483.808	89.56
484.027	88.56
484.245	108.56
484.463	93.56
484.681	88.56
484.9	91.56
485.118	101.56
485.336	95.56
485.554	100.56
485.772	107.56
485.99	101.56
486.209	101.56
486.427	93.56
486.645	105.56
486.863	127.56
487.081	110.56
487.299	95.56
487.517	102.56
487.735	106.56
487.953	94.56
488.171	90.56
488.389	92.56
488.607	80.56
488.825	74.56
489.043	85.56
489.261	94.56
489.479	80.56
489.696	90.56
489.914	86.56
490.132	92.56
490.35	76.56
490.568	97.56
490.786	94.56
491.003	82.56
491.221	93.56
491.439	78.56
491.657	78.56
491.874	88.56
492.092	91.56
492.31	93.56
492.527	77.56
492.745	82.56
492.963	100.56
493.18	81.56
493.398	97.56
493.615	89.56
493.833	93.56
494.05	86.56
494.268	90.56
494.485	86.56
494.703	90.56
494.92	82.56
495.138	82.56
495.355	85.56
495.573	87.56
495.79	91.56
496.008	104.56
496.225	89.56
496.442	91.56
496.66	97.56
496.877	85.56
497.094	85.56
497.312	98.56
497.529	93.56
497.746	85.56
497.963	86.56
498.181	91.56
498.398	88.56
498.615	113.56
498.832	104.56
499.049	79.56
499.267	84.56
499.484	82.56
499.701	100.56
499.918	99.56
500.135	88.56
500.352	76.56
500.569	89.56
500.786	88.56
501.003	89.56
501.22	91.56
501.437	90.56
501.654	95.56
501.871	106.56
502.088	97.56
502.305	74.56
502.522	86.56
502.739	88.56
502.956	88.56
503.172	99.56
503.389	91.56
503.606	99.56
503.823	97.56
504.04	92.56
504.256	92.56
504.473	96.56
504.69	78.56
504.907	79.56
505.123	90.56
505.34	92.56
505.557	75.56
505.773	88.56
505.99	76.56
506.207	106.56
506.423	91.56
506.64	94.56
506.856	105.56
507.073	93.56
507.289	78.56
507.506	95.56
507.722	118.56
507.939	102.56
508.155	96.56
508.372	87.56
508.588	88.56
508.805	96.56
509.021	103.56
509.238	102.56
509.454	91.56
509.67	85.56
509.887	92.56
510.103	115.56
510.319	191.56
510.536	684.56
510.752	2248.56
510.968	619.56
511.184	174.56
511.401	120.56
511.617	109.56
511.833	99.56
512.049	90.56
512.265	109.56
512.481	88.56
512.698	92.56
512.914	99.56
513.13	88.56
513.346	101.56
513.562	104.56
513.778	96.56
513.994	88.56
514.21	94.56
514.426	131.56
514.642	137.56
