Data from Circ_1992_H10_HRD10591_00014.txt Node
Date: Wed Jan 03 11:47:47 EST 2024
User: Yrep
Spectrometer: HR+D1059
Trigger mode: 1
Integration Time (sec): 1.000000E-1
Scans to average: 1
Electric dark correction enabled: true
Nonlinearity correction enabled: false
Boxcar width: 0
XAxis mode: Wavelengths
Number of Pixels in Spectrum: 2048
>>>>>Begin Spectral Data<<<<<
223.165	-30
223.4	-30
223.635	-30
223.869	-22
224.104	-13
224.338	-25
224.573	-15
224.808	-10
225.042	-3
225.277	-11
225.511	7
225.746	14
225.98	1
226.215	8
226.449	8
226.683	21
226.918	21
227.152	49
227.387	39
227.621	47
227.856	45
228.09	52
228.324	48
228.559	49
228.793	57
229.027	64
229.262	71
229.496	83
229.73	77
229.964	77
230.199	69
230.433	82
230.667	87
230.901	73
231.136	79
231.37	88
231.604	81
231.838	87
232.072	75
232.306	87
232.541	83
232.775	73
233.009	77
233.243	94
233.477	107
233.711	94
233.945	94
234.179	97
234.413	86
234.647	84
234.881	74
235.115	88
235.349	80
235.583	75
235.817	77
236.051	78
236.285	81
236.519	90
236.753	81
236.987	79
237.221	88
237.455	84
237.689	82
237.922	78
238.156	79
238.39	83
238.624	57
238.858	78
239.091	78
239.325	88
239.559	71
239.793	77
240.027	89
240.26	92
240.494	85
240.728	83
240.961	91
241.195	88
241.429	77
241.662	78
241.896	96
242.13	72
242.363	85
242.597	94
242.83	94
243.064	82
243.298	81
243.531	81
243.765	58
243.998	85
244.232	83
244.465	87
244.699	83
244.932	86
245.166	99
245.399	73
245.633	86
245.866	74
246.099	80
246.333	83
246.566	80
246.8	87
247.033	85
247.266	89
247.5	68
247.733	88
247.966	82
248.2	89
248.433	82
248.666	70
248.899	73
249.133	85
249.366	104
249.599	100
249.832	90
250.066	91
250.299	92
250.532	86
250.765	73
250.998	79
251.231	87
251.465	89
251.698	91
251.931	81
252.164	99
252.397	81
252.63	91
252.863	79
253.096	81
253.329	88
253.562	77
253.795	82
254.028	81
254.261	81
254.494	94
254.727	85
254.96	100
255.193	78
255.426	85
255.659	89
255.892	89
256.124	74
256.357	85
256.59	83
256.823	81
257.056	75
257.289	87
257.521	84
257.754	77
257.987	94
258.22	89
258.452	79
258.685	87
258.918	85
259.151	83
259.383	87
259.616	93
259.849	90
260.081	96
260.314	90
260.547	71
260.779	79
261.012	73
261.244	89
261.477	100
261.71	109
261.942	100
262.175	111
262.407	91
262.64	81
262.872	96
263.105	86
263.337	93
263.57	86
263.802	88
264.035	97
264.267	67
264.499	81
264.732	89
264.964	77
265.197	89
265.429	81
265.661	97
265.894	77
266.126	90
266.358	83
266.591	91
266.823	93
267.055	80
267.287	87
267.52	89
267.752	73
267.984	82
268.216	91
268.448	95
268.681	93
268.913	89
269.145	89
269.377	84
269.609	72
269.841	91
270.073	94
270.306	84
270.538	114
270.77	88
271.002	84
271.234	100
271.466	93
271.698	95
271.93	81
272.162	95
272.394	81
272.626	82
272.858	94
273.09	95
273.322	89
273.553	102
273.785	94
274.017	102
274.249	99
274.481	98
274.713	70
274.945	101
275.176	86
275.408	84
275.64	83
275.872	96
276.104	86
276.335	106
276.567	117
276.799	122
277.031	96
277.262	116
277.494	101
277.726	88
277.957	99
278.189	101
278.421	82
278.652	81
278.884	80
279.115	95
279.347	93
279.579	85
279.81	95
280.042	106
280.273	115
280.505	114
280.736	93
280.968	95
281.199	86
281.431	102
281.662	91
281.894	90
282.125	100
282.356	122
282.588	128
282.819	113
283.051	92
283.282	81
283.513	98
283.745	79
283.976	97
284.207	91
284.439	89
284.67	93
284.901	90
285.132	102
285.364	82
285.595	94
285.826	97
286.057	95
286.288	92
286.52	91
286.751	96
286.982	84
287.213	98
287.444	89
287.675	106
287.906	79
288.138	92
288.369	97
288.6	97
288.831	91
289.062	99
289.293	83
289.524	85
289.755	99
289.986	90
290.217	110
290.448	102
290.679	90
290.91	81
291.141	95
291.371	104
291.602	78
291.833	100
292.064	95
292.295	97
292.526	91
292.757	97
292.987	76
293.218	90
293.449	96
293.68	85
293.91	106
294.141	97
294.372	92
294.603	101
294.833	89
295.064	84
295.295	98
295.525	110
295.756	101
295.987	109
296.217	114
296.448	132
296.679	100
296.909	100
297.14	66
297.37	77
297.601	90
297.831	92
298.062	89
298.292	89
298.523	93
298.753	88
298.984	88
299.214	91
299.445	85
299.675	99
299.905	94
300.136	90
300.366	100
300.597	95
300.827	90
301.057	87
301.288	95
301.518	95
301.748	92
301.979	102
302.209	94
302.439	94
302.669	98
302.9	91
303.13	89
303.36	104
303.59	95
303.82	110
304.051	106
304.281	93
304.511	105
304.741	87
304.971	93
305.201	95
305.431	94
305.661	78
305.891	82
306.121	95
306.352	97
306.582	105
306.812	100
307.042	115
307.272	118
307.502	118
307.731	121
307.961	95
308.191	96
308.421	97
308.651	97
308.881	103
309.111	92
309.341	103
309.571	82
309.8	93
310.03	98
310.26	95
310.49	109
310.72	107
310.949	98
311.179	104
311.409	97
311.639	85
311.868	101
312.098	98
312.328	104
312.557	98
312.787	98
313.017	100
313.246	96
313.476	88
313.706	101
313.935	84
314.165	91
314.394	113
314.624	107
314.853	103
315.083	94
315.312	87
315.542	108
315.771	97
316.001	108
316.23	108
316.46	101
316.689	104
316.919	85
317.148	89
317.377	101
317.607	98
317.836	94
318.065	80
318.295	95
318.524	96
318.753	103
318.983	99
319.212	92
319.441	100
319.67	109
319.9	108
320.129	93
320.358	105
320.587	89
320.816	108
321.046	116
321.275	98
321.504	93
321.733	102
321.962	90
322.191	106
322.42	94
322.649	108
322.878	114
323.108	112
323.337	141
323.566	131
323.795	144
324.024	189
324.253	361
324.482	723
324.71	1449
324.939	1890
325.168	695
325.397	245
325.626	152
325.855	125
326.084	128
326.313	141
326.542	128
326.77	211
326.999	402
327.228	832
327.457	1505
327.686	1215
327.914	348
328.143	245
328.372	243
328.6	161
328.829	126
329.058	133
329.287	126
329.515	119
329.744	130
329.972	181
330.201	275
330.43	369
330.658	231
330.887	170
331.115	120
331.344	105
331.572	102
331.801	105
332.03	111
332.258	85
332.486	106
332.715	105
332.943	112
333.172	106
333.4	104
333.629	115
333.857	142
334.085	170
334.314	273
334.542	498
334.771	461
334.999	185
335.227	109
335.455	102
335.684	94
335.912	101
336.14	107
336.369	94
336.597	104
336.825	101
337.053	89
337.281	105
337.51	89
337.738	108
337.966	99
338.194	95
338.422	100
338.65	113
338.878	103
339.106	91
339.334	98
339.562	85
339.79	106
340.018	82
340.246	96
340.474	100
340.702	94
340.93	99
341.158	94
341.386	95
341.614	99
341.842	104
342.07	98
342.298	114
342.526	100
342.754	101
342.981	97
343.209	95
343.437	89
343.665	83
343.893	87
344.12	107
344.348	106
344.576	96
344.804	91
345.031	97
345.259	94
345.487	104
345.714	99
345.942	93
346.17	97
346.397	88
346.625	97
346.853	97
347.08	118
347.308	98
347.535	104
347.763	109
347.99	111
348.218	107
348.445	100
348.673	97
348.9	99
349.128	95
349.355	105
349.583	104
349.81	108
350.037	100
350.265	94
350.492	101
350.72	96
350.947	94
351.174	110
351.402	109
351.629	113
351.856	114
352.083	86
352.311	115
352.538	109
352.765	105
352.992	105
353.22	102
353.447	111
353.674	105
353.901	100
354.128	104
354.355	102
354.583	93
354.81	102
355.037	96
355.264	99
355.491	110
355.718	89
355.945	96
356.172	103
356.399	98
356.626	109
356.853	102
357.08	93
357.307	87
357.534	85
357.761	102
357.988	98
358.215	100
358.441	93
358.668	104
358.895	109
359.122	85
359.349	97
359.576	114
359.802	115
360.029	126
360.256	120
360.483	114
360.709	97
360.936	96
361.163	80
361.39	107
361.616	89
361.843	97
362.07	102
362.296	94
362.523	96
362.749	87
362.976	96
363.203	97
363.429	97
363.656	90
363.882	100
364.109	95
364.335	114
364.562	98
364.788	100
365.015	97
365.241	95
365.468	99
365.694	97
365.92	100
366.147	96
366.373	94
366.599	96
366.826	89
367.052	88
367.278	106
367.505	83
367.731	94
367.957	107
368.184	96
368.41	95
368.636	107
368.862	127
369.089	101
369.315	111
369.541	85
369.767	89
369.993	101
370.219	80
370.445	90
370.672	91
370.898	90
371.124	98
371.35	90
371.576	97
371.802	80
372.028	102
372.254	108
372.48	96
372.706	92
372.932	90
373.158	98
373.384	85
373.61	98
373.835	96
374.061	85
374.287	107
374.513	109
374.739	98
374.965	107
375.191	97
375.416	100
375.642	84
375.868	102
376.094	103
376.319	93
376.545	97
376.771	84
376.997	106
377.222	89
377.448	92
377.674	84
377.899	101
378.125	85
378.35	94
378.576	94
378.802	100
379.027	103
379.253	96
379.478	111
379.704	109
379.929	97
380.155	105
380.38	87
380.606	99
380.831	114
381.057	95
381.282	115
381.507	105
381.733	109
381.958	122
382.184	118
382.409	112
382.634	114
382.86	128
383.085	116
383.31	127
383.535	114
383.761	102
383.986	102
384.211	107
384.436	105
384.662	105
384.887	124
385.112	151
385.337	126
385.562	120
385.787	131
386.013	133
386.238	146
386.463	122
386.688	138
386.913	125
387.138	115
387.363	113
387.588	122
387.813	119
388.038	123
388.263	149
388.488	135
388.713	113
388.938	93
389.163	107
389.387	97
389.612	119
389.837	90
390.062	94
390.287	104
390.512	85
390.736	101
390.961	89
391.186	98
391.411	96
391.636	109
391.86	90
392.085	88
392.31	85
392.534	87
392.759	79
392.984	87
393.208	95
393.433	93
393.658	95
393.882	86
394.107	69
394.331	93
394.556	87
394.78	103
395.005	82
395.229	86
395.454	100
395.678	87
395.903	97
396.127	90
396.352	98
396.576	89
396.801	83
397.025	85
397.249	87
397.474	90
397.698	80
397.922	93
398.147	97
398.371	75
398.595	95
398.82	105
399.044	91
399.268	88
399.492	87
399.717	92
399.941	97
400.165	105
400.389	96
400.613	93
400.837	92
401.062	97
401.286	103
401.51	95
401.734	93
401.958	107
402.182	118
402.406	156
402.63	113
402.854	91
403.078	102
403.302	105
403.526	89
403.75	104
403.974	86
404.198	89
404.422	96
404.645	88
404.869	94
405.093	100
405.317	126
405.541	111
405.765	103
405.988	119
406.212	151
406.436	205
406.66	132
406.883	94
407.107	104
407.331	105
407.555	97
407.778	103
408.002	93
408.226	97
408.449	97
408.673	94
408.896	87
409.12	90
409.344	96
409.567	84
409.791	95
410.014	85
410.238	104
410.461	98
410.685	93
410.908	89
411.132	115
411.355	103
411.578	110
411.802	85
412.025	82
412.249	100
412.472	114
412.695	116
412.919	91
413.142	103
413.365	89
413.589	95
413.812	89
414.035	107
414.258	103
414.482	91
414.705	101
414.928	98
415.151	98
415.374	103
415.597	102
415.821	89
416.044	105
416.267	91
416.49	84
416.713	85
416.936	101
417.159	102
417.382	94
417.605	101
417.828	102
418.051	97
418.274	102
418.497	78
418.72	93
418.943	92
419.166	97
419.389	99
419.611	103
419.834	92
420.057	95
420.28	97
420.503	88
420.726	83
420.948	83
421.171	100
421.394	93
421.617	84
421.839	77
422.062	99
422.285	101
422.507	94
422.73	112
422.953	93
423.175	92
423.398	97
423.621	85
423.843	95
424.066	90
424.288	86
424.511	86
424.733	108
424.956	111
425.178	106
425.401	99
425.623	107
425.846	105
426.068	87
426.291	81
426.513	94
426.735	101
426.958	98
427.18	114
427.402	153
427.625	160
427.847	158
428.069	158
428.292	95
428.514	89
428.736	87
428.958	78
429.181	102
429.403	85
429.625	85
429.847	104
430.069	101
430.292	104
430.514	99
430.736	88
430.958	93
431.18	84
431.402	107
431.624	99
431.846	68
432.068	80
432.29	90
432.512	98
432.734	93
432.956	87
433.178	105
433.4	97
433.622	96
433.844	80
434.066	95
434.287	95
434.509	81
434.731	85
434.953	98
435.175	90
435.397	99
435.618	84
435.84	99
436.062	105
436.284	114
436.505	106
436.727	106
436.949	101
437.17	102
437.392	99
437.614	104
437.835	110
438.057	114
438.278	118
438.5	110
438.721	122
438.943	101
439.165	87
439.386	95
439.608	87
439.829	101
440.05	112
440.272	148
440.493	92
440.715	85
440.936	82
441.158	90
441.379	98
441.6	94
441.822	89
442.043	106
442.264	98
442.486	101
442.707	105
442.928	99
443.149	133
443.371	135
443.592	107
443.813	113
444.034	110
444.255	114
444.476	109
444.698	89
444.919	98
445.14	119
445.361	123
445.582	104
445.803	145
446.024	158
446.245	145
446.466	113
446.687	85
446.908	93
447.129	98
447.35	87
447.571	101
447.792	91
448.013	109
448.234	102
448.455	109
448.675	132
448.896	132
449.117	114
449.338	94
449.559	114
449.779	143
450	92
450.221	95
450.442	97
450.662	96
450.883	109
451.104	107
451.324	82
451.545	87
451.766	87
451.986	88
452.207	84
452.428	92
452.648	99
452.869	106
453.089	108
453.31	99
453.53	77
453.751	90
453.971	93
454.192	117
454.412	102
454.633	101
454.853	91
455.073	90
455.294	99
455.514	97
455.734	98
455.955	90
456.175	109
456.395	90
456.616	90
456.836	84
457.056	101
457.276	81
457.497	97
457.717	77
457.937	85
458.157	84
458.377	104
458.598	85
458.818	134
459.038	155
459.258	112
459.478	93
459.698	93
459.918	96
460.138	83
460.358	73
460.578	93
460.798	97
461.018	93
461.238	101
461.458	86
461.678	77
461.898	100
462.118	87
462.338	95
462.558	93
462.777	90
462.997	86
463.217	97
463.437	102
463.657	80
463.876	95
464.096	88
464.316	103
464.536	105
464.755	96
464.975	107
465.195	148
465.414	149
465.634	95
465.854	90
466.073	101
466.293	90
466.512	97
466.732	88
466.951	104
467.171	93
467.391	92
467.61	120
467.829	108
468.049	185
468.268	239
468.488	113
468.707	96
468.927	76
469.146	94
469.365	89
469.585	66
469.804	96
470.023	97
470.243	98
470.462	84
470.681	109
470.901	81
471.12	102
471.339	87
471.558	82
471.777	94
471.997	143
472.216	309
472.435	612
472.654	204
472.873	97
473.092	91
473.311	88
473.53	89
473.749	85
473.968	107
474.187	99
474.406	85
474.625	85
474.844	98
475.063	87
475.282	90
475.501	89
475.72	87
475.939	97
476.158	83
476.377	84
476.596	95
476.814	97
477.033	107
477.252	80
477.471	102
477.69	91
477.908	91
478.127	114
478.346	104
478.564	111
478.783	99
479.002	99
479.22	101
479.439	110
479.658	117
479.876	99
480.095	87
480.313	106
480.532	124
480.751	133
480.969	330
481.188	1047
481.406	639
481.624	155
481.843	94
482.061	93
482.28	77
482.498	89
482.717	102
482.935	89
483.153	104
483.372	88
483.59	79
483.808	103
484.027	104
484.245	90
484.463	98
484.681	95
484.9	85
485.118	104
485.336	87
485.554	95
485.772	118
485.99	98
486.209	99
486.427	102
486.645	105
486.863	114
487.081	118
487.299	113
487.517	104
487.735	98
487.953	84
488.171	78
488.389	97
488.607	101
488.825	95
489.043	99
489.261	85
489.479	93
489.696	102
489.914	83
490.132	91
490.35	90
490.568	94
490.786	97
491.003	82
491.221	88
491.439	98
491.657	86
491.874	97
492.092	99
492.31	87
492.527	92
492.745	94
492.963	83
493.18	103
493.398	102
493.615	91
493.833	94
494.05	94
494.268	108
494.485	101
494.703	81
494.92	87
495.138	100
495.355	101
495.573	90
495.79	98
496.008	91
496.225	105
496.442	82
496.66	86
496.877	98
497.094	104
497.312	105
497.529	93
497.746	104
497.963	99
498.181	88
498.398	95
498.615	105
498.832	88
499.049	95
499.267	105
499.484	92
499.701	104
499.918	102
500.135	96
500.352	102
500.569	99
500.786	95
501.003	89
501.22	103
501.437	81
501.654	78
501.871	109
502.088	90
502.305	89
502.522	83
502.739	83
502.956	105
503.172	106
503.389	97
503.606	108
503.823	112
504.04	109
504.256	83
504.473	93
504.69	105
504.907	88
505.123	94
505.34	89
505.557	97
505.773	90
505.99	99
506.207	93
506.423	94
506.64	95
506.856	109
507.073	99
507.289	98
507.506	107
507.722	113
507.939	95
508.155	104
508.372	100
508.588	94
508.805	99
509.021	97
509.238	105
509.454	105
509.67	98
509.887	112
510.103	124
510.319	201
510.536	616
510.752	1941
510.968	561
511.184	149
511.401	116
511.617	87
511.833	97
512.049	98
512.265	104
512.481	89
512.698	90
512.914	97
513.13	92
513.346	91
513.562	89
513.778	92
513.994	107
514.21	111
514.426	101
514.642	129
514.858	129
515.074	165
515.29	364
515.506	1203
515.721	473
515.937	155
516.153	106
516.369	100
516.585	103
516.801	91
517.016	93
517.232	96
517.448	104
517.664	104
517.879	94
518.095	97
518.311	106
518.527	88
518.742	93
518.958	97
519.173	102
519.389	101
519.605	105
519.82	80
520.036	97
520.251	113
520.467	121
520.682	108
520.898	118
521.113	109
521.329	132
521.544	194
521.76	470
521.975	2004
522.19	1239
522.406	272
522.621	111
522.836	102
523.052	105
523.267	84
523.482	102
523.698	113
523.913	123
524.128	98
524.343	91
524.559	107
524.774	92
524.989	91
525.204	96
525.419	104
525.634	77
525.849	93
526.064	93
526.28	110
526.495	94
526.71	100
526.925	102
527.14	97
527.355	97
527.57	84
527.785	90
527.999	84
528.214	99
528.429	104
528.644	85
528.859	99
529.074	105
529.289	121
529.503	169
529.718	107
529.933	89
530.148	100
530.363	91
530.577	96
530.792	105
531.007	89
531.221	111
531.436	95
531.651	81
531.865	84
532.08	101
532.295	94
532.509	110
532.724	86
532.938	90
533.153	107
533.367	95
533.582	100
533.796	96
534.011	89
534.225	101
534.44	107
534.654	86
534.868	89
535.083	81
535.297	94
535.511	91
535.726	99
535.94	106
536.154	109
536.369	85
536.583	93
536.797	90
537.011	112
537.225	85
537.44	82
537.654	92
537.868	89
538.082	86
538.296	89
538.51	92
538.724	94
538.938	88
539.153	105
539.367	105
539.581	74
539.795	89
540.009	102
540.222	101
540.436	103
540.65	90
540.864	101
541.078	101
541.292	88
541.506	103
541.72	96
541.934	98
542.147	84
542.361	89
542.575	97
542.789	83
543.002	84
543.216	83
543.43	102
543.644	104
543.857	103
544.071	106
544.285	111
544.498	101
544.712	91
544.925	95
545.139	80
545.352	104
545.566	103
545.779	99
545.993	88
546.206	78
546.42	103
546.633	114
546.847	99
547.06	90
547.274	105
547.487	101
547.7	89
547.914	97
548.127	90
548.34	94
548.554	91
548.767	89
548.98	82
549.193	90
549.407	92
549.62	88
549.833	99
550.046	88
550.259	89
550.473	77
550.686	95
550.899	88
551.112	97
551.325	99
551.538	93
551.751	94
551.964	86
552.177	85
552.39	90
552.603	102
552.816	94
553.029	89
553.242	97
553.455	114
553.667	114
553.88	103
554.093	93
554.306	99
554.519	110
554.732	106
554.944	103
555.157	91
555.37	87
555.583	97
555.795	101
556.008	102
556.221	104
556.433	87
556.646	97
556.859	110
557.071	108
557.284	102
557.496	100
557.709	105
557.921	101
558.134	104
558.346	100
558.559	104
558.771	87
558.984	88
559.196	101
559.409	92
559.621	98
559.833	87
560.046	83
560.258	80
560.47	99
560.683	101
560.895	101
561.107	97
561.32	95
561.532	98
561.744	88
561.956	82
562.168	98
562.381	112
562.593	90
562.805	81
563.017	89
563.229	94
563.441	99
563.653	95
563.865	74
564.077	98
564.289	101
564.501	94
564.713	107
564.925	109
565.137	107
565.349	97
565.561	102
565.773	98
565.985	96
566.197	102
566.408	91
566.62	97
566.832	103
567.044	93
567.255	98
567.467	92
567.679	91
567.891	82
568.102	106
568.314	95
568.526	90
568.737	98
568.949	83
569.161	99
569.372	81
569.584	87
569.795	103
570.007	107
570.218	205
570.43	133
570.641	104
570.853	96
571.064	84
571.276	95
571.487	79
571.698	101
571.91	79
572.121	87
572.333	106
572.544	99
572.755	82
572.966	101
573.178	84
573.389	111
573.6	89
573.811	98
574.023	87
574.234	87
574.445	89
574.656	82
574.867	86
575.078	101
575.289	94
575.501	106
575.712	100
575.923	105
576.134	96
576.345	85
576.556	85
576.767	90
576.978	101
577.188	98
577.399	93
577.61	87
577.821	91
578.032	109
578.243	230
578.454	578
578.665	182
578.875	101
579.086	84
579.297	91
579.508	85
579.718	94
579.929	90
580.14	91
580.35	82
