Data from Circ_1992_H10_HRD10591_00044.txt Node
Date: Wed Jan 03 11:47:53 EST 2024
User: Yrep
Spectrometer: HR+D1059
Trigger mode: 1
Integration Time (sec): 1.000000E-1
Scans to average: 1
Electric dark correction enabled: true
Nonlinearity correction enabled: false
Boxcar width: 0
XAxis mode: Wavelengths
Number of Pixels in Spectrum: 2048
>>>>>Begin Spectral Data<<<<<
223.165	-17.88
223.4	-17.88
223.635	-17.88
223.869	-15.88
224.104	-6.88
224.338	-17.88
224.573	-27.88
224.808	-13.88
225.042	-5.88
225.277	-0.88
225.511	6.12
225.746	4.12
225.98	17.12
226.215	3.12
226.449	17.12
226.683	25.12
226.918	21.12
227.152	13.12
227.387	40.12
227.621	39.12
227.856	37.12
228.09	50.12
228.324	54.12
228.559	62.12
228.793	60.12
229.027	71.12
229.262	63.12
229.496	80.12
229.73	95.12
229.964	77.12
230.199	70.12
230.433	84.12
230.667	79.12
230.901	76.12
231.136	89.12
231.37	62.12
231.604	78.12
231.838	74.12
232.072	77.12
232.306	82.12
232.541	78.12
232.775	77.12
233.009	79.12
233.243	87.12
233.477	75.12
233.711	77.12
233.945	90.12
234.179	80.12
234.413	82.12
234.647	82.12
234.881	70.12
235.115	70.12
235.349	77.12
235.583	73.12
235.817	80.12
236.051	64.12
236.285	63.12
236.519	76.12
236.753	79.12
236.987	71.12
237.221	83.12
237.455	83.12
237.689	82.12
237.922	86.12
238.156	71.12
238.39	81.12
238.624	83.12
238.858	59.12
239.091	86.12
239.325	81.12
239.559	76.12
239.793	91.12
240.027	87.12
240.26	79.12
240.494	97.12
240.728	82.12
240.961	78.12
241.195	86.12
241.429	72.12
241.662	63.12
241.896	82.12
242.13	83.12
242.363	69.12
242.597	73.12
242.83	90.12
243.064	89.12
243.298	84.12
243.531	80.12
243.765	77.12
243.998	77.12
244.232	82.12
244.465	71.12
244.699	88.12
244.932	77.12
245.166	75.12
245.399	91.12
245.633	80.12
245.866	67.12
246.099	77.12
246.333	75.12
246.566	75.12
246.8	81.12
247.033	84.12
247.266	67.12
247.5	83.12
247.733	87.12
247.966	66.12
248.2	81.12
248.433	75.12
248.666	80.12
248.899	81.12
249.133	89.12
249.366	114.12
249.599	95.12
249.832	101.12
250.066	80.12
250.299	85.12
250.532	84.12
250.765	63.12
250.998	65.12
251.231	82.12
251.465	83.12
251.698	76.12
251.931	78.12
252.164	85.12
252.397	79.12
252.63	73.12
252.863	77.12
253.096	74.12
253.329	85.12
253.562	82.12
253.795	91.12
254.028	82.12
254.261	88.12
254.494	82.12
254.727	89.12
254.96	81.12
255.193	95.12
255.426	75.12
255.659	87.12
255.892	87.12
256.124	98.12
256.357	99.12
256.59	82.12
256.823	85.12
257.056	69.12
257.289	91.12
257.521	91.12
257.754	84.12
257.987	95.12
258.22	94.12
258.452	95.12
258.685	91.12
258.918	100.12
259.151	85.12
259.383	93.12
259.616	99.12
259.849	93.12
260.081	85.12
260.314	89.12
260.547	70.12
260.779	81.12
261.012	77.12
261.244	84.12
261.477	83.12
261.71	85.12
261.942	118.12
262.175	107.12
262.407	95.12
262.64	95.12
262.872	81.12
263.105	84.12
263.337	89.12
263.57	89.12
263.802	81.12
264.035	98.12
264.267	86.12
264.499	79.12
264.732	85.12
264.964	83.12
265.197	73.12
265.429	85.12
265.661	86.12
265.894	66.12
266.126	77.12
266.358	84.12
266.591	91.12
266.823	89.12
267.055	89.12
267.287	86.12
267.52	78.12
267.752	77.12
267.984	77.12
268.216	95.12
268.448	89.12
268.681	91.12
268.913	83.12
269.145	81.12
269.377	87.12
269.609	89.12
269.841	100.12
270.073	89.12
270.306	98.12
270.538	83.12
270.77	79.12
271.002	95.12
271.234	81.12
271.466	79.12
271.698	81.12
271.93	84.12
272.162	79.12
272.394	86.12
272.626	79.12
272.858	80.12
273.09	80.12
273.322	86.12
273.553	78.12
273.785	81.12
274.017	92.12
274.249	98.12
274.481	77.12
274.713	91.12
274.945	85.12
275.176	96.12
275.408	83.12
275.64	96.12
275.872	116.12
276.104	105.12
276.335	95.12
276.567	111.12
276.799	125.12
277.031	111.12
277.262	117.12
277.494	100.12
277.726	85.12
277.957	84.12
278.189	84.12
278.421	84.12
278.652	85.12
278.884	86.12
279.115	84.12
279.347	91.12
279.579	80.12
279.81	97.12
280.042	118.12
280.273	145.12
280.505	111.12
280.736	96.12
280.968	102.12
281.199	84.12
281.431	84.12
281.662	85.12
281.894	79.12
282.125	101.12
282.356	109.12
282.588	145.12
282.819	119.12
283.051	94.12
283.282	83.12
283.513	85.12
283.745	95.12
283.976	66.12
284.207	91.12
284.439	101.12
284.67	74.12
284.901	87.12
285.132	100.12
285.364	90.12
285.595	89.12
285.826	101.12
286.057	95.12
286.288	84.12
286.52	93.12
286.751	81.12
286.982	79.12
287.213	86.12
287.444	85.12
287.675	88.12
287.906	82.12
288.138	103.12
288.369	97.12
288.6	90.12
288.831	94.12
289.062	94.12
289.293	87.12
289.524	70.12
289.755	75.12
289.986	72.12
290.217	85.12
290.448	85.12
290.679	88.12
290.91	91.12
291.141	92.12
291.371	85.12
291.602	82.12
291.833	87.12
292.064	90.12
292.295	93.12
292.526	92.12
292.757	107.12
292.987	103.12
293.218	85.12
293.449	101.12
293.68	64.12
293.91	86.12
294.141	87.12
294.372	88.12
294.603	85.12
294.833	98.12
295.064	82.12
295.295	95.12
295.525	88.12
295.756	91.12
295.987	111.12
296.217	126.12
296.448	131.12
296.679	93.12
296.909	93.12
297.14	97.12
297.37	78.12
297.601	101.12
297.831	84.12
298.062	95.12
298.292	91.12
298.523	99.12
298.753	75.12
298.984	91.12
299.214	86.12
299.445	98.12
299.675	89.12
299.905	100.12
300.136	87.12
300.366	93.12
300.597	86.12
300.827	88.12
301.057	93.12
301.288	108.12
301.518	86.12
301.748	81.12
301.979	105.12
302.209	96.12
302.439	83.12
302.669	85.12
302.9	86.12
303.13	99.12
303.36	109.12
303.59	120.12
303.82	112.12
304.051	92.12
304.281	102.12
304.511	90.12
304.741	91.12
304.971	85.12
305.201	80.12
305.431	91.12
305.661	92.12
305.891	99.12
306.121	87.12
306.352	107.12
306.582	103.12
306.812	97.12
307.042	101.12
307.272	107.12
307.502	127.12
307.731	127.12
307.961	111.12
308.191	89.12
308.421	92.12
308.651	90.12
308.881	92.12
309.111	99.12
309.341	93.12
309.571	99.12
309.8	100.12
310.03	96.12
310.26	116.12
310.49	113.12
310.72	103.12
310.949	114.12
311.179	105.12
311.409	83.12
311.639	93.12
311.868	93.12
312.098	102.12
312.328	100.12
312.557	106.12
312.787	102.12
313.017	113.12
313.246	99.12
313.476	99.12
313.706	96.12
313.935	91.12
314.165	103.12
314.394	106.12
314.624	111.12
314.853	95.12
315.083	82.12
315.312	92.12
315.542	89.12
315.771	102.12
316.001	86.12
316.23	91.12
316.46	81.12
316.689	98.12
316.919	74.12
317.148	93.12
317.377	105.12
317.607	86.12
317.836	84.12
318.065	98.12
318.295	94.12
318.524	87.12
318.753	98.12
318.983	96.12
319.212	101.12
319.441	111.12
319.67	96.12
319.9	80.12
320.129	103.12
320.358	106.12
320.587	116.12
320.816	96.12
321.046	97.12
321.275	93.12
321.504	97.12
321.733	91.12
321.962	101.12
322.191	103.12
322.42	102.12
322.649	100.12
322.878	113.12
323.108	111.12
323.337	122.12
323.566	124.12
323.795	149.12
324.024	201.12
324.253	376.12
324.482	765.12
324.71	1597.12
324.939	2089.12
325.168	777.12
325.397	235.12
325.626	156.12
325.855	136.12
326.084	122.12
326.313	131.12
326.542	158.12
326.77	210.12
326.999	427.12
327.228	857.12
327.457	1544.12
327.686	1239.12
327.914	393.12
328.143	284.12
328.372	341.12
328.6	215.12
328.829	151.12
329.058	133.12
329.287	134.12
329.515	122.12
329.744	161.12
329.972	235.12
330.201	440.12
330.43	631.12
330.658	322.12
330.887	193.12
331.115	149.12
331.344	106.12
331.572	95.12
331.801	107.12
332.03	104.12
332.258	85.12
332.486	103.12
332.715	98.12
332.943	93.12
333.172	103.12
333.4	102.12
333.629	121.12
333.857	162.12
334.085	236.12
334.314	432.12
334.542	795.12
334.771	745.12
334.999	233.12
335.227	130.12
335.455	109.12
335.684	104.12
335.912	107.12
336.14	113.12
336.369	111.12
336.597	104.12
336.825	106.12
337.053	81.12
337.281	75.12
337.51	93.12
337.738	95.12
337.966	89.12
338.194	88.12
338.422	106.12
338.65	93.12
338.878	95.12
339.106	100.12
339.334	86.12
339.562	96.12
339.79	88.12
340.018	86.12
340.246	91.12
340.474	97.12
340.702	85.12
340.93	94.12
341.158	92.12
341.386	88.12
341.614	83.12
341.842	95.12
342.07	103.12
342.298	99.12
342.526	97.12
342.754	84.12
342.981	90.12
343.209	90.12
343.437	101.12
343.665	98.12
343.893	85.12
344.12	103.12
344.348	103.12
344.576	85.12
344.804	83.12
345.031	86.12
345.259	87.12
345.487	86.12
345.714	84.12
345.942	94.12
346.17	74.12
346.397	83.12
346.625	89.12
346.853	96.12
347.08	94.12
347.308	93.12
347.535	102.12
347.763	103.12
347.99	102.12
348.218	128.12
348.445	104.12
348.673	100.12
348.9	88.12
349.128	104.12
349.355	94.12
349.583	88.12
349.81	94.12
350.037	106.12
350.265	102.12
350.492	88.12
350.72	95.12
350.947	93.12
351.174	111.12
351.402	120.12
351.629	100.12
351.856	92.12
352.083	90.12
352.311	102.12
352.538	111.12
352.765	104.12
352.992	101.12
353.22	106.12
353.447	106.12
353.674	89.12
353.901	104.12
354.128	119.12
354.355	102.12
354.583	79.12
354.81	105.12
355.037	101.12
355.264	84.12
355.491	98.12
355.718	77.12
355.945	105.12
356.172	94.12
356.399	94.12
356.626	83.12
356.853	95.12
357.08	96.12
357.307	91.12
357.534	88.12
357.761	87.12
357.988	100.12
358.215	91.12
358.441	93.12
358.668	99.12
358.895	105.12
359.122	90.12
359.349	80.12
359.576	97.12
359.802	81.12
360.029	109.12
360.256	131.12
360.483	113.12
360.709	91.12
360.936	99.12
361.163	101.12
361.39	103.12
361.616	113.12
361.843	83.12
362.07	88.12
362.296	98.12
362.523	76.12
362.749	89.12
362.976	98.12
363.203	90.12
363.429	94.12
363.656	87.12
363.882	76.12
364.109	93.12
364.335	90.12
364.562	98.12
364.788	89.12
365.015	84.12
365.241	83.12
365.468	107.12
365.694	111.12
365.92	95.12
366.147	95.12
366.373	103.12
366.599	82.12
366.826	77.12
367.052	85.12
367.278	95.12
367.505	106.12
367.731	99.12
367.957	102.12
368.184	86.12
368.41	94.12
368.636	106.12
368.862	127.12
369.089	111.12
369.315	112.12
369.541	101.12
369.767	82.12
369.993	89.12
370.219	85.12
370.445	87.12
370.672	94.12
370.898	77.12
371.124	68.12
371.35	88.12
371.576	90.12
371.802	92.12
372.028	94.12
372.254	82.12
372.48	76.12
372.706	98.12
372.932	89.12
373.158	79.12
373.384	89.12
373.61	83.12
373.835	89.12
374.061	91.12
374.287	88.12
374.513	89.12
374.739	93.12
374.965	101.12
375.191	87.12
375.416	95.12
375.642	69.12
375.868	85.12
376.094	91.12
376.319	92.12
376.545	89.12
376.771	86.12
376.997	95.12
377.222	83.12
377.448	93.12
377.674	99.12
377.899	86.12
378.125	78.12
378.35	92.12
378.576	91.12
378.802	103.12
379.027	75.12
379.253	90.12
379.478	95.12
379.704	97.12
379.929	93.12
380.155	102.12
380.38	88.12
380.606	84.12
380.831	97.12
381.057	84.12
381.282	90.12
381.507	95.12
381.733	92.12
381.958	101.12
382.184	104.12
382.409	96.12
382.634	104.12
382.86	100.12
383.085	103.12
383.31	92.12
383.535	93.12
383.761	86.12
383.986	105.12
384.211	101.12
384.436	104.12
384.662	108.12
384.887	103.12
385.112	104.12
385.337	91.12
385.562	107.12
385.787	116.12
386.013	95.12
386.238	119.12
386.463	116.12
386.688	101.12
386.913	95.12
387.138	103.12
387.363	100.12
387.588	101.12
387.813	107.12
388.038	113.12
388.263	117.12
388.488	118.12
388.713	100.12
388.938	94.12
389.163	94.12
389.387	84.12
389.612	82.12
389.837	82.12
390.062	90.12
390.287	90.12
390.512	91.12
390.736	92.12
390.961	96.12
391.186	104.12
391.411	94.12
391.636	85.12
391.86	85.12
392.085	90.12
392.31	92.12
392.534	81.12
392.759	83.12
392.984	73.12
393.208	95.12
393.433	79.12
393.658	104.12
393.882	77.12
394.107	78.12
394.331	95.12
394.556	98.12
394.78	80.12
395.005	82.12
395.229	83.12
395.454	102.12
395.678	89.12
395.903	84.12
396.127	101.12
396.352	86.12
396.576	81.12
396.801	85.12
397.025	94.12
397.249	96.12
397.474	79.12
397.698	87.12
397.922	80.12
398.147	80.12
398.371	86.12
398.595	84.12
398.82	92.12
399.044	89.12
399.268	77.12
399.492	85.12
399.717	87.12
399.941	101.12
400.165	92.12
400.389	93.12
400.613	85.12
400.837	78.12
401.062	62.12
401.286	85.12
401.51	87.12
401.734	96.12
401.958	101.12
402.182	115.12
402.406	143.12
402.63	119.12
402.854	96.12
403.078	82.12
403.302	79.12
403.526	83.12
403.75	90.12
403.974	93.12
404.198	77.12
404.422	88.12
404.645	98.12
404.869	99.12
405.093	96.12
405.317	121.12
405.541	107.12
405.765	100.12
405.988	115.12
406.212	188.12
406.436	227.12
406.66	155.12
406.883	92.12
407.107	95.12
407.331	100.12
407.555	110.12
407.778	99.12
408.002	92.12
408.226	93.12
408.449	91.12
408.673	87.12
408.896	93.12
409.12	97.12
409.344	89.12
409.567	97.12
409.791	91.12
410.014	96.12
410.238	90.12
410.461	86.12
410.685	94.12
410.908	105.12
411.132	107.12
411.355	99.12
411.578	92.12
411.802	93.12
412.025	91.12
412.249	98.12
412.472	103.12
412.695	120.12
412.919	100.12
413.142	94.12
413.365	89.12
413.589	111.12
413.812	95.12
414.035	90.12
414.258	90.12
414.482	76.12
414.705	71.12
414.928	89.12
415.151	93.12
415.374	91.12
415.597	94.12
415.821	93.12
416.044	84.12
416.267	94.12
416.49	96.12
416.713	99.12
416.936	80.12
417.159	95.12
417.382	91.12
417.605	99.12
417.828	109.12
418.051	98.12
418.274	81.12
418.497	84.12
418.72	70.12
418.943	89.12
419.166	90.12
419.389	90.12
419.611	87.12
419.834	85.12
420.057	89.12
420.28	87.12
420.503	87.12
420.726	84.12
420.948	95.12
421.171	105.12
421.394	84.12
421.617	84.12
421.839	89.12
422.062	94.12
422.285	78.12
422.507	96.12
422.73	100.12
422.953	99.12
423.175	99.12
423.398	99.12
423.621	79.12
423.843	89.12
424.066	81.12
424.288	106.12
424.511	101.12
424.733	89.12
424.956	93.12
425.178	101.12
425.401	102.12
425.623	98.12
425.846	109.12
426.068	113.12
426.291	102.12
426.513	87.12
426.735	92.12
426.958	81.12
427.18	108.12
427.402	135.12
427.625	193.12
427.847	171.12
428.069	161.12
428.292	95.12
428.514	95.12
428.736	82.12
428.958	70.12
429.181	98.12
429.403	87.12
429.625	90.12
429.847	88.12
430.069	103.12
430.292	91.12
430.514	77.12
430.736	89.12
430.958	81.12
431.18	81.12
431.402	88.12
431.624	85.12
431.846	83.12
432.068	83.12
432.29	83.12
432.512	85.12
432.734	89.12
432.956	57.12
433.178	99.12
433.4	89.12
433.622	94.12
433.844	86.12
434.066	95.12
434.287	79.12
434.509	90.12
434.731	87.12
434.953	85.12
435.175	91.12
435.397	79.12
435.618	96.12
435.84	98.12
436.062	127.12
436.284	118.12
436.505	105.12
436.727	103.12
436.949	106.12
437.17	84.12
437.392	76.12
437.614	86.12
437.835	98.12
438.057	116.12
438.278	109.12
438.5	97.12
438.721	114.12
438.943	105.12
439.165	93.12
439.386	94.12
439.608	86.12
439.829	105.12
440.05	133.12
440.272	150.12
440.493	108.12
440.715	90.12
440.936	93.12
441.158	88.12
441.379	89.12
441.6	88.12
441.822	93.12
442.043	94.12
442.264	98.12
442.486	101.12
442.707	99.12
442.928	112.12
443.149	147.12
443.371	144.12
443.592	118.12
443.813	118.12
444.034	109.12
444.255	92.12
444.476	85.12
444.698	86.12
444.919	82.12
445.14	130.12
445.361	127.12
445.582	122.12
445.803	138.12
446.024	132.12
446.245	144.12
446.466	125.12
446.687	85.12
446.908	83.12
447.129	98.12
447.35	110.12
447.571	86.12
447.792	95.12
448.013	97.12
448.234	97.12
448.455	103.12
448.675	121.12
448.896	121.12
449.117	92.12
449.338	100.12
449.559	129.12
449.779	117.12
450	89.12
450.221	95.12
450.442	91.12
450.662	109.12
450.883	113.12
451.104	115.12
451.324	103.12
451.545	92.12
451.766	100.12
451.986	92.12
452.207	89.12
452.428	95.12
452.648	101.12
452.869	100.12
453.089	113.12
453.31	111.12
453.53	100.12
453.751	96.12
453.971	96.12
454.192	107.12
454.412	101.12
454.633	89.12
454.853	90.12
455.073	79.12
455.294	80.12
455.514	111.12
455.734	83.12
455.955	71.12
456.175	91.12
456.395	89.12
456.616	73.12
456.836	88.12
457.056	86.12
457.276	83.12
457.497	93.12
457.717	85.12
457.937	85.12
458.157	85.12
458.377	87.12
458.598	111.12
458.818	159.12
459.038	174.12
459.258	128.12
459.478	93.12
459.698	68.12
459.918	86.12
460.138	85.12
460.358	80.12
460.578	69.12
460.798	79.12
461.018	78.12
461.238	95.12
461.458	88.12
461.678	87.12
461.898	86.12
462.118	84.12
462.338	79.12
462.558	83.12
462.777	75.12
462.997	95.12
463.217	84.12
463.437	71.12
463.657	86.12
463.876	90.12
464.096	93.12
464.316	87.12
464.536	87.12
464.755	113.12
464.975	102.12
465.195	181.12
465.414	174.12
465.634	100.12
465.854	97.12
466.073	91.12
466.293	70.12
466.512	84.12
466.732	77.12
466.951	93.12
467.171	99.12
467.391	105.12
467.61	111.12
467.829	153.12
468.049	270.12
468.268	358.12
468.488	132.12
468.707	92.12
468.927	96.12
469.146	75.12
469.365	84.12
469.585	97.12
469.804	86.12
470.023	113.12
470.243	104.12
470.462	96.12
470.681	100.12
470.901	91.12
471.12	66.12
471.339	92.12
471.558	91.12
471.777	110.12
471.997	182.12
472.216	502.12
472.435	1060.12
472.654	289.12
472.873	117.12
473.092	91.12
473.311	102.12
473.53	92.12
473.749	86.12
473.968	92.12
474.187	106.12
474.406	89.12
474.625	91.12
474.844	85.12
475.063	86.12
475.282	91.12
475.501	77.12
475.72	87.12
475.939	81.12
476.158	97.12
476.377	68.12
476.596	85.12
476.814	102.12
477.033	87.12
477.252	107.12
477.471	77.12
477.69	89.12
477.908	99.12
478.127	83.12
478.346	78.12
478.564	87.12
478.783	97.12
479.002	94.12
479.22	91.12
479.439	98.12
479.658	107.12
479.876	94.12
480.095	120.12
480.313	91.12
480.532	103.12
480.751	177.12
480.969	488.12
481.188	1883.12
481.406	1103.12
481.624	195.12
481.843	99.12
482.061	96.12
482.28	96.12
482.498	92.12
482.717	99.12
482.935	87.12
483.153	88.12
483.372	93.12
483.59	106.12
483.808	81.12
484.027	95.12
484.245	85.12
484.463	82.12
484.681	101.12
484.9	77.12
485.118	93.12
485.336	100.12
485.554	105.12
485.772	93.12
485.99	106.12
486.209	109.12
486.427	92.12
486.645	99.12
486.863	114.12
487.081	104.12
487.299	100.12
487.517	83.12
487.735	108.12
487.953	96.12
488.171	77.12
488.389	79.12
488.607	91.12
488.825	83.12
489.043	87.12
489.261	78.12
489.479	86.12
489.696	79.12
489.914	93.12
490.132	100.12
490.35	90.12
490.568	94.12
490.786	94.12
491.003	82.12
491.221	91.12
491.439	87.12
491.657	84.12
491.874	107.12
492.092	94.12
492.31	94.12
492.527	84.12
492.745	102.12
492.963	93.12
493.18	80.12
493.398	83.12
493.615	98.12
493.833	90.12
494.05	90.12
494.268	67.12
494.485	96.12
494.703	86.12
494.92	85.12
495.138	86.12
495.355	99.12
495.573	90.12
495.79	87.12
496.008	81.12
496.225	97.12
496.442	82.12
496.66	107.12
496.877	73.12
497.094	101.12
497.312	81.12
497.529	94.12
497.746	92.12
497.963	77.12
498.181	93.12
498.398	103.12
498.615	97.12
498.832	109.12
499.049	102.12
499.267	83.12
499.484	89.12
499.701	87.12
499.918	93.12
500.135	85.12
500.352	80.12
500.569	88.12
500.786	91.12
501.003	97.12
501.22	86.12
501.437	94.12
501.654	78.12
501.871	94.12
502.088	79.12
502.305	81.12
502.522	86.12
502.739	90.12
502.956	98.12
503.172	86.12
503.389	83.12
503.606	102.12
503.823	105.12
504.04	86.12
504.256	92.12
504.473	93.12
504.69	86.12
504.907	89.12
505.123	84.12
505.34	92.12
505.557	89.12
505.773	94.12
505.99	86.12
506.207	89.12
506.423	93.12
506.64	87.12
506.856	83.12
507.073	97.12
507.289	98.12
507.506	103.12
507.722	107.12
507.939	108.12
508.155	108.12
508.372	94.12
508.588	96.12
508.805	94.12
509.021	96.12
509.238	89.12
509.454	110.12
509.67	100.12
509.887	114.12
510.103	114.12
510.319	203.12
510.536	740.12
510.752	2343.12
510.968	649.12
511.184	158.12
511.401	100.12
511.617	99.12
511.833	110.12
512.049	82.12
512.265	84.12
512.481	80.12
512.698	92.12
512.914	97.12
513.13	86.12
513.346	79.12
513.562	98.12
513.778	87.12
513.994	102.12
514.21	97.12
514.426	117.12
514.642	142.12
514.858	133.12
