Data from Circ_1992_H10_HRD10591_00071.txt Node
Date: Wed Jan 03 11:47:59 EST 2024
User: Yrep
Spectrometer: HR+D1059
Trigger mode: 1
Integration Time (sec): 1.000000E-1
Scans to average: 1
Electric dark correction enabled: true
Nonlinearity correction enabled: false
Boxcar width: 0
XAxis mode: Wavelengths
Number of Pixels in Spectrum: 2048
>>>>>Begin Spectral Data<<<<<
223.165	-18.94
223.4	-18.94
223.635	-18.94
223.869	-24.94
224.104	-12.94
224.338	-17.94
224.573	-25.94
224.808	-8.94
225.042	-15.94
225.277	-4.94
225.511	-2.94
225.746	3.06
225.98	7.06
226.215	11.06
226.449	29.06
226.683	20.06
226.918	35.06
227.152	28.06
227.387	41.06
227.621	43.06
227.856	54.06
228.09	37.06
228.324	46.06
228.559	47.06
228.793	59.06
229.027	72.06
229.262	66.06
229.496	55.06
229.73	65.06
229.964	87.06
230.199	69.06
230.433	70.06
230.667	84.06
230.901	78.06
231.136	76.06
231.37	83.06
231.604	91.06
231.838	68.06
232.072	73.06
232.306	73.06
232.541	74.06
232.775	75.06
233.009	73.06
233.243	77.06
233.477	74.06
233.711	75.06
233.945	65.06
234.179	74.06
234.413	77.06
234.647	80.06
234.881	80.06
235.115	75.06
235.349	82.06
235.583	68.06
235.817	86.06
236.051	81.06
236.285	66.06
236.519	76.06
236.753	83.06
236.987	79.06
237.221	86.06
237.455	72.06
237.689	61.06
237.922	73.06
238.156	89.06
238.39	67.06
238.624	77.06
238.858	71.06
239.091	66.06
239.325	73.06
239.559	55.06
239.793	66.06
240.027	70.06
240.26	74.06
240.494	60.06
240.728	76.06
240.961	66.06
241.195	75.06
241.429	71.06
241.662	86.06
241.896	76.06
242.13	71.06
242.363	72.06
242.597	73.06
242.83	81.06
243.064	68.06
243.298	89.06
243.531	85.06
243.765	80.06
243.998	76.06
244.232	78.06
244.465	90.06
244.699	84.06
244.932	80.06
245.166	73.06
245.399	64.06
245.633	78.06
245.866	72.06
246.099	74.06
246.333	69.06
246.566	74.06
246.8	89.06
247.033	64.06
247.266	63.06
247.5	81.06
247.733	81.06
247.966	75.06
248.2	67.06
248.433	79.06
248.666	78.06
248.899	84.06
249.133	84.06
249.366	87.06
249.599	93.06
249.832	74.06
250.066	79.06
250.299	81.06
250.532	83.06
250.765	80.06
250.998	79.06
251.231	81.06
251.465	91.06
251.698	77.06
251.931	89.06
252.164	78.06
252.397	92.06
252.63	71.06
252.863	73.06
253.096	63.06
253.329	85.06
253.562	89.06
253.795	83.06
254.028	62.06
254.261	66.06
254.494	87.06
254.727	83.06
254.96	88.06
255.193	70.06
255.426	81.06
255.659	89.06
255.892	81.06
256.124	82.06
256.357	75.06
256.59	75.06
256.823	74.06
257.056	80.06
257.289	83.06
257.521	76.06
257.754	90.06
257.987	71.06
258.22	75.06
258.452	58.06
258.685	88.06
258.918	84.06
259.151	71.06
259.383	85.06
259.616	79.06
259.849	90.06
260.081	75.06
260.314	82.06
260.547	99.06
260.779	76.06
261.012	83.06
261.244	81.06
261.477	84.06
261.71	91.06
261.942	106.06
262.175	84.06
262.407	85.06
262.64	72.06
262.872	80.06
263.105	82.06
263.337	86.06
263.57	64.06
263.802	83.06
264.035	84.06
264.267	77.06
264.499	58.06
264.732	83.06
264.964	89.06
265.197	68.06
265.429	90.06
265.661	71.06
265.894	79.06
266.126	75.06
266.358	85.06
266.591	84.06
266.823	84.06
267.055	86.06
267.287	88.06
267.52	75.06
267.752	101.06
267.984	109.06
268.216	74.06
268.448	93.06
268.681	79.06
268.913	80.06
269.145	82.06
269.377	94.06
269.609	83.06
269.841	77.06
270.073	80.06
270.306	84.06
270.538	88.06
270.77	78.06
271.002	91.06
271.234	84.06
271.466	74.06
271.698	92.06
271.93	89.06
272.162	81.06
272.394	72.06
272.626	84.06
272.858	88.06
273.09	82.06
273.322	83.06
273.553	72.06
273.785	79.06
274.017	67.06
274.249	65.06
274.481	85.06
274.713	88.06
274.945	91.06
275.176	88.06
275.408	89.06
275.64	82.06
275.872	87.06
276.104	73.06
276.335	88.06
276.567	97.06
276.799	112.06
277.031	105.06
277.262	114.06
277.494	101.06
277.726	80.06
277.957	72.06
278.189	93.06
278.421	79.06
278.652	84.06
278.884	85.06
279.115	90.06
279.347	74.06
279.579	94.06
279.81	95.06
280.042	103.06
280.273	134.06
280.505	96.06
280.736	81.06
280.968	91.06
281.199	95.06
281.431	90.06
281.662	84.06
281.894	79.06
282.125	84.06
282.356	110.06
282.588	115.06
282.819	96.06
283.051	107.06
283.282	87.06
283.513	88.06
283.745	81.06
283.976	82.06
284.207	84.06
284.439	94.06
284.67	86.06
284.901	76.06
285.132	85.06
285.364	66.06
285.595	95.06
285.826	91.06
286.057	73.06
286.288	80.06
286.52	84.06
286.751	80.06
286.982	72.06
287.213	95.06
287.444	96.06
287.675	75.06
287.906	90.06
288.138	95.06
288.369	87.06
288.6	79.06
288.831	100.06
289.062	91.06
289.293	73.06
289.524	86.06
289.755	77.06
289.986	73.06
290.217	83.06
290.448	91.06
290.679	76.06
290.91	94.06
291.141	84.06
291.371	79.06
291.602	88.06
291.833	94.06
292.064	87.06
292.295	90.06
292.526	92.06
292.757	87.06
292.987	84.06
293.218	89.06
293.449	89.06
293.68	97.06
293.91	89.06
294.141	103.06
294.372	91.06
294.603	95.06
294.833	84.06
295.064	93.06
295.295	89.06
295.525	90.06
295.756	89.06
295.987	99.06
296.217	116.06
296.448	120.06
296.679	97.06
296.909	83.06
297.14	87.06
297.37	85.06
297.601	88.06
297.831	81.06
298.062	87.06
298.292	105.06
298.523	83.06
298.753	79.06
298.984	72.06
299.214	93.06
299.445	99.06
299.675	90.06
299.905	95.06
300.136	82.06
300.366	97.06
300.597	89.06
300.827	84.06
301.057	90.06
301.288	107.06
301.518	89.06
301.748	77.06
301.979	96.06
302.209	88.06
302.439	83.06
302.669	98.06
302.9	89.06
303.13	91.06
303.36	78.06
303.59	107.06
303.82	101.06
304.051	85.06
304.281	76.06
304.511	88.06
304.741	70.06
304.971	85.06
305.201	94.06
305.431	86.06
305.661	77.06
305.891	93.06
306.121	75.06
306.352	101.06
306.582	94.06
306.812	90.06
307.042	112.06
307.272	105.06
307.502	120.06
307.731	118.06
307.961	104.06
308.191	83.06
308.421	97.06
308.651	96.06
308.881	89.06
309.111	79.06
309.341	81.06
309.571	99.06
309.8	89.06
310.03	92.06
310.26	99.06
310.49	87.06
310.72	97.06
310.949	109.06
311.179	91.06
311.409	88.06
311.639	84.06
311.868	82.06
312.098	87.06
312.328	96.06
312.557	98.06
312.787	92.06
313.017	90.06
313.246	91.06
313.476	85.06
313.706	93.06
313.935	90.06
314.165	100.06
314.394	93.06
314.624	102.06
314.853	98.06
315.083	92.06
315.312	76.06
315.542	91.06
315.771	95.06
316.001	95.06
316.23	85.06
316.46	95.06
316.689	89.06
316.919	91.06
317.148	109.06
317.377	105.06
317.607	97.06
317.836	83.06
318.065	91.06
318.295	96.06
318.524	91.06
318.753	88.06
318.983	86.06
319.212	85.06
319.441	95.06
319.67	95.06
319.9	79.06
320.129	79.06
320.358	86.06
320.587	93.06
320.816	99.06
321.046	96.06
321.275	86.06
321.504	101.06
321.733	89.06
321.962	91.06
322.191	104.06
322.42	84.06
322.649	99.06
322.878	106.06
323.108	110.06
323.337	95.06
323.566	124.06
323.795	151.06
324.024	190.06
324.253	376.06
324.482	807.06
324.71	1685.06
324.939	2295.06
325.168	843.06
325.397	263.06
325.626	139.06
325.855	124.06
326.084	118.06
326.313	121.06
326.542	137.06
326.77	218.06
326.999	461.06
327.228	944.06
327.457	1767.06
327.686	1400.06
327.914	403.06
328.143	260.06
328.372	265.06
328.6	187.06
328.829	135.06
329.058	131.06
329.287	133.06
329.515	116.06
329.744	144.06
329.972	225.06
330.201	366.06
330.43	509.06
330.658	281.06
330.887	151.06
331.115	126.06
331.344	88.06
331.572	99.06
331.801	99.06
332.03	104.06
332.258	109.06
332.486	102.06
332.715	103.06
332.943	105.06
333.172	97.06
333.4	108.06
333.629	120.06
333.857	123.06
334.085	206.06
334.314	375.06
334.542	647.06
334.771	587.06
334.999	207.06
335.227	113.06
335.455	101.06
335.684	93.06
335.912	103.06
336.14	94.06
336.369	96.06
336.597	109.06
336.825	103.06
337.053	94.06
337.281	93.06
337.51	101.06
337.738	78.06
337.966	97.06
338.194	99.06
338.422	90.06
338.65	91.06
338.878	77.06
339.106	95.06
339.334	91.06
339.562	89.06
339.79	100.06
340.018	84.06
340.246	76.06
340.474	85.06
340.702	87.06
340.93	91.06
341.158	79.06
341.386	88.06
341.614	85.06
341.842	106.06
342.07	83.06
342.298	91.06
342.526	78.06
342.754	85.06
342.981	92.06
343.209	94.06
343.437	93.06
343.665	87.06
343.893	96.06
344.12	101.06
344.348	90.06
344.576	95.06
344.804	101.06
345.031	106.06
345.259	97.06
345.487	85.06
345.714	92.06
345.942	95.06
346.17	80.06
346.397	91.06
346.625	87.06
346.853	92.06
347.08	89.06
347.308	91.06
347.535	86.06
347.763	84.06
347.99	92.06
348.218	72.06
348.445	88.06
348.673	84.06
348.9	89.06
349.128	89.06
349.355	91.06
349.583	77.06
349.81	98.06
350.037	93.06
350.265	87.06
350.492	101.06
350.72	114.06
350.947	98.06
351.174	95.06
351.402	83.06
351.629	103.06
351.856	79.06
352.083	96.06
352.311	103.06
352.538	107.06
352.765	95.06
352.992	111.06
353.22	97.06
353.447	101.06
353.674	89.06
353.901	89.06
354.128	81.06
354.355	83.06
354.583	96.06
354.81	81.06
355.037	101.06
355.264	93.06
355.491	91.06
355.718	91.06
355.945	88.06
356.172	97.06
356.399	93.06
356.626	82.06
356.853	92.06
357.08	104.06
357.307	83.06
357.534	79.06
357.761	88.06
357.988	94.06
358.215	104.06
358.441	82.06
358.668	107.06
358.895	108.06
359.122	82.06
359.349	90.06
359.576	101.06
359.802	89.06
360.029	111.06
360.256	95.06
360.483	98.06
360.709	99.06
360.936	92.06
361.163	92.06
361.39	84.06
361.616	85.06
361.843	83.06
362.07	96.06
362.296	91.06
362.523	92.06
362.749	84.06
362.976	100.06
363.203	91.06
363.429	95.06
363.656	78.06
363.882	79.06
364.109	96.06
364.335	98.06
364.562	103.06
364.788	79.06
365.015	88.06
365.241	95.06
365.468	88.06
365.694	89.06
365.92	87.06
366.147	86.06
366.373	100.06
366.599	93.06
366.826	83.06
367.052	93.06
367.278	93.06
367.505	83.06
367.731	92.06
367.957	89.06
368.184	95.06
368.41	89.06
368.636	104.06
368.862	106.06
369.089	96.06
369.315	107.06
369.541	87.06
369.767	71.06
369.993	90.06
370.219	80.06
370.445	75.06
370.672	96.06
370.898	83.06
371.124	91.06
371.35	88.06
371.576	75.06
371.802	95.06
372.028	88.06
372.254	82.06
372.48	79.06
372.706	87.06
372.932	94.06
373.158	75.06
373.384	82.06
373.61	107.06
373.835	87.06
374.061	88.06
374.287	62.06
374.513	86.06
374.739	102.06
374.965	106.06
375.191	63.06
375.416	92.06
375.642	93.06
375.868	96.06
376.094	101.06
376.319	93.06
376.545	106.06
376.771	91.06
376.997	88.06
377.222	95.06
377.448	103.06
377.674	86.06
377.899	85.06
378.125	75.06
378.35	87.06
378.576	90.06
378.802	102.06
379.027	92.06
379.253	93.06
379.478	85.06
379.704	95.06
379.929	85.06
380.155	100.06
380.38	94.06
380.606	98.06
380.831	91.06
381.057	91.06
381.282	99.06
381.507	94.06
381.733	96.06
381.958	93.06
382.184	84.06
382.409	98.06
382.634	90.06
382.86	88.06
383.085	104.06
383.31	92.06
383.535	85.06
383.761	108.06
383.986	92.06
384.211	100.06
384.436	92.06
384.662	90.06
384.887	92.06
385.112	104.06
385.337	98.06
385.562	108.06
385.787	99.06
386.013	125.06
386.238	108.06
386.463	90.06
386.688	98.06
386.913	105.06
387.138	105.06
387.363	87.06
387.588	88.06
387.813	96.06
388.038	104.06
388.263	101.06
388.488	106.06
388.713	95.06
388.938	80.06
389.163	90.06
389.387	99.06
389.612	99.06
389.837	96.06
390.062	100.06
390.287	77.06
390.512	89.06
390.736	93.06
390.961	91.06
391.186	86.06
391.411	90.06
391.636	83.06
391.86	94.06
392.085	93.06
392.31	71.06
392.534	76.06
392.759	93.06
392.984	93.06
393.208	98.06
393.433	85.06
393.658	95.06
393.882	92.06
394.107	90.06
394.331	76.06
394.556	77.06
394.78	77.06
395.005	106.06
395.229	81.06
395.454	91.06
395.678	91.06
395.903	67.06
396.127	84.06
396.352	66.06
396.576	89.06
396.801	90.06
397.025	87.06
397.249	86.06
397.474	90.06
397.698	91.06
397.922	104.06
398.147	93.06
398.371	67.06
398.595	81.06
398.82	87.06
399.044	79.06
399.268	83.06
399.492	79.06
399.717	80.06
399.941	83.06
400.165	101.06
400.389	87.06
400.613	83.06
400.837	107.06
401.062	103.06
401.286	88.06
401.51	89.06
401.734	82.06
401.958	94.06
402.182	114.06
402.406	147.06
402.63	102.06
402.854	109.06
403.078	87.06
403.302	81.06
403.526	95.06
403.75	83.06
403.974	91.06
404.198	84.06
404.422	89.06
404.645	85.06
404.869	96.06
405.093	108.06
405.317	100.06
405.541	99.06
405.765	100.06
405.988	106.06
406.212	148.06
406.436	179.06
406.66	119.06
406.883	83.06
407.107	81.06
407.331	85.06
407.555	97.06
407.778	97.06
408.002	91.06
408.226	73.06
408.449	92.06
408.673	88.06
408.896	79.06
409.12	91.06
409.344	77.06
409.567	81.06
409.791	91.06
410.014	73.06
410.238	93.06
410.461	98.06
410.685	75.06
410.908	92.06
411.132	107.06
411.355	88.06
411.578	95.06
411.802	79.06
412.025	80.06
412.249	96.06
412.472	108.06
412.695	120.06
412.919	89.06
413.142	84.06
413.365	93.06
413.589	105.06
413.812	80.06
414.035	90.06
414.258	91.06
414.482	79.06
414.705	77.06
414.928	90.06
415.151	93.06
415.374	96.06
415.597	85.06
415.821	84.06
416.044	83.06
416.267	83.06
416.49	81.06
416.713	101.06
416.936	93.06
417.159	83.06
417.382	81.06
417.605	95.06
417.828	104.06
418.051	101.06
418.274	88.06
418.497	79.06
418.72	92.06
418.943	77.06
419.166	88.06
419.389	86.06
419.611	84.06
419.834	87.06
420.057	87.06
420.28	82.06
420.503	83.06
420.726	97.06
420.948	78.06
421.171	87.06
421.394	94.06
421.617	100.06
421.839	88.06
422.062	96.06
422.285	95.06
422.507	90.06
422.73	90.06
422.953	96.06
423.175	83.06
423.398	78.06
423.621	97.06
423.843	98.06
424.066	75.06
424.288	72.06
424.511	83.06
424.733	99.06
424.956	99.06
425.178	99.06
425.401	106.06
425.623	99.06
425.846	78.06
426.068	96.06
426.291	91.06
426.513	90.06
426.735	89.06
426.958	101.06
427.18	121.06
427.402	135.06
427.625	171.06
427.847	157.06
428.069	160.06
428.292	108.06
428.514	76.06
428.736	87.06
428.958	79.06
429.181	93.06
429.403	86.06
429.625	90.06
429.847	80.06
430.069	103.06
430.292	88.06
430.514	80.06
430.736	83.06
430.958	85.06
431.18	95.06
431.402	80.06
431.624	87.06
431.846	89.06
432.068	85.06
432.29	81.06
432.512	91.06
432.734	80.06
432.956	95.06
433.178	94.06
433.4	99.06
433.622	86.06
433.844	82.06
434.066	88.06
434.287	75.06
434.509	81.06
434.731	85.06
434.953	98.06
435.175	82.06
435.397	99.06
435.618	89.06
435.84	95.06
436.062	116.06
436.284	115.06
436.505	98.06
436.727	82.06
436.949	88.06
437.17	89.06
437.392	83.06
437.614	76.06
437.835	90.06
438.057	120.06
438.278	104.06
438.5	101.06
438.721	93.06
438.943	103.06
439.165	84.06
439.386	81.06
439.608	88.06
439.829	90.06
440.05	116.06
440.272	140.06
440.493	96.06
440.715	95.06
440.936	96.06
441.158	81.06
441.379	92.06
441.6	95.06
441.822	100.06
442.043	100.06
442.264	96.06
442.486	104.06
442.707	91.06
442.928	104.06
443.149	111.06
443.371	130.06
443.592	93.06
443.813	102.06
444.034	116.06
444.255	94.06
444.476	89.06
444.698	88.06
444.919	79.06
445.14	123.06
445.361	114.06
445.582	100.06
445.803	135.06
446.024	133.06
446.245	137.06
446.466	96.06
446.687	97.06
446.908	106.06
447.129	94.06
447.35	78.06
447.571	80.06
447.792	79.06
448.013	95.06
448.234	93.06
448.455	95.06
448.675	103.06
448.896	100.06
449.117	99.06
449.338	100.06
449.559	144.06
449.779	123.06
450	90.06
450.221	84.06
450.442	90.06
450.662	82.06
450.883	102.06
451.104	96.06
451.324	101.06
451.545	91.06
451.766	90.06
451.986	89.06
452.207	87.06
452.428	88.06
452.648	101.06
452.869	99.06
453.089	106.06
453.31	112.06
453.53	89.06
453.751	88.06
453.971	91.06
454.192	90.06
454.412	83.06
454.633	89.06
454.853	79.06
455.073	94.06
455.294	79.06
455.514	82.06
455.734	83.06
455.955	70.06
456.175	79.06
456.395	80.06
456.616	83.06
456.836	79.06
457.056	100.06
457.276	86.06
457.497	83.06
457.717	86.06
457.937	85.06
458.157	72.06
458.377	87.06
458.598	104.06
458.818	142.06
459.038	145.06
459.258	116.06
459.478	75.06
459.698	80.06
459.918	87.06
460.138	87.06
460.358	82.06
460.578	86.06
460.798	78.06
461.018	76.06
461.238	81.06
461.458	91.06
461.678	87.06
461.898	83.06
462.118	85.06
462.338	84.06
462.558	94.06
462.777	77.06
462.997	88.06
463.217	88.06
463.437	84.06
463.657	87.06
463.876	82.06
464.096	85.06
464.316	74.06
464.536	79.06
464.755	96.06
464.975	97.06
465.195	137.06
465.414	141.06
465.634	100.06
465.854	88.06
466.073	91.06
466.293	83.06
466.512	79.06
466.732	86.06
466.951	108.06
467.171	101.06
467.391	97.06
467.61	105.06
467.829	131.06
468.049	229.06
468.268	327.06
468.488	111.06
468.707	98.06
468.927	92.06
469.146	92.06
469.365	69.06
469.585	90.06
469.804	99.06
470.023	83.06
470.243	73.06
470.462	110.06
470.681	103.06
470.901	96.06
471.12	95.06
471.339	88.06
471.558	108.06
471.777	119.06
471.997	155.06
472.216	456.06
472.435	945.06
472.654	255.06
472.873	104.06
473.092	80.06
473.311	92.06
473.53	93.06
473.749	93.06
473.968	104.06
474.187	105.06
474.406	109.06
474.625	76.06
474.844	80.06
475.063	85.06
475.282	104.06
475.501	91.06
475.72	106.06
475.939	82.06
476.158	93.06
476.377	90.06
476.596	87.06
476.814	91.06
477.033	94.06
477.252	90.06
477.471	80.06
477.69	83.06
477.908	82.06
478.127	85.06
478.346	78.06
478.564	96.06
478.783	92.06
479.002	97.06
479.22	99.06
479.439	97.06
479.658	94.06
479.876	105.06
480.095	74.06
480.313	111.06
480.532	109.06
480.751	139.06
480.969	423.06
481.188	1615.06
481.406	941.06
481.624	183.06
481.843	101.06
482.061	93.06
482.28	83.06
482.498	91.06
482.717	81.06
482.935	91.06
483.153	85.06
483.372	84.06
483.59	99.06
483.808	86.06
484.027	79.06
484.245	96.06
484.463	93.06
484.681	85.06
484.9	82.06
485.118	86.06
485.336	88.06
485.554	96.06
485.772	91.06
485.99	100.06
486.209	93.06
486.427	104.06
486.645	97.06
486.863	110.06
487.081	97.06
487.299	93.06
487.517	99.06
487.735	96.06
487.953	98.06
488.171	96.06
488.389	86.06
488.607	75.06
488.825	84.06
489.043	79.06
489.261	84.06
489.479	89.06
489.696	88.06
489.914	81.06
490.132	96.06
490.35	87.06
490.568	83.06
490.786	91.06
491.003	84.06
491.221	109.06
491.439	96.06
491.657	98.06
491.874	83.06
492.092	86.06
492.31	97.06
492.527	83.06
492.745	89.06
492.963	88.06
493.18	104.06
493.398	93.06
493.615	90.06
493.833	89.06
494.05	77.06
494.268	80.06
494.485	87.06
494.703	100.06
494.92	80.06
495.138	85.06
495.355	77.06
495.573	80.06
495.79	91.06
496.008	87.06
496.225	76.06
496.442	87.06
496.66	87.06
496.877	99.06
497.094	95.06
497.312	96.06
497.529	101.06
497.746	88.06
497.963	77.06
498.181	94.06
498.398	99.06
498.615	108.06
498.832	86.06
499.049	101.06
499.267	75.06
499.484	92.06
499.701	91.06
499.918	94.06
500.135	100.06
500.352	101.06
500.569	91.06
500.786	89.06
501.003	99.06
501.22	82.06
501.437	79.06
501.654	91.06
501.871	84.06
502.088	83.06
502.305	91.06
502.522	89.06
502.739	96.06
502.956	95.06
503.172	94.06
503.389	95.06
503.606	92.06
503.823	87.06
504.04	100.06
504.256	89.06
504.473	91.06
504.69	93.06
504.907	88.06
505.123	81.06
505.34	89.06
505.557	87.06
505.773	85.06
505.99	83.06
506.207	80.06
506.423	81.06
506.64	90.06
506.856	91.06
507.073	93.06
507.289	95.06
507.506	96.06
507.722	88.06
507.939	102.06
508.155	97.06
508.372	91.06
508.588	82.06
508.805	100.06
509.021	82.06
509.238	95.06
509.454	84.06
509.67	97.06
509.887	97.06
510.103	114.06
510.319	174.06
510.536	557.06
510.752	1761.06
510.968	489.06
511.184	119.06
511.401	98.06
511.617	92.06
511.833	89.06
512.049	86.06
512.265	91.06
512.481	82.06
512.698	95.06
512.914	98.06
513.13	78.06
513.346	110.06
513.562	85.06
513.778	93.06
513.994	97.06
514.21	97.06
514.426	109.06
514.642	128.06
514.858	132.06
515.074	153.06
515.29	340.06
515.506	1112.06
515.721	409.06
515.937	124.06
516.153	103.06
