Data from Circ_1992_H10_HRD10591_00073.txt Node
Date: Wed Jan 03 11:47:59 EST 2024
User: Yrep
Spectrometer: HR+D1059
Trigger mode: 1
Integration Time (sec): 1.000000E-1
Scans to average: 1
Electric dark correction enabled: true
Nonlinearity correction enabled: false
Boxcar width: 0
XAxis mode: Wavelengths
Number of Pixels in Spectrum: 2048
>>>>>Begin Spectral Data<<<<<
223.165	-15.44
223.4	-15.44
223.635	-15.44
223.869	-15.44
224.104	-7.44
224.338	-21.44
224.573	-9.44
224.808	-11.44
225.042	-6.44
225.277	-15.44
225.511	-5.44
225.746	4.56
225.98	3.56
226.215	17.56
226.449	8.56
226.683	24.56
226.918	18.56
227.152	30.56
227.387	24.56
227.621	31.56
227.856	47.56
228.09	32.56
228.324	55.56
228.559	57.56
228.793	64.56
229.027	58.56
229.262	56.56
229.496	60.56
229.73	74.56
229.964	80.56
230.199	78.56
230.433	84.56
230.667	72.56
230.901	79.56
231.136	82.56
231.37	71.56
231.604	75.56
231.838	78.56
232.072	74.56
232.306	74.56
232.541	78.56
232.775	81.56
233.009	75.56
233.243	86.56
233.477	80.56
233.711	83.56
233.945	81.56
234.179	73.56
234.413	74.56
234.647	64.56
234.881	79.56
235.115	78.56
235.349	62.56
235.583	75.56
235.817	74.56
236.051	76.56
236.285	74.56
236.519	75.56
236.753	69.56
236.987	68.56
237.221	64.56
237.455	64.56
237.689	74.56
237.922	62.56
238.156	78.56
238.39	73.56
238.624	81.56
238.858	68.56
239.091	62.56
239.325	65.56
239.559	78.56
239.793	70.56
240.027	83.56
240.26	69.56
240.494	82.56
240.728	76.56
240.961	72.56
241.195	71.56
241.429	70.56
241.662	77.56
241.896	71.56
242.13	85.56
242.363	82.56
242.597	66.56
242.83	89.56
243.064	67.56
243.298	74.56
243.531	70.56
243.765	92.56
243.998	87.56
244.232	76.56
244.465	83.56
244.699	83.56
244.932	73.56
245.166	81.56
245.399	72.56
245.633	74.56
245.866	85.56
246.099	75.56
246.333	67.56
246.566	68.56
246.8	73.56
247.033	64.56
247.266	74.56
247.5	86.56
247.733	72.56
247.966	82.56
248.2	76.56
248.433	79.56
248.666	70.56
248.899	70.56
249.133	86.56
249.366	86.56
249.599	79.56
249.832	67.56
250.066	77.56
250.299	86.56
250.532	72.56
250.765	68.56
250.998	81.56
251.231	84.56
251.465	78.56
251.698	74.56
251.931	84.56
252.164	81.56
252.397	87.56
252.63	83.56
252.863	75.56
253.096	65.56
253.329	70.56
253.562	69.56
253.795	88.56
254.028	87.56
254.261	81.56
254.494	71.56
254.727	83.56
254.96	82.56
255.193	74.56
255.426	86.56
255.659	61.56
255.892	83.56
256.124	70.56
256.357	69.56
256.59	78.56
256.823	81.56
257.056	80.56
257.289	82.56
257.521	67.56
257.754	73.56
257.987	90.56
258.22	92.56
258.452	77.56
258.685	67.56
258.918	72.56
259.151	82.56
259.383	82.56
259.616	74.56
259.849	55.56
260.081	67.56
260.314	68.56
260.547	87.56
260.779	72.56
261.012	80.56
261.244	86.56
261.477	108.56
261.71	85.56
261.942	91.56
262.175	109.56
262.407	85.56
262.64	86.56
262.872	67.56
263.105	85.56
263.337	79.56
263.57	55.56
263.802	97.56
264.035	70.56
264.267	50.56
264.499	77.56
264.732	86.56
264.964	84.56
265.197	72.56
265.429	78.56
265.661	84.56
265.894	81.56
266.126	70.56
266.358	88.56
266.591	90.56
266.823	85.56
267.055	83.56
267.287	95.56
267.52	72.56
267.752	84.56
267.984	83.56
268.216	76.56
268.448	86.56
268.681	73.56
268.913	84.56
269.145	85.56
269.377	82.56
269.609	66.56
269.841	87.56
270.073	81.56
270.306	78.56
270.538	82.56
270.77	68.56
271.002	72.56
271.234	83.56
271.466	79.56
271.698	78.56
271.93	68.56
272.162	67.56
272.394	86.56
272.626	86.56
272.858	78.56
273.09	87.56
273.322	85.56
273.553	80.56
273.785	73.56
274.017	72.56
274.249	76.56
274.481	99.56
274.713	83.56
274.945	74.56
275.176	86.56
275.408	84.56
275.64	89.56
275.872	87.56
276.104	71.56
276.335	81.56
276.567	88.56
276.799	99.56
277.031	94.56
277.262	113.56
277.494	92.56
277.726	79.56
277.957	84.56
278.189	72.56
278.421	83.56
278.652	83.56
278.884	82.56
279.115	70.56
279.347	76.56
279.579	92.56
279.81	89.56
280.042	109.56
280.273	110.56
280.505	94.56
280.736	91.56
280.968	83.56
281.199	82.56
281.431	78.56
281.662	83.56
281.894	82.56
282.125	99.56
282.356	104.56
282.588	122.56
282.819	104.56
283.051	83.56
283.282	75.56
283.513	86.56
283.745	76.56
283.976	73.56
284.207	97.56
284.439	86.56
284.67	82.56
284.901	71.56
285.132	84.56
285.364	84.56
285.595	87.56
285.826	94.56
286.057	78.56
286.288	67.56
286.52	71.56
286.751	84.56
286.982	97.56
287.213	74.56
287.444	74.56
287.675	92.56
287.906	79.56
288.138	88.56
288.369	89.56
288.6	76.56
288.831	100.56
289.062	73.56
289.293	82.56
289.524	72.56
289.755	91.56
289.986	77.56
290.217	84.56
290.448	80.56
290.679	85.56
290.91	76.56
291.141	82.56
291.371	81.56
291.602	73.56
291.833	83.56
292.064	81.56
292.295	74.56
292.526	87.56
292.757	79.56
292.987	79.56
293.218	82.56
293.449	83.56
293.68	67.56
293.91	75.56
294.141	87.56
294.372	79.56
294.603	86.56
294.833	71.56
295.064	73.56
295.295	75.56
295.525	96.56
295.756	98.56
295.987	106.56
296.217	127.56
296.448	119.56
296.679	92.56
296.909	99.56
297.14	97.56
297.37	76.56
297.601	92.56
297.831	87.56
298.062	92.56
298.292	101.56
298.523	78.56
298.753	60.56
298.984	76.56
299.214	79.56
299.445	97.56
299.675	90.56
299.905	91.56
300.136	76.56
300.366	83.56
300.597	95.56
300.827	84.56
301.057	95.56
301.288	103.56
301.518	95.56
301.748	88.56
301.979	103.56
302.209	100.56
302.439	78.56
302.669	91.56
302.9	101.56
303.13	86.56
303.36	82.56
303.59	100.56
303.82	106.56
304.051	89.56
304.281	86.56
304.511	75.56
304.741	77.56
304.971	86.56
305.201	92.56
305.431	81.56
305.661	86.56
305.891	76.56
306.121	79.56
306.352	92.56
306.582	113.56
306.812	90.56
307.042	95.56
307.272	97.56
307.502	101.56
307.731	107.56
307.961	93.56
308.191	82.56
308.421	83.56
308.651	79.56
308.881	79.56
309.111	86.56
309.341	91.56
309.571	95.56
309.8	92.56
310.03	73.56
310.26	91.56
310.49	82.56
310.72	90.56
310.949	99.56
311.179	93.56
311.409	93.56
311.639	67.56
311.868	86.56
312.098	93.56
312.328	77.56
312.557	86.56
312.787	104.56
313.017	106.56
313.246	82.56
313.476	86.56
313.706	84.56
313.935	95.56
314.165	89.56
314.394	95.56
314.624	92.56
314.853	77.56
315.083	100.56
315.312	85.56
315.542	91.56
315.771	95.56
316.001	78.56
316.23	80.56
316.46	84.56
316.689	80.56
316.919	75.56
317.148	94.56
317.377	89.56
317.607	92.56
317.836	79.56
318.065	83.56
318.295	79.56
318.524	90.56
318.753	90.56
318.983	78.56
319.212	79.56
319.441	108.56
319.67	99.56
319.9	80.56
320.129	82.56
320.358	90.56
320.587	91.56
320.816	87.56
321.046	90.56
321.275	87.56
321.504	94.56
321.733	68.56
321.962	96.56
322.191	80.56
322.42	83.56
322.649	94.56
322.878	91.56
323.108	94.56
323.337	93.56
323.566	102.56
323.795	108.56
324.024	131.56
324.253	210.56
324.482	318.56
324.71	612.56
324.939	793.56
325.168	368.56
325.397	159.56
325.626	104.56
325.855	97.56
326.084	107.56
326.313	93.56
326.542	110.56
326.77	129.56
326.999	197.56
327.228	342.56
327.457	564.56
327.686	505.56
327.914	218.56
328.143	192.56
328.372	214.56
328.6	128.56
328.829	106.56
329.058	109.56
329.287	112.56
329.515	102.56
329.744	119.56
329.972	154.56
330.201	230.56
330.43	340.56
330.658	190.56
330.887	134.56
331.115	107.56
331.344	76.56
331.572	94.56
331.801	90.56
332.03	88.56
332.258	65.56
332.486	92.56
332.715	79.56
332.943	90.56
333.172	90.56
333.4	92.56
333.629	101.56
333.857	122.56
334.085	157.56
334.314	219.56
334.542	374.56
334.771	387.56
334.999	161.56
335.227	106.56
335.455	88.56
335.684	87.56
335.912	91.56
336.14	93.56
336.369	89.56
336.597	85.56
336.825	84.56
337.053	90.56
337.281	95.56
337.51	87.56
337.738	90.56
337.966	93.56
338.194	94.56
338.422	79.56
338.65	79.56
338.878	77.56
339.106	87.56
339.334	90.56
339.562	64.56
339.79	86.56
340.018	88.56
340.246	86.56
340.474	87.56
340.702	80.56
340.93	82.56
341.158	88.56
341.386	83.56
341.614	81.56
341.842	79.56
342.07	86.56
342.298	94.56
342.526	76.56
342.754	89.56
342.981	80.56
343.209	80.56
343.437	96.56
343.665	81.56
343.893	80.56
344.12	90.56
344.348	74.56
344.576	66.56
344.804	88.56
345.031	79.56
345.259	89.56
345.487	94.56
345.714	90.56
345.942	81.56
346.17	94.56
346.397	75.56
346.625	78.56
346.853	68.56
347.08	80.56
347.308	81.56
347.535	82.56
347.763	96.56
347.99	89.56
348.218	91.56
348.445	79.56
348.673	90.56
348.9	91.56
349.128	96.56
349.355	85.56
349.583	96.56
349.81	89.56
350.037	79.56
350.265	92.56
350.492	77.56
350.72	60.56
350.947	93.56
351.174	81.56
351.402	95.56
351.629	90.56
351.856	81.56
352.083	86.56
352.311	92.56
352.538	85.56
352.765	88.56
352.992	93.56
353.22	105.56
353.447	93.56
353.674	85.56
353.901	80.56
354.128	80.56
354.355	71.56
354.583	87.56
354.81	70.56
355.037	83.56
355.264	79.56
355.491	88.56
355.718	94.56
355.945	90.56
356.172	78.56
356.399	81.56
356.626	88.56
356.853	86.56
357.08	90.56
357.307	85.56
357.534	78.56
357.761	91.56
357.988	84.56
358.215	62.56
358.441	81.56
358.668	84.56
358.895	85.56
359.122	83.56
359.349	86.56
359.576	82.56
359.802	87.56
360.029	80.56
360.256	97.56
360.483	73.56
360.709	63.56
360.936	84.56
361.163	82.56
361.39	76.56
361.616	84.56
361.843	79.56
362.07	95.56
362.296	89.56
362.523	91.56
362.749	88.56
362.976	93.56
363.203	81.56
363.429	76.56
363.656	83.56
363.882	78.56
364.109	78.56
364.335	98.56
364.562	77.56
364.788	89.56
365.015	89.56
365.241	89.56
365.468	107.56
365.694	84.56
365.92	86.56
366.147	82.56
366.373	87.56
366.599	80.56
366.826	84.56
367.052	81.56
367.278	96.56
367.505	68.56
367.731	79.56
367.957	82.56
368.184	91.56
368.41	77.56
368.636	89.56
368.862	99.56
369.089	105.56
369.315	87.56
369.541	67.56
369.767	88.56
369.993	96.56
370.219	90.56
370.445	76.56
370.672	82.56
370.898	84.56
371.124	82.56
371.35	82.56
371.576	87.56
371.802	78.56
372.028	79.56
372.254	65.56
372.48	82.56
372.706	66.56
372.932	58.56
373.158	79.56
373.384	80.56
373.61	87.56
373.835	91.56
374.061	80.56
374.287	67.56
374.513	83.56
374.739	72.56
374.965	76.56
375.191	95.56
375.416	89.56
375.642	72.56
375.868	79.56
376.094	82.56
376.319	86.56
376.545	86.56
376.771	87.56
376.997	74.56
377.222	74.56
377.448	89.56
377.674	63.56
377.899	76.56
378.125	83.56
378.35	83.56
378.576	82.56
378.802	92.56
379.027	78.56
379.253	82.56
379.478	75.56
379.704	80.56
379.929	79.56
380.155	79.56
380.38	89.56
380.606	83.56
380.831	81.56
381.057	87.56
381.282	88.56
381.507	91.56
381.733	81.56
381.958	74.56
382.184	83.56
382.409	85.56
382.634	97.56
382.86	87.56
383.085	86.56
383.31	95.56
383.535	91.56
383.761	79.56
383.986	88.56
384.211	79.56
384.436	86.56
384.662	80.56
384.887	89.56
385.112	80.56
385.337	91.56
385.562	70.56
385.787	82.56
386.013	87.56
386.238	84.56
386.463	77.56
386.688	103.56
386.913	77.56
387.138	82.56
387.363	91.56
387.588	80.56
387.813	89.56
388.038	79.56
388.263	82.56
388.488	80.56
388.713	74.56
388.938	74.56
389.163	78.56
389.387	85.56
389.612	90.56
389.837	88.56
390.062	65.56
390.287	87.56
390.512	69.56
390.736	66.56
390.961	65.56
391.186	86.56
391.411	82.56
391.636	87.56
391.86	78.56
392.085	78.56
392.31	85.56
392.534	81.56
392.759	89.56
392.984	93.56
393.208	72.56
393.433	78.56
393.658	67.56
393.882	88.56
394.107	78.56
394.331	82.56
394.556	79.56
394.78	91.56
395.005	87.56
395.229	82.56
395.454	68.56
395.678	73.56
395.903	86.56
396.127	84.56
396.352	82.56
396.576	82.56
396.801	83.56
397.025	79.56
397.249	86.56
397.474	73.56
397.698	94.56
397.922	86.56
398.147	85.56
398.371	86.56
398.595	70.56
398.82	75.56
399.044	78.56
399.268	63.56
399.492	79.56
399.717	83.56
399.941	78.56
400.165	81.56
400.389	94.56
400.613	98.56
400.837	77.56
401.062	77.56
401.286	70.56
401.51	75.56
401.734	74.56
401.958	75.56
402.182	119.56
402.406	139.56
402.63	112.56
402.854	79.56
403.078	79.56
403.302	86.56
403.526	89.56
403.75	87.56
403.974	77.56
404.198	83.56
404.422	82.56
404.645	93.56
404.869	86.56
405.093	68.56
405.317	90.56
405.541	84.56
405.765	91.56
405.988	103.56
406.212	128.56
406.436	206.56
406.66	123.56
406.883	83.56
407.107	66.56
407.331	87.56
407.555	88.56
407.778	81.56
408.002	79.56
408.226	71.56
408.449	80.56
408.673	81.56
408.896	97.56
409.12	77.56
409.344	90.56
409.567	94.56
409.791	86.56
410.014	71.56
410.238	80.56
410.461	77.56
410.685	84.56
410.908	82.56
411.132	94.56
411.355	81.56
411.578	97.56
411.802	81.56
412.025	65.56
412.249	86.56
412.472	68.56
412.695	84.56
412.919	73.56
413.142	76.56
413.365	75.56
413.589	79.56
413.812	72.56
414.035	86.56
414.258	65.56
414.482	89.56
414.705	86.56
414.928	82.56
415.151	93.56
415.374	85.56
415.597	82.56
415.821	88.56
416.044	80.56
416.267	84.56
416.49	64.56
416.713	80.56
416.936	86.56
417.159	78.56
417.382	73.56
417.605	82.56
417.828	84.56
418.051	87.56
418.274	90.56
418.497	76.56
418.72	92.56
418.943	75.56
419.166	76.56
419.389	87.56
419.611	72.56
419.834	77.56
420.057	75.56
420.28	83.56
420.503	95.56
420.726	98.56
420.948	96.56
421.171	79.56
421.394	89.56
421.617	76.56
421.839	76.56
422.062	79.56
422.285	90.56
422.507	72.56
422.73	66.56
422.953	76.56
423.175	80.56
423.398	87.56
423.621	89.56
423.843	84.56
424.066	76.56
424.288	82.56
424.511	74.56
424.733	85.56
424.956	73.56
425.178	72.56
425.401	74.56
425.623	81.56
425.846	76.56
426.068	75.56
426.291	90.56
426.513	89.56
426.735	78.56
426.958	72.56
427.18	87.56
427.402	102.56
427.625	116.56
427.847	109.56
428.069	112.56
428.292	92.56
428.514	71.56
428.736	75.56
428.958	76.56
429.181	68.56
429.403	89.56
429.625	71.56
429.847	77.56
430.069	78.56
430.292	98.56
430.514	88.56
430.736	79.56
430.958	86.56
431.18	85.56
431.402	79.56
431.624	83.56
431.846	75.56
432.068	82.56
432.29	68.56
432.512	86.56
432.734	86.56
432.956	76.56
433.178	99.56
433.4	84.56
433.622	83.56
433.844	82.56
434.066	85.56
434.287	94.56
434.509	80.56
434.731	80.56
434.953	75.56
435.175	73.56
435.397	81.56
435.618	84.56
435.84	88.56
436.062	82.56
436.284	78.56
436.505	77.56
436.727	82.56
436.949	75.56
437.17	78.56
437.392	84.56
437.614	78.56
437.835	79.56
438.057	104.56
438.278	79.56
438.5	86.56
438.721	90.56
438.943	83.56
439.165	89.56
439.386	85.56
439.608	86.56
439.829	86.56
440.05	96.56
440.272	89.56
440.493	80.56
440.715	88.56
440.936	77.56
441.158	84.56
441.379	77.56
441.6	74.56
441.822	84.56
442.043	80.56
442.264	79.56
442.486	74.56
442.707	92.56
442.928	78.56
443.149	103.56
443.371	123.56
443.592	94.56
443.813	96.56
444.034	78.56
444.255	79.56
444.476	84.56
444.698	93.56
444.919	83.56
445.14	124.56
445.361	95.56
445.582	86.56
445.803	107.56
446.024	90.56
446.245	105.56
446.466	88.56
446.687	84.56
446.908	74.56
447.129	79.56
447.35	88.56
447.571	79.56
447.792	67.56
448.013	89.56
448.234	98.56
448.455	72.56
448.675	81.56
448.896	88.56
449.117	78.56
449.338	83.56
449.559	85.56
449.779	86.56
450	91.56
450.221	65.56
450.442	86.56
450.662	80.56
450.883	93.56
451.104	91.56
451.324	89.56
451.545	78.56
451.766	81.56
451.986	96.56
452.207	75.56
452.428	93.56
452.648	94.56
452.869	100.56
453.089	100.56
453.31	103.56
453.53	90.56
453.751	88.56
453.971	92.56
454.192	98.56
454.412	79.56
454.633	92.56
454.853	84.56
455.073	83.56
455.294	74.56
455.514	78.56
455.734	87.56
455.955	83.56
456.175	74.56
456.395	64.56
456.616	86.56
456.836	87.56
457.056	86.56
457.276	89.56
457.497	91.56
457.717	82.56
457.937	87.56
458.157	91.56
458.377	86.56
458.598	96.56
458.818	110.56
459.038	110.56
459.258	82.56
459.478	94.56
459.698	97.56
459.918	87.56
460.138	87.56
460.358	82.56
460.578	78.56
460.798	96.56
461.018	81.56
461.238	82.56
461.458	85.56
461.678	82.56
461.898	68.56
462.118	88.56
462.338	82.56
462.558	80.56
462.777	84.56
462.997	87.56
463.217	97.56
463.437	81.56
463.657	83.56
463.876	80.56
464.096	81.56
464.316	76.56
464.536	100.56
464.755	93.56
464.975	80.56
465.195	126.56
465.414	134.56
465.634	72.56
465.854	74.56
466.073	75.56
466.293	85.56
466.512	92.56
466.732	89.56
466.951	78.56
467.171	70.56
467.391	88.56
467.61	91.56
467.829	103.56
468.049	176.56
468.268	242.56
468.488	112.56
468.707	91.56
468.927	87.56
469.146	84.56
469.365	97.56
469.585	80.56
469.804	100.56
470.023	99.56
470.243	74.56
470.462	90.56
470.681	89.56
470.901	94.56
471.12	87.56
471.339	97.56
471.558	81.56
471.777	89.56
471.997	135.56
472.216	296.56
472.435	594.56
472.654	204.56
472.873	97.56
473.092	82.56
473.311	88.56
473.53	86.56
473.749	74.56
473.968	84.56
474.187	83.56
474.406	92.56
474.625	89.56
474.844	100.56
475.063	85.56
475.282	82.56
475.501	88.56
475.72	75.56
475.939	93.56
476.158	83.56
476.377	86.56
476.596	74.56
476.814	76.56
477.033	81.56
477.252	87.56
477.471	83.56
477.69	76.56
477.908	95.56
478.127	77.56
478.346	70.56
478.564	70.56
478.783	83.56
479.002	65.56
479.22	88.56
479.439	83.56
479.658	83.56
479.876	82.56
480.095	92.56
480.313	94.56
480.532	93.56
480.751	136.56
480.969	270.56
481.188	956.56
481.406	608.56
481.624	142.56
481.843	83.56
482.061	76.56
482.28	80.56
482.498	74.56
482.717	85.56
482.935	71.56
483.153	88.56
483.372	72.56
483.59	77.56
483.808	86.56
484.027	85.56
484.245	84.56
484.463	81.56
484.681	78.56
484.9	75.56
485.118	79.56
485.336	74.56
485.554	75.56
485.772	89.56
485.99	88.56
486.209	80.56
486.427	83.56
486.645	89.56
486.863	93.56
487.081	73.56
487.299	79.56
487.517	89.56
487.735	94.56
487.953	80.56
488.171	75.56
488.389	78.56
488.607	87.56
488.825	84.56
489.043	66.56
489.261	70.56
489.479	78.56
489.696	88.56
489.914	78.56
490.132	86.56
490.35	88.56
490.568	92.56
490.786	74.56
491.003	64.56
491.221	86.56
491.439	72.56
491.657	74.56
491.874	72.56
492.092	77.56
492.31	74.56
492.527	82.56
492.745	79.56
492.963	84.56
493.18	78.56
493.398	70.56
493.615	78.56
493.833	93.56
494.05	81.56
494.268	76.56
494.485	70.56
494.703	72.56
494.92	87.56
495.138	81.56
495.355	76.56
495.573	96.56
495.79	90.56
496.008	86.56
496.225	84.56
496.442	78.56
496.66	81.56
496.877	71.56
497.094	73.56
497.312	79.56
497.529	96.56
497.746	82.56
497.963	93.56
498.181	87.56
498.398	93.56
498.615	86.56
498.832	94.56
499.049	66.56
499.267	72.56
499.484	74.56
499.701	78.56
499.918	80.56
500.135	85.56
500.352	81.56
500.569	75.56
500.786	86.56
501.003	74.56
501.22	89.56
501.437	82.56
501.654	83.56
501.871	81.56
502.088	78.56
502.305	80.56
502.522	65.56
502.739	91.56
502.956	82.56
503.172	91.56
503.389	93.56
503.606	99.56
503.823	95.56
504.04	92.56
504.256	79.56
504.473	81.56
504.69	67.56
504.907	90.56
505.123	76.56
505.34	86.56
505.557	88.56
505.773	89.56
505.99	91.56
506.207	83.56
506.423	79.56
506.64	77.56
506.856	72.56
507.073	84.56
507.289	93.56
507.506	82.56
507.722	86.56
507.939	98.56
508.155	65.56
508.372	91.56
508.588	86.56
508.805	78.56
509.021	84.56
509.238	81.56
509.454	76.56
509.67	92.56
509.887	88.56
510.103	120.56
510.319	175.56
510.536	555.56
510.752	1822.56
510.968	532.56
511.184	128.56
511.401	100.56
511.617	98.56
511.833	84.56
512.049	79.56
512.265	86.56
512.481	88.56
512.698	90.56
512.914	82.56
513.13	75.56
513.346	82.56
513.562	97.56
513.778	86.56
513.994	88.56
514.21	90.56
514.426	92.56
514.642	99.56
514.858	115.56
515.074	139.56
515.29	353.56
515.506	1226.56
515.721	461.56
515.937	138.56
516.153	85.56
516.369	84.56
516.585	88.56
516.801	85.56
517.016	90.56
517.232	82.56
517.448	71.56
517.664	89.56
517.879	73.56
518.095	92.56
518.311	90.56
518.527	80.56
