Data from Circ_1992_H10_HRD10591_00039.txt Node
Date: Wed Jan 03 11:47:52 EST 2024
User: Yrep
Spectrometer: HR+D1059
Trigger mode: 1
Integration Time (sec): 1.000000E-1
Scans to average: 1
Electric dark correction enabled: true
Nonlinearity correction enabled: false
Boxcar width: 0
XAxis mode: Wavelengths
Number of Pixels in Spectrum: 2048
>>>>>Begin Spectral Data<<<<<
223.165	-24.56
223.4	-24.56
223.635	-24.56
223.869	-25.56
224.104	-11.56
224.338	-18.56
224.573	-9.56
224.808	-13.56
225.042	-16.56
225.277	-8.56
225.511	6.44
225.746	1.44
225.98	7.44
226.215	20.44
226.449	17.44
226.683	28.44
226.918	16.44
227.152	30.44
227.387	33.44
227.621	48.44
227.856	52.44
228.09	31.44
228.324	52.44
228.559	50.44
228.793	57.44
229.027	64.44
229.262	63.44
229.496	82.44
229.73	68.44
229.964	74.44
230.199	69.44
230.433	81.44
230.667	82.44
230.901	79.44
231.136	90.44
231.37	78.44
231.604	80.44
231.838	86.44
232.072	79.44
232.306	72.44
232.541	88.44
232.775	89.44
233.009	92.44
233.243	76.44
233.477	94.44
233.711	88.44
233.945	78.44
234.179	84.44
234.413	80.44
234.647	82.44
234.881	75.44
235.115	78.44
235.349	70.44
235.583	86.44
235.817	84.44
236.051	79.44
236.285	78.44
236.519	78.44
236.753	82.44
236.987	80.44
237.221	80.44
237.455	86.44
237.689	70.44
237.922	74.44
238.156	70.44
238.39	69.44
238.624	80.44
238.858	72.44
239.091	80.44
239.325	81.44
239.559	74.44
239.793	84.44
240.027	87.44
240.26	70.44
240.494	80.44
240.728	74.44
240.961	81.44
241.195	64.44
241.429	84.44
241.662	66.44
241.896	78.44
242.13	72.44
242.363	64.44
242.597	64.44
242.83	87.44
243.064	69.44
243.298	61.44
243.531	80.44
243.765	80.44
243.998	79.44
244.232	88.44
244.465	86.44
244.699	68.44
244.932	67.44
245.166	74.44
245.399	107.44
245.633	91.44
245.866	83.44
246.099	85.44
246.333	87.44
246.566	68.44
246.8	88.44
247.033	72.44
247.266	81.44
247.5	87.44
247.733	90.44
247.966	94.44
248.2	78.44
248.433	92.44
248.666	77.44
248.899	79.44
249.133	75.44
249.366	92.44
249.599	92.44
249.832	93.44
250.066	87.44
250.299	96.44
250.532	91.44
250.765	77.44
250.998	85.44
251.231	82.44
251.465	84.44
251.698	84.44
251.931	70.44
252.164	86.44
252.397	60.44
252.63	84.44
252.863	79.44
253.096	69.44
253.329	77.44
253.562	92.44
253.795	87.44
254.028	69.44
254.261	83.44
254.494	85.44
254.727	87.44
254.96	88.44
255.193	66.44
255.426	87.44
255.659	90.44
255.892	86.44
256.124	84.44
256.357	74.44
256.59	67.44
256.823	82.44
257.056	91.44
257.289	81.44
257.521	87.44
257.754	91.44
257.987	77.44
258.22	87.44
258.452	86.44
258.685	86.44
258.918	83.44
259.151	74.44
259.383	78.44
259.616	87.44
259.849	78.44
260.081	90.44
260.314	71.44
260.547	88.44
260.779	76.44
261.012	72.44
261.244	99.44
261.477	95.44
261.71	82.44
261.942	111.44
262.175	111.44
262.407	89.44
262.64	87.44
262.872	93.44
263.105	82.44
263.337	79.44
263.57	81.44
263.802	91.44
264.035	90.44
264.267	84.44
264.499	83.44
264.732	68.44
264.964	82.44
265.197	77.44
265.429	70.44
265.661	70.44
265.894	94.44
266.126	84.44
266.358	91.44
266.591	73.44
266.823	82.44
267.055	75.44
267.287	78.44
267.52	74.44
267.752	90.44
267.984	82.44
268.216	94.44
268.448	111.44
268.681	80.44
268.913	80.44
269.145	92.44
269.377	82.44
269.609	96.44
269.841	100.44
270.073	84.44
270.306	79.44
270.538	84.44
270.77	81.44
271.002	94.44
271.234	78.44
271.466	95.44
271.698	80.44
271.93	87.44
272.162	83.44
272.394	77.44
272.626	88.44
272.858	90.44
273.09	101.44
273.322	84.44
273.553	78.44
273.785	87.44
274.017	86.44
274.249	87.44
274.481	86.44
274.713	85.44
274.945	96.44
275.176	94.44
275.408	79.44
275.64	78.44
275.872	82.44
276.104	83.44
276.335	85.44
276.567	111.44
276.799	113.44
277.031	110.44
277.262	106.44
277.494	102.44
277.726	81.44
277.957	87.44
278.189	95.44
278.421	82.44
278.652	93.44
278.884	74.44
279.115	79.44
279.347	94.44
279.579	98.44
279.81	93.44
280.042	94.44
280.273	127.44
280.505	110.44
280.736	87.44
280.968	94.44
281.199	90.44
281.431	96.44
281.662	96.44
281.894	102.44
282.125	98.44
282.356	124.44
282.588	127.44
282.819	140.44
283.051	92.44
283.282	66.44
283.513	83.44
283.745	91.44
283.976	87.44
284.207	93.44
284.439	107.44
284.67	87.44
284.901	80.44
285.132	75.44
285.364	77.44
285.595	82.44
285.826	89.44
286.057	76.44
286.288	76.44
286.52	68.44
286.751	93.44
286.982	92.44
287.213	81.44
287.444	75.44
287.675	91.44
287.906	86.44
288.138	98.44
288.369	91.44
288.6	107.44
288.831	86.44
289.062	92.44
289.293	93.44
289.524	76.44
289.755	83.44
289.986	92.44
290.217	97.44
290.448	83.44
290.679	94.44
290.91	90.44
291.141	86.44
291.371	82.44
291.602	92.44
291.833	80.44
292.064	76.44
292.295	94.44
292.526	86.44
292.757	87.44
292.987	97.44
293.218	87.44
293.449	92.44
293.68	80.44
293.91	88.44
294.141	98.44
294.372	95.44
294.603	101.44
294.833	86.44
295.064	87.44
295.295	91.44
295.525	74.44
295.756	93.44
295.987	108.44
296.217	148.44
296.448	120.44
296.679	94.44
296.909	94.44
297.14	76.44
297.37	94.44
297.601	87.44
297.831	81.44
298.062	98.44
298.292	87.44
298.523	83.44
298.753	80.44
298.984	83.44
299.214	86.44
299.445	85.44
299.675	96.44
299.905	100.44
300.136	102.44
300.366	91.44
300.597	74.44
300.827	106.44
301.057	98.44
301.288	100.44
301.518	85.44
301.748	82.44
301.979	93.44
302.209	93.44
302.439	92.44
302.669	95.44
302.9	87.44
303.13	89.44
303.36	103.44
303.59	107.44
303.82	109.44
304.051	97.44
304.281	98.44
304.511	76.44
304.741	84.44
304.971	86.44
305.201	77.44
305.431	98.44
305.661	77.44
305.891	83.44
306.121	100.44
306.352	96.44
306.582	104.44
306.812	102.44
307.042	103.44
307.272	102.44
307.502	122.44
307.731	117.44
307.961	90.44
308.191	100.44
308.421	93.44
308.651	88.44
308.881	80.44
309.111	83.44
309.341	105.44
309.571	97.44
309.8	106.44
310.03	94.44
310.26	106.44
310.49	110.44
310.72	96.44
310.949	106.44
311.179	114.44
311.409	87.44
311.639	102.44
311.868	103.44
312.098	93.44
312.328	91.44
312.557	98.44
312.787	113.44
313.017	96.44
313.246	75.44
313.476	100.44
313.706	82.44
313.935	87.44
314.165	96.44
314.394	92.44
314.624	110.44
314.853	114.44
315.083	94.44
315.312	85.44
315.542	74.44
315.771	86.44
316.001	83.44
316.23	94.44
316.46	86.44
316.689	95.44
316.919	99.44
317.148	87.44
317.377	104.44
317.607	97.44
317.836	103.44
318.065	100.44
318.295	86.44
318.524	90.44
318.753	101.44
318.983	99.44
319.212	103.44
319.441	116.44
319.67	111.44
319.9	91.44
320.129	90.44
320.358	95.44
320.587	104.44
320.816	99.44
321.046	117.44
321.275	100.44
321.504	93.44
321.733	89.44
321.962	104.44
322.191	96.44
322.42	96.44
322.649	122.44
322.878	109.44
323.108	110.44
323.337	130.44
323.566	125.44
323.795	125.44
324.024	192.44
324.253	350.44
324.482	730.44
324.71	1538.44
324.939	2028.44
325.168	752.44
325.397	227.44
325.626	124.44
325.855	123.44
326.084	114.44
326.313	124.44
326.542	142.44
326.77	207.44
326.999	420.44
327.228	854.44
327.457	1480.44
327.686	1210.44
327.914	366.44
328.143	274.44
328.372	270.44
328.6	176.44
328.829	138.44
329.058	142.44
329.287	132.44
329.515	122.44
329.744	139.44
329.972	211.44
330.201	343.44
330.43	480.44
330.658	259.44
330.887	166.44
331.115	131.44
331.344	98.44
331.572	103.44
331.801	90.44
332.03	112.44
332.258	109.44
332.486	109.44
332.715	103.44
332.943	104.44
333.172	102.44
333.4	116.44
333.629	101.44
333.857	135.44
334.085	210.44
334.314	349.44
334.542	616.44
334.771	582.44
334.999	206.44
335.227	118.44
335.455	104.44
335.684	104.44
335.912	106.44
336.14	113.44
336.369	103.44
336.597	109.44
336.825	116.44
337.053	102.44
337.281	100.44
337.51	107.44
337.738	95.44
337.966	111.44
338.194	101.44
338.422	86.44
338.65	94.44
338.878	91.44
339.106	91.44
339.334	96.44
339.562	81.44
339.79	87.44
340.018	95.44
340.246	85.44
340.474	105.44
340.702	86.44
340.93	86.44
341.158	98.44
341.386	101.44
341.614	96.44
341.842	87.44
342.07	92.44
342.298	92.44
342.526	92.44
342.754	94.44
342.981	90.44
343.209	94.44
343.437	97.44
343.665	97.44
343.893	97.44
344.12	93.44
344.348	78.44
344.576	86.44
344.804	92.44
345.031	93.44
345.259	91.44
345.487	95.44
345.714	94.44
345.942	83.44
346.17	84.44
346.397	97.44
346.625	98.44
346.853	110.44
347.08	83.44
347.308	84.44
347.535	99.44
347.763	98.44
347.99	97.44
348.218	105.44
348.445	102.44
348.673	98.44
348.9	85.44
349.128	85.44
349.355	91.44
349.583	88.44
349.81	95.44
350.037	82.44
350.265	84.44
350.492	104.44
350.72	107.44
350.947	101.44
351.174	103.44
351.402	109.44
351.629	78.44
351.856	94.44
352.083	96.44
352.311	104.44
352.538	103.44
352.765	93.44
352.992	104.44
353.22	126.44
353.447	111.44
353.674	94.44
353.901	106.44
354.128	98.44
354.355	101.44
354.583	103.44
354.81	114.44
355.037	100.44
355.264	82.44
355.491	96.44
355.718	93.44
355.945	108.44
356.172	92.44
356.399	93.44
356.626	99.44
356.853	99.44
357.08	95.44
357.307	81.44
357.534	100.44
357.761	98.44
357.988	92.44
358.215	88.44
358.441	80.44
358.668	100.44
358.895	98.44
359.122	90.44
359.349	94.44
359.576	96.44
359.802	110.44
360.029	105.44
360.256	114.44
360.483	96.44
360.709	92.44
360.936	97.44
361.163	90.44
361.39	99.44
361.616	110.44
361.843	107.44
362.07	101.44
362.296	100.44
362.523	103.44
362.749	99.44
362.976	99.44
363.203	95.44
363.429	92.44
363.656	94.44
363.882	80.44
364.109	84.44
364.335	103.44
364.562	91.44
364.788	101.44
365.015	92.44
365.241	99.44
365.468	94.44
365.694	116.44
365.92	112.44
366.147	87.44
366.373	84.44
366.599	83.44
366.826	95.44
367.052	90.44
367.278	87.44
367.505	100.44
367.731	101.44
367.957	90.44
368.184	96.44
368.41	92.44
368.636	116.44
368.862	112.44
369.089	112.44
369.315	92.44
369.541	100.44
369.767	79.44
369.993	88.44
370.219	107.44
370.445	85.44
370.672	76.44
370.898	85.44
371.124	96.44
371.35	78.44
371.576	75.44
371.802	86.44
372.028	93.44
372.254	78.44
372.48	90.44
372.706	85.44
372.932	84.44
373.158	87.44
373.384	93.44
373.61	90.44
373.835	94.44
374.061	92.44
374.287	95.44
374.513	88.44
374.739	91.44
374.965	80.44
375.191	85.44
375.416	98.44
375.642	80.44
375.868	100.44
376.094	98.44
376.319	92.44
376.545	91.44
376.771	99.44
376.997	91.44
377.222	95.44
377.448	95.44
377.674	81.44
377.899	76.44
378.125	83.44
378.35	94.44
378.576	89.44
378.802	95.44
379.027	96.44
379.253	89.44
379.478	99.44
379.704	104.44
379.929	94.44
380.155	89.44
380.38	88.44
380.606	104.44
380.831	98.44
381.057	98.44
381.282	90.44
381.507	97.44
381.733	101.44
381.958	93.44
382.184	90.44
382.409	103.44
382.634	112.44
382.86	98.44
383.085	94.44
383.31	85.44
383.535	91.44
383.761	101.44
383.986	94.44
384.211	100.44
384.436	103.44
384.662	101.44
384.887	115.44
385.112	108.44
385.337	106.44
385.562	103.44
385.787	103.44
386.013	118.44
386.238	115.44
386.463	115.44
386.688	115.44
386.913	110.44
387.138	107.44
387.363	109.44
387.588	97.44
387.813	97.44
388.038	117.44
388.263	118.44
388.488	126.44
388.713	89.44
388.938	96.44
389.163	89.44
389.387	84.44
389.612	83.44
389.837	93.44
390.062	94.44
390.287	89.44
390.512	92.44
390.736	89.44
390.961	78.44
391.186	96.44
391.411	96.44
391.636	96.44
391.86	91.44
392.085	84.44
392.31	94.44
392.534	85.44
392.759	83.44
392.984	78.44
393.208	83.44
393.433	83.44
393.658	94.44
393.882	81.44
394.107	90.44
394.331	89.44
394.556	86.44
394.78	79.44
395.005	95.44
395.229	75.44
395.454	83.44
395.678	91.44
395.903	72.44
396.127	92.44
396.352	93.44
396.576	101.44
396.801	84.44
397.025	96.44
397.249	102.44
397.474	84.44
397.698	92.44
397.922	90.44
398.147	86.44
398.371	81.44
398.595	82.44
398.82	80.44
399.044	95.44
399.268	78.44
399.492	88.44
399.717	107.44
399.941	82.44
400.165	94.44
400.389	87.44
400.613	99.44
400.837	78.44
401.062	76.44
401.286	78.44
401.51	79.44
401.734	101.44
401.958	100.44
402.182	121.44
402.406	140.44
402.63	113.44
402.854	109.44
403.078	85.44
403.302	76.44
403.526	82.44
403.75	93.44
403.974	102.44
404.198	94.44
404.422	85.44
404.645	78.44
404.869	87.44
405.093	108.44
405.317	100.44
405.541	107.44
405.765	101.44
405.988	128.44
406.212	158.44
406.436	220.44
406.66	161.44
406.883	108.44
407.107	96.44
407.331	97.44
407.555	104.44
407.778	95.44
408.002	106.44
408.226	87.44
408.449	91.44
408.673	98.44
408.896	101.44
409.12	99.44
409.344	88.44
409.567	96.44
409.791	108.44
410.014	88.44
410.238	95.44
410.461	90.44
410.685	88.44
410.908	95.44
411.132	118.44
411.355	106.44
411.578	82.44
411.802	107.44
412.025	96.44
412.249	104.44
412.472	87.44
412.695	105.44
412.919	83.44
413.142	74.44
413.365	101.44
413.589	95.44
413.812	83.44
414.035	78.44
414.258	86.44
414.482	90.44
414.705	90.44
414.928	86.44
415.151	80.44
415.374	83.44
415.597	92.44
415.821	90.44
416.044	84.44
416.267	85.44
416.49	80.44
416.713	95.44
416.936	101.44
417.159	80.44
417.382	80.44
417.605	79.44
417.828	103.44
418.051	112.44
418.274	96.44
418.497	93.44
418.72	76.44
418.943	95.44
419.166	84.44
419.389	93.44
419.611	83.44
419.834	92.44
420.057	99.44
420.28	76.44
420.503	91.44
420.726	82.44
420.948	82.44
421.171	87.44
421.394	100.44
421.617	104.44
421.839	81.44
422.062	96.44
422.285	92.44
422.507	101.44
422.73	109.44
422.953	98.44
423.175	71.44
423.398	87.44
423.621	89.44
423.843	96.44
424.066	91.44
424.288	93.44
424.511	103.44
424.733	96.44
424.956	100.44
425.178	89.44
425.401	95.44
425.623	96.44
425.846	91.44
426.068	95.44
426.291	103.44
426.513	94.44
426.735	91.44
426.958	82.44
427.18	106.44
427.402	125.44
427.625	177.44
427.847	154.44
428.069	147.44
428.292	92.44
428.514	93.44
428.736	87.44
428.958	93.44
429.181	90.44
429.403	79.44
429.625	91.44
429.847	97.44
430.069	105.44
430.292	95.44
430.514	87.44
430.736	77.44
430.958	91.44
431.18	85.44
431.402	76.44
431.624	78.44
431.846	88.44
432.068	100.44
432.29	67.44
432.512	88.44
432.734	89.44
432.956	96.44
433.178	100.44
433.4	99.44
433.622	92.44
433.844	91.44
434.066	90.44
434.287	78.44
434.509	93.44
434.731	87.44
434.953	76.44
435.175	87.44
435.397	96.44
435.618	83.44
435.84	109.44
436.062	116.44
436.284	117.44
436.505	88.44
436.727	104.44
436.949	83.44
437.17	90.44
437.392	94.44
437.614	81.44
437.835	102.44
438.057	111.44
438.278	107.44
438.5	98.44
438.721	119.44
438.943	95.44
439.165	81.44
439.386	92.44
439.608	102.44
439.829	93.44
440.05	101.44
440.272	132.44
440.493	109.44
440.715	106.44
440.936	92.44
441.158	85.44
441.379	99.44
441.6	106.44
441.822	94.44
442.043	94.44
442.264	100.44
442.486	83.44
442.707	103.44
442.928	101.44
443.149	129.44
443.371	128.44
443.592	114.44
443.813	109.44
444.034	105.44
444.255	78.44
444.476	90.44
444.698	85.44
444.919	93.44
445.14	126.44
445.361	114.44
445.582	119.44
445.803	146.44
446.024	127.44
446.245	124.44
446.466	118.44
446.687	93.44
446.908	85.44
447.129	87.44
447.35	98.44
447.571	82.44
447.792	97.44
448.013	109.44
448.234	120.44
448.455	99.44
448.675	106.44
448.896	116.44
449.117	110.44
449.338	111.44
449.559	125.44
449.779	119.44
450	94.44
450.221	83.44
450.442	90.44
450.662	111.44
450.883	106.44
451.104	110.44
451.324	87.44
451.545	94.44
451.766	87.44
451.986	81.44
452.207	95.44
452.428	86.44
452.648	97.44
452.869	117.44
453.089	102.44
453.31	129.44
453.53	91.44
453.751	97.44
453.971	97.44
454.192	94.44
454.412	94.44
454.633	72.44
454.853	88.44
455.073	80.44
455.294	88.44
455.514	104.44
455.734	82.44
455.955	89.44
456.175	80.44
456.395	72.44
456.616	72.44
456.836	94.44
457.056	78.44
457.276	83.44
457.497	89.44
457.717	87.44
457.937	94.44
458.157	103.44
458.377	104.44
458.598	116.44
458.818	150.44
459.038	166.44
459.258	109.44
459.478	94.44
459.698	86.44
459.918	86.44
460.138	93.44
460.358	90.44
460.578	89.44
460.798	102.44
461.018	98.44
461.238	89.44
461.458	85.44
461.678	90.44
461.898	95.44
462.118	86.44
462.338	74.44
462.558	81.44
462.777	80.44
462.997	78.44
463.217	83.44
463.437	102.44
463.657	81.44
463.876	75.44
464.096	100.44
464.316	88.44
464.536	92.44
464.755	78.44
464.975	110.44
465.195	163.44
465.414	146.44
465.634	101.44
465.854	78.44
466.073	90.44
466.293	78.44
466.512	102.44
466.732	84.44
466.951	91.44
467.171	80.44
467.391	96.44
467.61	107.44
467.829	124.44
468.049	237.44
468.268	329.44
468.488	128.44
468.707	98.44
468.927	84.44
469.146	91.44
469.365	87.44
469.585	102.44
469.804	105.44
470.023	99.44
470.243	97.44
470.462	91.44
470.681	115.44
470.901	102.44
471.12	86.44
471.339	91.44
471.558	95.44
471.777	99.44
471.997	149.44
472.216	425.44
472.435	846.44
472.654	244.44
472.873	111.44
473.092	86.44
473.311	84.44
473.53	96.44
473.749	71.44
473.968	93.44
474.187	111.44
474.406	93.44
474.625	81.44
474.844	88.44
475.063	85.44
475.282	82.44
475.501	69.44
475.72	103.44
475.939	78.44
476.158	77.44
476.377	77.44
476.596	86.44
476.814	90.44
477.033	108.44
477.252	100.44
477.471	107.44
477.69	94.44
477.908	90.44
478.127	88.44
478.346	77.44
478.564	83.44
478.783	97.44
479.002	103.44
479.22	101.44
479.439	86.44
479.658	107.44
479.876	97.44
480.095	104.44
480.313	107.44
480.532	109.44
480.751	151.44
480.969	418.44
481.188	1512.44
481.406	871.44
481.624	187.44
481.843	108.44
482.061	94.44
482.28	87.44
482.498	88.44
482.717	90.44
482.935	81.44
483.153	106.44
483.372	82.44
483.59	84.44
483.808	113.44
484.027	96.44
484.245	78.44
484.463	81.44
484.681	89.44
484.9	101.44
485.118	83.44
485.336	93.44
485.554	87.44
485.772	107.44
485.99	118.44
486.209	118.44
486.427	93.44
486.645	108.44
486.863	115.44
487.081	108.44
487.299	103.44
487.517	103.44
487.735	91.44
487.953	87.44
488.171	100.44
488.389	105.44
488.607	102.44
488.825	99.44
489.043	83.44
489.261	94.44
489.479	101.44
489.696	82.44
489.914	90.44
490.132	89.44
490.35	82.44
490.568	104.44
490.786	96.44
491.003	90.44
491.221	88.44
491.439	95.44
491.657	93.44
491.874	91.44
492.092	76.44
492.31	99.44
492.527	84.44
492.745	95.44
492.963	89.44
493.18	99.44
493.398	113.44
493.615	94.44
493.833	92.44
494.05	104.44
494.268	80.44
494.485	91.44
494.703	91.44
494.92	90.44
495.138	94.44
495.355	100.44
495.573	93.44
495.79	94.44
496.008	95.44
496.225	85.44
496.442	86.44
496.66	96.44
496.877	84.44
497.094	82.44
497.312	87.44
497.529	87.44
497.746	93.44
497.963	90.44
498.181	98.44
498.398	103.44
498.615	117.44
498.832	97.44
499.049	77.44
499.267	106.44
499.484	81.44
499.701	92.44
499.918	85.44
500.135	99.44
500.352	82.44
500.569	96.44
500.786	77.44
501.003	87.44
501.22	100.44
501.437	91.44
501.654	95.44
501.871	103.44
502.088	88.44
502.305	97.44
502.522	91.44
502.739	96.44
502.956	95.44
503.172	86.44
503.389	100.44
503.606	99.44
503.823	92.44
504.04	108.44
504.256	95.44
504.473	80.44
504.69	77.44
504.907	106.44
505.123	92.44
505.34	90.44
505.557	90.44
505.773	83.44
505.99	80.44
506.207	101.44
506.423	102.44
506.64	94.44
506.856	104.44
507.073	95.44
507.289	88.44
507.506	87.44
507.722	120.44
507.939	113.44
508.155	95.44
508.372	96.44
508.588	85.44
508.805	88.44
509.021	79.44
509.238	90.44
509.454	91.44
509.67	101.44
509.887	104.44
510.103	140.44
510.319	196.44
510.536	712.44
510.752	2222.44
510.968	614.44
511.184	153.44
511.401	94.44
511.617	88.44
511.833	102.44
512.049	92.44
512.265	80.44
512.481	102.44
512.698	99.44
512.914	91.44
513.13	88.44
513.346	101.44
513.562	90.44
513.778	86.44
513.994	108.44
514.21	105.44
514.426	122.44
514.642	116.44
