Data from Circ_1992_H10_HRD10591_00067.txt Node
Date: Wed Jan 03 11:47:58 EST 2024
User: Yrep
Spectrometer: HR+D1059
Trigger mode: 1
Integration Time (sec): 1.000000E-1
Scans to average: 1
Electric dark correction enabled: true
Nonlinearity correction enabled: false
Boxcar width: 0
XAxis mode: Wavelengths
Number of Pixels in Spectrum: 2048
>>>>>Begin Spectral Data<<<<<
223.165	-1
223.4	-1
223.635	-1
223.869	-20
224.104	-27
224.338	-14
224.573	-25
224.808	-16
225.042	3
225.277	-4
225.511	-17
225.746	11
225.98	10
226.215	10
226.449	22
226.683	17
226.918	21
227.152	30
227.387	30
227.621	47
227.856	43
228.09	39
228.324	49
228.559	65
228.793	53
229.027	46
229.262	60
229.496	77
229.73	89
229.964	93
230.199	78
230.433	89
230.667	76
230.901	76
231.136	69
231.37	80
231.604	74
231.838	68
232.072	88
232.306	78
232.541	78
232.775	83
233.009	88
233.243	83
233.477	72
233.711	91
233.945	78
234.179	72
234.413	91
234.647	84
234.881	80
235.115	86
235.349	95
235.583	83
235.817	74
236.051	68
236.285	77
236.519	76
236.753	80
236.987	84
237.221	84
237.455	91
237.689	86
237.922	76
238.156	82
238.39	81
238.624	65
238.858	77
239.091	82
239.325	95
239.559	91
239.793	81
240.027	78
240.26	87
240.494	81
240.728	90
240.961	85
241.195	88
241.429	82
241.662	65
241.896	69
242.13	64
242.363	68
242.597	72
242.83	93
243.064	71
243.298	77
243.531	74
243.765	81
243.998	93
244.232	86
244.465	92
244.699	90
244.932	68
245.166	93
245.399	69
245.633	84
245.866	82
246.099	70
246.333	78
246.566	69
246.8	80
247.033	98
247.266	81
247.5	75
247.733	61
247.966	81
248.2	82
248.433	86
248.666	80
248.899	91
249.133	91
249.366	104
249.599	102
249.832	93
250.066	80
250.299	78
250.532	88
250.765	71
250.998	66
251.231	91
251.465	99
251.698	84
251.931	80
252.164	79
252.397	70
252.63	90
252.863	83
253.096	80
253.329	89
253.562	85
253.795	94
254.028	82
254.261	82
254.494	80
254.727	82
254.96	69
255.193	88
255.426	86
255.659	83
255.892	85
256.124	84
256.357	90
256.59	84
256.823	86
257.056	89
257.289	68
257.521	70
257.754	93
257.987	101
258.22	93
258.452	91
258.685	81
258.918	77
259.151	88
259.383	78
259.616	80
259.849	93
260.081	85
260.314	102
260.547	109
260.779	88
261.012	96
261.244	97
261.477	88
261.71	99
261.942	115
262.175	129
262.407	86
262.64	84
262.872	76
263.105	104
263.337	80
263.57	83
263.802	111
264.035	99
264.267	90
264.499	84
264.732	80
264.964	71
265.197	87
265.429	94
265.661	90
265.894	84
266.126	80
266.358	72
266.591	75
266.823	78
267.055	83
267.287	91
267.52	82
267.752	87
267.984	89
268.216	93
268.448	95
268.681	76
268.913	85
269.145	83
269.377	97
269.609	77
269.841	84
270.073	104
270.306	86
270.538	93
270.77	81
271.002	86
271.234	93
271.466	93
271.698	88
271.93	94
272.162	94
272.394	93
272.626	101
272.858	85
273.09	90
273.322	88
273.553	87
273.785	99
274.017	88
274.249	86
274.481	79
274.713	66
274.945	76
275.176	89
275.408	101
275.64	92
275.872	102
276.104	95
276.335	108
276.567	110
276.799	135
277.031	124
277.262	155
277.494	114
277.726	97
277.957	97
278.189	92
278.421	97
278.652	68
278.884	86
279.115	85
279.347	87
279.579	99
279.81	111
280.042	152
280.273	191
280.505	138
280.736	103
280.968	89
281.199	92
281.431	95
281.662	91
281.894	102
282.125	115
282.356	130
282.588	172
282.819	123
283.051	100
283.282	84
283.513	104
283.745	95
283.976	79
284.207	99
284.439	86
284.67	95
284.901	96
285.132	90
285.364	79
285.595	92
285.826	89
286.057	85
286.288	98
286.52	104
286.751	80
286.982	76
287.213	96
287.444	97
287.675	85
287.906	97
288.138	92
288.369	87
288.6	102
288.831	84
289.062	87
289.293	95
289.524	83
289.755	70
289.986	100
290.217	84
290.448	94
290.679	88
290.91	87
291.141	80
291.371	88
291.602	85
291.833	91
292.064	84
292.295	92
292.526	91
292.757	95
292.987	84
293.218	93
293.449	86
293.68	100
293.91	94
294.141	97
294.372	82
294.603	83
294.833	92
295.064	77
295.295	102
295.525	86
295.756	118
295.987	131
296.217	150
296.448	140
296.679	82
296.909	82
297.14	91
297.37	83
297.601	76
297.831	90
298.062	83
298.292	84
298.523	98
298.753	85
298.984	88
299.214	103
299.445	77
299.675	84
299.905	85
300.136	88
300.366	88
300.597	88
300.827	86
301.057	96
301.288	95
301.518	104
301.748	101
301.979	94
302.209	91
302.439	85
302.669	99
302.9	95
303.13	86
303.36	111
303.59	117
303.82	118
304.051	106
304.281	83
304.511	93
304.741	101
304.971	88
305.201	78
305.431	77
305.661	100
305.891	90
306.121	102
306.352	99
306.582	108
306.812	102
307.042	106
307.272	127
307.502	147
307.731	146
307.961	104
308.191	93
308.421	83
308.651	93
308.881	101
309.111	91
309.341	83
309.571	101
309.8	103
310.03	95
310.26	105
310.49	104
310.72	95
310.949	124
311.179	112
311.409	99
311.639	97
311.868	115
312.098	94
312.328	105
312.557	116
312.787	115
313.017	107
313.246	100
313.476	79
313.706	95
313.935	101
314.165	102
314.394	103
314.624	111
314.853	87
315.083	99
315.312	101
315.542	92
315.771	94
316.001	96
316.23	81
316.46	92
316.689	92
316.919	99
317.148	104
317.377	93
317.607	96
317.836	112
318.065	100
318.295	82
318.524	92
318.753	99
318.983	84
319.212	108
319.441	115
319.67	103
319.9	95
320.129	98
320.358	100
320.587	112
320.816	99
321.046	104
321.275	90
321.504	99
321.733	88
321.962	94
322.191	97
322.42	109
322.649	116
322.878	127
323.108	125
323.337	134
323.566	138
323.795	169
324.024	242
324.253	469
324.482	1020
324.71	2099
324.939	2824
325.168	1016
325.397	287
325.626	163
325.855	159
326.084	147
326.313	133
326.542	181
326.77	278
326.999	523
327.228	1098
327.457	2059
327.686	1609
327.914	509
328.143	389
328.372	459
328.6	274
328.829	150
329.058	168
329.287	175
329.515	156
329.744	195
329.972	327
330.201	609
330.43	928
330.658	454
330.887	249
331.115	176
331.344	119
331.572	120
331.801	125
332.03	123
332.258	118
332.486	102
332.715	99
332.943	108
333.172	110
333.4	126
333.629	135
333.857	184
334.085	311
334.314	581
334.542	1091
334.771	1086
334.999	312
335.227	153
335.455	113
335.684	104
335.912	117
336.14	114
336.369	95
336.597	110
336.825	115
337.053	96
337.281	92
337.51	102
337.738	99
337.966	109
338.194	88
338.422	90
338.65	101
338.878	102
339.106	94
339.334	99
339.562	93
339.79	92
340.018	75
340.246	99
340.474	92
340.702	97
340.93	97
341.158	99
341.386	92
341.614	101
341.842	87
342.07	98
342.298	96
342.526	96
342.754	90
342.981	98
343.209	99
343.437	91
343.665	89
343.893	76
344.12	93
344.348	82
344.576	97
344.804	94
345.031	110
345.259	107
345.487	91
345.714	104
345.942	100
346.17	82
346.397	98
346.625	97
346.853	88
347.08	90
347.308	112
347.535	107
347.763	103
347.99	111
348.218	108
348.445	107
348.673	113
348.9	86
349.128	100
349.355	88
349.583	90
349.81	81
350.037	92
350.265	94
350.492	95
350.72	111
350.947	114
351.174	121
351.402	110
351.629	106
351.856	104
352.083	108
352.311	107
352.538	112
352.765	105
352.992	123
353.22	112
353.447	108
353.674	102
353.901	103
354.128	105
354.355	98
354.583	110
354.81	98
355.037	98
355.264	93
355.491	99
355.718	82
355.945	95
356.172	100
356.399	101
356.626	99
356.853	93
357.08	94
357.307	92
357.534	93
357.761	94
357.988	98
358.215	100
358.441	87
358.668	99
358.895	91
359.122	88
359.349	83
359.576	99
359.802	104
360.029	122
360.256	140
360.483	123
360.709	98
360.936	106
361.163	112
361.39	97
361.616	102
361.843	93
362.07	94
362.296	103
362.523	102
362.749	105
362.976	96
363.203	90
363.429	93
363.656	87
363.882	87
364.109	93
364.335	95
364.562	99
364.788	84
365.015	90
365.241	103
365.468	106
365.694	108
365.92	113
366.147	94
366.373	103
366.599	95
366.826	81
367.052	80
367.278	91
367.505	87
367.731	82
367.957	84
368.184	109
368.41	105
368.636	120
368.862	124
369.089	122
369.315	115
369.541	94
369.767	96
369.993	89
370.219	104
370.445	93
370.672	95
370.898	83
371.124	83
371.35	74
371.576	92
371.802	90
372.028	89
372.254	82
372.48	91
372.706	89
372.932	85
373.158	81
373.384	96
373.61	87
373.835	93
374.061	81
374.287	103
374.513	96
374.739	110
374.965	89
375.191	79
375.416	77
375.642	95
375.868	104
376.094	86
376.319	91
376.545	86
376.771	94
376.997	89
377.222	71
377.448	90
377.674	97
377.899	90
378.125	84
378.35	84
378.576	84
378.802	83
379.027	104
379.253	96
379.478	102
379.704	101
379.929	90
380.155	89
380.38	102
380.606	103
380.831	92
381.057	100
381.282	99
381.507	83
381.733	92
381.958	87
382.184	90
382.409	95
382.634	99
382.86	100
383.085	107
383.31	96
383.535	87
383.761	92
383.986	104
384.211	101
384.436	105
384.662	113
384.887	100
385.112	106
385.337	107
385.562	85
385.787	113
386.013	119
386.238	128
386.463	100
386.688	95
386.913	114
387.138	113
387.363	94
387.588	103
387.813	90
388.038	116
388.263	110
388.488	99
388.713	96
388.938	89
389.163	103
389.387	93
389.612	86
389.837	90
390.062	96
390.287	91
390.512	88
390.736	96
390.961	90
391.186	98
391.411	88
391.636	94
391.86	95
392.085	79
392.31	83
392.534	99
392.759	90
392.984	78
393.208	103
393.433	78
393.658	93
393.882	99
394.107	115
394.331	96
394.556	103
394.78	94
395.005	103
395.229	81
395.454	87
395.678	86
395.903	102
396.127	71
396.352	88
396.576	82
396.801	83
397.025	91
397.249	83
397.474	91
397.698	92
397.922	95
398.147	98
398.371	85
398.595	95
398.82	83
399.044	91
399.268	76
399.492	83
399.717	90
399.941	111
400.165	104
400.389	92
400.613	84
400.837	77
401.062	93
401.286	91
401.51	98
401.734	84
401.958	107
402.182	143
402.406	183
402.63	118
402.854	92
403.078	97
403.302	102
403.526	78
403.75	87
403.974	98
404.198	81
404.422	86
404.645	100
404.869	104
405.093	115
405.317	145
405.541	140
405.765	122
405.988	122
406.212	198
406.436	288
406.66	192
406.883	127
407.107	95
407.331	79
407.555	91
407.778	101
408.002	101
408.226	87
408.449	95
408.673	82
408.896	99
409.12	87
409.344	80
409.567	78
409.791	91
410.014	102
410.238	82
410.461	85
410.685	87
410.908	98
411.132	112
411.355	101
411.578	102
411.802	82
412.025	90
412.249	93
412.472	122
412.695	116
412.919	108
413.142	98
413.365	94
413.589	83
413.812	84
414.035	89
414.258	98
414.482	98
414.705	91
414.928	100
415.151	100
415.374	80
415.597	95
415.821	82
416.044	88
416.267	95
416.49	94
416.713	87
416.936	86
417.159	93
417.382	88
417.605	91
417.828	106
418.051	102
418.274	86
418.497	79
418.72	105
418.943	95
419.166	105
419.389	87
419.611	84
419.834	84
420.057	89
420.28	81
420.503	80
420.726	97
420.948	86
421.171	112
421.394	96
421.617	96
421.839	86
422.062	87
422.285	91
422.507	113
422.73	109
422.953	106
423.175	88
423.398	86
423.621	91
423.843	78
424.066	78
424.288	109
424.511	108
424.733	126
424.956	119
425.178	117
425.401	122
425.623	102
425.846	79
426.068	100
426.291	76
426.513	89
426.735	93
426.958	109
427.18	115
427.402	179
427.625	248
427.847	222
428.069	194
428.292	119
428.514	100
428.736	94
428.958	90
429.181	92
429.403	98
429.625	90
429.847	96
430.069	105
430.292	99
430.514	90
430.736	91
430.958	91
431.18	82
431.402	106
431.624	79
431.846	83
432.068	94
432.29	86
432.512	83
432.734	95
432.956	107
433.178	112
433.4	88
433.622	87
433.844	77
434.066	102
434.287	86
434.509	104
434.731	88
434.953	99
435.175	99
435.397	91
435.618	94
435.84	127
436.062	150
436.284	144
436.505	106
436.727	105
436.949	105
437.17	78
437.392	91
437.614	98
437.835	121
438.057	133
438.278	129
438.5	109
438.721	145
438.943	111
439.165	100
439.386	98
439.608	97
439.829	96
440.05	153
440.272	172
440.493	111
440.715	107
440.936	92
441.158	84
441.379	89
441.6	79
441.822	116
442.043	101
442.264	111
442.486	109
442.707	117
442.928	122
443.149	168
443.371	160
443.592	130
443.813	116
444.034	120
444.255	98
444.476	78
444.698	104
444.919	92
445.14	135
445.361	124
445.582	130
445.803	162
446.024	171
446.245	173
446.466	126
446.687	99
446.908	99
447.129	97
447.35	90
447.571	105
447.792	99
448.013	95
448.234	124
448.455	120
448.675	118
448.896	140
449.117	117
449.338	119
449.559	132
449.779	156
450	115
450.221	98
450.442	110
450.662	106
450.883	123
451.104	124
451.324	103
451.545	82
451.766	84
451.986	83
452.207	90
452.428	93
452.648	93
452.869	128
453.089	138
453.31	132
453.53	94
453.751	88
453.971	105
454.192	146
454.412	103
454.633	98
454.853	78
455.073	88
455.294	99
455.514	108
455.734	89
455.955	94
456.175	84
456.395	107
456.616	87
456.836	105
457.056	94
457.276	83
457.497	86
457.717	90
457.937	84
458.157	101
458.377	103
458.598	121
458.818	184
459.038	206
459.258	130
459.478	93
459.698	89
459.918	84
460.138	85
460.358	74
460.578	93
460.798	98
461.018	71
461.238	82
461.458	94
461.678	79
461.898	94
462.118	104
462.338	90
462.558	86
462.777	84
462.997	77
463.217	99
463.437	81
463.657	94
463.876	98
464.096	92
464.316	91
464.536	111
464.755	98
464.975	114
465.195	211
465.414	199
465.634	105
465.854	96
466.073	103
466.293	89
466.512	93
466.732	87
466.951	86
467.171	95
467.391	109
467.61	145
467.829	166
468.049	376
468.268	551
468.488	167
468.707	96
468.927	94
469.146	87
469.365	95
469.585	89
469.804	104
470.023	110
470.243	104
470.462	128
470.681	141
470.901	99
471.12	104
471.339	110
471.558	108
471.777	137
471.997	210
472.216	749
472.435	1646
472.654	429
472.873	141
473.092	101
473.311	103
473.53	101
473.749	109
473.968	102
474.187	125
474.406	117
474.625	83
474.844	98
475.063	82
475.282	91
475.501	103
475.72	102
475.939	82
476.158	93
476.377	100
476.596	89
476.814	98
477.033	93
477.252	96
477.471	80
477.69	93
477.908	110
478.127	100
478.346	98
478.564	115
478.783	111
479.002	98
479.22	102
479.439	107
479.658	128
479.876	125
480.095	118
480.313	134
480.532	144
480.751	213
480.969	684
481.188	2820
481.406	1620
481.624	268
481.843	111
482.061	118
482.28	101
482.498	88
482.717	94
482.935	91
483.153	92
483.372	96
483.59	88
483.808	98
484.027	90
484.245	94
484.463	93
484.681	94
484.9	78
485.118	112
485.336	108
485.554	108
485.772	104
485.99	102
486.209	98
486.427	114
486.645	124
486.863	110
487.081	113
487.299	108
487.517	81
487.735	91
487.953	87
488.171	91
488.389	88
488.607	116
488.825	96
489.043	81
489.261	76
489.479	90
489.696	90
489.914	94
490.132	93
490.35	98
490.568	89
490.786	83
491.003	85
491.221	103
491.439	99
491.657	100
491.874	94
492.092	80
492.31	91
492.527	95
492.745	97
492.963	95
493.18	88
493.398	93
493.615	95
493.833	91
494.05	99
494.268	79
494.485	99
494.703	89
494.92	98
495.138	96
495.355	87
495.573	108
495.79	83
496.008	92
496.225	93
496.442	84
496.66	91
496.877	94
497.094	94
497.312	83
497.529	89
497.746	99
497.963	99
498.181	90
498.398	93
498.615	108
498.832	110
499.049	93
499.267	97
499.484	93
499.701	90
499.918	98
500.135	97
500.352	101
500.569	100
500.786	108
501.003	90
501.22	93
501.437	97
501.654	83
501.871	97
502.088	98
502.305	98
502.522	94
502.739	99
502.956	95
503.172	104
503.389	113
503.606	115
503.823	115
504.04	95
504.256	92
504.473	85
504.69	96
504.907	90
505.123	97
505.34	103
505.557	102
505.773	90
505.99	91
506.207	99
506.423	88
506.64	97
506.856	100
507.073	88
507.289	99
507.506	103
507.722	126
507.939	135
508.155	103
508.372	114
508.588	82
508.805	91
509.021	95
509.238	115
509.454	110
509.67	119
509.887	115
510.103	150
510.319	238
510.536	897
510.752	3125
510.968	836
511.184	178
511.401	122
511.617	106
511.833	102
512.049	93
512.265	82
512.481	93
512.698	95
512.914	113
513.13	99
513.346	101
513.562	103
513.778	103
513.994	113
514.21	104
514.426	122
514.642	157
514.858	143
515.074	220
515.29	612
515.506	2250
515.721	814
515.937	196
516.153	126
516.369	86
516.585	90
516.801	109
517.016	91
517.232	104
517.448	115
517.664	104
517.879	99
518.095	98
518.311	114
518.527	101
518.742	99
518.958	97
519.173	99
519.389	96
519.605	91
519.82	106
520.036	96
520.251	134
520.467	113
520.682	101
520.898	100
521.113	137
521.329	165
521.544	256
521.76	791
521.975	3741
522.19	2232
522.406	432
522.621	141
522.836	111
523.052	101
523.267	95
523.482	92
523.698	115
523.913	129
524.128	133
524.343	108
524.559	106
524.774	100
524.989	100
525.204	111
525.419	106
525.634	85
525.849	102
526.064	96
526.28	99
526.495	102
526.71	91
526.925	89
527.14	97
527.355	109
527.57	105
527.785	91
527.999	87
528.214	85
528.429	104
528.644	83
528.859	91
529.074	88
529.289	142
529.503	254
529.718	129
529.933	86
530.148	85
530.363	107
530.577	94
530.792	91
531.007	85
531.221	82
531.436	95
531.651	91
531.865	85
532.08	80
532.295	99
532.509	95
532.724	86
532.938	103
533.153	106
533.367	89
533.582	102
533.796	100
534.011	99
534.225	101
534.44	107
534.654	98
534.868	92
535.083	83
535.297	88
535.511	93
535.726	108
535.94	116
536.154	87
536.369	98
536.583	84
536.797	88
537.011	82
537.225	98
537.44	97
537.654	85
537.868	98
538.082	104
538.296	83
538.51	99
538.724	87
538.938	86
539.153	91
539.367	111
539.581	104
539.795	86
540.009	84
540.222	88
540.436	101
540.65	99
540.864	85
541.078	103
541.292	108
541.506	81
541.72	82
541.934	93
542.147	92
542.361	95
542.575	84
542.789	96
543.002	77
543.216	92
543.43	109
543.644	102
543.857	104
544.071	97
544.285	97
544.498	82
544.712	101
544.925	103
545.139	101
545.352	83
545.566	85
545.779	99
545.993	89
546.206	90
546.42	94
546.633	88
546.847	103
547.06	87
547.274	85
547.487	96
547.7	86
547.914	85
548.127	88
548.34	80
548.554	92
548.767	91
548.98	92
549.193	83
549.407	80
549.62	86
549.833	90
550.046	82
550.259	102
550.473	88
550.686	99
550.899	84
551.112	94
551.325	93
551.538	98
551.751	96
551.964	90
552.177	90
552.39	83
552.603	94
552.816	87
553.029	91
553.242	98
553.455	91
553.667	108
553.88	105
554.093	107
554.306	103
554.519	90
554.732	97
554.944	102
555.157	88
555.37	87
555.583	112
555.795	93
556.008	76
556.221	90
556.433	100
556.646	89
556.859	104
557.071	104
557.284	77
557.496	102
557.709	86
557.921	96
558.134	94
558.346	90
558.559	78
558.771	84
558.984	92
559.196	96
559.409	95
559.621	87
559.833	97
560.046	75
560.258	109
560.47	118
560.683	102
560.895	102
561.107	95
561.32	86
561.532	88
561.744	86
561.956	91
562.168	108
562.381	94
562.593	94
562.805	88
563.017	101
563.229	88
563.441	96
563.653	102
563.865	91
564.077	79
564.289	83
564.501	103
564.713	90
564.925	92
565.137	105
565.349	108
565.561	93
565.773	89
565.985	87
566.197	101
566.408	90
566.62	91
566.832	85
567.044	85
567.255	82
567.467	84
567.679	84
567.891	94
568.102	95
568.314	82
568.526	103
568.737	104
568.949	79
569.161	76
569.372	66
569.584	100
569.795	107
570.007	120
570.218	294
570.43	156
570.641	98
570.853	92
571.064	93
571.276	85
571.487	91
571.698	95
571.91	95
572.121	99
572.333	95
572.544	78
572.755	81
572.966	97
573.178	80
573.389	94
573.6	82
573.811	102
574.023	87
574.234	89
574.445	86
574.656	80
574.867	95
575.078	99
575.289	101
575.501	88
575.712	96
575.923	86
576.134	96
576.345	96
576.556	102
576.767	96
576.978	84
577.188	96
577.399	110
577.61	109
577.821	88
578.032	119
578.243	327
578.454	913
578.665	248
578.875	102
579.086	103
579.297	71
579.508	83
579.718	72
579.929	78
580.14	84
580.35	84
580.561	77
