Data from Circ_1992_H10_HRD10591_00068.txt Node
Date: Wed Jan 03 11:47:58 EST 2024
User: Yrep
Spectrometer: HR+D1059
Trigger mode: 1
Integration Time (sec): 1.000000E-1
Scans to average: 1
Electric dark correction enabled: true
Nonlinearity correction enabled: false
Boxcar width: 0
XAxis mode: Wavelengths
Number of Pixels in Spectrum: 2048
>>>>>Begin Spectral Data<<<<<
223.165	-18.25
223.4	-18.25
223.635	-18.25
223.869	-6.25
224.104	-28.25
224.338	-17.25
224.573	-14.25
224.808	-9.25
225.042	-0.25
225.277	-9.25
225.511	2.75
225.746	6.75
225.98	9.75
226.215	18.75
226.449	19.75
226.683	16.75
226.918	12.75
227.152	15.75
227.387	38.75
227.621	47.75
227.856	50.75
228.09	39.75
228.324	42.75
228.559	61.75
228.793	56.75
229.027	63.75
229.262	71.75
229.496	79.75
229.73	106.75
229.964	91.75
230.199	81.75
230.433	95.75
230.667	84.75
230.901	72.75
231.136	91.75
231.37	90.75
231.604	95.75
231.838	77.75
232.072	88.75
232.306	88.75
232.541	88.75
232.775	84.75
233.009	93.75
233.243	87.75
233.477	78.75
233.711	81.75
233.945	84.75
234.179	82.75
234.413	86.75
234.647	93.75
234.881	77.75
235.115	70.75
235.349	85.75
235.583	84.75
235.817	79.75
236.051	75.75
236.285	82.75
236.519	75.75
236.753	67.75
236.987	81.75
237.221	76.75
237.455	81.75
237.689	89.75
237.922	77.75
238.156	95.75
238.39	73.75
238.624	82.75
238.858	75.75
239.091	82.75
239.325	85.75
239.559	85.75
239.793	86.75
240.027	83.75
240.26	86.75
240.494	97.75
240.728	72.75
240.961	75.75
241.195	78.75
241.429	76.75
241.662	89.75
241.896	87.75
242.13	79.75
242.363	80.75
242.597	82.75
242.83	71.75
243.064	81.75
243.298	87.75
243.531	82.75
243.765	83.75
243.998	86.75
244.232	84.75
244.465	114.75
244.699	96.75
244.932	84.75
245.166	88.75
245.399	72.75
245.633	88.75
245.866	75.75
246.099	93.75
246.333	93.75
246.566	82.75
246.8	83.75
247.033	80.75
247.266	80.75
247.5	76.75
247.733	71.75
247.966	75.75
248.2	86.75
248.433	96.75
248.666	70.75
248.899	95.75
249.133	93.75
249.366	93.75
249.599	104.75
249.832	93.75
250.066	77.75
250.299	80.75
250.532	87.75
250.765	90.75
250.998	88.75
251.231	77.75
251.465	64.75
251.698	84.75
251.931	97.75
252.164	83.75
252.397	77.75
252.63	86.75
252.863	102.75
253.096	82.75
253.329	66.75
253.562	84.75
253.795	99.75
254.028	79.75
254.261	92.75
254.494	84.75
254.727	85.75
254.96	71.75
255.193	83.75
255.426	80.75
255.659	81.75
255.892	98.75
256.124	81.75
256.357	95.75
256.59	80.75
256.823	97.75
257.056	111.75
257.289	93.75
257.521	83.75
257.754	78.75
257.987	84.75
258.22	85.75
258.452	91.75
258.685	85.75
258.918	93.75
259.151	87.75
259.383	75.75
259.616	95.75
259.849	84.75
260.081	88.75
260.314	106.75
260.547	109.75
260.779	103.75
261.012	100.75
261.244	97.75
261.477	93.75
261.71	99.75
261.942	137.75
262.175	131.75
262.407	101.75
262.64	95.75
262.872	77.75
263.105	79.75
263.337	95.75
263.57	81.75
263.802	80.75
264.035	84.75
264.267	85.75
264.499	84.75
264.732	98.75
264.964	91.75
265.197	72.75
265.429	99.75
265.661	79.75
265.894	96.75
266.126	90.75
266.358	88.75
266.591	80.75
266.823	89.75
267.055	91.75
267.287	76.75
267.52	77.75
267.752	70.75
267.984	87.75
268.216	79.75
268.448	89.75
268.681	81.75
268.913	85.75
269.145	92.75
269.377	97.75
269.609	79.75
269.841	92.75
270.073	86.75
270.306	84.75
270.538	99.75
270.77	75.75
271.002	92.75
271.234	81.75
271.466	108.75
271.698	93.75
271.93	87.75
272.162	100.75
272.394	90.75
272.626	104.75
272.858	76.75
273.09	84.75
273.322	76.75
273.553	84.75
273.785	96.75
274.017	91.75
274.249	93.75
274.481	94.75
274.713	102.75
274.945	88.75
275.176	91.75
275.408	106.75
275.64	113.75
275.872	111.75
276.104	102.75
276.335	97.75
276.567	123.75
276.799	136.75
277.031	142.75
277.262	157.75
277.494	129.75
277.726	100.75
277.957	80.75
278.189	85.75
278.421	104.75
278.652	89.75
278.884	91.75
279.115	88.75
279.347	97.75
279.579	108.75
279.81	126.75
280.042	156.75
280.273	197.75
280.505	131.75
280.736	102.75
280.968	83.75
281.199	92.75
281.431	95.75
281.662	92.75
281.894	102.75
282.125	111.75
282.356	139.75
282.588	153.75
282.819	124.75
283.051	93.75
283.282	95.75
283.513	95.75
283.745	88.75
283.976	80.75
284.207	92.75
284.439	83.75
284.67	95.75
284.901	91.75
285.132	95.75
285.364	93.75
285.595	97.75
285.826	77.75
286.057	81.75
286.288	87.75
286.52	93.75
286.751	95.75
286.982	83.75
287.213	74.75
287.444	93.75
287.675	96.75
287.906	92.75
288.138	93.75
288.369	94.75
288.6	94.75
288.831	88.75
289.062	99.75
289.293	102.75
289.524	92.75
289.755	80.75
289.986	87.75
290.217	91.75
290.448	93.75
290.679	85.75
290.91	79.75
291.141	69.75
291.371	102.75
291.602	88.75
291.833	97.75
292.064	91.75
292.295	90.75
292.526	96.75
292.757	91.75
292.987	91.75
293.218	99.75
293.449	87.75
293.68	102.75
293.91	99.75
294.141	96.75
294.372	102.75
294.603	83.75
294.833	86.75
295.064	70.75
295.295	101.75
295.525	83.75
295.756	107.75
295.987	128.75
296.217	165.75
296.448	140.75
296.679	96.75
296.909	91.75
297.14	83.75
297.37	92.75
297.601	93.75
297.831	87.75
298.062	91.75
298.292	97.75
298.523	99.75
298.753	85.75
298.984	103.75
299.214	81.75
299.445	96.75
299.675	95.75
299.905	96.75
300.136	90.75
300.366	101.75
300.597	84.75
300.827	83.75
301.057	114.75
301.288	117.75
301.518	103.75
301.748	102.75
301.979	100.75
302.209	86.75
302.439	102.75
302.669	108.75
302.9	88.75
303.13	110.75
303.36	115.75
303.59	117.75
303.82	130.75
304.051	113.75
304.281	92.75
304.511	97.75
304.741	80.75
304.971	82.75
305.201	97.75
305.431	109.75
305.661	97.75
305.891	89.75
306.121	101.75
306.352	109.75
306.582	122.75
306.812	108.75
307.042	122.75
307.272	136.75
307.502	147.75
307.731	166.75
307.961	101.75
308.191	96.75
308.421	94.75
308.651	79.75
308.881	100.75
309.111	105.75
309.341	92.75
309.571	124.75
309.8	125.75
310.03	110.75
310.26	109.75
310.49	110.75
310.72	115.75
310.949	118.75
311.179	103.75
311.409	97.75
311.639	108.75
311.868	103.75
312.098	112.75
312.328	113.75
312.557	99.75
312.787	143.75
313.017	117.75
313.246	111.75
313.476	96.75
313.706	97.75
313.935	96.75
314.165	112.75
314.394	104.75
314.624	115.75
314.853	110.75
315.083	105.75
315.312	95.75
315.542	104.75
315.771	94.75
316.001	100.75
316.23	86.75
316.46	105.75
316.689	98.75
316.919	101.75
317.148	114.75
317.377	98.75
317.607	107.75
317.836	103.75
318.065	95.75
318.295	83.75
318.524	109.75
318.753	93.75
318.983	109.75
319.212	112.75
319.441	116.75
319.67	90.75
319.9	103.75
320.129	102.75
320.358	93.75
320.587	97.75
320.816	103.75
321.046	116.75
321.275	88.75
321.504	92.75
321.733	97.75
321.962	105.75
322.191	118.75
322.42	99.75
322.649	105.75
322.878	132.75
323.108	118.75
323.337	150.75
323.566	170.75
323.795	189.75
324.024	254.75
324.253	499.75
324.482	1178.75
324.71	2464.75
324.939	3332.75
325.168	1163.75
325.397	312.75
325.626	194.75
325.855	155.75
326.084	148.75
326.313	157.75
326.542	192.75
326.77	274.75
326.999	592.75
327.228	1313.75
327.457	2491.75
327.686	2021.75
327.914	573.75
328.143	450.75
328.372	519.75
328.6	302.75
328.829	168.75
329.058	175.75
329.287	194.75
329.515	168.75
329.744	227.75
329.972	384.75
330.201	737.75
330.43	1047.75
330.658	527.75
330.887	267.75
331.115	165.75
331.344	127.75
331.572	123.75
331.801	133.75
332.03	122.75
332.258	95.75
332.486	103.75
332.715	100.75
332.943	100.75
333.172	113.75
333.4	126.75
333.629	158.75
333.857	196.75
334.085	349.75
334.314	687.75
334.542	1337.75
334.771	1258.75
334.999	351.75
335.227	156.75
335.455	109.75
335.684	116.75
335.912	112.75
336.14	116.75
336.369	97.75
336.597	120.75
336.825	88.75
337.053	103.75
337.281	93.75
337.51	94.75
337.738	94.75
337.966	102.75
338.194	114.75
338.422	96.75
338.65	103.75
338.878	103.75
339.106	100.75
339.334	94.75
339.562	96.75
339.79	96.75
340.018	107.75
340.246	85.75
340.474	99.75
340.702	97.75
340.93	89.75
341.158	111.75
341.386	102.75
341.614	104.75
341.842	109.75
342.07	104.75
342.298	85.75
342.526	101.75
342.754	90.75
342.981	88.75
343.209	91.75
343.437	110.75
343.665	93.75
343.893	89.75
344.12	100.75
344.348	109.75
344.576	102.75
344.804	103.75
345.031	91.75
345.259	102.75
345.487	97.75
345.714	108.75
345.942	95.75
346.17	103.75
346.397	94.75
346.625	104.75
346.853	108.75
347.08	90.75
347.308	93.75
347.535	102.75
347.763	111.75
347.99	116.75
348.218	104.75
348.445	124.75
348.673	104.75
348.9	97.75
349.128	111.75
349.355	96.75
349.583	96.75
349.81	91.75
350.037	104.75
350.265	89.75
350.492	108.75
350.72	96.75
350.947	103.75
351.174	116.75
351.402	123.75
351.629	121.75
351.856	101.75
352.083	118.75
352.311	109.75
352.538	119.75
352.765	121.75
352.992	119.75
353.22	116.75
353.447	107.75
353.674	107.75
353.901	89.75
354.128	111.75
354.355	92.75
354.583	87.75
354.81	105.75
355.037	91.75
355.264	96.75
355.491	97.75
355.718	101.75
355.945	96.75
356.172	89.75
356.399	99.75
356.626	101.75
356.853	84.75
357.08	92.75
357.307	83.75
357.534	88.75
357.761	106.75
357.988	82.75
358.215	86.75
358.441	89.75
358.668	95.75
358.895	89.75
359.122	96.75
359.349	91.75
359.576	103.75
359.802	92.75
360.029	132.75
360.256	137.75
360.483	105.75
360.709	85.75
360.936	90.75
361.163	99.75
361.39	98.75
361.616	104.75
361.843	96.75
362.07	105.75
362.296	108.75
362.523	102.75
362.749	105.75
362.976	108.75
363.203	98.75
363.429	94.75
363.656	91.75
363.882	87.75
364.109	101.75
364.335	105.75
364.562	92.75
364.788	103.75
365.015	99.75
365.241	109.75
365.468	129.75
365.694	123.75
365.92	107.75
366.147	115.75
366.373	117.75
366.599	93.75
366.826	93.75
367.052	100.75
367.278	105.75
367.505	114.75
367.731	108.75
367.957	102.75
368.184	114.75
368.41	116.75
368.636	135.75
368.862	129.75
369.089	108.75
369.315	100.75
369.541	100.75
369.767	114.75
369.993	95.75
370.219	97.75
370.445	94.75
370.672	102.75
370.898	109.75
371.124	95.75
371.35	85.75
371.576	99.75
371.802	73.75
372.028	83.75
372.254	88.75
372.48	93.75
372.706	85.75
372.932	97.75
373.158	83.75
373.384	105.75
373.61	89.75
373.835	95.75
374.061	98.75
374.287	110.75
374.513	93.75
374.739	104.75
374.965	74.75
375.191	91.75
375.416	93.75
375.642	84.75
375.868	97.75
376.094	92.75
376.319	90.75
376.545	101.75
376.771	80.75
376.997	92.75
377.222	101.75
377.448	100.75
377.674	95.75
377.899	103.75
378.125	99.75
378.35	92.75
378.576	73.75
378.802	81.75
379.027	88.75
379.253	95.75
379.478	89.75
379.704	93.75
379.929	96.75
380.155	97.75
380.38	89.75
380.606	98.75
380.831	95.75
381.057	89.75
381.282	83.75
381.507	102.75
381.733	89.75
381.958	88.75
382.184	85.75
382.409	84.75
382.634	96.75
382.86	98.75
383.085	92.75
383.31	97.75
383.535	92.75
383.761	102.75
383.986	108.75
384.211	95.75
384.436	107.75
384.662	109.75
384.887	107.75
385.112	85.75
385.337	88.75
385.562	113.75
385.787	111.75
386.013	102.75
386.238	104.75
386.463	109.75
386.688	105.75
386.913	117.75
387.138	96.75
387.363	104.75
387.588	93.75
387.813	97.75
388.038	111.75
388.263	114.75
388.488	119.75
388.713	75.75
388.938	100.75
389.163	111.75
389.387	105.75
389.612	105.75
389.837	92.75
390.062	93.75
390.287	100.75
390.512	109.75
390.736	93.75
390.961	92.75
391.186	95.75
391.411	104.75
391.636	87.75
391.86	86.75
392.085	86.75
392.31	93.75
392.534	89.75
392.759	104.75
392.984	92.75
393.208	99.75
393.433	76.75
393.658	77.75
393.882	93.75
394.107	86.75
394.331	81.75
394.556	85.75
394.78	96.75
395.005	101.75
395.229	89.75
395.454	92.75
395.678	87.75
395.903	107.75
396.127	84.75
396.352	88.75
396.576	92.75
396.801	89.75
397.025	77.75
397.249	104.75
397.474	105.75
397.698	91.75
397.922	80.75
398.147	90.75
398.371	89.75
398.595	94.75
398.82	94.75
399.044	89.75
399.268	101.75
399.492	93.75
399.717	73.75
399.941	99.75
400.165	95.75
400.389	104.75
400.613	88.75
400.837	101.75
401.062	88.75
401.286	96.75
401.51	112.75
401.734	100.75
401.958	108.75
402.182	127.75
402.406	197.75
402.63	126.75
402.854	103.75
403.078	95.75
403.302	89.75
403.526	84.75
403.75	85.75
403.974	89.75
404.198	83.75
404.422	82.75
404.645	93.75
404.869	104.75
405.093	114.75
405.317	139.75
405.541	132.75
405.765	115.75
405.988	120.75
406.212	200.75
406.436	284.75
406.66	191.75
406.883	123.75
407.107	95.75
407.331	111.75
407.555	119.75
407.778	101.75
408.002	107.75
408.226	85.75
408.449	98.75
408.673	109.75
408.896	105.75
409.12	94.75
409.344	88.75
409.567	92.75
409.791	94.75
410.014	88.75
410.238	91.75
410.461	102.75
410.685	90.75
410.908	97.75
411.132	116.75
411.355	95.75
411.578	99.75
411.802	86.75
412.025	86.75
412.249	97.75
412.472	104.75
412.695	125.75
412.919	105.75
413.142	97.75
413.365	82.75
413.589	87.75
413.812	98.75
414.035	101.75
414.258	100.75
414.482	106.75
414.705	96.75
414.928	90.75
415.151	91.75
415.374	94.75
415.597	85.75
415.821	97.75
416.044	96.75
416.267	101.75
416.49	90.75
416.713	89.75
416.936	91.75
417.159	84.75
417.382	91.75
417.605	105.75
417.828	105.75
418.051	99.75
418.274	91.75
418.497	86.75
418.72	92.75
418.943	100.75
419.166	81.75
419.389	95.75
419.611	98.75
419.834	83.75
420.057	95.75
420.28	93.75
420.503	93.75
420.726	91.75
420.948	86.75
421.171	115.75
421.394	100.75
421.617	87.75
421.839	92.75
422.062	85.75
422.285	95.75
422.507	96.75
422.73	103.75
422.953	93.75
423.175	80.75
423.398	77.75
423.621	101.75
423.843	92.75
424.066	85.75
424.288	85.75
424.511	95.75
424.733	102.75
424.956	129.75
425.178	98.75
425.401	107.75
425.623	96.75
425.846	90.75
426.068	106.75
426.291	103.75
426.513	94.75
426.735	88.75
426.958	110.75
427.18	123.75
427.402	178.75
427.625	239.75
427.847	234.75
428.069	209.75
428.292	133.75
428.514	88.75
428.736	92.75
428.958	95.75
429.181	93.75
429.403	92.75
429.625	81.75
429.847	81.75
430.069	115.75
430.292	104.75
430.514	97.75
430.736	88.75
430.958	89.75
431.18	85.75
431.402	83.75
431.624	95.75
431.846	92.75
432.068	99.75
432.29	86.75
432.512	85.75
432.734	77.75
432.956	97.75
433.178	106.75
433.4	119.75
433.622	84.75
433.844	112.75
434.066	94.75
434.287	92.75
434.509	93.75
434.731	96.75
434.953	94.75
435.175	85.75
435.397	95.75
435.618	85.75
435.84	116.75
436.062	159.75
436.284	120.75
436.505	113.75
436.727	116.75
436.949	79.75
437.17	86.75
437.392	84.75
437.614	91.75
437.835	131.75
438.057	147.75
438.278	129.75
438.5	102.75
438.721	146.75
438.943	98.75
439.165	94.75
439.386	95.75
439.608	99.75
439.829	105.75
440.05	159.75
440.272	186.75
440.493	141.75
440.715	105.75
440.936	89.75
441.158	103.75
441.379	97.75
441.6	88.75
441.822	97.75
442.043	105.75
442.264	125.75
442.486	114.75
442.707	108.75
442.928	123.75
443.149	168.75
443.371	171.75
443.592	124.75
443.813	119.75
444.034	127.75
444.255	96.75
444.476	98.75
444.698	106.75
444.919	79.75
445.14	146.75
445.361	152.75
445.582	144.75
445.803	190.75
446.024	182.75
446.245	164.75
446.466	127.75
446.687	96.75
446.908	91.75
447.129	84.75
447.35	91.75
447.571	105.75
447.792	104.75
448.013	112.75
448.234	106.75
448.455	114.75
448.675	118.75
448.896	151.75
449.117	108.75
449.338	105.75
449.559	147.75
449.779	151.75
450	109.75
450.221	85.75
450.442	107.75
450.662	98.75
450.883	125.75
451.104	133.75
451.324	107.75
451.545	106.75
451.766	95.75
451.986	92.75
452.207	94.75
452.428	100.75
452.648	101.75
452.869	129.75
453.089	132.75
453.31	149.75
453.53	104.75
453.751	95.75
453.971	112.75
454.192	138.75
454.412	102.75
454.633	86.75
454.853	92.75
455.073	102.75
455.294	100.75
455.514	101.75
455.734	91.75
455.955	84.75
456.175	88.75
456.395	90.75
456.616	70.75
456.836	70.75
457.056	97.75
457.276	98.75
457.497	104.75
457.717	95.75
457.937	107.75
458.157	108.75
458.377	105.75
458.598	132.75
458.818	203.75
459.038	207.75
459.258	135.75
459.478	100.75
459.698	91.75
459.918	93.75
460.138	95.75
460.358	93.75
460.578	96.75
460.798	96.75
461.018	95.75
461.238	94.75
461.458	92.75
461.678	81.75
461.898	96.75
462.118	87.75
462.338	83.75
462.558	83.75
462.777	90.75
462.997	101.75
463.217	99.75
463.437	100.75
463.657	86.75
463.876	71.75
464.096	87.75
464.316	109.75
464.536	115.75
464.755	110.75
464.975	119.75
465.195	216.75
465.414	229.75
465.634	117.75
465.854	94.75
466.073	94.75
466.293	80.75
466.512	85.75
466.732	86.75
466.951	109.75
467.171	100.75
467.391	104.75
467.61	134.75
467.829	175.75
468.049	425.75
468.268	621.75
468.488	193.75
468.707	95.75
468.927	103.75
469.146	99.75
469.365	93.75
469.585	98.75
469.804	87.75
470.023	116.75
470.243	110.75
470.462	126.75
470.681	108.75
470.901	105.75
471.12	92.75
471.339	99.75
471.558	118.75
471.777	135.75
471.997	258.75
472.216	819.75
472.435	1853.75
472.654	458.75
472.873	145.75
473.092	105.75
473.311	100.75
473.53	79.75
473.749	101.75
473.968	101.75
474.187	118.75
474.406	105.75
474.625	83.75
474.844	105.75
475.063	87.75
475.282	79.75
475.501	82.75
475.72	89.75
475.939	84.75
476.158	104.75
476.377	83.75
476.596	97.75
476.814	106.75
477.033	101.75
477.252	72.75
477.471	100.75
477.69	94.75
477.908	101.75
478.127	86.75
478.346	98.75
478.564	101.75
478.783	96.75
479.002	109.75
479.22	99.75
479.439	124.75
479.658	124.75
479.876	116.75
480.095	115.75
480.313	126.75
480.532	152.75
480.751	243.75
480.969	769.75
481.188	3127.75
481.406	1825.75
481.624	281.75
481.843	136.75
482.061	102.75
482.28	86.75
482.498	92.75
482.717	100.75
482.935	81.75
483.153	99.75
483.372	106.75
483.59	92.75
483.808	95.75
484.027	97.75
484.245	93.75
484.463	85.75
484.681	81.75
484.9	101.75
485.118	104.75
485.336	104.75
485.554	96.75
485.772	99.75
485.99	104.75
486.209	111.75
486.427	125.75
486.645	121.75
486.863	124.75
487.081	85.75
487.299	79.75
487.517	96.75
487.735	96.75
487.953	91.75
488.171	90.75
488.389	107.75
488.607	100.75
488.825	86.75
489.043	86.75
489.261	93.75
489.479	99.75
489.696	91.75
489.914	111.75
490.132	100.75
490.35	100.75
490.568	97.75
490.786	93.75
491.003	85.75
491.221	81.75
491.439	104.75
491.657	77.75
491.874	94.75
492.092	92.75
492.31	103.75
492.527	110.75
492.745	108.75
492.963	101.75
493.18	98.75
493.398	95.75
493.615	104.75
493.833	98.75
494.05	91.75
494.268	96.75
494.485	104.75
494.703	83.75
494.92	83.75
495.138	101.75
495.355	88.75
495.573	92.75
495.79	98.75
496.008	101.75
496.225	87.75
496.442	93.75
496.66	107.75
496.877	93.75
497.094	97.75
497.312	83.75
497.529	102.75
497.746	92.75
497.963	90.75
498.181	97.75
498.398	91.75
498.615	117.75
498.832	115.75
499.049	96.75
499.267	93.75
499.484	100.75
499.701	92.75
499.918	89.75
500.135	91.75
500.352	92.75
500.569	96.75
500.786	96.75
501.003	84.75
501.22	96.75
501.437	97.75
501.654	99.75
501.871	120.75
502.088	104.75
502.305	104.75
502.522	95.75
502.739	93.75
502.956	98.75
503.172	84.75
503.389	102.75
503.606	117.75
503.823	101.75
504.04	102.75
504.256	103.75
504.473	89.75
504.69	86.75
504.907	106.75
505.123	108.75
505.34	94.75
505.557	88.75
505.773	90.75
505.99	91.75
506.207	99.75
506.423	104.75
506.64	89.75
506.856	86.75
507.073	87.75
507.289	102.75
507.506	112.75
507.722	129.75
507.939	135.75
508.155	105.75
508.372	100.75
508.588	96.75
508.805	104.75
509.021	115.75
509.238	106.75
509.454	105.75
509.67	102.75
509.887	112.75
510.103	146.75
510.319	230.75
510.536	854.75
510.752	2897.75
510.968	774.75
511.184	167.75
511.401	130.75
511.617	101.75
511.833	124.75
512.049	101.75
512.265	95.75
