Data from Circ_1992_H10_HRD10591_00038.txt Node
Date: Wed Jan 03 11:47:52 EST 2024
User: Yrep
Spectrometer: HR+D1059
Trigger mode: 1
Integration Time (sec): 1.000000E-1
Scans to average: 1
Electric dark correction enabled: true
Nonlinearity correction enabled: false
Boxcar width: 0
XAxis mode: Wavelengths
Number of Pixels in Spectrum: 2048
>>>>>Begin Spectral Data<<<<<
223.165	-12.88
223.4	-12.88
223.635	-12.88
223.869	-22.88
224.104	-13.88
224.338	-10.88
224.573	-29.88
224.808	-22.88
225.042	-13.88
225.277	4.12
225.511	7.12
225.746	8.12
225.98	20.12
226.215	13.12
226.449	7.12
226.683	0.12
226.918	34.12
227.152	33.12
227.387	40.12
227.621	51.12
227.856	46.12
228.09	47.12
228.324	56.12
228.559	57.12
228.793	57.12
229.027	68.12
229.262	77.12
229.496	75.12
229.73	101.12
229.964	96.12
230.199	73.12
230.433	74.12
230.667	81.12
230.901	70.12
231.136	77.12
231.37	85.12
231.604	90.12
231.838	87.12
232.072	81.12
232.306	84.12
232.541	84.12
232.775	76.12
233.009	73.12
233.243	85.12
233.477	78.12
233.711	88.12
233.945	86.12
234.179	91.12
234.413	98.12
234.647	85.12
234.881	85.12
235.115	81.12
235.349	77.12
235.583	85.12
235.817	82.12
236.051	75.12
236.285	80.12
236.519	100.12
236.753	85.12
236.987	86.12
237.221	96.12
237.455	85.12
237.689	81.12
237.922	68.12
238.156	76.12
238.39	80.12
238.624	80.12
238.858	85.12
239.091	70.12
239.325	78.12
239.559	77.12
239.793	92.12
240.027	75.12
240.26	77.12
240.494	84.12
240.728	79.12
240.961	68.12
241.195	87.12
241.429	73.12
241.662	78.12
241.896	78.12
242.13	85.12
242.363	82.12
242.597	78.12
242.83	75.12
243.064	79.12
243.298	93.12
243.531	79.12
243.765	76.12
243.998	88.12
244.232	89.12
244.465	81.12
244.699	72.12
244.932	94.12
245.166	73.12
245.399	81.12
245.633	76.12
245.866	99.12
246.099	86.12
246.333	97.12
246.566	84.12
246.8	78.12
247.033	71.12
247.266	64.12
247.5	80.12
247.733	85.12
247.966	89.12
248.2	63.12
248.433	82.12
248.666	78.12
248.899	93.12
249.133	109.12
249.366	104.12
249.599	102.12
249.832	82.12
250.066	92.12
250.299	90.12
250.532	95.12
250.765	68.12
250.998	77.12
251.231	87.12
251.465	82.12
251.698	77.12
251.931	75.12
252.164	83.12
252.397	74.12
252.63	83.12
252.863	88.12
253.096	82.12
253.329	73.12
253.562	74.12
253.795	82.12
254.028	83.12
254.261	82.12
254.494	98.12
254.727	79.12
254.96	92.12
255.193	80.12
255.426	71.12
255.659	82.12
255.892	86.12
256.124	86.12
256.357	99.12
256.59	84.12
256.823	76.12
257.056	85.12
257.289	86.12
257.521	82.12
257.754	77.12
257.987	80.12
258.22	81.12
258.452	97.12
258.685	87.12
258.918	89.12
259.151	79.12
259.383	78.12
259.616	63.12
259.849	94.12
260.081	98.12
260.314	103.12
260.547	87.12
260.779	90.12
261.012	91.12
261.244	94.12
261.477	82.12
261.71	96.12
261.942	113.12
262.175	121.12
262.407	95.12
262.64	86.12
262.872	85.12
263.105	85.12
263.337	83.12
263.57	69.12
263.802	71.12
264.035	76.12
264.267	69.12
264.499	82.12
264.732	89.12
264.964	82.12
265.197	81.12
265.429	84.12
265.661	84.12
265.894	94.12
266.126	94.12
266.358	71.12
266.591	73.12
266.823	79.12
267.055	73.12
267.287	101.12
267.52	84.12
267.752	94.12
267.984	89.12
268.216	77.12
268.448	87.12
268.681	86.12
268.913	80.12
269.145	85.12
269.377	86.12
269.609	73.12
269.841	92.12
270.073	92.12
270.306	95.12
270.538	98.12
270.77	91.12
271.002	93.12
271.234	93.12
271.466	91.12
271.698	85.12
271.93	73.12
272.162	86.12
272.394	89.12
272.626	91.12
272.858	102.12
273.09	78.12
273.322	80.12
273.553	70.12
273.785	89.12
274.017	79.12
274.249	85.12
274.481	80.12
274.713	76.12
274.945	87.12
275.176	100.12
275.408	92.12
275.64	89.12
275.872	103.12
276.104	90.12
276.335	85.12
276.567	107.12
276.799	118.12
277.031	112.12
277.262	125.12
277.494	100.12
277.726	93.12
277.957	89.12
278.189	90.12
278.421	88.12
278.652	92.12
278.884	101.12
279.115	93.12
279.347	83.12
279.579	77.12
279.81	93.12
280.042	118.12
280.273	150.12
280.505	107.12
280.736	99.12
280.968	90.12
281.199	91.12
281.431	96.12
281.662	81.12
281.894	84.12
282.125	98.12
282.356	124.12
282.588	161.12
282.819	117.12
283.051	97.12
283.282	82.12
283.513	91.12
283.745	81.12
283.976	91.12
284.207	83.12
284.439	78.12
284.67	78.12
284.901	84.12
285.132	96.12
285.364	92.12
285.595	81.12
285.826	84.12
286.057	93.12
286.288	95.12
286.52	87.12
286.751	85.12
286.982	91.12
287.213	91.12
287.444	89.12
287.675	97.12
287.906	91.12
288.138	98.12
288.369	97.12
288.6	110.12
288.831	89.12
289.062	96.12
289.293	87.12
289.524	94.12
289.755	91.12
289.986	100.12
290.217	81.12
290.448	91.12
290.679	93.12
290.91	85.12
291.141	78.12
291.371	82.12
291.602	84.12
291.833	78.12
292.064	93.12
292.295	83.12
292.526	100.12
292.757	95.12
292.987	85.12
293.218	99.12
293.449	93.12
293.68	108.12
293.91	95.12
294.141	90.12
294.372	97.12
294.603	87.12
294.833	86.12
295.064	99.12
295.295	98.12
295.525	89.12
295.756	93.12
295.987	95.12
296.217	139.12
296.448	123.12
296.679	91.12
296.909	98.12
297.14	103.12
297.37	102.12
297.601	86.12
297.831	88.12
298.062	86.12
298.292	78.12
298.523	89.12
298.753	99.12
298.984	90.12
299.214	85.12
299.445	98.12
299.675	93.12
299.905	97.12
300.136	93.12
300.366	83.12
300.597	98.12
300.827	97.12
301.057	99.12
301.288	104.12
301.518	94.12
301.748	105.12
301.979	110.12
302.209	97.12
302.439	107.12
302.669	99.12
302.9	98.12
303.13	102.12
303.36	99.12
303.59	107.12
303.82	118.12
304.051	101.12
304.281	93.12
304.511	89.12
304.741	93.12
304.971	94.12
305.201	91.12
305.431	89.12
305.661	109.12
305.891	89.12
306.121	99.12
306.352	106.12
306.582	130.12
306.812	109.12
307.042	116.12
307.272	113.12
307.502	123.12
307.731	127.12
307.961	102.12
308.191	90.12
308.421	97.12
308.651	101.12
308.881	108.12
309.111	90.12
309.341	101.12
309.571	100.12
309.8	110.12
310.03	107.12
310.26	113.12
310.49	97.12
310.72	105.12
310.949	111.12
311.179	104.12
311.409	93.12
311.639	100.12
311.868	106.12
312.098	94.12
312.328	100.12
312.557	125.12
312.787	131.12
313.017	99.12
313.246	90.12
313.476	97.12
313.706	102.12
313.935	104.12
314.165	96.12
314.394	103.12
314.624	99.12
314.853	89.12
315.083	106.12
315.312	84.12
315.542	85.12
315.771	98.12
316.001	93.12
316.23	94.12
316.46	83.12
316.689	93.12
316.919	98.12
317.148	100.12
317.377	101.12
317.607	98.12
317.836	92.12
318.065	97.12
318.295	95.12
318.524	85.12
318.753	87.12
318.983	93.12
319.212	95.12
319.441	99.12
319.67	115.12
319.9	86.12
320.129	106.12
320.358	77.12
320.587	95.12
320.816	97.12
321.046	96.12
321.275	80.12
321.504	105.12
321.733	112.12
321.962	92.12
322.191	113.12
322.42	118.12
322.649	111.12
322.878	109.12
323.108	117.12
323.337	140.12
323.566	141.12
323.795	156.12
324.024	233.12
324.253	448.12
324.482	921.12
324.71	1896.12
324.939	2511.12
325.168	919.12
325.397	250.12
325.626	165.12
325.855	139.12
326.084	147.12
326.313	139.12
326.542	161.12
326.77	238.12
326.999	506.12
327.228	1007.12
327.457	1890.12
327.686	1484.12
327.914	453.12
328.143	320.12
328.372	358.12
328.6	205.12
328.829	125.12
329.058	133.12
329.287	165.12
329.515	141.12
329.744	171.12
329.972	260.12
330.201	483.12
330.43	687.12
330.658	328.12
330.887	191.12
331.115	160.12
331.344	120.12
331.572	111.12
331.801	104.12
332.03	101.12
332.258	103.12
332.486	106.12
332.715	103.12
332.943	105.12
333.172	103.12
333.4	112.12
333.629	125.12
333.857	170.12
334.085	251.12
334.314	436.12
334.542	821.12
334.771	816.12
334.999	247.12
335.227	117.12
335.455	125.12
335.684	108.12
335.912	114.12
336.14	118.12
336.369	101.12
336.597	98.12
336.825	94.12
337.053	109.12
337.281	98.12
337.51	111.12
337.738	100.12
337.966	83.12
338.194	95.12
338.422	104.12
338.65	81.12
338.878	79.12
339.106	92.12
339.334	94.12
339.562	94.12
339.79	88.12
340.018	106.12
340.246	84.12
340.474	93.12
340.702	100.12
340.93	101.12
341.158	95.12
341.386	97.12
341.614	98.12
341.842	107.12
342.07	86.12
342.298	107.12
342.526	92.12
342.754	71.12
342.981	93.12
343.209	89.12
343.437	117.12
343.665	94.12
343.893	82.12
344.12	100.12
344.348	94.12
344.576	96.12
344.804	93.12
345.031	111.12
345.259	102.12
345.487	98.12
345.714	99.12
345.942	103.12
346.17	83.12
346.397	90.12
346.625	93.12
346.853	97.12
347.08	88.12
347.308	86.12
347.535	101.12
347.763	111.12
347.99	124.12
348.218	116.12
348.445	115.12
348.673	98.12
348.9	98.12
349.128	97.12
349.355	86.12
349.583	90.12
349.81	90.12
350.037	97.12
350.265	81.12
350.492	93.12
350.72	89.12
350.947	101.12
351.174	94.12
351.402	96.12
351.629	105.12
351.856	107.12
352.083	114.12
352.311	113.12
352.538	107.12
352.765	120.12
352.992	124.12
353.22	110.12
353.447	85.12
353.674	119.12
353.901	93.12
354.128	105.12
354.355	93.12
354.583	107.12
354.81	100.12
355.037	87.12
355.264	101.12
355.491	86.12
355.718	87.12
355.945	101.12
356.172	79.12
356.399	103.12
356.626	113.12
356.853	107.12
357.08	97.12
357.307	98.12
357.534	87.12
357.761	98.12
357.988	85.12
358.215	95.12
358.441	94.12
358.668	100.12
358.895	93.12
359.122	79.12
359.349	91.12
359.576	104.12
359.802	99.12
360.029	113.12
360.256	127.12
360.483	111.12
360.709	96.12
360.936	92.12
361.163	93.12
361.39	90.12
361.616	116.12
361.843	104.12
362.07	105.12
362.296	93.12
362.523	100.12
362.749	96.12
362.976	104.12
363.203	85.12
363.429	97.12
363.656	94.12
363.882	83.12
364.109	69.12
364.335	97.12
364.562	84.12
364.788	98.12
365.015	103.12
365.241	102.12
365.468	98.12
365.694	121.12
365.92	111.12
366.147	100.12
366.373	73.12
366.599	94.12
366.826	84.12
367.052	91.12
367.278	76.12
367.505	98.12
367.731	110.12
367.957	78.12
368.184	92.12
368.41	91.12
368.636	106.12
368.862	104.12
369.089	116.12
369.315	97.12
369.541	96.12
369.767	89.12
369.993	94.12
370.219	87.12
370.445	96.12
370.672	102.12
370.898	93.12
371.124	87.12
371.35	95.12
371.576	73.12
371.802	94.12
372.028	90.12
372.254	95.12
372.48	90.12
372.706	102.12
372.932	95.12
373.158	99.12
373.384	101.12
373.61	97.12
373.835	83.12
374.061	86.12
374.287	88.12
374.513	91.12
374.739	79.12
374.965	79.12
375.191	86.12
375.416	96.12
375.642	109.12
375.868	95.12
376.094	90.12
376.319	88.12
376.545	94.12
376.771	97.12
376.997	102.12
377.222	98.12
377.448	92.12
377.674	90.12
377.899	86.12
378.125	102.12
378.35	107.12
378.576	91.12
378.802	97.12
379.027	92.12
379.253	89.12
379.478	95.12
379.704	91.12
379.929	80.12
380.155	91.12
380.38	99.12
380.606	85.12
380.831	93.12
381.057	106.12
381.282	98.12
381.507	87.12
381.733	99.12
381.958	99.12
382.184	100.12
382.409	90.12
382.634	102.12
382.86	107.12
383.085	105.12
383.31	117.12
383.535	107.12
383.761	105.12
383.986	100.12
384.211	101.12
384.436	94.12
384.662	100.12
384.887	111.12
385.112	113.12
385.337	110.12
385.562	108.12
385.787	122.12
386.013	123.12
386.238	133.12
386.463	132.12
386.688	115.12
386.913	109.12
387.138	115.12
387.363	111.12
387.588	95.12
387.813	110.12
388.038	108.12
388.263	119.12
388.488	99.12
388.713	104.12
388.938	107.12
389.163	115.12
389.387	99.12
389.612	101.12
389.837	102.12
390.062	98.12
390.287	97.12
390.512	93.12
390.736	92.12
390.961	106.12
391.186	97.12
391.411	73.12
391.636	99.12
391.86	89.12
392.085	88.12
392.31	88.12
392.534	90.12
392.759	90.12
392.984	71.12
393.208	100.12
393.433	100.12
393.658	90.12
393.882	94.12
394.107	91.12
394.331	107.12
394.556	93.12
394.78	99.12
395.005	87.12
395.229	87.12
395.454	90.12
395.678	90.12
395.903	88.12
396.127	85.12
396.352	102.12
396.576	94.12
396.801	88.12
397.025	93.12
397.249	87.12
397.474	94.12
397.698	94.12
397.922	90.12
398.147	86.12
398.371	100.12
398.595	93.12
398.82	98.12
399.044	82.12
399.268	96.12
399.492	99.12
399.717	98.12
399.941	103.12
400.165	100.12
400.389	94.12
400.613	93.12
400.837	76.12
401.062	82.12
401.286	87.12
401.51	98.12
401.734	105.12
401.958	109.12
402.182	136.12
402.406	175.12
402.63	126.12
402.854	103.12
403.078	97.12
403.302	82.12
403.526	88.12
403.75	91.12
403.974	82.12
404.198	92.12
404.422	97.12
404.645	86.12
404.869	105.12
405.093	110.12
405.317	121.12
405.541	122.12
405.765	107.12
405.988	123.12
406.212	180.12
406.436	254.12
406.66	167.12
406.883	123.12
407.107	105.12
407.331	110.12
407.555	100.12
407.778	99.12
408.002	87.12
408.226	100.12
408.449	93.12
408.673	98.12
408.896	107.12
409.12	109.12
409.344	103.12
409.567	98.12
409.791	108.12
410.014	98.12
410.238	94.12
410.461	82.12
410.685	91.12
410.908	100.12
411.132	101.12
411.355	102.12
411.578	98.12
411.802	98.12
412.025	101.12
412.249	103.12
412.472	117.12
412.695	127.12
412.919	109.12
413.142	95.12
413.365	74.12
413.589	100.12
413.812	91.12
414.035	93.12
414.258	93.12
414.482	113.12
414.705	82.12
414.928	89.12
415.151	93.12
415.374	89.12
415.597	83.12
415.821	102.12
416.044	95.12
416.267	93.12
416.49	82.12
416.713	98.12
416.936	93.12
417.159	91.12
417.382	76.12
417.605	94.12
417.828	104.12
418.051	91.12
418.274	81.12
418.497	86.12
418.72	82.12
418.943	99.12
419.166	100.12
419.389	90.12
419.611	94.12
419.834	97.12
420.057	90.12
420.28	68.12
420.503	86.12
420.726	93.12
420.948	103.12
421.171	94.12
421.394	103.12
421.617	98.12
421.839	84.12
422.062	83.12
422.285	92.12
422.507	101.12
422.73	98.12
422.953	77.12
423.175	101.12
423.398	84.12
423.621	93.12
423.843	81.12
424.066	92.12
424.288	84.12
424.511	89.12
424.733	101.12
424.956	104.12
425.178	106.12
425.401	100.12
425.623	100.12
425.846	101.12
426.068	90.12
426.291	93.12
426.513	96.12
426.735	97.12
426.958	90.12
427.18	115.12
427.402	155.12
427.625	221.12
427.847	203.12
428.069	173.12
428.292	92.12
428.514	100.12
428.736	97.12
428.958	85.12
429.181	97.12
429.403	75.12
429.625	90.12
429.847	90.12
430.069	113.12
430.292	106.12
430.514	98.12
430.736	93.12
430.958	86.12
431.18	91.12
431.402	87.12
431.624	90.12
431.846	90.12
432.068	94.12
432.29	90.12
432.512	89.12
432.734	89.12
432.956	77.12
433.178	96.12
433.4	90.12
433.622	82.12
433.844	94.12
434.066	85.12
434.287	89.12
434.509	95.12
434.731	97.12
434.953	89.12
435.175	86.12
435.397	103.12
435.618	86.12
435.84	114.12
436.062	121.12
436.284	126.12
436.505	98.12
436.727	108.12
436.949	86.12
437.17	84.12
437.392	97.12
437.614	108.12
437.835	113.12
438.057	133.12
438.278	127.12
438.5	128.12
438.721	147.12
438.943	108.12
439.165	89.12
439.386	102.12
439.608	88.12
439.829	107.12
440.05	133.12
440.272	173.12
440.493	109.12
440.715	96.12
440.936	94.12
441.158	83.12
441.379	103.12
441.6	107.12
441.822	90.12
442.043	107.12
442.264	128.12
442.486	114.12
442.707	86.12
442.928	123.12
443.149	137.12
443.371	138.12
443.592	120.12
443.813	121.12
444.034	119.12
444.255	102.12
444.476	89.12
444.698	91.12
444.919	94.12
445.14	126.12
445.361	124.12
445.582	120.12
445.803	151.12
446.024	163.12
446.245	143.12
446.466	129.12
446.687	86.12
446.908	99.12
447.129	97.12
447.35	97.12
447.571	96.12
447.792	106.12
448.013	89.12
448.234	123.12
448.455	108.12
448.675	145.12
448.896	120.12
449.117	97.12
449.338	103.12
449.559	161.12
449.779	158.12
450	94.12
450.221	84.12
450.442	97.12
450.662	92.12
450.883	119.12
451.104	117.12
451.324	90.12
451.545	89.12
451.766	93.12
451.986	92.12
452.207	75.12
452.428	87.12
452.648	88.12
452.869	115.12
453.089	123.12
453.31	128.12
453.53	114.12
453.751	103.12
453.971	97.12
454.192	123.12
454.412	84.12
454.633	82.12
454.853	91.12
455.073	77.12
455.294	85.12
455.514	107.12
455.734	84.12
455.955	90.12
456.175	85.12
456.395	92.12
456.616	94.12
456.836	84.12
457.056	77.12
457.276	79.12
457.497	92.12
457.717	84.12
457.937	86.12
458.157	87.12
458.377	92.12
458.598	107.12
458.818	159.12
459.038	199.12
459.258	126.12
459.478	97.12
459.698	89.12
459.918	84.12
460.138	90.12
460.358	91.12
460.578	87.12
460.798	95.12
461.018	83.12
461.238	83.12
461.458	105.12
461.678	95.12
461.898	69.12
462.118	88.12
462.338	93.12
462.558	84.12
462.777	87.12
462.997	89.12
463.217	88.12
463.437	93.12
463.657	81.12
463.876	89.12
464.096	91.12
464.316	89.12
464.536	96.12
464.755	106.12
464.975	117.12
465.195	194.12
465.414	193.12
465.634	117.12
465.854	80.12
466.073	89.12
466.293	93.12
466.512	81.12
466.732	98.12
466.951	86.12
467.171	101.12
467.391	107.12
467.61	113.12
467.829	140.12
468.049	281.12
468.268	409.12
468.488	137.12
468.707	97.12
468.927	87.12
469.146	88.12
469.365	93.12
469.585	94.12
469.804	101.12
470.023	97.12
470.243	94.12
470.462	108.12
470.681	109.12
470.901	84.12
471.12	103.12
471.339	96.12
471.558	95.12
471.777	128.12
471.997	162.12
472.216	541.12
472.435	1131.12
472.654	293.12
472.873	122.12
473.092	91.12
473.311	89.12
473.53	101.12
473.749	102.12
473.968	100.12
474.187	133.12
474.406	101.12
474.625	88.12
474.844	84.12
475.063	101.12
475.282	82.12
475.501	81.12
475.72	85.12
475.939	77.12
476.158	94.12
476.377	85.12
476.596	91.12
476.814	101.12
477.033	101.12
477.252	99.12
477.471	86.12
477.69	83.12
477.908	95.12
478.127	92.12
478.346	101.12
478.564	96.12
478.783	110.12
479.002	94.12
479.22	95.12
479.439	117.12
479.658	118.12
479.876	116.12
480.095	111.12
480.313	127.12
480.532	110.12
480.751	181.12
480.969	505.12
481.188	2026.12
481.406	1191.12
481.624	223.12
481.843	117.12
482.061	98.12
482.28	94.12
482.498	92.12
482.717	82.12
482.935	92.12
483.153	83.12
483.372	80.12
483.59	100.12
483.808	86.12
484.027	95.12
484.245	80.12
484.463	89.12
484.681	98.12
484.9	89.12
485.118	77.12
485.336	95.12
485.554	96.12
485.772	101.12
485.99	102.12
486.209	109.12
486.427	113.12
486.645	110.12
486.863	117.12
487.081	113.12
487.299	101.12
487.517	93.12
487.735	99.12
487.953	99.12
488.171	93.12
488.389	98.12
488.607	100.12
488.825	91.12
489.043	92.12
489.261	86.12
489.479	100.12
489.696	100.12
489.914	86.12
490.132	95.12
490.35	96.12
490.568	100.12
490.786	87.12
491.003	83.12
491.221	94.12
491.439	86.12
491.657	89.12
491.874	89.12
492.092	101.12
492.31	99.12
492.527	111.12
492.745	96.12
492.963	98.12
493.18	100.12
493.398	107.12
493.615	101.12
493.833	99.12
494.05	108.12
494.268	95.12
494.485	89.12
494.703	98.12
494.92	83.12
495.138	88.12
495.355	95.12
495.573	89.12
495.79	84.12
496.008	100.12
496.225	112.12
496.442	92.12
496.66	92.12
496.877	91.12
497.094	84.12
497.312	94.12
497.529	86.12
497.746	86.12
497.963	92.12
498.181	90.12
498.398	109.12
498.615	100.12
498.832	111.12
499.049	93.12
499.267	85.12
499.484	87.12
499.701	103.12
499.918	93.12
500.135	97.12
500.352	86.12
500.569	112.12
500.786	93.12
501.003	99.12
501.22	100.12
501.437	89.12
501.654	99.12
501.871	115.12
502.088	91.12
502.305	70.12
502.522	95.12
502.739	82.12
502.956	81.12
503.172	98.12
503.389	97.12
503.606	110.12
503.823	100.12
504.04	94.12
504.256	82.12
504.473	79.12
504.69	89.12
504.907	102.12
505.123	98.12
505.34	94.12
505.557	92.12
505.773	95.12
505.99	96.12
506.207	91.12
506.423	99.12
506.64	100.12
506.856	90.12
507.073	94.12
507.289	89.12
507.506	102.12
507.722	134.12
507.939	131.12
508.155	106.12
508.372	97.12
508.588	87.12
508.805	81.12
509.021	99.12
509.238	89.12
509.454	102.12
509.67	110.12
509.887	117.12
510.103	137.12
510.319	241.12
510.536	767.12
510.752	2605.12
510.968	710.12
511.184	166.12
511.401	134.12
511.617	102.12
511.833	101.12
512.049	95.12
512.265	86.12
512.481	94.12
512.698	106.12
512.914	95.12
513.13	108.12
513.346	105.12
513.562	92.12
