Data from Circ_1992_H10_HRD10591_00045.txt Node
Date: Wed Jan 03 11:47:53 EST 2024
User: Yrep
Spectrometer: HR+D1059
Trigger mode: 1
Integration Time (sec): 1.000000E-1
Scans to average: 1
Electric dark correction enabled: true
Nonlinearity correction enabled: false
Boxcar width: 0
XAxis mode: Wavelengths
Number of Pixels in Spectrum: 2048
>>>>>Begin Spectral Data<<<<<
223.165	-21.62
223.4	-21.62
223.635	-21.62
223.869	-20.62
224.104	-19.62
224.338	-21.62
224.573	-0.62
224.808	-9.62
225.042	-6.62
225.277	-9.62
225.511	-7.62
225.746	11.38
225.98	5.38
226.215	10.38
226.449	17.38
226.683	24.38
226.918	25.38
227.152	23.38
227.387	27.38
227.621	32.38
227.856	35.38
228.09	41.38
228.324	47.38
228.559	66.38
228.793	65.38
229.027	46.38
229.262	62.38
229.496	73.38
229.73	81.38
229.964	82.38
230.199	67.38
230.433	72.38
230.667	64.38
230.901	65.38
231.136	66.38
231.37	83.38
231.604	85.38
231.838	81.38
232.072	86.38
232.306	66.38
232.541	75.38
232.775	63.38
233.009	75.38
233.243	64.38
233.477	59.38
233.711	85.38
233.945	89.38
234.179	75.38
234.413	78.38
234.647	69.38
234.881	63.38
235.115	60.38
235.349	76.38
235.583	71.38
235.817	75.38
236.051	84.38
236.285	65.38
236.519	88.38
236.753	79.38
236.987	77.38
237.221	81.38
237.455	81.38
237.689	76.38
237.922	72.38
238.156	71.38
238.39	71.38
238.624	75.38
238.858	83.38
239.091	77.38
239.325	82.38
239.559	79.38
239.793	78.38
240.027	61.38
240.26	58.38
240.494	77.38
240.728	75.38
240.961	74.38
241.195	73.38
241.429	74.38
241.662	69.38
241.896	72.38
242.13	65.38
242.363	69.38
242.597	74.38
242.83	71.38
243.064	73.38
243.298	58.38
243.531	71.38
243.765	74.38
243.998	74.38
244.232	88.38
244.465	81.38
244.699	79.38
244.932	71.38
245.166	75.38
245.399	73.38
245.633	91.38
245.866	75.38
246.099	64.38
246.333	75.38
246.566	77.38
246.8	79.38
247.033	72.38
247.266	79.38
247.5	65.38
247.733	75.38
247.966	80.38
248.2	89.38
248.433	83.38
248.666	66.38
248.899	65.38
249.133	66.38
249.366	102.38
249.599	84.38
249.832	93.38
250.066	72.38
250.299	77.38
250.532	85.38
250.765	73.38
250.998	79.38
251.231	78.38
251.465	63.38
251.698	73.38
251.931	82.38
252.164	80.38
252.397	70.38
252.63	75.38
252.863	71.38
253.096	69.38
253.329	73.38
253.562	86.38
253.795	60.38
254.028	83.38
254.261	83.38
254.494	93.38
254.727	79.38
254.96	71.38
255.193	79.38
255.426	80.38
255.659	90.38
255.892	74.38
256.124	84.38
256.357	74.38
256.59	97.38
256.823	88.38
257.056	87.38
257.289	82.38
257.521	81.38
257.754	84.38
257.987	77.38
258.22	86.38
258.452	77.38
258.685	92.38
258.918	77.38
259.151	77.38
259.383	87.38
259.616	75.38
259.849	86.38
260.081	90.38
260.314	75.38
260.547	62.38
260.779	85.38
261.012	92.38
261.244	84.38
261.477	81.38
261.71	89.38
261.942	99.38
262.175	105.38
262.407	86.38
262.64	78.38
262.872	79.38
263.105	72.38
263.337	82.38
263.57	83.38
263.802	81.38
264.035	86.38
264.267	75.38
264.499	79.38
264.732	85.38
264.964	83.38
265.197	90.38
265.429	83.38
265.661	81.38
265.894	70.38
266.126	91.38
266.358	91.38
266.591	82.38
266.823	85.38
267.055	89.38
267.287	59.38
267.52	73.38
267.752	64.38
267.984	88.38
268.216	66.38
268.448	93.38
268.681	80.38
268.913	83.38
269.145	80.38
269.377	80.38
269.609	72.38
269.841	85.38
270.073	77.38
270.306	86.38
270.538	73.38
270.77	82.38
271.002	66.38
271.234	77.38
271.466	79.38
271.698	86.38
271.93	66.38
272.162	76.38
272.394	87.38
272.626	66.38
272.858	73.38
273.09	74.38
273.322	88.38
273.553	85.38
273.785	79.38
274.017	75.38
274.249	74.38
274.481	82.38
274.713	61.38
274.945	91.38
275.176	93.38
275.408	96.38
275.64	116.38
275.872	96.38
276.104	82.38
276.335	90.38
276.567	98.38
276.799	115.38
277.031	106.38
277.262	109.38
277.494	98.38
277.726	91.38
277.957	89.38
278.189	83.38
278.421	84.38
278.652	88.38
278.884	78.38
279.115	89.38
279.347	72.38
279.579	73.38
279.81	95.38
280.042	110.38
280.273	128.38
280.505	121.38
280.736	101.38
280.968	98.38
281.199	89.38
281.431	84.38
281.662	77.38
281.894	91.38
282.125	93.38
282.356	114.38
282.588	137.38
282.819	107.38
283.051	83.38
283.282	90.38
283.513	84.38
283.745	87.38
283.976	78.38
284.207	96.38
284.439	89.38
284.67	89.38
284.901	84.38
285.132	81.38
285.364	96.38
285.595	88.38
285.826	73.38
286.057	89.38
286.288	74.38
286.52	74.38
286.751	87.38
286.982	82.38
287.213	56.38
287.444	89.38
287.675	73.38
287.906	85.38
288.138	90.38
288.369	77.38
288.6	85.38
288.831	70.38
289.062	86.38
289.293	98.38
289.524	77.38
289.755	88.38
289.986	75.38
290.217	78.38
290.448	77.38
290.679	76.38
290.91	88.38
291.141	82.38
291.371	80.38
291.602	78.38
291.833	66.38
292.064	82.38
292.295	83.38
292.526	73.38
292.757	78.38
292.987	79.38
293.218	90.38
293.449	81.38
293.68	98.38
293.91	107.38
294.141	83.38
294.372	82.38
294.603	76.38
294.833	81.38
295.064	81.38
295.295	95.38
295.525	88.38
295.756	91.38
295.987	94.38
296.217	120.38
296.448	112.38
296.679	81.38
296.909	88.38
297.14	88.38
297.37	84.38
297.601	95.38
297.831	80.38
298.062	91.38
298.292	84.38
298.523	81.38
298.753	104.38
298.984	93.38
299.214	95.38
299.445	89.38
299.675	94.38
299.905	98.38
300.136	93.38
300.366	75.38
300.597	99.38
300.827	83.38
301.057	91.38
301.288	100.38
301.518	81.38
301.748	85.38
301.979	95.38
302.209	98.38
302.439	82.38
302.669	76.38
302.9	76.38
303.13	82.38
303.36	105.38
303.59	101.38
303.82	112.38
304.051	72.38
304.281	82.38
304.511	81.38
304.741	76.38
304.971	94.38
305.201	94.38
305.431	88.38
305.661	87.38
305.891	91.38
306.121	87.38
306.352	84.38
306.582	97.38
306.812	99.38
307.042	67.38
307.272	112.38
307.502	112.38
307.731	122.38
307.961	102.38
308.191	98.38
308.421	98.38
308.651	86.38
308.881	93.38
309.111	89.38
309.341	108.38
309.571	101.38
309.8	96.38
310.03	94.38
310.26	98.38
310.49	97.38
310.72	98.38
310.949	110.38
311.179	86.38
311.409	104.38
311.639	88.38
311.868	111.38
312.098	82.38
312.328	97.38
312.557	99.38
312.787	99.38
313.017	104.38
313.246	85.38
313.476	92.38
313.706	90.38
313.935	88.38
314.165	94.38
314.394	107.38
314.624	96.38
314.853	97.38
315.083	84.38
315.312	94.38
315.542	94.38
315.771	87.38
316.001	89.38
316.23	88.38
316.46	96.38
316.689	86.38
316.919	101.38
317.148	90.38
317.377	85.38
317.607	94.38
317.836	99.38
318.065	82.38
318.295	103.38
318.524	96.38
318.753	94.38
318.983	103.38
319.212	107.38
319.441	102.38
319.67	104.38
319.9	89.38
320.129	76.38
320.358	91.38
320.587	95.38
320.816	91.38
321.046	110.38
321.275	106.38
321.504	88.38
321.733	94.38
321.962	83.38
322.191	89.38
322.42	103.38
322.649	114.38
322.878	99.38
323.108	114.38
323.337	122.38
323.566	126.38
323.795	168.38
324.024	222.38
324.253	369.38
324.482	816.38
324.71	1637.38
324.939	2163.38
325.168	808.38
325.397	245.38
325.626	153.38
325.855	125.38
326.084	129.38
326.313	129.38
326.542	153.38
326.77	229.38
326.999	422.38
327.228	881.38
327.457	1647.38
327.686	1322.38
327.914	407.38
328.143	290.38
328.372	331.38
328.6	212.38
328.829	149.38
329.058	155.38
329.287	149.38
329.515	136.38
329.744	142.38
329.972	243.38
330.201	431.38
330.43	621.38
330.658	293.38
330.887	195.38
331.115	147.38
331.344	98.38
331.572	93.38
331.801	93.38
332.03	94.38
332.258	95.38
332.486	87.38
332.715	94.38
332.943	94.38
333.172	98.38
333.4	90.38
333.629	128.38
333.857	151.38
334.085	215.38
334.314	425.38
334.542	789.38
334.771	709.38
334.999	232.38
335.227	122.38
335.455	114.38
335.684	92.38
335.912	97.38
336.14	85.38
336.369	89.38
336.597	111.38
336.825	103.38
337.053	87.38
337.281	92.38
337.51	84.38
337.738	86.38
337.966	89.38
338.194	98.38
338.422	92.38
338.65	89.38
338.878	86.38
339.106	87.38
339.334	89.38
339.562	88.38
339.79	86.38
340.018	79.38
340.246	98.38
340.474	103.38
340.702	81.38
340.93	89.38
341.158	80.38
341.386	86.38
341.614	98.38
341.842	106.38
342.07	95.38
342.298	77.38
342.526	91.38
342.754	95.38
342.981	84.38
343.209	77.38
343.437	98.38
343.665	79.38
343.893	73.38
344.12	97.38
344.348	95.38
344.576	79.38
344.804	98.38
345.031	102.38
345.259	103.38
345.487	96.38
345.714	95.38
345.942	107.38
346.17	97.38
346.397	73.38
346.625	94.38
346.853	84.38
347.08	72.38
347.308	86.38
347.535	100.38
347.763	86.38
347.99	96.38
348.218	95.38
348.445	94.38
348.673	104.38
348.9	103.38
349.128	89.38
349.355	96.38
349.583	98.38
349.81	101.38
350.037	85.38
350.265	87.38
350.492	89.38
350.72	83.38
350.947	101.38
351.174	111.38
351.402	117.38
351.629	97.38
351.856	93.38
352.083	91.38
352.311	90.38
352.538	107.38
352.765	116.38
352.992	123.38
353.22	112.38
353.447	107.38
353.674	90.38
353.901	89.38
354.128	101.38
354.355	88.38
354.583	93.38
354.81	87.38
355.037	107.38
355.264	85.38
355.491	80.38
355.718	99.38
355.945	98.38
356.172	90.38
356.399	93.38
356.626	94.38
356.853	88.38
357.08	93.38
357.307	87.38
357.534	69.38
357.761	86.38
357.988	82.38
358.215	96.38
358.441	83.38
358.668	84.38
358.895	90.38
359.122	89.38
359.349	96.38
359.576	82.38
359.802	100.38
360.029	114.38
360.256	110.38
360.483	104.38
360.709	95.38
360.936	108.38
361.163	89.38
361.39	102.38
361.616	101.38
361.843	69.38
362.07	90.38
362.296	95.38
362.523	82.38
362.749	92.38
362.976	90.38
363.203	95.38
363.429	95.38
363.656	75.38
363.882	85.38
364.109	97.38
364.335	94.38
364.562	91.38
364.788	82.38
365.015	85.38
365.241	93.38
365.468	104.38
365.694	102.38
365.92	94.38
366.147	88.38
366.373	90.38
366.599	93.38
366.826	75.38
367.052	93.38
367.278	83.38
367.505	97.38
367.731	97.38
367.957	81.38
368.184	81.38
368.41	94.38
368.636	117.38
368.862	112.38
369.089	90.38
369.315	79.38
369.541	110.38
369.767	89.38
369.993	89.38
370.219	89.38
370.445	83.38
370.672	91.38
370.898	87.38
371.124	89.38
371.35	102.38
371.576	83.38
371.802	86.38
372.028	87.38
372.254	82.38
372.48	80.38
372.706	81.38
372.932	85.38
373.158	76.38
373.384	92.38
373.61	89.38
373.835	86.38
374.061	87.38
374.287	89.38
374.513	85.38
374.739	88.38
374.965	81.38
375.191	94.38
375.416	85.38
375.642	94.38
375.868	77.38
376.094	90.38
376.319	81.38
376.545	70.38
376.771	80.38
376.997	91.38
377.222	85.38
377.448	89.38
377.674	75.38
377.899	89.38
378.125	86.38
378.35	80.38
378.576	79.38
378.802	102.38
379.027	84.38
379.253	73.38
379.478	89.38
379.704	82.38
379.929	92.38
380.155	84.38
380.38	90.38
380.606	105.38
380.831	100.38
381.057	97.38
381.282	89.38
381.507	91.38
381.733	93.38
381.958	96.38
382.184	86.38
382.409	89.38
382.634	105.38
382.86	89.38
383.085	107.38
383.31	98.38
383.535	99.38
383.761	91.38
383.986	94.38
384.211	106.38
384.436	113.38
384.662	111.38
384.887	96.38
385.112	108.38
385.337	92.38
385.562	103.38
385.787	81.38
386.013	111.38
386.238	109.38
386.463	111.38
386.688	94.38
386.913	96.38
387.138	90.38
387.363	90.38
387.588	89.38
387.813	94.38
388.038	88.38
388.263	116.38
388.488	114.38
388.713	88.38
388.938	86.38
389.163	85.38
389.387	89.38
389.612	95.38
389.837	81.38
390.062	94.38
390.287	91.38
390.512	87.38
390.736	99.38
390.961	95.38
391.186	74.38
391.411	87.38
391.636	88.38
391.86	77.38
392.085	73.38
392.31	76.38
392.534	94.38
392.759	74.38
392.984	83.38
393.208	90.38
393.433	96.38
393.658	93.38
393.882	76.38
394.107	82.38
394.331	79.38
394.556	75.38
394.78	81.38
395.005	93.38
395.229	74.38
395.454	73.38
395.678	66.38
395.903	77.38
396.127	94.38
396.352	91.38
396.576	91.38
396.801	99.38
397.025	72.38
397.249	86.38
397.474	77.38
397.698	77.38
397.922	78.38
398.147	93.38
398.371	92.38
398.595	89.38
398.82	101.38
399.044	74.38
399.268	96.38
399.492	81.38
399.717	92.38
399.941	85.38
400.165	92.38
400.389	72.38
400.613	83.38
400.837	84.38
401.062	77.38
401.286	78.38
401.51	95.38
401.734	74.38
401.958	89.38
402.182	116.38
402.406	151.38
402.63	116.38
402.854	97.38
403.078	87.38
403.302	94.38
403.526	86.38
403.75	94.38
403.974	81.38
404.198	87.38
404.422	77.38
404.645	100.38
404.869	78.38
405.093	83.38
405.317	111.38
405.541	105.38
405.765	89.38
405.988	103.38
406.212	155.38
406.436	229.38
406.66	145.38
406.883	109.38
407.107	85.38
407.331	89.38
407.555	98.38
407.778	81.38
408.002	96.38
408.226	80.38
408.449	79.38
408.673	93.38
408.896	74.38
409.12	86.38
409.344	87.38
409.567	94.38
409.791	76.38
410.014	91.38
410.238	74.38
410.461	101.38
410.685	96.38
410.908	97.38
411.132	104.38
411.355	85.38
411.578	83.38
411.802	93.38
412.025	79.38
412.249	72.38
412.472	89.38
412.695	117.38
412.919	95.38
413.142	92.38
413.365	92.38
413.589	81.38
413.812	86.38
414.035	90.38
414.258	85.38
414.482	96.38
414.705	82.38
414.928	81.38
415.151	82.38
415.374	93.38
415.597	77.38
415.821	91.38
416.044	93.38
416.267	95.38
416.49	77.38
416.713	81.38
416.936	73.38
417.159	79.38
417.382	88.38
417.605	79.38
417.828	80.38
418.051	94.38
418.274	91.38
418.497	77.38
418.72	79.38
418.943	82.38
419.166	83.38
419.389	69.38
419.611	90.38
419.834	92.38
420.057	74.38
420.28	96.38
420.503	96.38
420.726	77.38
420.948	76.38
421.171	85.38
421.394	93.38
421.617	81.38
421.839	95.38
422.062	79.38
422.285	75.38
422.507	90.38
422.73	100.38
422.953	87.38
423.175	85.38
423.398	78.38
423.621	80.38
423.843	90.38
424.066	77.38
424.288	79.38
424.511	81.38
424.733	96.38
424.956	102.38
425.178	96.38
425.401	92.38
425.623	92.38
425.846	88.38
426.068	88.38
426.291	91.38
426.513	89.38
426.735	80.38
426.958	81.38
427.18	115.38
427.402	131.38
427.625	172.38
427.847	163.38
428.069	158.38
428.292	105.38
428.514	83.38
428.736	83.38
428.958	78.38
429.181	88.38
429.403	80.38
429.625	91.38
429.847	98.38
430.069	92.38
430.292	98.38
430.514	82.38
430.736	77.38
430.958	70.38
431.18	86.38
431.402	90.38
431.624	70.38
431.846	85.38
432.068	78.38
432.29	74.38
432.512	79.38
432.734	86.38
432.956	72.38
433.178	90.38
433.4	89.38
433.622	89.38
433.844	82.38
434.066	94.38
434.287	78.38
434.509	92.38
434.731	80.38
434.953	80.38
435.175	78.38
435.397	92.38
435.618	94.38
435.84	113.38
436.062	113.38
436.284	101.38
436.505	92.38
436.727	93.38
436.949	97.38
437.17	96.38
437.392	93.38
437.614	85.38
437.835	92.38
438.057	131.38
438.278	121.38
438.5	112.38
438.721	111.38
438.943	86.38
439.165	79.38
439.386	81.38
439.608	89.38
439.829	99.38
440.05	112.38
440.272	141.38
440.493	92.38
440.715	84.38
440.936	86.38
441.158	87.38
441.379	87.38
441.6	97.38
441.822	81.38
442.043	91.38
442.264	89.38
442.486	100.38
442.707	92.38
442.928	103.38
443.149	124.38
443.371	129.38
443.592	116.38
443.813	122.38
444.034	109.38
444.255	110.38
444.476	90.38
444.698	74.38
444.919	76.38
445.14	115.38
445.361	119.38
445.582	98.38
445.803	141.38
446.024	148.38
446.245	144.38
446.466	111.38
446.687	72.38
446.908	81.38
447.129	92.38
447.35	95.38
447.571	102.38
447.792	98.38
448.013	88.38
448.234	107.38
448.455	96.38
448.675	100.38
448.896	134.38
449.117	98.38
449.338	91.38
449.559	118.38
449.779	134.38
450	87.38
450.221	74.38
450.442	99.38
450.662	85.38
450.883	90.38
451.104	127.38
451.324	104.38
451.545	91.38
451.766	84.38
451.986	80.38
452.207	73.38
452.428	77.38
452.648	83.38
452.869	105.38
453.089	108.38
453.31	122.38
453.53	91.38
453.751	91.38
453.971	109.38
454.192	104.38
454.412	85.38
454.633	88.38
454.853	81.38
455.073	77.38
455.294	92.38
455.514	98.38
455.734	79.38
455.955	86.38
456.175	69.38
456.395	81.38
456.616	85.38
456.836	70.38
457.056	80.38
457.276	93.38
457.497	96.38
457.717	83.38
457.937	80.38
458.157	82.38
458.377	86.38
458.598	104.38
458.818	151.38
459.038	179.38
459.258	132.38
459.478	88.38
459.698	89.38
459.918	88.38
460.138	94.38
460.358	80.38
460.578	73.38
460.798	90.38
461.018	77.38
461.238	79.38
461.458	95.38
461.678	76.38
461.898	89.38
462.118	90.38
462.338	61.38
462.558	81.38
462.777	91.38
462.997	85.38
463.217	96.38
463.437	87.38
463.657	79.38
463.876	89.38
464.096	81.38
464.316	86.38
464.536	102.38
464.755	89.38
464.975	101.38
465.195	181.38
465.414	173.38
465.634	73.38
465.854	79.38
466.073	77.38
466.293	90.38
466.512	96.38
466.732	82.38
466.951	77.38
467.171	80.38
467.391	91.38
467.61	98.38
467.829	131.38
468.049	258.38
468.268	354.38
468.488	136.38
468.707	71.38
468.927	71.38
469.146	87.38
469.365	93.38
469.585	80.38
469.804	91.38
470.023	102.38
470.243	90.38
470.462	86.38
470.681	99.38
470.901	92.38
471.12	98.38
471.339	93.38
471.558	75.38
471.777	100.38
471.997	168.38
472.216	483.38
472.435	1021.38
472.654	289.38
472.873	112.38
473.092	82.38
473.311	74.38
473.53	70.38
473.749	79.38
473.968	82.38
474.187	109.38
474.406	110.38
474.625	90.38
474.844	89.38
475.063	75.38
475.282	83.38
475.501	83.38
475.72	96.38
475.939	80.38
476.158	77.38
476.377	80.38
476.596	78.38
476.814	95.38
477.033	97.38
477.252	88.38
477.471	87.38
477.69	91.38
477.908	78.38
478.127	86.38
478.346	95.38
478.564	101.38
478.783	94.38
479.002	94.38
479.22	93.38
479.439	104.38
479.658	117.38
479.876	114.38
480.095	107.38
480.313	97.38
480.532	124.38
480.751	165.38
480.969	449.38
481.188	1828.38
481.406	1089.38
481.624	195.38
481.843	117.38
482.061	103.38
482.28	87.38
482.498	84.38
482.717	87.38
482.935	84.38
483.153	82.38
483.372	67.38
483.59	76.38
483.808	78.38
484.027	93.38
484.245	81.38
484.463	105.38
484.681	101.38
484.9	78.38
485.118	99.38
485.336	99.38
485.554	90.38
485.772	82.38
485.99	109.38
486.209	115.38
486.427	101.38
486.645	98.38
486.863	93.38
487.081	95.38
487.299	85.38
487.517	91.38
487.735	82.38
487.953	95.38
488.171	86.38
488.389	104.38
488.607	99.38
488.825	86.38
489.043	78.38
489.261	87.38
489.479	85.38
489.696	77.38
489.914	83.38
490.132	89.38
490.35	79.38
490.568	107.38
490.786	81.38
491.003	85.38
491.221	105.38
491.439	92.38
491.657	108.38
491.874	96.38
492.092	90.38
492.31	81.38
492.527	88.38
492.745	77.38
492.963	88.38
493.18	80.38
493.398	91.38
493.615	85.38
493.833	91.38
494.05	85.38
494.268	81.38
494.485	88.38
494.703	85.38
494.92	94.38
495.138	110.38
495.355	81.38
495.573	88.38
495.79	89.38
496.008	77.38
496.225	95.38
496.442	97.38
496.66	85.38
496.877	89.38
497.094	82.38
497.312	87.38
497.529	89.38
497.746	90.38
497.963	94.38
498.181	81.38
498.398	100.38
498.615	99.38
498.832	98.38
499.049	88.38
499.267	99.38
499.484	77.38
499.701	97.38
499.918	93.38
500.135	66.38
500.352	81.38
500.569	78.38
500.786	93.38
501.003	92.38
501.22	96.38
501.437	97.38
501.654	102.38
501.871	102.38
502.088	85.38
502.305	91.38
502.522	82.38
502.739	86.38
502.956	87.38
503.172	89.38
503.389	81.38
503.606	117.38
503.823	95.38
504.04	81.38
504.256	99.38
504.473	82.38
504.69	78.38
504.907	78.38
505.123	85.38
505.34	86.38
505.557	94.38
505.773	85.38
505.99	79.38
506.207	78.38
506.423	88.38
506.64	89.38
506.856	88.38
507.073	87.38
507.289	90.38
507.506	95.38
507.722	106.38
507.939	96.38
508.155	95.38
508.372	88.38
508.588	101.38
508.805	83.38
509.021	81.38
509.238	86.38
509.454	97.38
509.67	97.38
509.887	107.38
510.103	123.38
510.319	201.38
510.536	736.38
510.752	2441.38
510.968	669.38
511.184	154.38
511.401	108.38
511.617	103.38
511.833	97.38
512.049	90.38
512.265	98.38
512.481	92.38
512.698	92.38
512.914	83.38
513.13	89.38
513.346	82.38
513.562	102.38
513.778	89.38
513.994	97.38
514.21	102.38
514.426	104.38
514.642	135.38
514.858	120.38
515.074	162.38
515.29	489.38
515.506	1674.38
515.721	612.38
515.937	162.38
516.153	115.38
516.369	99.38
