Data from Circ_1992_H10_HRD10591_00048.txt Node
Date: Wed Jan 03 11:47:54 EST 2024
User: Yrep
Spectrometer: HR+D1059
Trigger mode: 1
Integration Time (sec): 1.000000E-1
Scans to average: 1
Electric dark correction enabled: true
Nonlinearity correction enabled: false
Boxcar width: 0
XAxis mode: Wavelengths
Number of Pixels in Spectrum: 2048
>>>>>Begin Spectral Data<<<<<
223.165	-21.94
223.4	-21.94
223.635	-21.94
223.869	-13.94
224.104	-13.94
224.338	-15.94
224.573	-17.94
224.808	-22.94
225.042	-4.94
225.277	6.06
225.511	-3.94
225.746	1.06
225.98	9.06
226.215	13.06
226.449	26.06
226.683	14.06
226.918	19.06
227.152	27.06
227.387	36.06
227.621	36.06
227.856	39.06
228.09	53.06
228.324	40.06
228.559	48.06
228.793	58.06
229.027	66.06
229.262	64.06
229.496	74.06
229.73	99.06
229.964	84.06
230.199	75.06
230.433	83.06
230.667	81.06
230.901	68.06
231.136	81.06
231.37	71.06
231.604	73.06
231.838	79.06
232.072	71.06
232.306	74.06
232.541	95.06
232.775	79.06
233.009	67.06
233.243	90.06
233.477	88.06
233.711	83.06
233.945	90.06
234.179	65.06
234.413	81.06
234.647	81.06
234.881	72.06
235.115	83.06
235.349	90.06
235.583	85.06
235.817	83.06
236.051	82.06
236.285	73.06
236.519	90.06
236.753	81.06
236.987	74.06
237.221	94.06
237.455	88.06
237.689	81.06
237.922	71.06
238.156	77.06
238.39	64.06
238.624	66.06
238.858	63.06
239.091	68.06
239.325	74.06
239.559	87.06
239.793	73.06
240.027	63.06
240.26	78.06
240.494	80.06
240.728	89.06
240.961	81.06
241.195	73.06
241.429	73.06
241.662	80.06
241.896	63.06
242.13	71.06
242.363	77.06
242.597	87.06
242.83	82.06
243.064	85.06
243.298	77.06
243.531	69.06
243.765	69.06
243.998	62.06
244.232	82.06
244.465	78.06
244.699	81.06
244.932	88.06
245.166	78.06
245.399	77.06
245.633	84.06
245.866	80.06
246.099	77.06
246.333	87.06
246.566	71.06
246.8	65.06
247.033	95.06
247.266	86.06
247.5	76.06
247.733	83.06
247.966	82.06
248.2	83.06
248.433	74.06
248.666	76.06
248.899	79.06
249.133	88.06
249.366	96.06
249.599	111.06
249.832	86.06
250.066	72.06
250.299	84.06
250.532	81.06
250.765	75.06
250.998	75.06
251.231	83.06
251.465	86.06
251.698	78.06
251.931	76.06
252.164	87.06
252.397	73.06
252.63	87.06
252.863	89.06
253.096	80.06
253.329	60.06
253.562	74.06
253.795	73.06
254.028	77.06
254.261	83.06
254.494	95.06
254.727	76.06
254.96	56.06
255.193	88.06
255.426	84.06
255.659	88.06
255.892	88.06
256.124	89.06
256.357	89.06
256.59	88.06
256.823	75.06
257.056	73.06
257.289	92.06
257.521	81.06
257.754	96.06
257.987	85.06
258.22	89.06
258.452	83.06
258.685	93.06
258.918	83.06
259.151	100.06
259.383	95.06
259.616	77.06
259.849	82.06
260.081	88.06
260.314	73.06
260.547	76.06
260.779	96.06
261.012	99.06
261.244	100.06
261.477	99.06
261.71	97.06
261.942	116.06
262.175	120.06
262.407	96.06
262.64	84.06
262.872	76.06
263.105	76.06
263.337	90.06
263.57	76.06
263.802	83.06
264.035	85.06
264.267	78.06
264.499	79.06
264.732	84.06
264.964	88.06
265.197	90.06
265.429	74.06
265.661	84.06
265.894	82.06
266.126	76.06
266.358	87.06
266.591	91.06
266.823	76.06
267.055	82.06
267.287	75.06
267.52	87.06
267.752	93.06
267.984	81.06
268.216	75.06
268.448	97.06
268.681	71.06
268.913	96.06
269.145	93.06
269.377	83.06
269.609	85.06
269.841	82.06
270.073	82.06
270.306	83.06
270.538	92.06
270.77	83.06
271.002	73.06
271.234	91.06
271.466	93.06
271.698	67.06
271.93	79.06
272.162	89.06
272.394	94.06
272.626	78.06
272.858	89.06
273.09	76.06
273.322	67.06
273.553	78.06
273.785	75.06
274.017	83.06
274.249	105.06
274.481	81.06
274.713	80.06
274.945	92.06
275.176	97.06
275.408	97.06
275.64	95.06
275.872	97.06
276.104	96.06
276.335	91.06
276.567	104.06
276.799	122.06
277.031	129.06
277.262	141.06
277.494	121.06
277.726	84.06
277.957	84.06
278.189	87.06
278.421	94.06
278.652	87.06
278.884	90.06
279.115	97.06
279.347	76.06
279.579	83.06
279.81	110.06
280.042	133.06
280.273	179.06
280.505	132.06
280.736	97.06
280.968	93.06
281.199	103.06
281.431	88.06
281.662	78.06
281.894	87.06
282.125	88.06
282.356	116.06
282.588	155.06
282.819	119.06
283.051	74.06
283.282	75.06
283.513	94.06
283.745	93.06
283.976	79.06
284.207	84.06
284.439	82.06
284.67	93.06
284.901	92.06
285.132	90.06
285.364	98.06
285.595	76.06
285.826	83.06
286.057	85.06
286.288	92.06
286.52	90.06
286.751	92.06
286.982	85.06
287.213	76.06
287.444	83.06
287.675	76.06
287.906	70.06
288.138	99.06
288.369	100.06
288.6	96.06
288.831	88.06
289.062	87.06
289.293	90.06
289.524	86.06
289.755	97.06
289.986	73.06
290.217	89.06
290.448	96.06
290.679	97.06
290.91	87.06
291.141	84.06
291.371	75.06
291.602	84.06
291.833	79.06
292.064	88.06
292.295	83.06
292.526	97.06
292.757	99.06
292.987	87.06
293.218	85.06
293.449	78.06
293.68	92.06
293.91	87.06
294.141	90.06
294.372	88.06
294.603	88.06
294.833	93.06
295.064	83.06
295.295	95.06
295.525	93.06
295.756	98.06
295.987	117.06
296.217	132.06
296.448	113.06
296.679	83.06
296.909	95.06
297.14	94.06
297.37	82.06
297.601	100.06
297.831	93.06
298.062	100.06
298.292	83.06
298.523	76.06
298.753	81.06
298.984	99.06
299.214	85.06
299.445	94.06
299.675	79.06
299.905	103.06
300.136	98.06
300.366	91.06
300.597	79.06
300.827	81.06
301.057	111.06
301.288	116.06
301.518	99.06
301.748	106.06
301.979	101.06
302.209	98.06
302.439	93.06
302.669	91.06
302.9	98.06
303.13	89.06
303.36	107.06
303.59	109.06
303.82	117.06
304.051	89.06
304.281	95.06
304.511	77.06
304.741	85.06
304.971	88.06
305.201	97.06
305.431	92.06
305.661	84.06
305.891	101.06
306.121	100.06
306.352	105.06
306.582	109.06
306.812	94.06
307.042	102.06
307.272	116.06
307.502	134.06
307.731	146.06
307.961	106.06
308.191	79.06
308.421	88.06
308.651	91.06
308.881	104.06
309.111	85.06
309.341	98.06
309.571	93.06
309.8	94.06
310.03	99.06
310.26	93.06
310.49	110.06
310.72	97.06
310.949	100.06
311.179	103.06
311.409	81.06
311.639	88.06
311.868	91.06
312.098	92.06
312.328	96.06
312.557	106.06
312.787	107.06
313.017	116.06
313.246	96.06
313.476	78.06
313.706	80.06
313.935	95.06
314.165	99.06
314.394	107.06
314.624	106.06
314.853	101.06
315.083	100.06
315.312	93.06
315.542	98.06
315.771	83.06
316.001	87.06
316.23	70.06
316.46	85.06
316.689	90.06
316.919	101.06
317.148	103.06
317.377	101.06
317.607	97.06
317.836	99.06
318.065	87.06
318.295	99.06
318.524	92.06
318.753	88.06
318.983	92.06
319.212	102.06
319.441	101.06
319.67	115.06
319.9	95.06
320.129	94.06
320.358	96.06
320.587	88.06
320.816	95.06
321.046	100.06
321.275	99.06
321.504	103.06
321.733	87.06
321.962	107.06
322.191	110.06
322.42	90.06
322.649	115.06
322.878	121.06
323.108	121.06
323.337	120.06
323.566	149.06
323.795	178.06
324.024	240.06
324.253	481.06
324.482	1076.06
324.71	2304.06
324.939	3137.06
325.168	1089.06
325.397	304.06
325.626	163.06
325.855	138.06
326.084	132.06
326.313	149.06
326.542	167.06
326.77	270.06
326.999	561.06
327.228	1187.06
327.457	2290.06
327.686	1814.06
327.914	537.06
328.143	400.06
328.372	423.06
328.6	261.06
328.829	169.06
329.058	165.06
329.287	175.06
329.515	167.06
329.744	190.06
329.972	300.06
330.201	620.06
330.43	926.06
330.658	427.06
330.887	243.06
331.115	152.06
331.344	115.06
331.572	129.06
331.801	128.06
332.03	114.06
332.258	116.06
332.486	110.06
332.715	108.06
332.943	106.06
333.172	111.06
333.4	108.06
333.629	123.06
333.857	164.06
334.085	305.06
334.314	585.06
334.542	1121.06
334.771	1065.06
334.999	303.06
335.227	146.06
335.455	110.06
335.684	98.06
335.912	106.06
336.14	114.06
336.369	125.06
336.597	116.06
336.825	112.06
337.053	98.06
337.281	93.06
337.51	97.06
337.738	92.06
337.966	92.06
338.194	89.06
338.422	95.06
338.65	79.06
338.878	91.06
339.106	96.06
339.334	110.06
339.562	101.06
339.79	104.06
340.018	106.06
340.246	90.06
340.474	88.06
340.702	76.06
340.93	82.06
341.158	96.06
341.386	98.06
341.614	106.06
341.842	98.06
342.07	90.06
342.298	101.06
342.526	81.06
342.754	89.06
342.981	92.06
343.209	89.06
343.437	105.06
343.665	84.06
343.893	90.06
344.12	94.06
344.348	89.06
344.576	89.06
344.804	96.06
345.031	108.06
345.259	112.06
345.487	101.06
345.714	91.06
345.942	97.06
346.17	86.06
346.397	91.06
346.625	88.06
346.853	83.06
347.08	97.06
347.308	103.06
347.535	91.06
347.763	105.06
347.99	91.06
348.218	123.06
348.445	103.06
348.673	100.06
348.9	99.06
349.128	99.06
349.355	99.06
349.583	96.06
349.81	91.06
350.037	101.06
350.265	96.06
350.492	87.06
350.72	91.06
350.947	83.06
351.174	113.06
351.402	114.06
351.629	105.06
351.856	108.06
352.083	113.06
352.311	111.06
352.538	113.06
352.765	106.06
352.992	111.06
353.22	105.06
353.447	109.06
353.674	94.06
353.901	77.06
354.128	85.06
354.355	88.06
354.583	95.06
354.81	104.06
355.037	93.06
355.264	96.06
355.491	107.06
355.718	90.06
355.945	91.06
356.172	88.06
356.399	90.06
356.626	95.06
356.853	72.06
357.08	79.06
357.307	94.06
357.534	97.06
357.761	85.06
357.988	78.06
358.215	77.06
358.441	89.06
358.668	99.06
358.895	98.06
359.122	100.06
359.349	82.06
359.576	97.06
359.802	98.06
360.029	113.06
360.256	117.06
360.483	108.06
360.709	91.06
360.936	92.06
361.163	88.06
361.39	86.06
361.616	100.06
361.843	87.06
362.07	97.06
362.296	95.06
362.523	86.06
362.749	89.06
362.976	89.06
363.203	104.06
363.429	89.06
363.656	97.06
363.882	94.06
364.109	90.06
364.335	99.06
364.562	105.06
364.788	101.06
365.015	99.06
365.241	92.06
365.468	107.06
365.694	97.06
365.92	85.06
366.147	112.06
366.373	93.06
366.599	93.06
366.826	92.06
367.052	104.06
367.278	98.06
367.505	93.06
367.731	88.06
367.957	86.06
368.184	96.06
368.41	107.06
368.636	107.06
368.862	115.06
369.089	106.06
369.315	89.06
369.541	106.06
369.767	91.06
369.993	85.06
370.219	77.06
370.445	83.06
370.672	94.06
370.898	94.06
371.124	90.06
371.35	80.06
371.576	107.06
371.802	75.06
372.028	81.06
372.254	77.06
372.48	92.06
372.706	79.06
372.932	85.06
373.158	90.06
373.384	79.06
373.61	91.06
373.835	91.06
374.061	83.06
374.287	93.06
374.513	96.06
374.739	84.06
374.965	87.06
375.191	101.06
375.416	81.06
375.642	96.06
375.868	94.06
376.094	96.06
376.319	83.06
376.545	85.06
376.771	81.06
376.997	88.06
377.222	92.06
377.448	103.06
377.674	81.06
377.899	89.06
378.125	78.06
378.35	81.06
378.576	103.06
378.802	86.06
379.027	97.06
379.253	95.06
379.478	78.06
379.704	95.06
379.929	91.06
380.155	82.06
380.38	90.06
380.606	91.06
380.831	100.06
381.057	101.06
381.282	90.06
381.507	96.06
381.733	98.06
381.958	85.06
382.184	91.06
382.409	111.06
382.634	106.06
382.86	97.06
383.085	100.06
383.31	98.06
383.535	98.06
383.761	98.06
383.986	92.06
384.211	102.06
384.436	89.06
384.662	98.06
384.887	103.06
385.112	111.06
385.337	96.06
385.562	99.06
385.787	105.06
386.013	115.06
386.238	120.06
386.463	97.06
386.688	112.06
386.913	108.06
387.138	112.06
387.363	91.06
387.588	101.06
387.813	103.06
388.038	86.06
388.263	99.06
388.488	96.06
388.713	99.06
388.938	95.06
389.163	88.06
389.387	83.06
389.612	85.06
389.837	73.06
390.062	93.06
390.287	84.06
390.512	73.06
390.736	79.06
390.961	98.06
391.186	96.06
391.411	87.06
391.636	99.06
391.86	84.06
392.085	78.06
392.31	94.06
392.534	88.06
392.759	83.06
392.984	88.06
393.208	87.06
393.433	75.06
393.658	88.06
393.882	87.06
394.107	86.06
394.331	95.06
394.556	78.06
394.78	81.06
395.005	85.06
395.229	72.06
395.454	67.06
395.678	83.06
395.903	93.06
396.127	100.06
396.352	96.06
396.576	79.06
396.801	96.06
397.025	93.06
397.249	74.06
397.474	75.06
397.698	88.06
397.922	100.06
398.147	71.06
398.371	87.06
398.595	87.06
398.82	87.06
399.044	85.06
399.268	92.06
399.492	73.06
399.717	83.06
399.941	91.06
400.165	98.06
400.389	91.06
400.613	79.06
400.837	80.06
401.062	85.06
401.286	87.06
401.51	77.06
401.734	89.06
401.958	117.06
402.182	143.06
402.406	171.06
402.63	126.06
402.854	101.06
403.078	81.06
403.302	81.06
403.526	90.06
403.75	79.06
403.974	93.06
404.198	89.06
404.422	96.06
404.645	90.06
404.869	102.06
405.093	109.06
405.317	128.06
405.541	130.06
405.765	112.06
405.988	116.06
406.212	180.06
406.436	271.06
406.66	172.06
406.883	131.06
407.107	97.06
407.331	104.06
407.555	104.06
407.778	102.06
408.002	82.06
408.226	80.06
408.449	93.06
408.673	95.06
408.896	85.06
409.12	90.06
409.344	77.06
409.567	97.06
409.791	95.06
410.014	104.06
410.238	95.06
410.461	93.06
410.685	99.06
410.908	104.06
411.132	100.06
411.355	123.06
411.578	82.06
411.802	91.06
412.025	93.06
412.249	101.06
412.472	93.06
412.695	141.06
412.919	105.06
413.142	101.06
413.365	92.06
413.589	87.06
413.812	96.06
414.035	85.06
414.258	89.06
414.482	87.06
414.705	89.06
414.928	77.06
415.151	85.06
415.374	94.06
415.597	80.06
415.821	83.06
416.044	84.06
416.267	92.06
416.49	92.06
416.713	103.06
416.936	93.06
417.159	78.06
417.382	86.06
417.605	83.06
417.828	97.06
418.051	88.06
418.274	85.06
418.497	65.06
418.72	93.06
418.943	85.06
419.166	76.06
419.389	95.06
419.611	97.06
419.834	77.06
420.057	101.06
420.28	100.06
420.503	94.06
420.726	85.06
420.948	69.06
421.171	95.06
421.394	99.06
421.617	82.06
421.839	76.06
422.062	84.06
422.285	98.06
422.507	112.06
422.73	107.06
422.953	94.06
423.175	76.06
423.398	91.06
423.621	82.06
423.843	87.06
424.066	75.06
424.288	71.06
424.511	89.06
424.733	115.06
424.956	114.06
425.178	96.06
425.401	107.06
425.623	96.06
425.846	87.06
426.068	94.06
426.291	87.06
426.513	86.06
426.735	88.06
426.958	92.06
427.18	103.06
427.402	171.06
427.625	226.06
427.847	210.06
428.069	215.06
428.292	117.06
428.514	93.06
428.736	92.06
428.958	78.06
429.181	79.06
429.403	83.06
429.625	99.06
429.847	102.06
430.069	103.06
430.292	97.06
430.514	74.06
430.736	79.06
430.958	87.06
431.18	71.06
431.402	79.06
431.624	75.06
431.846	90.06
432.068	101.06
432.29	87.06
432.512	82.06
432.734	73.06
432.956	89.06
433.178	93.06
433.4	111.06
433.622	81.06
433.844	104.06
434.066	85.06
434.287	82.06
434.509	92.06
434.731	80.06
434.953	71.06
435.175	83.06
435.397	91.06
435.618	101.06
435.84	96.06
436.062	139.06
436.284	131.06
436.505	112.06
436.727	114.06
436.949	96.06
437.17	83.06
437.392	88.06
437.614	97.06
437.835	105.06
438.057	139.06
438.278	115.06
438.5	104.06
438.721	123.06
438.943	108.06
439.165	90.06
439.386	86.06
439.608	91.06
439.829	108.06
440.05	155.06
440.272	182.06
440.493	111.06
440.715	92.06
440.936	77.06
441.158	93.06
441.379	93.06
441.6	95.06
441.822	103.06
442.043	103.06
442.264	105.06
442.486	101.06
442.707	91.06
442.928	120.06
443.149	173.06
443.371	173.06
443.592	127.06
443.813	133.06
444.034	132.06
444.255	99.06
444.476	97.06
444.698	99.06
444.919	98.06
445.14	127.06
445.361	126.06
445.582	136.06
445.803	183.06
446.024	168.06
446.245	158.06
446.466	131.06
446.687	99.06
446.908	95.06
447.129	94.06
447.35	91.06
447.571	97.06
447.792	96.06
448.013	101.06
448.234	122.06
448.455	103.06
448.675	123.06
448.896	136.06
449.117	99.06
449.338	115.06
449.559	161.06
449.779	161.06
450	96.06
450.221	87.06
450.442	99.06
450.662	80.06
450.883	110.06
451.104	124.06
451.324	83.06
451.545	95.06
451.766	78.06
451.986	96.06
452.207	92.06
452.428	76.06
452.648	89.06
452.869	116.06
453.089	116.06
453.31	125.06
453.53	108.06
453.751	89.06
453.971	101.06
454.192	113.06
454.412	106.06
454.633	94.06
454.853	86.06
455.073	87.06
455.294	87.06
455.514	104.06
455.734	94.06
455.955	88.06
456.175	69.06
456.395	80.06
456.616	78.06
456.836	81.06
457.056	77.06
457.276	88.06
457.497	83.06
457.717	84.06
457.937	90.06
458.157	89.06
458.377	90.06
458.598	124.06
458.818	179.06
459.038	201.06
459.258	135.06
459.478	115.06
459.698	89.06
459.918	90.06
460.138	81.06
460.358	89.06
460.578	77.06
460.798	88.06
461.018	95.06
461.238	93.06
461.458	81.06
461.678	73.06
461.898	103.06
462.118	82.06
462.338	89.06
462.558	77.06
462.777	65.06
462.997	81.06
463.217	109.06
463.437	104.06
463.657	93.06
463.876	91.06
464.096	94.06
464.316	97.06
464.536	93.06
464.755	91.06
464.975	123.06
465.195	221.06
465.414	209.06
465.634	91.06
465.854	93.06
466.073	76.06
466.293	95.06
466.512	83.06
466.732	96.06
466.951	90.06
467.171	98.06
467.391	106.06
467.61	127.06
467.829	154.06
468.049	359.06
468.268	497.06
468.488	175.06
468.707	103.06
468.927	88.06
469.146	82.06
469.365	96.06
469.585	67.06
469.804	93.06
470.023	99.06
470.243	116.06
470.462	106.06
470.681	126.06
470.901	99.06
471.12	82.06
471.339	99.06
471.558	112.06
471.777	124.06
471.997	199.06
472.216	690.06
472.435	1509.06
472.654	391.06
472.873	120.06
473.092	99.06
473.311	90.06
473.53	75.06
473.749	84.06
473.968	95.06
474.187	107.06
474.406	101.06
474.625	95.06
474.844	84.06
475.063	90.06
475.282	100.06
475.501	82.06
475.72	77.06
475.939	76.06
476.158	93.06
476.377	99.06
476.596	75.06
476.814	86.06
477.033	87.06
477.252	106.06
477.471	101.06
477.69	94.06
477.908	85.06
478.127	95.06
478.346	83.06
478.564	91.06
478.783	106.06
479.002	105.06
479.22	109.06
479.439	119.06
479.658	116.06
479.876	113.06
480.095	100.06
480.313	118.06
480.532	151.06
480.751	211.06
480.969	632.06
481.188	2613.06
481.406	1548.06
481.624	269.06
481.843	100.06
482.061	97.06
482.28	92.06
482.498	90.06
482.717	82.06
482.935	99.06
483.153	94.06
483.372	84.06
483.59	100.06
483.808	75.06
484.027	92.06
484.245	100.06
484.463	107.06
484.681	89.06
484.9	79.06
485.118	97.06
485.336	91.06
485.554	97.06
485.772	94.06
485.99	106.06
486.209	99.06
486.427	96.06
486.645	126.06
486.863	107.06
487.081	118.06
487.299	105.06
487.517	98.06
487.735	95.06
487.953	92.06
488.171	83.06
488.389	100.06
488.607	102.06
488.825	82.06
489.043	78.06
489.261	79.06
489.479	63.06
489.696	73.06
489.914	95.06
490.132	98.06
490.35	91.06
490.568	87.06
490.786	88.06
491.003	83.06
491.221	106.06
491.439	85.06
491.657	87.06
491.874	87.06
492.092	88.06
492.31	88.06
492.527	80.06
492.745	86.06
492.963	82.06
493.18	93.06
493.398	96.06
493.615	79.06
493.833	83.06
494.05	97.06
494.268	92.06
494.485	86.06
494.703	91.06
494.92	94.06
495.138	99.06
495.355	69.06
495.573	91.06
495.79	103.06
496.008	89.06
496.225	88.06
496.442	84.06
496.66	82.06
496.877	82.06
497.094	93.06
497.312	94.06
497.529	91.06
497.746	92.06
497.963	96.06
498.181	84.06
498.398	99.06
498.615	98.06
498.832	105.06
499.049	96.06
499.267	92.06
499.484	86.06
499.701	85.06
499.918	101.06
500.135	77.06
500.352	87.06
500.569	85.06
500.786	96.06
501.003	81.06
501.22	93.06
501.437	95.06
501.654	93.06
501.871	108.06
502.088	96.06
502.305	89.06
502.522	92.06
502.739	79.06
502.956	87.06
503.172	100.06
503.389	80.06
503.606	113.06
503.823	99.06
504.04	74.06
504.256	91.06
504.473	97.06
504.69	84.06
504.907	86.06
505.123	98.06
505.34	72.06
505.557	80.06
505.773	81.06
505.99	88.06
506.207	93.06
506.423	88.06
506.64	87.06
506.856	91.06
507.073	99.06
507.289	91.06
507.506	91.06
507.722	116.06
507.939	123.06
508.155	98.06
508.372	96.06
508.588	99.06
508.805	87.06
509.021	97.06
509.238	98.06
509.454	98.06
509.67	101.06
509.887	109.06
510.103	135.06
510.319	217.06
510.536	791.06
510.752	2679.06
510.968	723.06
511.184	163.06
511.401	104.06
511.617	104.06
511.833	100.06
512.049	99.06
512.265	88.06
512.481	96.06
512.698	93.06
512.914	89.06
513.13	98.06
513.346	89.06
513.562	98.06
513.778	87.06
513.994	102.06
514.21	111.06
514.426	139.06
514.642	160.06
