Data from Circ_1992_H10_HRD10591_00059.txt Node
Date: Wed Jan 03 11:47:56 EST 2024
User: Yrep
Spectrometer: HR+D1059
Trigger mode: 1
Integration Time (sec): 1.000000E-1
Scans to average: 1
Electric dark correction enabled: true
Nonlinearity correction enabled: false
Boxcar width: 0
XAxis mode: Wavelengths
Number of Pixels in Spectrum: 2048
>>>>>Begin Spectral Data<<<<<
223.165	-15.75
223.4	-15.75
223.635	-15.75
223.869	-25.75
224.104	-23.75
224.338	-9.75
224.573	-25.75
224.808	-16.75
225.042	-11.75
225.277	-2.75
225.511	-5.75
225.746	3.25
225.98	19.25
226.215	7.25
226.449	24.25
226.683	21.25
226.918	39.25
227.152	23.25
227.387	39.25
227.621	28.25
227.856	48.25
228.09	40.25
228.324	61.25
228.559	62.25
228.793	59.25
229.027	56.25
229.262	56.25
229.496	79.25
229.73	85.25
229.964	87.25
230.199	85.25
230.433	78.25
230.667	67.25
230.901	80.25
231.136	70.25
231.37	71.25
231.604	78.25
231.838	79.25
232.072	88.25
232.306	81.25
232.541	79.25
232.775	87.25
233.009	83.25
233.243	85.25
233.477	98.25
233.711	85.25
233.945	79.25
234.179	82.25
234.413	76.25
234.647	88.25
234.881	74.25
235.115	80.25
235.349	74.25
235.583	84.25
235.817	92.25
236.051	79.25
236.285	83.25
236.519	70.25
236.753	82.25
236.987	93.25
237.221	78.25
237.455	80.25
237.689	71.25
237.922	64.25
238.156	67.25
238.39	76.25
238.624	79.25
238.858	90.25
239.091	74.25
239.325	71.25
239.559	76.25
239.793	90.25
240.027	75.25
240.26	80.25
240.494	72.25
240.728	70.25
240.961	79.25
241.195	94.25
241.429	96.25
241.662	69.25
241.896	86.25
242.13	71.25
242.363	68.25
242.597	94.25
242.83	71.25
243.064	86.25
243.298	85.25
243.531	77.25
243.765	72.25
243.998	72.25
244.232	86.25
244.465	98.25
244.699	89.25
244.932	87.25
245.166	77.25
245.399	86.25
245.633	74.25
245.866	84.25
246.099	76.25
246.333	76.25
246.566	86.25
246.8	87.25
247.033	88.25
247.266	83.25
247.5	78.25
247.733	73.25
247.966	91.25
248.2	85.25
248.433	64.25
248.666	70.25
248.899	89.25
249.133	83.25
249.366	82.25
249.599	113.25
249.832	88.25
250.066	86.25
250.299	84.25
250.532	83.25
250.765	83.25
250.998	74.25
251.231	81.25
251.465	72.25
251.698	76.25
251.931	54.25
252.164	87.25
252.397	78.25
252.63	86.25
252.863	84.25
253.096	80.25
253.329	74.25
253.562	82.25
253.795	91.25
254.028	79.25
254.261	92.25
254.494	71.25
254.727	80.25
254.96	79.25
255.193	84.25
255.426	82.25
255.659	66.25
255.892	82.25
256.124	74.25
256.357	92.25
256.59	70.25
256.823	71.25
257.056	83.25
257.289	94.25
257.521	85.25
257.754	85.25
257.987	84.25
258.22	69.25
258.452	99.25
258.685	87.25
258.918	85.25
259.151	79.25
259.383	84.25
259.616	78.25
259.849	95.25
260.081	94.25
260.314	80.25
260.547	98.25
260.779	88.25
261.012	89.25
261.244	111.25
261.477	91.25
261.71	104.25
261.942	113.25
262.175	118.25
262.407	77.25
262.64	98.25
262.872	96.25
263.105	85.25
263.337	87.25
263.57	83.25
263.802	86.25
264.035	91.25
264.267	95.25
264.499	81.25
264.732	85.25
264.964	95.25
265.197	80.25
265.429	79.25
265.661	79.25
265.894	86.25
266.126	85.25
266.358	70.25
266.591	78.25
266.823	85.25
267.055	82.25
267.287	82.25
267.52	83.25
267.752	82.25
267.984	87.25
268.216	93.25
268.448	101.25
268.681	78.25
268.913	84.25
269.145	79.25
269.377	86.25
269.609	90.25
269.841	86.25
270.073	75.25
270.306	71.25
270.538	86.25
270.77	84.25
271.002	74.25
271.234	81.25
271.466	96.25
271.698	88.25
271.93	88.25
272.162	93.25
272.394	94.25
272.626	92.25
272.858	82.25
273.09	80.25
273.322	96.25
273.553	85.25
273.785	81.25
274.017	91.25
274.249	82.25
274.481	82.25
274.713	94.25
274.945	75.25
275.176	70.25
275.408	104.25
275.64	93.25
275.872	87.25
276.104	85.25
276.335	88.25
276.567	89.25
276.799	108.25
277.031	118.25
277.262	120.25
277.494	98.25
277.726	83.25
277.957	95.25
278.189	100.25
278.421	87.25
278.652	91.25
278.884	91.25
279.115	87.25
279.347	80.25
279.579	85.25
279.81	103.25
280.042	119.25
280.273	134.25
280.505	112.25
280.736	103.25
280.968	90.25
281.199	90.25
281.431	87.25
281.662	90.25
281.894	92.25
282.125	96.25
282.356	106.25
282.588	139.25
282.819	104.25
283.051	94.25
283.282	100.25
283.513	98.25
283.745	94.25
283.976	91.25
284.207	85.25
284.439	78.25
284.67	97.25
284.901	101.25
285.132	81.25
285.364	82.25
285.595	114.25
285.826	85.25
286.057	86.25
286.288	94.25
286.52	81.25
286.751	94.25
286.982	84.25
287.213	86.25
287.444	95.25
287.675	91.25
287.906	70.25
288.138	104.25
288.369	86.25
288.6	92.25
288.831	89.25
289.062	98.25
289.293	90.25
289.524	87.25
289.755	102.25
289.986	97.25
290.217	88.25
290.448	83.25
290.679	85.25
290.91	85.25
291.141	84.25
291.371	86.25
291.602	76.25
291.833	94.25
292.064	99.25
292.295	88.25
292.526	77.25
292.757	86.25
292.987	100.25
293.218	87.25
293.449	95.25
293.68	97.25
293.91	90.25
294.141	93.25
294.372	77.25
294.603	80.25
294.833	88.25
295.064	94.25
295.295	87.25
295.525	95.25
295.756	116.25
295.987	122.25
296.217	147.25
296.448	116.25
296.679	98.25
296.909	90.25
297.14	98.25
297.37	103.25
297.601	104.25
297.831	86.25
298.062	92.25
298.292	79.25
298.523	86.25
298.753	82.25
298.984	69.25
299.214	88.25
299.445	98.25
299.675	96.25
299.905	97.25
300.136	93.25
300.366	94.25
300.597	83.25
300.827	103.25
301.057	93.25
301.288	92.25
301.518	97.25
301.748	92.25
301.979	99.25
302.209	114.25
302.439	89.25
302.669	100.25
302.9	102.25
303.13	90.25
303.36	116.25
303.59	115.25
303.82	109.25
304.051	83.25
304.281	94.25
304.511	95.25
304.741	94.25
304.971	95.25
305.201	96.25
305.431	96.25
305.661	94.25
305.891	90.25
306.121	95.25
306.352	108.25
306.582	112.25
306.812	101.25
307.042	103.25
307.272	122.25
307.502	124.25
307.731	131.25
307.961	112.25
308.191	88.25
308.421	93.25
308.651	97.25
308.881	100.25
309.111	99.25
309.341	98.25
309.571	94.25
309.8	99.25
310.03	96.25
310.26	102.25
310.49	98.25
310.72	107.25
310.949	105.25
311.179	101.25
311.409	97.25
311.639	98.25
311.868	96.25
312.098	103.25
312.328	98.25
312.557	103.25
312.787	119.25
313.017	112.25
313.246	104.25
313.476	100.25
313.706	108.25
313.935	90.25
314.165	107.25
314.394	99.25
314.624	103.25
314.853	90.25
315.083	93.25
315.312	97.25
315.542	95.25
315.771	107.25
316.001	96.25
316.23	79.25
316.46	88.25
316.689	93.25
316.919	86.25
317.148	118.25
317.377	100.25
317.607	86.25
317.836	89.25
318.065	94.25
318.295	97.25
318.524	93.25
318.753	86.25
318.983	94.25
319.212	99.25
319.441	107.25
319.67	115.25
319.9	97.25
320.129	108.25
320.358	91.25
320.587	93.25
320.816	93.25
321.046	110.25
321.275	99.25
321.504	95.25
321.733	91.25
321.962	97.25
322.191	92.25
322.42	111.25
322.649	106.25
322.878	109.25
323.108	121.25
323.337	136.25
323.566	142.25
323.795	174.25
324.024	216.25
324.253	415.25
324.482	939.25
324.71	1966.25
324.939	2625.25
325.168	955.25
325.397	268.25
325.626	161.25
325.855	131.25
326.084	135.25
326.313	144.25
326.542	166.25
326.77	250.25
326.999	512.25
327.228	1069.25
327.457	2021.25
327.686	1628.25
327.914	482.25
328.143	317.25
328.372	340.25
328.6	224.25
328.829	146.25
329.058	140.25
329.287	156.25
329.515	135.25
329.744	169.25
329.972	267.25
330.201	466.25
330.43	651.25
330.658	328.25
330.887	194.25
331.115	142.25
331.344	118.25
331.572	110.25
331.801	105.25
332.03	118.25
332.258	98.25
332.486	104.25
332.715	89.25
332.943	100.25
333.172	114.25
333.4	115.25
333.629	116.25
333.857	150.25
334.085	238.25
334.314	431.25
334.542	794.25
334.771	780.25
334.999	244.25
335.227	126.25
335.455	108.25
335.684	98.25
335.912	103.25
336.14	95.25
336.369	103.25
336.597	106.25
336.825	101.25
337.053	98.25
337.281	100.25
337.51	83.25
337.738	90.25
337.966	95.25
338.194	91.25
338.422	107.25
338.65	93.25
338.878	84.25
339.106	98.25
339.334	83.25
339.562	100.25
339.79	102.25
340.018	97.25
340.246	93.25
340.474	99.25
340.702	94.25
340.93	91.25
341.158	90.25
341.386	99.25
341.614	91.25
341.842	100.25
342.07	80.25
342.298	101.25
342.526	87.25
342.754	93.25
342.981	86.25
343.209	83.25
343.437	105.25
343.665	97.25
343.893	82.25
344.12	82.25
344.348	87.25
344.576	90.25
344.804	98.25
345.031	104.25
345.259	90.25
345.487	91.25
345.714	97.25
345.942	79.25
346.17	84.25
346.397	94.25
346.625	86.25
346.853	94.25
347.08	80.25
347.308	95.25
347.535	102.25
347.763	91.25
347.99	104.25
348.218	104.25
348.445	100.25
348.673	101.25
348.9	107.25
349.128	92.25
349.355	88.25
349.583	102.25
349.81	67.25
350.037	85.25
350.265	102.25
350.492	102.25
350.72	99.25
350.947	106.25
351.174	107.25
351.402	126.25
351.629	116.25
351.856	103.25
352.083	108.25
352.311	98.25
352.538	114.25
352.765	95.25
352.992	118.25
353.22	107.25
353.447	93.25
353.674	102.25
353.901	96.25
354.128	93.25
354.355	85.25
354.583	98.25
354.81	101.25
355.037	85.25
355.264	99.25
355.491	94.25
355.718	109.25
355.945	87.25
356.172	84.25
356.399	86.25
356.626	98.25
356.853	75.25
357.08	114.25
357.307	102.25
357.534	83.25
357.761	84.25
357.988	97.25
358.215	105.25
358.441	102.25
358.668	94.25
358.895	89.25
359.122	92.25
359.349	92.25
359.576	83.25
359.802	104.25
360.029	129.25
360.256	113.25
360.483	99.25
360.709	89.25
360.936	87.25
361.163	107.25
361.39	96.25
361.616	102.25
361.843	94.25
362.07	98.25
362.296	85.25
362.523	86.25
362.749	80.25
362.976	84.25
363.203	98.25
363.429	100.25
363.656	93.25
363.882	89.25
364.109	89.25
364.335	98.25
364.562	98.25
364.788	90.25
365.015	96.25
365.241	89.25
365.468	122.25
365.694	110.25
365.92	90.25
366.147	99.25
366.373	85.25
366.599	84.25
366.826	83.25
367.052	90.25
367.278	85.25
367.505	91.25
367.731	86.25
367.957	96.25
368.184	77.25
368.41	109.25
368.636	109.25
368.862	116.25
369.089	104.25
369.315	90.25
369.541	104.25
369.767	97.25
369.993	102.25
370.219	102.25
370.445	99.25
370.672	90.25
370.898	88.25
371.124	92.25
371.35	92.25
371.576	94.25
371.802	98.25
372.028	92.25
372.254	93.25
372.48	103.25
372.706	74.25
372.932	88.25
373.158	86.25
373.384	88.25
373.61	103.25
373.835	89.25
374.061	96.25
374.287	100.25
374.513	87.25
374.739	78.25
374.965	96.25
375.191	103.25
375.416	89.25
375.642	87.25
375.868	94.25
376.094	103.25
376.319	93.25
376.545	76.25
376.771	95.25
376.997	93.25
377.222	96.25
377.448	85.25
377.674	95.25
377.899	95.25
378.125	96.25
378.35	90.25
378.576	102.25
378.802	87.25
379.027	94.25
379.253	87.25
379.478	101.25
379.704	98.25
379.929	103.25
380.155	97.25
380.38	99.25
380.606	91.25
380.831	86.25
381.057	93.25
381.282	100.25
381.507	94.25
381.733	98.25
381.958	95.25
382.184	103.25
382.409	98.25
382.634	116.25
382.86	98.25
383.085	109.25
383.31	96.25
383.535	103.25
383.761	100.25
383.986	90.25
384.211	96.25
384.436	105.25
384.662	92.25
384.887	101.25
385.112	105.25
385.337	103.25
385.562	105.25
385.787	102.25
386.013	109.25
386.238	119.25
386.463	111.25
386.688	105.25
386.913	90.25
387.138	118.25
387.363	116.25
387.588	111.25
387.813	100.25
388.038	109.25
388.263	121.25
388.488	108.25
388.713	98.25
388.938	91.25
389.163	90.25
389.387	111.25
389.612	107.25
389.837	87.25
390.062	102.25
390.287	97.25
390.512	86.25
390.736	82.25
390.961	90.25
391.186	93.25
391.411	104.25
391.636	90.25
391.86	97.25
392.085	92.25
392.31	94.25
392.534	83.25
392.759	92.25
392.984	94.25
393.208	91.25
393.433	91.25
393.658	102.25
393.882	88.25
394.107	86.25
394.331	82.25
394.556	94.25
394.78	95.25
395.005	92.25
395.229	89.25
395.454	95.25
395.678	94.25
395.903	93.25
396.127	98.25
396.352	89.25
396.576	89.25
396.801	91.25
397.025	88.25
397.249	99.25
397.474	81.25
397.698	96.25
397.922	104.25
398.147	102.25
398.371	80.25
398.595	96.25
398.82	85.25
399.044	78.25
399.268	90.25
399.492	78.25
399.717	99.25
399.941	85.25
400.165	92.25
400.389	87.25
400.613	78.25
400.837	86.25
401.062	104.25
401.286	89.25
401.51	95.25
401.734	92.25
401.958	102.25
402.182	118.25
402.406	158.25
402.63	119.25
402.854	94.25
403.078	96.25
403.302	77.25
403.526	82.25
403.75	90.25
403.974	72.25
404.198	94.25
404.422	101.25
404.645	88.25
404.869	102.25
405.093	92.25
405.317	114.25
405.541	114.25
405.765	94.25
405.988	119.25
406.212	165.25
406.436	218.25
406.66	127.25
406.883	108.25
407.107	97.25
407.331	97.25
407.555	98.25
407.778	102.25
408.002	97.25
408.226	84.25
408.449	76.25
408.673	87.25
408.896	98.25
409.12	107.25
409.344	93.25
409.567	79.25
409.791	92.25
410.014	107.25
410.238	92.25
410.461	91.25
410.685	94.25
410.908	86.25
411.132	97.25
411.355	102.25
411.578	86.25
411.802	78.25
412.025	86.25
412.249	99.25
412.472	109.25
412.695	121.25
412.919	105.25
413.142	94.25
413.365	86.25
413.589	93.25
413.812	105.25
414.035	94.25
414.258	90.25
414.482	88.25
414.705	91.25
414.928	101.25
415.151	78.25
415.374	103.25
415.597	89.25
415.821	95.25
416.044	93.25
416.267	90.25
416.49	86.25
416.713	90.25
416.936	93.25
417.159	99.25
417.382	95.25
417.605	86.25
417.828	109.25
418.051	97.25
418.274	96.25
418.497	98.25
418.72	92.25
418.943	91.25
419.166	90.25
419.389	97.25
419.611	91.25
419.834	89.25
420.057	87.25
420.28	77.25
420.503	100.25
420.726	92.25
420.948	100.25
421.171	87.25
421.394	98.25
421.617	79.25
421.839	96.25
422.062	88.25
422.285	78.25
422.507	90.25
422.73	104.25
422.953	92.25
423.175	85.25
423.398	97.25
423.621	92.25
423.843	99.25
424.066	87.25
424.288	82.25
424.511	82.25
424.733	90.25
424.956	100.25
425.178	93.25
425.401	98.25
425.623	92.25
425.846	88.25
426.068	88.25
426.291	86.25
426.513	92.25
426.735	101.25
426.958	96.25
427.18	105.25
427.402	145.25
427.625	195.25
427.847	182.25
428.069	177.25
428.292	112.25
428.514	81.25
428.736	89.25
428.958	94.25
429.181	77.25
429.403	75.25
429.625	91.25
429.847	92.25
430.069	115.25
430.292	85.25
430.514	94.25
430.736	98.25
430.958	101.25
431.18	80.25
431.402	75.25
431.624	97.25
431.846	71.25
432.068	86.25
432.29	89.25
432.512	84.25
432.734	87.25
432.956	93.25
433.178	86.25
433.4	93.25
433.622	101.25
433.844	83.25
434.066	89.25
434.287	99.25
434.509	94.25
434.731	85.25
434.953	96.25
435.175	90.25
435.397	87.25
435.618	102.25
435.84	110.25
436.062	132.25
436.284	119.25
436.505	110.25
436.727	103.25
436.949	95.25
437.17	90.25
437.392	76.25
437.614	92.25
437.835	119.25
438.057	137.25
438.278	118.25
438.5	114.25
438.721	131.25
438.943	107.25
439.165	90.25
439.386	93.25
439.608	100.25
439.829	107.25
440.05	123.25
440.272	163.25
440.493	86.25
440.715	94.25
440.936	86.25
441.158	102.25
441.379	79.25
441.6	93.25
441.822	87.25
442.043	85.25
442.264	110.25
442.486	96.25
442.707	88.25
442.928	115.25
443.149	146.25
443.371	154.25
443.592	119.25
443.813	128.25
444.034	131.25
444.255	102.25
444.476	91.25
444.698	87.25
444.919	81.25
445.14	124.25
445.361	109.25
445.582	134.25
445.803	153.25
446.024	154.25
446.245	152.25
446.466	101.25
446.687	89.25
446.908	93.25
447.129	99.25
447.35	91.25
447.571	104.25
447.792	107.25
448.013	93.25
448.234	99.25
448.455	110.25
448.675	130.25
448.896	115.25
449.117	99.25
449.338	96.25
449.559	131.25
449.779	134.25
450	103.25
450.221	83.25
450.442	86.25
450.662	92.25
450.883	108.25
451.104	110.25
451.324	93.25
451.545	82.25
451.766	80.25
451.986	95.25
452.207	84.25
452.428	99.25
452.648	87.25
452.869	96.25
453.089	114.25
453.31	120.25
453.53	94.25
453.751	79.25
453.971	109.25
454.192	110.25
454.412	90.25
454.633	98.25
454.853	91.25
455.073	92.25
455.294	85.25
455.514	97.25
455.734	78.25
455.955	81.25
456.175	84.25
456.395	87.25
456.616	93.25
456.836	95.25
457.056	94.25
457.276	75.25
457.497	95.25
457.717	84.25
457.937	82.25
458.157	88.25
458.377	98.25
458.598	124.25
458.818	148.25
459.038	178.25
459.258	113.25
459.478	84.25
459.698	90.25
459.918	91.25
460.138	91.25
460.358	75.25
460.578	82.25
460.798	99.25
461.018	108.25
461.238	95.25
461.458	86.25
461.678	92.25
461.898	74.25
462.118	73.25
462.338	95.25
462.558	94.25
462.777	83.25
462.997	84.25
463.217	104.25
463.437	98.25
463.657	80.25
463.876	78.25
464.096	82.25
464.316	111.25
464.536	96.25
464.755	106.25
464.975	103.25
465.195	165.25
465.414	158.25
465.634	102.25
465.854	94.25
466.073	84.25
466.293	78.25
466.512	79.25
466.732	80.25
466.951	100.25
467.171	103.25
467.391	102.25
467.61	111.25
467.829	135.25
468.049	260.25
468.268	413.25
468.488	134.25
468.707	86.25
468.927	90.25
469.146	74.25
469.365	89.25
469.585	83.25
469.804	104.25
470.023	104.25
470.243	101.25
470.462	103.25
470.681	102.25
470.901	104.25
471.12	86.25
471.339	112.25
471.558	94.25
471.777	123.25
471.997	183.25
472.216	516.25
472.435	1166.25
472.654	307.25
472.873	123.25
473.092	94.25
473.311	97.25
473.53	91.25
473.749	89.25
473.968	88.25
474.187	127.25
474.406	98.25
474.625	103.25
474.844	93.25
475.063	80.25
475.282	85.25
475.501	93.25
475.72	88.25
475.939	88.25
476.158	82.25
476.377	74.25
476.596	101.25
476.814	90.25
477.033	103.25
477.252	94.25
477.471	88.25
477.69	95.25
477.908	86.25
478.127	95.25
478.346	88.25
478.564	97.25
478.783	101.25
479.002	96.25
479.22	102.25
479.439	112.25
479.658	116.25
479.876	110.25
480.095	93.25
480.313	120.25
480.532	117.25
480.751	177.25
480.969	496.25
481.188	1944.25
481.406	1160.25
481.624	208.25
481.843	119.25
482.061	99.25
482.28	89.25
482.498	106.25
482.717	83.25
482.935	90.25
483.153	88.25
483.372	96.25
483.59	84.25
483.808	86.25
484.027	80.25
484.245	101.25
484.463	78.25
484.681	92.25
484.9	89.25
485.118	102.25
485.336	82.25
485.554	82.25
485.772	96.25
485.99	110.25
486.209	98.25
486.427	98.25
486.645	102.25
486.863	103.25
487.081	110.25
487.299	92.25
487.517	97.25
487.735	90.25
487.953	92.25
488.171	93.25
488.389	90.25
488.607	104.25
488.825	86.25
489.043	87.25
489.261	98.25
489.479	90.25
489.696	78.25
489.914	83.25
490.132	86.25
490.35	95.25
490.568	84.25
490.786	87.25
491.003	84.25
491.221	87.25
491.439	92.25
491.657	89.25
491.874	95.25
492.092	93.25
492.31	90.25
492.527	88.25
492.745	108.25
492.963	106.25
493.18	92.25
493.398	100.25
493.615	93.25
493.833	78.25
494.05	77.25
494.268	83.25
494.485	100.25
494.703	83.25
494.92	103.25
495.138	93.25
495.355	95.25
495.573	88.25
495.79	97.25
496.008	87.25
496.225	95.25
496.442	94.25
496.66	97.25
496.877	96.25
497.094	79.25
497.312	76.25
497.529	84.25
497.746	98.25
497.963	99.25
498.181	92.25
498.398	97.25
498.615	110.25
498.832	101.25
499.049	93.25
499.267	87.25
499.484	102.25
499.701	94.25
499.918	84.25
500.135	98.25
500.352	83.25
500.569	85.25
500.786	101.25
501.003	95.25
501.22	95.25
501.437	85.25
501.654	93.25
501.871	119.25
502.088	97.25
502.305	98.25
502.522	87.25
502.739	87.25
502.956	100.25
503.172	90.25
503.389	98.25
503.606	99.25
503.823	81.25
504.04	83.25
504.256	89.25
504.473	90.25
504.69	86.25
504.907	101.25
505.123	98.25
505.34	79.25
505.557	86.25
505.773	94.25
505.99	93.25
506.207	105.25
506.423	86.25
506.64	90.25
506.856	96.25
507.073	83.25
507.289	94.25
507.506	86.25
507.722	126.25
507.939	105.25
508.155	98.25
508.372	101.25
508.588	102.25
508.805	92.25
509.021	109.25
509.238	106.25
509.454	104.25
509.67	103.25
509.887	107.25
510.103	135.25
510.319	197.25
510.536	696.25
510.752	2236.25
510.968	612.25
511.184	139.25
511.401	122.25
511.617	90.25
511.833	99.25
512.049	97.25
512.265	95.25
512.481	95.25
512.698	98.25
512.914	98.25
513.13	103.25
513.346	98.25
513.562	88.25
513.778	94.25
513.994	106.25
514.21	116.25
514.426	116.25
