Data from Circ_1992_H10_HRD10591_00046.txt Node
Date: Wed Jan 03 11:47:54 EST 2024
User: Yrep
Spectrometer: HR+D1059
Trigger mode: 1
Integration Time (sec): 1.000000E-1
Scans to average: 1
Electric dark correction enabled: true
Nonlinearity correction enabled: false
Boxcar width: 0
XAxis mode: Wavelengths
Number of Pixels in Spectrum: 2048
>>>>>Begin Spectral Data<<<<<
223.165	-16.38
223.4	-16.38
223.635	-16.38
223.869	-16.38
224.104	-23.38
224.338	-16.38
224.573	-28.38
224.808	-11.38
225.042	-14.38
225.277	-6.38
225.511	-8.38
225.746	2.62
225.98	12.62
226.215	10.62
226.449	23.62
226.683	35.62
226.918	19.62
227.152	36.62
227.387	53.62
227.621	38.62
227.856	40.62
228.09	38.62
228.324	48.62
228.559	54.62
228.793	61.62
229.027	72.62
229.262	67.62
229.496	73.62
229.73	87.62
229.964	88.62
230.199	78.62
230.433	66.62
230.667	91.62
230.901	80.62
231.136	85.62
231.37	84.62
231.604	85.62
231.838	81.62
232.072	79.62
232.306	85.62
232.541	82.62
232.775	90.62
233.009	81.62
233.243	70.62
233.477	93.62
233.711	69.62
233.945	74.62
234.179	76.62
234.413	84.62
234.647	81.62
234.881	73.62
235.115	80.62
235.349	83.62
235.583	79.62
235.817	83.62
236.051	71.62
236.285	77.62
236.519	81.62
236.753	85.62
236.987	81.62
237.221	82.62
237.455	82.62
237.689	78.62
237.922	78.62
238.156	90.62
238.39	86.62
238.624	67.62
238.858	84.62
239.091	64.62
239.325	76.62
239.559	89.62
239.793	81.62
240.027	84.62
240.26	82.62
240.494	82.62
240.728	80.62
240.961	86.62
241.195	85.62
241.429	76.62
241.662	75.62
241.896	76.62
242.13	70.62
242.363	69.62
242.597	75.62
242.83	77.62
243.064	67.62
243.298	76.62
243.531	70.62
243.765	84.62
243.998	83.62
244.232	87.62
244.465	86.62
244.699	85.62
244.932	92.62
245.166	85.62
245.399	70.62
245.633	70.62
245.866	93.62
246.099	83.62
246.333	69.62
246.566	90.62
246.8	96.62
247.033	80.62
247.266	74.62
247.5	60.62
247.733	79.62
247.966	64.62
248.2	83.62
248.433	84.62
248.666	89.62
248.899	80.62
249.133	80.62
249.366	95.62
249.599	89.62
249.832	82.62
250.066	84.62
250.299	64.62
250.532	79.62
250.765	59.62
250.998	76.62
251.231	70.62
251.465	88.62
251.698	83.62
251.931	90.62
252.164	84.62
252.397	67.62
252.63	74.62
252.863	75.62
253.096	84.62
253.329	75.62
253.562	70.62
253.795	80.62
254.028	82.62
254.261	74.62
254.494	88.62
254.727	65.62
254.96	82.62
255.193	82.62
255.426	84.62
255.659	70.62
255.892	78.62
256.124	75.62
256.357	91.62
256.59	74.62
256.823	85.62
257.056	84.62
257.289	87.62
257.521	67.62
257.754	82.62
257.987	84.62
258.22	77.62
258.452	91.62
258.685	89.62
258.918	77.62
259.151	74.62
259.383	88.62
259.616	89.62
259.849	78.62
260.081	64.62
260.314	77.62
260.547	80.62
260.779	76.62
261.012	79.62
261.244	91.62
261.477	95.62
261.71	88.62
261.942	115.62
262.175	118.62
262.407	80.62
262.64	66.62
262.872	89.62
263.105	84.62
263.337	74.62
263.57	84.62
263.802	86.62
264.035	84.62
264.267	78.62
264.499	92.62
264.732	91.62
264.964	85.62
265.197	89.62
265.429	90.62
265.661	81.62
265.894	69.62
266.126	83.62
266.358	78.62
266.591	73.62
266.823	88.62
267.055	85.62
267.287	83.62
267.52	91.62
267.752	83.62
267.984	73.62
268.216	79.62
268.448	70.62
268.681	80.62
268.913	78.62
269.145	97.62
269.377	81.62
269.609	82.62
269.841	93.62
270.073	101.62
270.306	88.62
270.538	96.62
270.77	96.62
271.002	78.62
271.234	70.62
271.466	76.62
271.698	85.62
271.93	76.62
272.162	86.62
272.394	86.62
272.626	73.62
272.858	73.62
273.09	84.62
273.322	84.62
273.553	76.62
273.785	103.62
274.017	76.62
274.249	94.62
274.481	86.62
274.713	87.62
274.945	83.62
275.176	93.62
275.408	98.62
275.64	99.62
275.872	84.62
276.104	81.62
276.335	81.62
276.567	104.62
276.799	101.62
277.031	116.62
277.262	126.62
277.494	89.62
277.726	78.62
277.957	98.62
278.189	77.62
278.421	96.62
278.652	87.62
278.884	110.62
279.115	91.62
279.347	96.62
279.579	76.62
279.81	90.62
280.042	108.62
280.273	130.62
280.505	116.62
280.736	84.62
280.968	81.62
281.199	83.62
281.431	84.62
281.662	75.62
281.894	82.62
282.125	106.62
282.356	104.62
282.588	143.62
282.819	110.62
283.051	85.62
283.282	76.62
283.513	100.62
283.745	82.62
283.976	79.62
284.207	79.62
284.439	86.62
284.67	90.62
284.901	89.62
285.132	84.62
285.364	94.62
285.595	66.62
285.826	80.62
286.057	93.62
286.288	86.62
286.52	80.62
286.751	86.62
286.982	85.62
287.213	90.62
287.444	74.62
287.675	106.62
287.906	94.62
288.138	93.62
288.369	81.62
288.6	103.62
288.831	86.62
289.062	76.62
289.293	94.62
289.524	76.62
289.755	90.62
289.986	86.62
290.217	90.62
290.448	87.62
290.679	84.62
290.91	82.62
291.141	81.62
291.371	81.62
291.602	97.62
291.833	76.62
292.064	96.62
292.295	101.62
292.526	78.62
292.757	79.62
292.987	88.62
293.218	85.62
293.449	94.62
293.68	94.62
293.91	90.62
294.141	89.62
294.372	84.62
294.603	88.62
294.833	87.62
295.064	91.62
295.295	99.62
295.525	79.62
295.756	101.62
295.987	92.62
296.217	129.62
296.448	117.62
296.679	98.62
296.909	98.62
297.14	78.62
297.37	99.62
297.601	95.62
297.831	79.62
298.062	94.62
298.292	81.62
298.523	85.62
298.753	85.62
298.984	89.62
299.214	96.62
299.445	99.62
299.675	81.62
299.905	87.62
300.136	89.62
300.366	90.62
300.597	96.62
300.827	90.62
301.057	86.62
301.288	104.62
301.518	93.62
301.748	84.62
301.979	92.62
302.209	115.62
302.439	93.62
302.669	82.62
302.9	96.62
303.13	98.62
303.36	93.62
303.59	114.62
303.82	116.62
304.051	98.62
304.281	85.62
304.511	80.62
304.741	87.62
304.971	88.62
305.201	97.62
305.431	85.62
305.661	96.62
305.891	89.62
306.121	82.62
306.352	112.62
306.582	92.62
306.812	92.62
307.042	90.62
307.272	95.62
307.502	110.62
307.731	115.62
307.961	102.62
308.191	91.62
308.421	97.62
308.651	90.62
308.881	88.62
309.111	91.62
309.341	103.62
309.571	97.62
309.8	97.62
310.03	100.62
310.26	95.62
310.49	101.62
310.72	102.62
310.949	109.62
311.179	86.62
311.409	90.62
311.639	95.62
311.868	102.62
312.098	109.62
312.328	84.62
312.557	102.62
312.787	100.62
313.017	101.62
313.246	100.62
313.476	95.62
313.706	92.62
313.935	90.62
314.165	95.62
314.394	96.62
314.624	88.62
314.853	101.62
315.083	95.62
315.312	98.62
315.542	93.62
315.771	93.62
316.001	94.62
316.23	95.62
316.46	77.62
316.689	74.62
316.919	94.62
317.148	98.62
317.377	99.62
317.607	95.62
317.836	80.62
318.065	98.62
318.295	91.62
318.524	96.62
318.753	99.62
318.983	96.62
319.212	92.62
319.441	101.62
319.67	115.62
319.9	89.62
320.129	100.62
320.358	102.62
320.587	100.62
320.816	93.62
321.046	102.62
321.275	101.62
321.504	96.62
321.733	98.62
321.962	98.62
322.191	90.62
322.42	104.62
322.649	111.62
322.878	112.62
323.108	107.62
323.337	116.62
323.566	132.62
323.795	161.62
324.024	202.62
324.253	381.62
324.482	865.62
324.71	1853.62
324.939	2504.62
325.168	891.62
325.397	255.62
325.626	135.62
325.855	133.62
326.084	118.62
326.313	136.62
326.542	154.62
326.77	225.62
326.999	453.62
327.228	987.62
327.457	1864.62
327.686	1515.62
327.914	444.62
328.143	298.62
328.372	292.62
328.6	194.62
328.829	116.62
329.058	125.62
329.287	141.62
329.515	129.62
329.744	149.62
329.972	213.62
330.201	356.62
330.43	494.62
330.658	273.62
330.887	168.62
331.115	137.62
331.344	106.62
331.572	100.62
331.801	101.62
332.03	107.62
332.258	100.62
332.486	83.62
332.715	101.62
332.943	108.62
333.172	112.62
333.4	116.62
333.629	129.62
333.857	144.62
334.085	210.62
334.314	352.62
334.542	600.62
334.771	608.62
334.999	203.62
335.227	129.62
335.455	91.62
335.684	101.62
335.912	96.62
336.14	97.62
336.369	102.62
336.597	96.62
336.825	97.62
337.053	98.62
337.281	96.62
337.51	81.62
337.738	92.62
337.966	105.62
338.194	104.62
338.422	100.62
338.65	101.62
338.878	78.62
339.106	82.62
339.334	90.62
339.562	100.62
339.79	89.62
340.018	95.62
340.246	105.62
340.474	87.62
340.702	91.62
340.93	96.62
341.158	100.62
341.386	98.62
341.614	94.62
341.842	96.62
342.07	91.62
342.298	94.62
342.526	81.62
342.754	104.62
342.981	94.62
343.209	86.62
343.437	94.62
343.665	96.62
343.893	101.62
344.12	104.62
344.348	86.62
344.576	88.62
344.804	84.62
345.031	104.62
345.259	102.62
345.487	86.62
345.714	80.62
345.942	94.62
346.17	84.62
346.397	80.62
346.625	99.62
346.853	87.62
347.08	92.62
347.308	90.62
347.535	85.62
347.763	91.62
347.99	108.62
348.218	109.62
348.445	90.62
348.673	99.62
348.9	102.62
349.128	105.62
349.355	86.62
349.583	83.62
349.81	83.62
350.037	91.62
350.265	103.62
350.492	87.62
350.72	89.62
350.947	107.62
351.174	109.62
351.402	110.62
351.629	99.62
351.856	98.62
352.083	101.62
352.311	97.62
352.538	101.62
352.765	106.62
352.992	111.62
353.22	107.62
353.447	107.62
353.674	93.62
353.901	105.62
354.128	109.62
354.355	104.62
354.583	85.62
354.81	112.62
355.037	85.62
355.264	88.62
355.491	90.62
355.718	88.62
355.945	84.62
356.172	82.62
356.399	89.62
356.626	91.62
356.853	77.62
357.08	90.62
357.307	83.62
357.534	98.62
357.761	85.62
357.988	100.62
358.215	86.62
358.441	106.62
358.668	97.62
358.895	84.62
359.122	98.62
359.349	93.62
359.576	104.62
359.802	93.62
360.029	118.62
360.256	103.62
360.483	96.62
360.709	86.62
360.936	92.62
361.163	97.62
361.39	92.62
361.616	91.62
361.843	90.62
362.07	96.62
362.296	85.62
362.523	98.62
362.749	89.62
362.976	84.62
363.203	102.62
363.429	103.62
363.656	79.62
363.882	79.62
364.109	85.62
364.335	96.62
364.562	84.62
364.788	86.62
365.015	89.62
365.241	99.62
365.468	106.62
365.694	108.62
365.92	95.62
366.147	99.62
366.373	97.62
366.599	96.62
366.826	80.62
367.052	91.62
367.278	93.62
367.505	102.62
367.731	82.62
367.957	85.62
368.184	83.62
368.41	101.62
368.636	116.62
368.862	104.62
369.089	108.62
369.315	86.62
369.541	97.62
369.767	88.62
369.993	89.62
370.219	102.62
370.445	81.62
370.672	84.62
370.898	76.62
371.124	63.62
371.35	76.62
371.576	92.62
371.802	85.62
372.028	88.62
372.254	81.62
372.48	81.62
372.706	82.62
372.932	76.62
373.158	72.62
373.384	91.62
373.61	80.62
373.835	81.62
374.061	96.62
374.287	97.62
374.513	95.62
374.739	84.62
374.965	82.62
375.191	82.62
375.416	91.62
375.642	99.62
375.868	93.62
376.094	89.62
376.319	85.62
376.545	82.62
376.771	86.62
376.997	83.62
377.222	102.62
377.448	91.62
377.674	87.62
377.899	58.62
378.125	96.62
378.35	80.62
378.576	92.62
378.802	82.62
379.027	90.62
379.253	100.62
379.478	91.62
379.704	101.62
379.929	97.62
380.155	108.62
380.38	89.62
380.606	107.62
380.831	87.62
381.057	99.62
381.282	109.62
381.507	92.62
381.733	84.62
381.958	101.62
382.184	102.62
382.409	102.62
382.634	83.62
382.86	98.62
383.085	94.62
383.31	93.62
383.535	109.62
383.761	113.62
383.986	102.62
384.211	88.62
384.436	94.62
384.662	98.62
384.887	91.62
385.112	124.62
385.337	110.62
385.562	90.62
385.787	90.62
386.013	110.62
386.238	102.62
386.463	95.62
386.688	106.62
386.913	85.62
387.138	101.62
387.363	105.62
387.588	87.62
387.813	98.62
388.038	96.62
388.263	96.62
388.488	93.62
388.713	98.62
388.938	83.62
389.163	100.62
389.387	106.62
389.612	105.62
389.837	84.62
390.062	99.62
390.287	84.62
390.512	91.62
390.736	88.62
390.961	93.62
391.186	72.62
391.411	86.62
391.636	103.62
391.86	89.62
392.085	82.62
392.31	80.62
392.534	78.62
392.759	81.62
392.984	92.62
393.208	101.62
393.433	96.62
393.658	83.62
393.882	81.62
394.107	78.62
394.331	86.62
394.556	94.62
394.78	90.62
395.005	77.62
395.229	69.62
395.454	80.62
395.678	82.62
395.903	91.62
396.127	98.62
396.352	92.62
396.576	78.62
396.801	94.62
397.025	89.62
397.249	81.62
397.474	81.62
397.698	86.62
397.922	86.62
398.147	87.62
398.371	79.62
398.595	71.62
398.82	82.62
399.044	77.62
399.268	89.62
399.492	101.62
399.717	81.62
399.941	73.62
400.165	76.62
400.389	93.62
400.613	98.62
400.837	80.62
401.062	70.62
401.286	80.62
401.51	80.62
401.734	93.62
401.958	78.62
402.182	105.62
402.406	145.62
402.63	124.62
402.854	90.62
403.078	89.62
403.302	91.62
403.526	90.62
403.75	77.62
403.974	86.62
404.198	90.62
404.422	84.62
404.645	80.62
404.869	93.62
405.093	96.62
405.317	117.62
405.541	111.62
405.765	114.62
405.988	90.62
406.212	165.62
406.436	217.62
406.66	138.62
406.883	98.62
407.107	88.62
407.331	93.62
407.555	90.62
407.778	88.62
408.002	79.62
408.226	86.62
408.449	85.62
408.673	90.62
408.896	90.62
409.12	100.62
409.344	98.62
409.567	79.62
409.791	90.62
410.014	93.62
410.238	103.62
410.461	82.62
410.685	84.62
410.908	79.62
411.132	118.62
411.355	110.62
411.578	68.62
411.802	86.62
412.025	86.62
412.249	99.62
412.472	102.62
412.695	124.62
412.919	103.62
413.142	94.62
413.365	93.62
413.589	83.62
413.812	110.62
414.035	100.62
414.258	91.62
414.482	92.62
414.705	90.62
414.928	84.62
415.151	73.62
415.374	106.62
415.597	77.62
415.821	88.62
416.044	86.62
416.267	99.62
416.49	90.62
416.713	80.62
416.936	84.62
417.159	92.62
417.382	74.62
417.605	87.62
417.828	97.62
418.051	97.62
418.274	85.62
418.497	78.62
418.72	94.62
418.943	91.62
419.166	102.62
419.389	77.62
419.611	80.62
419.834	95.62
420.057	98.62
420.28	94.62
420.503	86.62
420.726	102.62
420.948	93.62
421.171	90.62
421.394	77.62
421.617	91.62
421.839	89.62
422.062	104.62
422.285	99.62
422.507	94.62
422.73	107.62
422.953	98.62
423.175	92.62
423.398	86.62
423.621	88.62
423.843	86.62
424.066	86.62
424.288	89.62
424.511	89.62
424.733	113.62
424.956	104.62
425.178	90.62
425.401	94.62
425.623	93.62
425.846	91.62
426.068	99.62
426.291	80.62
426.513	99.62
426.735	93.62
426.958	89.62
427.18	99.62
427.402	149.62
427.625	176.62
427.847	172.62
428.069	168.62
428.292	110.62
428.514	101.62
428.736	90.62
428.958	73.62
429.181	73.62
429.403	74.62
429.625	92.62
429.847	110.62
430.069	93.62
430.292	91.62
430.514	84.62
430.736	84.62
430.958	100.62
431.18	84.62
431.402	83.62
431.624	85.62
431.846	76.62
432.068	74.62
432.29	78.62
432.512	88.62
432.734	90.62
432.956	99.62
433.178	100.62
433.4	102.62
433.622	86.62
433.844	97.62
434.066	107.62
434.287	96.62
434.509	95.62
434.731	94.62
434.953	92.62
435.175	80.62
435.397	95.62
435.618	90.62
435.84	102.62
436.062	119.62
436.284	123.62
436.505	98.62
436.727	105.62
436.949	91.62
437.17	80.62
437.392	86.62
437.614	94.62
437.835	123.62
438.057	132.62
438.278	109.62
438.5	99.62
438.721	126.62
438.943	100.62
439.165	82.62
439.386	93.62
439.608	82.62
439.829	84.62
440.05	118.62
440.272	162.62
440.493	106.62
440.715	78.62
440.936	83.62
441.158	85.62
441.379	91.62
441.6	84.62
441.822	95.62
442.043	98.62
442.264	101.62
442.486	109.62
442.707	91.62
442.928	102.62
443.149	104.62
443.371	131.62
443.592	112.62
443.813	118.62
444.034	109.62
444.255	99.62
444.476	97.62
444.698	86.62
444.919	90.62
445.14	133.62
445.361	121.62
445.582	125.62
445.803	157.62
446.024	135.62
446.245	149.62
446.466	105.62
446.687	80.62
446.908	86.62
447.129	90.62
447.35	86.62
447.571	90.62
447.792	105.62
448.013	78.62
448.234	111.62
448.455	106.62
448.675	120.62
448.896	123.62
449.117	105.62
449.338	103.62
449.559	135.62
449.779	136.62
450	93.62
450.221	69.62
450.442	90.62
450.662	86.62
450.883	98.62
451.104	112.62
451.324	86.62
451.545	75.62
451.766	94.62
451.986	80.62
452.207	83.62
452.428	93.62
452.648	101.62
452.869	107.62
453.089	111.62
453.31	115.62
453.53	97.62
453.751	99.62
453.971	105.62
454.192	127.62
454.412	88.62
454.633	93.62
454.853	90.62
455.073	88.62
455.294	76.62
455.514	92.62
455.734	87.62
455.955	93.62
456.175	84.62
456.395	89.62
456.616	88.62
456.836	98.62
457.056	93.62
457.276	76.62
457.497	90.62
457.717	92.62
457.937	76.62
458.157	91.62
458.377	88.62
458.598	109.62
458.818	144.62
459.038	170.62
459.258	106.62
459.478	93.62
459.698	74.62
459.918	81.62
460.138	80.62
460.358	95.62
460.578	82.62
460.798	96.62
461.018	97.62
461.238	78.62
461.458	97.62
461.678	86.62
461.898	82.62
462.118	94.62
462.338	99.62
462.558	88.62
462.777	86.62
462.997	94.62
463.217	98.62
463.437	92.62
463.657	95.62
463.876	82.62
464.096	80.62
464.316	73.62
464.536	90.62
464.755	95.62
464.975	94.62
465.195	160.62
465.414	149.62
465.634	96.62
465.854	90.62
466.073	83.62
466.293	84.62
466.512	92.62
466.732	91.62
466.951	83.62
467.171	85.62
467.391	92.62
467.61	110.62
467.829	110.62
468.049	222.62
468.268	321.62
468.488	115.62
468.707	91.62
468.927	91.62
469.146	82.62
469.365	88.62
469.585	82.62
469.804	88.62
470.023	92.62
470.243	100.62
470.462	101.62
470.681	115.62
470.901	85.62
471.12	92.62
471.339	90.62
471.558	93.62
471.777	104.62
471.997	146.62
472.216	432.62
472.435	872.62
472.654	264.62
472.873	115.62
473.092	101.62
473.311	90.62
473.53	76.62
473.749	93.62
473.968	91.62
474.187	112.62
474.406	116.62
474.625	85.62
474.844	81.62
475.063	82.62
475.282	88.62
475.501	97.62
475.72	89.62
475.939	91.62
476.158	80.62
476.377	94.62
476.596	90.62
476.814	106.62
477.033	116.62
477.252	81.62
477.471	72.62
477.69	82.62
477.908	93.62
478.127	85.62
478.346	93.62
478.564	81.62
478.783	100.62
479.002	100.62
479.22	91.62
479.439	109.62
479.658	99.62
479.876	101.62
480.095	96.62
480.313	103.62
480.532	126.62
480.751	154.62
480.969	412.62
481.188	1510.62
481.406	892.62
481.624	196.62
481.843	101.62
482.061	103.62
482.28	95.62
482.498	95.62
482.717	74.62
482.935	101.62
483.153	94.62
483.372	97.62
483.59	105.62
483.808	98.62
484.027	92.62
484.245	92.62
484.463	89.62
484.681	100.62
484.9	93.62
485.118	95.62
485.336	80.62
485.554	97.62
485.772	99.62
485.99	113.62
486.209	112.62
486.427	110.62
486.645	101.62
486.863	100.62
487.081	86.62
487.299	90.62
487.517	94.62
487.735	76.62
487.953	89.62
488.171	90.62
488.389	94.62
488.607	114.62
488.825	95.62
489.043	89.62
489.261	88.62
489.479	84.62
489.696	85.62
489.914	103.62
490.132	88.62
490.35	91.62
490.568	98.62
490.786	85.62
491.003	92.62
491.221	85.62
491.439	98.62
491.657	83.62
491.874	90.62
492.092	104.62
492.31	95.62
492.527	88.62
492.745	95.62
492.963	96.62
493.18	96.62
493.398	82.62
493.615	106.62
493.833	92.62
494.05	89.62
494.268	90.62
494.485	90.62
494.703	99.62
494.92	95.62
495.138	103.62
495.355	101.62
495.573	72.62
495.79	79.62
496.008	88.62
496.225	93.62
496.442	85.62
496.66	97.62
496.877	93.62
497.094	93.62
497.312	81.62
497.529	92.62
497.746	85.62
497.963	75.62
498.181	86.62
498.398	91.62
498.615	95.62
498.832	115.62
499.049	82.62
499.267	91.62
499.484	94.62
499.701	100.62
499.918	93.62
500.135	85.62
500.352	79.62
500.569	90.62
500.786	87.62
501.003	82.62
501.22	90.62
501.437	87.62
501.654	91.62
501.871	100.62
502.088	79.62
502.305	85.62
502.522	78.62
502.739	89.62
502.956	89.62
503.172	81.62
503.389	99.62
503.606	96.62
503.823	82.62
504.04	98.62
504.256	95.62
504.473	85.62
504.69	91.62
504.907	99.62
505.123	79.62
505.34	90.62
505.557	98.62
505.773	96.62
505.99	79.62
506.207	90.62
506.423	79.62
506.64	92.62
506.856	89.62
507.073	94.62
507.289	94.62
507.506	105.62
507.722	124.62
507.939	98.62
508.155	100.62
508.372	81.62
508.588	86.62
508.805	101.62
509.021	103.62
509.238	101.62
509.454	101.62
509.67	95.62
509.887	98.62
510.103	128.62
510.319	203.62
510.536	685.62
510.752	2157.62
510.968	606.62
511.184	141.62
511.401	111.62
511.617	95.62
511.833	88.62
512.049	93.62
512.265	89.62
512.481	101.62
512.698	98.62
512.914	76.62
513.13	92.62
513.346	90.62
513.562	99.62
513.778	94.62
513.994	92.62
514.21	98.62
514.426	102.62
514.642	126.62
514.858	142.62
515.074	156.62
515.29	412.62
