Data from Circ_1992_H10_HRD10591_00002.txt Node
Date: Wed Jan 03 11:47:45 EST 2024
User: Yrep
Spectrometer: HR+D1059
Trigger mode: 1
Integration Time (sec): 1.000000E-1
Scans to average: 1
Electric dark correction enabled: true
Nonlinearity correction enabled: false
Boxcar width: 0
XAxis mode: Wavelengths
Number of Pixels in Spectrum: 2048
>>>>>Begin Spectral Data<<<<<
223.165	-15.44
223.4	-15.44
223.635	-15.44
223.869	-19.44
224.104	-28.44
224.338	-24.44
224.573	2.56
224.808	-6.44
225.042	7.56
225.277	-14.44
225.511	-9.44
225.746	-8.44
225.98	8.56
226.215	0.56
226.449	19.56
226.683	34.56
226.918	23.56
227.152	29.56
227.387	46.56
227.621	31.56
227.856	40.56
228.09	32.56
228.324	50.56
228.559	53.56
228.793	55.56
229.027	72.56
229.262	55.56
229.496	81.56
229.73	108.56
229.964	65.56
230.199	78.56
230.433	78.56
230.667	79.56
230.901	87.56
231.136	64.56
231.37	69.56
231.604	63.56
231.838	73.56
232.072	75.56
232.306	78.56
232.541	89.56
232.775	73.56
233.009	83.56
233.243	77.56
233.477	81.56
233.711	76.56
233.945	76.56
234.179	62.56
234.413	77.56
234.647	73.56
234.881	63.56
235.115	63.56
235.349	79.56
235.583	61.56
235.817	75.56
236.051	75.56
236.285	84.56
236.519	85.56
236.753	85.56
236.987	88.56
237.221	85.56
237.455	93.56
237.689	84.56
237.922	77.56
238.156	72.56
238.39	68.56
238.624	69.56
238.858	66.56
239.091	70.56
239.325	72.56
239.559	75.56
239.793	84.56
240.027	71.56
240.26	87.56
240.494	74.56
240.728	79.56
240.961	76.56
241.195	81.56
241.429	81.56
241.662	69.56
241.896	70.56
242.13	75.56
242.363	69.56
242.597	61.56
242.83	70.56
243.064	73.56
243.298	75.56
243.531	70.56
243.765	77.56
243.998	61.56
244.232	79.56
244.465	81.56
244.699	81.56
244.932	80.56
245.166	73.56
245.399	69.56
245.633	92.56
245.866	76.56
246.099	81.56
246.333	71.56
246.566	66.56
246.8	75.56
247.033	75.56
247.266	80.56
247.5	70.56
247.733	81.56
247.966	81.56
248.2	69.56
248.433	66.56
248.666	86.56
248.899	81.56
249.133	93.56
249.366	73.56
249.599	82.56
249.832	81.56
250.066	74.56
250.299	73.56
250.532	89.56
250.765	72.56
250.998	77.56
251.231	66.56
251.465	79.56
251.698	66.56
251.931	85.56
252.164	79.56
252.397	62.56
252.63	75.56
252.863	90.56
253.096	70.56
253.329	77.56
253.562	81.56
253.795	77.56
254.028	74.56
254.261	58.56
254.494	84.56
254.727	85.56
254.96	69.56
255.193	79.56
255.426	62.56
255.659	67.56
255.892	75.56
256.124	76.56
256.357	80.56
256.59	85.56
256.823	74.56
257.056	83.56
257.289	94.56
257.521	88.56
257.754	69.56
257.987	71.56
258.22	77.56
258.452	84.56
258.685	93.56
258.918	66.56
259.151	79.56
259.383	86.56
259.616	81.56
259.849	84.56
260.081	73.56
260.314	86.56
260.547	83.56
260.779	69.56
261.012	81.56
261.244	81.56
261.477	86.56
261.71	99.56
261.942	91.56
262.175	113.56
262.407	97.56
262.64	84.56
262.872	76.56
263.105	75.56
263.337	85.56
263.57	81.56
263.802	73.56
264.035	79.56
264.267	75.56
264.499	87.56
264.732	91.56
264.964	76.56
265.197	103.56
265.429	62.56
265.661	90.56
265.894	84.56
266.126	94.56
266.358	82.56
266.591	85.56
266.823	85.56
267.055	82.56
267.287	70.56
267.52	64.56
267.752	89.56
267.984	84.56
268.216	81.56
268.448	89.56
268.681	82.56
268.913	83.56
269.145	86.56
269.377	71.56
269.609	75.56
269.841	65.56
270.073	77.56
270.306	102.56
270.538	80.56
270.77	83.56
271.002	82.56
271.234	82.56
271.466	86.56
271.698	75.56
271.93	87.56
272.162	76.56
272.394	95.56
272.626	85.56
272.858	84.56
273.09	75.56
273.322	90.56
273.553	86.56
273.785	84.56
274.017	86.56
274.249	76.56
274.481	68.56
274.713	72.56
274.945	89.56
275.176	80.56
275.408	80.56
275.64	82.56
275.872	79.56
276.104	62.56
276.335	70.56
276.567	104.56
276.799	97.56
277.031	112.56
277.262	113.56
277.494	100.56
277.726	82.56
277.957	91.56
278.189	82.56
278.421	86.56
278.652	66.56
278.884	80.56
279.115	88.56
279.347	89.56
279.579	86.56
279.81	101.56
280.042	95.56
280.273	99.56
280.505	92.56
280.736	93.56
280.968	89.56
281.199	95.56
281.431	89.56
281.662	79.56
281.894	81.56
282.125	92.56
282.356	108.56
282.588	109.56
282.819	110.56
283.051	84.56
283.282	82.56
283.513	83.56
283.745	82.56
283.976	93.56
284.207	90.56
284.439	99.56
284.67	82.56
284.901	89.56
285.132	81.56
285.364	82.56
285.595	73.56
285.826	86.56
286.057	96.56
286.288	73.56
286.52	74.56
286.751	67.56
286.982	77.56
287.213	80.56
287.444	64.56
287.675	85.56
287.906	80.56
288.138	83.56
288.369	92.56
288.6	73.56
288.831	82.56
289.062	82.56
289.293	79.56
289.524	77.56
289.755	94.56
289.986	81.56
290.217	71.56
290.448	85.56
290.679	77.56
290.91	82.56
291.141	87.56
291.371	94.56
291.602	79.56
291.833	81.56
292.064	78.56
292.295	73.56
292.526	88.56
292.757	73.56
292.987	96.56
293.218	63.56
293.449	85.56
293.68	77.56
293.91	87.56
294.141	73.56
294.372	97.56
294.603	73.56
294.833	89.56
295.064	84.56
295.295	82.56
295.525	97.56
295.756	84.56
295.987	93.56
296.217	124.56
296.448	103.56
296.679	99.56
296.909	85.56
297.14	90.56
297.37	77.56
297.601	71.56
297.831	81.56
298.062	99.56
298.292	82.56
298.523	92.56
298.753	98.56
298.984	82.56
299.214	80.56
299.445	85.56
299.675	94.56
299.905	90.56
300.136	85.56
300.366	85.56
300.597	85.56
300.827	92.56
301.057	100.56
301.288	107.56
301.518	90.56
301.748	86.56
301.979	80.56
302.209	81.56
302.439	87.56
302.669	88.56
302.9	87.56
303.13	90.56
303.36	93.56
303.59	100.56
303.82	103.56
304.051	88.56
304.281	86.56
304.511	75.56
304.741	90.56
304.971	82.56
305.201	79.56
305.431	93.56
305.661	85.56
305.891	96.56
306.121	92.56
306.352	99.56
306.582	88.56
306.812	95.56
307.042	93.56
307.272	106.56
307.502	103.56
307.731	91.56
307.961	94.56
308.191	95.56
308.421	90.56
308.651	90.56
308.881	74.56
309.111	90.56
309.341	97.56
309.571	95.56
309.8	96.56
310.03	102.56
310.26	93.56
310.49	92.56
310.72	90.56
310.949	104.56
311.179	91.56
311.409	98.56
311.639	84.56
311.868	81.56
312.098	89.56
312.328	98.56
312.557	89.56
312.787	101.56
313.017	102.56
313.246	86.56
313.476	91.56
313.706	88.56
313.935	85.56
314.165	101.56
314.394	100.56
314.624	88.56
314.853	101.56
315.083	93.56
315.312	98.56
315.542	89.56
315.771	83.56
316.001	82.56
316.23	86.56
316.46	76.56
316.689	90.56
316.919	86.56
317.148	86.56
317.377	93.56
317.607	105.56
317.836	83.56
318.065	81.56
318.295	89.56
318.524	93.56
318.753	90.56
318.983	107.56
319.212	96.56
319.441	108.56
319.67	97.56
319.9	83.56
320.129	73.56
320.358	96.56
320.587	88.56
320.816	108.56
321.046	99.56
321.275	90.56
321.504	84.56
321.733	87.56
321.962	99.56
322.191	104.56
322.42	96.56
322.649	115.56
322.878	96.56
323.108	101.56
323.337	108.56
323.566	117.56
323.795	140.56
324.024	177.56
324.253	342.56
324.482	757.56
324.71	1548.56
324.939	2034.56
325.168	757.56
325.397	231.56
325.626	146.56
325.855	120.56
326.084	117.56
326.313	124.56
326.542	136.56
326.77	218.56
326.999	402.56
327.228	869.56
327.457	1646.56
327.686	1347.56
327.914	378.56
328.143	219.56
328.372	203.56
328.6	141.56
328.829	117.56
329.058	121.56
329.287	127.56
329.515	122.56
329.744	116.56
329.972	174.56
330.201	249.56
330.43	354.56
330.658	213.56
330.887	151.56
331.115	129.56
331.344	102.56
331.572	111.56
331.801	109.56
332.03	98.56
332.258	76.56
332.486	91.56
332.715	87.56
332.943	88.56
333.172	111.56
333.4	112.56
333.629	101.56
333.857	112.56
334.085	146.56
334.314	248.56
334.542	445.56
334.771	456.56
334.999	177.56
335.227	101.56
335.455	96.56
335.684	106.56
335.912	88.56
336.14	97.56
336.369	99.56
336.597	87.56
336.825	92.56
337.053	90.56
337.281	88.56
337.51	92.56
337.738	88.56
337.966	85.56
338.194	86.56
338.422	96.56
338.65	71.56
338.878	85.56
339.106	101.56
339.334	95.56
339.562	77.56
339.79	89.56
340.018	84.56
340.246	87.56
340.474	91.56
340.702	84.56
340.93	90.56
341.158	88.56
341.386	93.56
341.614	93.56
341.842	86.56
342.07	89.56
342.298	94.56
342.526	82.56
342.754	81.56
342.981	92.56
343.209	97.56
343.437	92.56
343.665	75.56
343.893	83.56
344.12	87.56
344.348	76.56
344.576	97.56
344.804	81.56
345.031	77.56
345.259	99.56
345.487	95.56
345.714	104.56
345.942	92.56
346.17	84.56
346.397	61.56
346.625	86.56
346.853	88.56
347.08	77.56
347.308	89.56
347.535	90.56
347.763	98.56
347.99	81.56
348.218	92.56
348.445	97.56
348.673	100.56
348.9	98.56
349.128	88.56
349.355	89.56
349.583	100.56
349.81	85.56
350.037	86.56
350.265	86.56
350.492	99.56
350.72	97.56
350.947	89.56
351.174	107.56
351.402	93.56
351.629	97.56
351.856	107.56
352.083	99.56
352.311	96.56
352.538	109.56
352.765	107.56
352.992	90.56
353.22	105.56
353.447	100.56
353.674	117.56
353.901	101.56
354.128	97.56
354.355	71.56
354.583	98.56
354.81	94.56
355.037	97.56
355.264	106.56
355.491	103.56
355.718	90.56
355.945	99.56
356.172	95.56
356.399	94.56
356.626	88.56
356.853	93.56
357.08	98.56
357.307	98.56
357.534	71.56
357.761	95.56
357.988	104.56
358.215	111.56
358.441	120.56
358.668	106.56
358.895	94.56
359.122	100.56
359.349	86.56
359.576	87.56
359.802	98.56
360.029	112.56
360.256	111.56
360.483	87.56
360.709	80.56
360.936	96.56
361.163	92.56
361.39	96.56
361.616	87.56
361.843	88.56
362.07	83.56
362.296	94.56
362.523	87.56
362.749	92.56
362.976	99.56
363.203	86.56
363.429	94.56
363.656	75.56
363.882	83.56
364.109	89.56
364.335	87.56
364.562	90.56
364.788	96.56
365.015	101.56
365.241	88.56
365.468	98.56
365.694	92.56
365.92	88.56
366.147	89.56
366.373	89.56
366.599	74.56
366.826	82.56
367.052	94.56
367.278	87.56
367.505	83.56
367.731	86.56
367.957	92.56
368.184	88.56
368.41	95.56
368.636	99.56
368.862	112.56
369.089	109.56
369.315	87.56
369.541	93.56
369.767	89.56
369.993	74.56
370.219	76.56
370.445	101.56
370.672	98.56
370.898	92.56
371.124	91.56
371.35	97.56
371.576	78.56
371.802	96.56
372.028	85.56
372.254	87.56
372.48	85.56
372.706	80.56
372.932	88.56
373.158	101.56
373.384	105.56
373.61	91.56
373.835	89.56
374.061	76.56
374.287	107.56
374.513	92.56
374.739	74.56
374.965	83.56
375.191	91.56
375.416	102.56
375.642	100.56
375.868	101.56
376.094	89.56
376.319	96.56
376.545	98.56
376.771	96.56
376.997	90.56
377.222	101.56
377.448	115.56
377.674	93.56
377.899	90.56
378.125	85.56
378.35	112.56
378.576	99.56
378.802	104.56
379.027	92.56
379.253	93.56
379.478	88.56
379.704	106.56
379.929	104.56
380.155	112.56
380.38	118.56
380.606	110.56
380.831	105.56
381.057	101.56
381.282	111.56
381.507	108.56
381.733	116.56
381.958	105.56
382.184	105.56
382.409	126.56
382.634	118.56
382.86	130.56
383.085	125.56
383.31	118.56
383.535	120.56
383.761	114.56
383.986	112.56
384.211	123.56
384.436	139.56
384.662	136.56
384.887	140.56
385.112	125.56
385.337	149.56
385.562	162.56
385.787	150.56
386.013	139.56
386.238	149.56
386.463	158.56
386.688	138.56
386.913	153.56
387.138	172.56
387.363	138.56
387.588	136.56
387.813	125.56
388.038	160.56
388.263	182.56
388.488	187.56
388.713	109.56
388.938	75.56
389.163	93.56
389.387	94.56
389.612	85.56
389.837	67.56
390.062	88.56
390.287	92.56
390.512	89.56
390.736	87.56
390.961	87.56
391.186	100.56
391.411	96.56
391.636	89.56
391.86	83.56
392.085	86.56
392.31	79.56
392.534	75.56
392.759	81.56
392.984	81.56
393.208	79.56
393.433	94.56
393.658	92.56
393.882	75.56
394.107	79.56
394.331	81.56
394.556	76.56
394.78	76.56
395.005	96.56
395.229	93.56
395.454	90.56
395.678	76.56
395.903	88.56
396.127	74.56
396.352	84.56
396.576	82.56
396.801	71.56
397.025	75.56
397.249	72.56
397.474	81.56
397.698	71.56
397.922	86.56
398.147	92.56
398.371	83.56
398.595	88.56
398.82	83.56
399.044	87.56
399.268	77.56
399.492	80.56
399.717	96.56
399.941	78.56
400.165	89.56
400.389	84.56
400.613	84.56
400.837	86.56
401.062	83.56
401.286	94.56
401.51	77.56
401.734	94.56
401.958	96.56
402.182	124.56
402.406	138.56
402.63	98.56
402.854	95.56
403.078	99.56
403.302	78.56
403.526	76.56
403.75	94.56
403.974	78.56
404.198	80.56
404.422	86.56
404.645	83.56
404.869	83.56
405.093	103.56
405.317	114.56
405.541	89.56
405.765	89.56
405.988	106.56
406.212	149.56
406.436	182.56
406.66	142.56
406.883	105.56
407.107	93.56
407.331	97.56
407.555	92.56
407.778	97.56
408.002	88.56
408.226	92.56
408.449	88.56
408.673	78.56
408.896	94.56
409.12	96.56
409.344	74.56
409.567	92.56
409.791	102.56
410.014	104.56
410.238	95.56
410.461	84.56
410.685	95.56
410.908	92.56
411.132	95.56
411.355	114.56
411.578	93.56
411.802	73.56
412.025	91.56
412.249	92.56
412.472	90.56
412.695	122.56
412.919	97.56
413.142	97.56
413.365	87.56
413.589	90.56
413.812	93.56
414.035	99.56
414.258	89.56
414.482	88.56
414.705	100.56
414.928	78.56
415.151	98.56
415.374	105.56
415.597	85.56
415.821	99.56
416.044	85.56
416.267	80.56
416.49	80.56
416.713	98.56
416.936	97.56
417.159	93.56
417.382	91.56
417.605	104.56
417.828	98.56
418.051	102.56
418.274	92.56
418.497	101.56
418.72	71.56
418.943	67.56
419.166	85.56
419.389	84.56
419.611	89.56
419.834	102.56
420.057	93.56
420.28	81.56
420.503	81.56
420.726	85.56
420.948	94.56
421.171	90.56
421.394	78.56
421.617	89.56
421.839	88.56
422.062	99.56
422.285	95.56
422.507	112.56
422.73	105.56
422.953	87.56
423.175	91.56
423.398	88.56
423.621	103.56
423.843	89.56
424.066	77.56
424.288	82.56
424.511	87.56
424.733	89.56
424.956	101.56
425.178	86.56
425.401	95.56
425.623	95.56
425.846	93.56
426.068	96.56
426.291	89.56
426.513	85.56
426.735	101.56
426.958	96.56
427.18	104.56
427.402	118.56
427.625	169.56
427.847	150.56
428.069	152.56
428.292	94.56
428.514	90.56
428.736	81.56
428.958	90.56
429.181	81.56
429.403	73.56
429.625	69.56
429.847	81.56
430.069	103.56
430.292	102.56
430.514	88.56
430.736	77.56
430.958	77.56
431.18	61.56
431.402	75.56
431.624	103.56
431.846	89.56
432.068	89.56
432.29	82.56
432.512	91.56
432.734	95.56
432.956	87.56
433.178	92.56
433.4	107.56
433.622	103.56
433.844	97.56
434.066	82.56
434.287	80.56
434.509	94.56
434.731	80.56
434.953	97.56
435.175	75.56
435.397	88.56
435.618	103.56
435.84	105.56
436.062	125.56
436.284	120.56
436.505	105.56
436.727	78.56
436.949	98.56
437.17	85.56
437.392	84.56
437.614	82.56
437.835	97.56
438.057	111.56
438.278	113.56
438.5	105.56
438.721	135.56
438.943	97.56
439.165	95.56
439.386	89.56
439.608	78.56
439.829	103.56
440.05	124.56
440.272	162.56
440.493	105.56
440.715	87.56
440.936	82.56
441.158	85.56
441.379	83.56
441.6	97.56
441.822	88.56
442.043	103.56
442.264	101.56
442.486	107.56
442.707	86.56
442.928	101.56
443.149	126.56
443.371	118.56
443.592	96.56
443.813	123.56
444.034	102.56
444.255	75.56
444.476	103.56
444.698	82.56
444.919	77.56
445.14	138.56
445.361	120.56
445.582	122.56
445.803	144.56
446.024	131.56
446.245	120.56
446.466	109.56
446.687	97.56
446.908	80.56
447.129	98.56
447.35	76.56
447.571	87.56
447.792	87.56
448.013	90.56
448.234	107.56
448.455	96.56
448.675	107.56
448.896	127.56
449.117	105.56
449.338	112.56
449.559	120.56
449.779	142.56
450	96.56
450.221	88.56
450.442	93.56
450.662	76.56
450.883	92.56
451.104	106.56
451.324	96.56
451.545	80.56
451.766	82.56
451.986	94.56
452.207	70.56
452.428	81.56
452.648	103.56
452.869	90.56
453.089	96.56
453.31	107.56
453.53	95.56
453.751	90.56
453.971	89.56
454.192	102.56
454.412	85.56
454.633	78.56
454.853	91.56
455.073	89.56
455.294	95.56
455.514	87.56
455.734	85.56
455.955	103.56
456.175	93.56
456.395	77.56
456.616	72.56
456.836	77.56
457.056	79.56
457.276	86.56
457.497	97.56
457.717	89.56
457.937	95.56
458.157	74.56
458.377	73.56
458.598	89.56
458.818	119.56
459.038	167.56
459.258	121.56
459.478	77.56
459.698	75.56
459.918	75.56
460.138	93.56
460.358	82.56
460.578	83.56
460.798	82.56
461.018	66.56
461.238	89.56
461.458	82.56
461.678	65.56
461.898	83.56
462.118	86.56
462.338	85.56
462.558	78.56
462.777	85.56
462.997	90.56
463.217	90.56
463.437	83.56
463.657	78.56
463.876	90.56
464.096	89.56
464.316	98.56
464.536	96.56
464.755	93.56
464.975	96.56
465.195	142.56
465.414	146.56
465.634	98.56
465.854	80.56
466.073	94.56
466.293	81.56
466.512	87.56
466.732	81.56
466.951	102.56
467.171	95.56
467.391	98.56
467.61	101.56
467.829	113.56
468.049	155.56
468.268	208.56
468.488	104.56
468.707	74.56
468.927	80.56
469.146	94.56
469.365	87.56
469.585	80.56
469.804	87.56
470.023	91.56
470.243	88.56
470.462	88.56
470.681	101.56
470.901	93.56
471.12	77.56
471.339	81.56
471.558	79.56
471.777	79.56
471.997	123.56
472.216	293.56
472.435	551.56
472.654	178.56
472.873	109.56
473.092	93.56
473.311	76.56
473.53	86.56
473.749	87.56
473.968	94.56
474.187	102.56
474.406	98.56
474.625	75.56
474.844	91.56
475.063	81.56
475.282	77.56
475.501	80.56
475.72	76.56
475.939	83.56
476.158	77.56
476.377	91.56
476.596	95.56
476.814	80.56
477.033	88.56
477.252	77.56
477.471	91.56
477.69	77.56
477.908	81.56
478.127	81.56
478.346	77.56
478.564	93.56
478.783	90.56
479.002	83.56
479.22	94.56
479.439	90.56
479.658	96.56
479.876	112.56
480.095	103.56
480.313	89.56
480.532	102.56
480.751	122.56
480.969	259.56
481.188	883.56
481.406	571.56
481.624	134.56
481.843	112.56
482.061	94.56
482.28	83.56
482.498	93.56
482.717	89.56
482.935	80.56
483.153	82.56
483.372	82.56
483.59	85.56
483.808	71.56
484.027	86.56
484.245	94.56
484.463	89.56
484.681	84.56
484.9	89.56
485.118	94.56
485.336	81.56
485.554	95.56
485.772	103.56
485.99	99.56
486.209	103.56
486.427	105.56
486.645	103.56
486.863	111.56
487.081	112.56
487.299	83.56
487.517	93.56
487.735	85.56
487.953	101.56
488.171	86.56
488.389	95.56
488.607	105.56
488.825	101.56
489.043	95.56
489.261	97.56
489.479	86.56
489.696	89.56
489.914	89.56
490.132	90.56
490.35	86.56
490.568	109.56
490.786	76.56
491.003	87.56
491.221	90.56
491.439	82.56
491.657	85.56
491.874	93.56
492.092	87.56
492.31	72.56
492.527	102.56
492.745	83.56
492.963	77.56
493.18	86.56
493.398	95.56
493.615	101.56
493.833	87.56
494.05	94.56
494.268	81.56
494.485	99.56
494.703	74.56
494.92	72.56
495.138	98.56
495.355	91.56
495.573	92.56
495.79	89.56
496.008	74.56
496.225	101.56
496.442	94.56
496.66	75.56
496.877	85.56
497.094	105.56
497.312	87.56
497.529	91.56
497.746	85.56
497.963	92.56
498.181	68.56
498.398	97.56
498.615	100.56
498.832	108.56
499.049	79.56
499.267	75.56
499.484	95.56
499.701	92.56
499.918	97.56
500.135	67.56
500.352	83.56
500.569	81.56
500.786	91.56
501.003	83.56
501.22	78.56
501.437	95.56
501.654	87.56
501.871	89.56
502.088	83.56
502.305	77.56
502.522	88.56
502.739	101.56
502.956	84.56
503.172	85.56
503.389	81.56
503.606	107.56
503.823	108.56
504.04	89.56
504.256	94.56
504.473	101.56
504.69	102.56
504.907	91.56
505.123	98.56
505.34	85.56
505.557	74.56
505.773	97.56
505.99	81.56
506.207	93.56
506.423	86.56
506.64	76.56
506.856	83.56
507.073	92.56
507.289	92.56
507.506	88.56
507.722	89.56
507.939	114.56
508.155	94.56
508.372	81.56
508.588	87.56
508.805	91.56
509.021	82.56
509.238	95.56
509.454	78.56
509.67	96.56
509.887	101.56
510.103	119.56
510.319	190.56
510.536	535.56
510.752	1702.56
510.968	495.56
511.184	113.56
511.401	107.56
511.617	97.56
511.833	93.56
512.049	78.56
512.265	94.56
512.481	79.56
512.698	95.56
512.914	81.56
513.13	103.56
513.346	79.56
513.562	79.56
513.778	98.56
513.994	89.56
514.21	92.56
514.426	112.56
514.642	127.56
514.858	124.56
515.074	130.56
515.29	357.56
515.506	1139.56
515.721	445.56
515.937	129.56
