Data from Circ_1992_H10_HRD10591_00008.txt Node
Date: Wed Jan 03 11:47:46 EST 2024
User: Yrep
Spectrometer: HR+D1059
Trigger mode: 1
Integration Time (sec): 1.000000E-1
Scans to average: 1
Electric dark correction enabled: true
Nonlinearity correction enabled: false
Boxcar width: 0
XAxis mode: Wavelengths
Number of Pixels in Spectrum: 2048
>>>>>Begin Spectral Data<<<<<
223.165	-16.38
223.4	-16.38
223.635	-16.38
223.869	-21.38
224.104	-20.38
224.338	-9.38
224.573	-19.38
224.808	-24.38
225.042	-9.38
225.277	-13.38
225.511	0.62
225.746	6.62
225.98	13.62
226.215	19.62
226.449	5.62
226.683	20.62
226.918	37.62
227.152	29.62
227.387	28.62
227.621	39.62
227.856	48.62
228.09	50.62
228.324	52.62
228.559	63.62
228.793	67.62
229.027	59.62
229.262	78.62
229.496	70.62
229.73	94.62
229.964	83.62
230.199	90.62
230.433	98.62
230.667	68.62
230.901	87.62
231.136	95.62
231.37	78.62
231.604	79.62
231.838	70.62
232.072	79.62
232.306	79.62
232.541	99.62
232.775	85.62
233.009	82.62
233.243	86.62
233.477	85.62
233.711	81.62
233.945	84.62
234.179	107.62
234.413	80.62
234.647	76.62
234.881	72.62
235.115	66.62
235.349	90.62
235.583	74.62
235.817	76.62
236.051	77.62
236.285	71.62
236.519	80.62
236.753	87.62
236.987	77.62
237.221	86.62
237.455	86.62
237.689	69.62
237.922	73.62
238.156	83.62
238.39	79.62
238.624	75.62
238.858	77.62
239.091	78.62
239.325	71.62
239.559	83.62
239.793	79.62
240.027	85.62
240.26	82.62
240.494	87.62
240.728	71.62
240.961	76.62
241.195	84.62
241.429	82.62
241.662	74.62
241.896	83.62
242.13	59.62
242.363	78.62
242.597	83.62
242.83	80.62
243.064	70.62
243.298	81.62
243.531	88.62
243.765	78.62
243.998	84.62
244.232	77.62
244.465	90.62
244.699	89.62
244.932	84.62
245.166	80.62
245.399	89.62
245.633	81.62
245.866	82.62
246.099	65.62
246.333	80.62
246.566	76.62
246.8	80.62
247.033	84.62
247.266	84.62
247.5	80.62
247.733	82.62
247.966	76.62
248.2	90.62
248.433	84.62
248.666	96.62
248.899	83.62
249.133	67.62
249.366	90.62
249.599	74.62
249.832	72.62
250.066	70.62
250.299	91.62
250.532	93.62
250.765	75.62
250.998	92.62
251.231	79.62
251.465	71.62
251.698	84.62
251.931	81.62
252.164	81.62
252.397	75.62
252.63	98.62
252.863	89.62
253.096	75.62
253.329	79.62
253.562	67.62
253.795	68.62
254.028	81.62
254.261	87.62
254.494	87.62
254.727	81.62
254.96	77.62
255.193	71.62
255.426	81.62
255.659	83.62
255.892	86.62
256.124	90.62
256.357	77.62
256.59	91.62
256.823	78.62
257.056	76.62
257.289	69.62
257.521	82.62
257.754	85.62
257.987	87.62
258.22	82.62
258.452	89.62
258.685	75.62
258.918	85.62
259.151	85.62
259.383	80.62
259.616	79.62
259.849	84.62
260.081	96.62
260.314	94.62
260.547	77.62
260.779	79.62
261.012	95.62
261.244	92.62
261.477	94.62
261.71	83.62
261.942	117.62
262.175	106.62
262.407	96.62
262.64	82.62
262.872	85.62
263.105	88.62
263.337	87.62
263.57	74.62
263.802	81.62
264.035	85.62
264.267	74.62
264.499	75.62
264.732	94.62
264.964	88.62
265.197	88.62
265.429	85.62
265.661	86.62
265.894	86.62
266.126	93.62
266.358	102.62
266.591	80.62
266.823	82.62
267.055	88.62
267.287	89.62
267.52	86.62
267.752	85.62
267.984	88.62
268.216	83.62
268.448	86.62
268.681	68.62
268.913	85.62
269.145	86.62
269.377	90.62
269.609	88.62
269.841	91.62
270.073	78.62
270.306	96.62
270.538	86.62
270.77	81.62
271.002	84.62
271.234	81.62
271.466	94.62
271.698	79.62
271.93	84.62
272.162	85.62
272.394	84.62
272.626	84.62
272.858	92.62
273.09	80.62
273.322	79.62
273.553	84.62
273.785	84.62
274.017	83.62
274.249	80.62
274.481	76.62
274.713	99.62
274.945	82.62
275.176	97.62
275.408	94.62
275.64	92.62
275.872	91.62
276.104	90.62
276.335	84.62
276.567	98.62
276.799	118.62
277.031	104.62
277.262	112.62
277.494	102.62
277.726	78.62
277.957	108.62
278.189	99.62
278.421	90.62
278.652	74.62
278.884	76.62
279.115	85.62
279.347	85.62
279.579	94.62
279.81	86.62
280.042	118.62
280.273	126.62
280.505	91.62
280.736	94.62
280.968	90.62
281.199	85.62
281.431	90.62
281.662	90.62
281.894	93.62
282.125	86.62
282.356	107.62
282.588	134.62
282.819	97.62
283.051	97.62
283.282	85.62
283.513	83.62
283.745	97.62
283.976	86.62
284.207	83.62
284.439	81.62
284.67	94.62
284.901	96.62
285.132	87.62
285.364	98.62
285.595	82.62
285.826	90.62
286.057	78.62
286.288	74.62
286.52	83.62
286.751	101.62
286.982	76.62
287.213	80.62
287.444	78.62
287.675	95.62
287.906	95.62
288.138	91.62
288.369	92.62
288.6	97.62
288.831	89.62
289.062	81.62
289.293	97.62
289.524	87.62
289.755	83.62
289.986	76.62
290.217	81.62
290.448	76.62
290.679	94.62
290.91	84.62
291.141	90.62
291.371	86.62
291.602	87.62
291.833	98.62
292.064	101.62
292.295	87.62
292.526	82.62
292.757	104.62
292.987	92.62
293.218	93.62
293.449	79.62
293.68	83.62
293.91	92.62
294.141	99.62
294.372	82.62
294.603	80.62
294.833	95.62
295.064	100.62
295.295	85.62
295.525	82.62
295.756	95.62
295.987	116.62
296.217	134.62
296.448	119.62
296.679	100.62
296.909	98.62
297.14	96.62
297.37	98.62
297.601	80.62
297.831	102.62
298.062	87.62
298.292	99.62
298.523	89.62
298.753	89.62
298.984	96.62
299.214	94.62
299.445	96.62
299.675	90.62
299.905	87.62
300.136	78.62
300.366	88.62
300.597	90.62
300.827	98.62
301.057	94.62
301.288	93.62
301.518	86.62
301.748	95.62
301.979	109.62
302.209	102.62
302.439	93.62
302.669	95.62
302.9	83.62
303.13	85.62
303.36	93.62
303.59	106.62
303.82	110.62
304.051	88.62
304.281	77.62
304.511	90.62
304.741	95.62
304.971	83.62
305.201	78.62
305.431	80.62
305.661	87.62
305.891	84.62
306.121	98.62
306.352	104.62
306.582	109.62
306.812	102.62
307.042	100.62
307.272	104.62
307.502	105.62
307.731	91.62
307.961	109.62
308.191	96.62
308.421	93.62
308.651	101.62
308.881	92.62
309.111	99.62
309.341	95.62
309.571	104.62
309.8	100.62
310.03	91.62
310.26	100.62
310.49	95.62
310.72	95.62
310.949	108.62
311.179	102.62
311.409	88.62
311.639	99.62
311.868	96.62
312.098	101.62
312.328	88.62
312.557	103.62
312.787	90.62
313.017	98.62
313.246	83.62
313.476	91.62
313.706	96.62
313.935	98.62
314.165	95.62
314.394	104.62
314.624	84.62
314.853	118.62
315.083	117.62
315.312	98.62
315.542	83.62
315.771	93.62
316.001	93.62
316.23	98.62
316.46	88.62
316.689	102.62
316.919	92.62
317.148	84.62
317.377	96.62
317.607	88.62
317.836	107.62
318.065	71.62
318.295	90.62
318.524	79.62
318.753	89.62
318.983	86.62
319.212	91.62
319.441	119.62
319.67	113.62
319.9	106.62
320.129	100.62
320.358	92.62
320.587	99.62
320.816	116.62
321.046	107.62
321.275	91.62
321.504	90.62
321.733	98.62
321.962	101.62
322.191	101.62
322.42	96.62
322.649	117.62
322.878	110.62
323.108	115.62
323.337	121.62
323.566	119.62
323.795	136.62
324.024	195.62
324.253	356.62
324.482	716.62
324.71	1466.62
324.939	2004.62
325.168	737.62
325.397	230.62
325.626	159.62
325.855	127.62
326.084	126.62
326.313	132.62
326.542	144.62
326.77	191.62
326.999	403.62
327.228	833.62
327.457	1492.62
327.686	1230.62
327.914	364.62
328.143	251.62
328.372	256.62
328.6	173.62
328.829	137.62
329.058	145.62
329.287	133.62
329.515	116.62
329.744	126.62
329.972	173.62
330.201	282.62
330.43	374.62
330.658	227.62
330.887	156.62
331.115	135.62
331.344	110.62
331.572	105.62
331.801	104.62
332.03	120.62
332.258	99.62
332.486	108.62
332.715	83.62
332.943	85.62
333.172	103.62
333.4	90.62
333.629	101.62
333.857	131.62
334.085	166.62
334.314	271.62
334.542	470.62
334.771	462.62
334.999	171.62
335.227	117.62
335.455	94.62
335.684	105.62
335.912	101.62
336.14	112.62
336.369	100.62
336.597	104.62
336.825	100.62
337.053	102.62
337.281	102.62
337.51	87.62
337.738	96.62
337.966	84.62
338.194	93.62
338.422	93.62
338.65	101.62
338.878	95.62
339.106	82.62
339.334	76.62
339.562	93.62
339.79	99.62
340.018	108.62
340.246	83.62
340.474	79.62
340.702	94.62
340.93	91.62
341.158	98.62
341.386	100.62
341.614	104.62
341.842	85.62
342.07	95.62
342.298	96.62
342.526	87.62
342.754	91.62
342.981	99.62
343.209	85.62
343.437	97.62
343.665	84.62
343.893	88.62
344.12	101.62
344.348	93.62
344.576	101.62
344.804	100.62
345.031	107.62
345.259	103.62
345.487	86.62
345.714	97.62
345.942	90.62
346.17	97.62
346.397	96.62
346.625	92.62
346.853	91.62
347.08	87.62
347.308	86.62
347.535	94.62
347.763	111.62
347.99	95.62
348.218	83.62
348.445	100.62
348.673	94.62
348.9	102.62
349.128	103.62
349.355	112.62
349.583	94.62
349.81	90.62
350.037	101.62
350.265	109.62
350.492	102.62
350.72	80.62
350.947	109.62
351.174	125.62
351.402	116.62
351.629	104.62
351.856	108.62
352.083	103.62
352.311	94.62
352.538	112.62
352.765	99.62
352.992	111.62
353.22	117.62
353.447	92.62
353.674	98.62
353.901	93.62
354.128	98.62
354.355	94.62
354.583	98.62
354.81	108.62
355.037	99.62
355.264	88.62
355.491	98.62
355.718	97.62
355.945	100.62
356.172	103.62
356.399	104.62
356.626	103.62
356.853	108.62
357.08	101.62
357.307	91.62
357.534	106.62
357.761	89.62
357.988	95.62
358.215	116.62
358.441	118.62
358.668	116.62
358.895	105.62
359.122	85.62
359.349	90.62
359.576	90.62
359.802	94.62
360.029	104.62
360.256	117.62
360.483	99.62
360.709	92.62
360.936	85.62
361.163	98.62
361.39	111.62
361.616	88.62
361.843	103.62
362.07	99.62
362.296	103.62
362.523	80.62
362.749	88.62
362.976	90.62
363.203	90.62
363.429	85.62
363.656	93.62
363.882	95.62
364.109	85.62
364.335	103.62
364.562	109.62
364.788	102.62
365.015	97.62
365.241	102.62
365.468	115.62
365.694	111.62
365.92	118.62
366.147	86.62
366.373	94.62
366.599	74.62
366.826	82.62
367.052	88.62
367.278	90.62
367.505	91.62
367.731	96.62
367.957	94.62
368.184	108.62
368.41	89.62
368.636	96.62
368.862	118.62
369.089	116.62
369.315	102.62
369.541	83.62
369.767	95.62
369.993	104.62
370.219	79.62
370.445	87.62
370.672	90.62
370.898	89.62
371.124	91.62
371.35	102.62
371.576	90.62
371.802	79.62
372.028	97.62
372.254	91.62
372.48	101.62
372.706	87.62
372.932	91.62
373.158	101.62
373.384	88.62
373.61	92.62
373.835	95.62
374.061	97.62
374.287	95.62
374.513	102.62
374.739	82.62
374.965	90.62
375.191	86.62
375.416	103.62
375.642	96.62
375.868	107.62
376.094	98.62
376.319	101.62
376.545	98.62
376.771	89.62
376.997	96.62
377.222	95.62
377.448	98.62
377.674	103.62
377.899	101.62
378.125	96.62
378.35	103.62
378.576	112.62
378.802	102.62
379.027	102.62
379.253	109.62
379.478	102.62
379.704	113.62
379.929	100.62
380.155	102.62
380.38	103.62
380.606	110.62
380.831	107.62
381.057	111.62
381.282	100.62
381.507	115.62
381.733	107.62
381.958	114.62
382.184	111.62
382.409	114.62
382.634	120.62
382.86	113.62
383.085	119.62
383.31	104.62
383.535	113.62
383.761	111.62
383.986	113.62
384.211	113.62
384.436	108.62
384.662	130.62
384.887	141.62
385.112	144.62
385.337	130.62
385.562	141.62
385.787	138.62
386.013	151.62
386.238	162.62
386.463	131.62
386.688	132.62
386.913	141.62
387.138	132.62
387.363	123.62
387.588	121.62
387.813	119.62
388.038	134.62
388.263	153.62
388.488	148.62
388.713	112.62
388.938	108.62
389.163	104.62
389.387	88.62
389.612	95.62
389.837	104.62
390.062	81.62
390.287	95.62
390.512	86.62
390.736	93.62
390.961	93.62
391.186	89.62
391.411	102.62
391.636	94.62
391.86	80.62
392.085	91.62
392.31	98.62
392.534	93.62
392.759	94.62
392.984	89.62
393.208	89.62
393.433	95.62
393.658	94.62
393.882	92.62
394.107	87.62
394.331	90.62
394.556	82.62
394.78	93.62
395.005	77.62
395.229	87.62
395.454	80.62
395.678	84.62
395.903	77.62
396.127	90.62
396.352	90.62
396.576	95.62
396.801	85.62
397.025	81.62
397.249	103.62
397.474	91.62
397.698	88.62
397.922	92.62
398.147	80.62
398.371	83.62
398.595	95.62
398.82	96.62
399.044	77.62
399.268	85.62
399.492	79.62
399.717	90.62
399.941	98.62
400.165	90.62
400.389	87.62
400.613	82.62
400.837	84.62
401.062	102.62
401.286	99.62
401.51	100.62
401.734	94.62
401.958	99.62
402.182	124.62
402.406	155.62
402.63	115.62
402.854	90.62
403.078	86.62
403.302	84.62
403.526	81.62
403.75	82.62
403.974	93.62
404.198	76.62
404.422	84.62
404.645	87.62
404.869	80.62
405.093	110.62
405.317	106.62
405.541	105.62
405.765	103.62
405.988	104.62
406.212	176.62
406.436	219.62
406.66	140.62
406.883	116.62
407.107	102.62
407.331	98.62
407.555	107.62
407.778	93.62
408.002	92.62
408.226	91.62
408.449	96.62
408.673	89.62
408.896	103.62
409.12	116.62
409.344	76.62
409.567	93.62
409.791	94.62
410.014	95.62
410.238	113.62
410.461	98.62
410.685	90.62
410.908	93.62
411.132	104.62
411.355	101.62
411.578	93.62
411.802	86.62
412.025	101.62
412.249	95.62
412.472	107.62
412.695	114.62
412.919	103.62
413.142	87.62
413.365	103.62
413.589	101.62
413.812	84.62
414.035	116.62
414.258	94.62
414.482	82.62
414.705	93.62
414.928	107.62
415.151	111.62
415.374	108.62
415.597	97.62
415.821	83.62
416.044	96.62
416.267	84.62
416.49	100.62
416.713	81.62
416.936	99.62
417.159	80.62
417.382	96.62
417.605	83.62
417.828	100.62
418.051	90.62
418.274	108.62
418.497	94.62
418.72	74.62
418.943	95.62
419.166	84.62
419.389	88.62
419.611	90.62
419.834	94.62
420.057	78.62
420.28	100.62
420.503	101.62
420.726	85.62
420.948	106.62
421.171	101.62
421.394	86.62
421.617	94.62
421.839	86.62
422.062	88.62
422.285	93.62
422.507	115.62
422.73	107.62
422.953	89.62
423.175	80.62
423.398	100.62
423.621	94.62
423.843	85.62
424.066	80.62
424.288	94.62
424.511	90.62
424.733	92.62
424.956	107.62
425.178	118.62
425.401	106.62
425.623	94.62
425.846	98.62
426.068	90.62
426.291	84.62
426.513	99.62
426.735	85.62
426.958	96.62
427.18	93.62
427.402	132.62
427.625	173.62
427.847	156.62
428.069	145.62
428.292	110.62
428.514	93.62
428.736	74.62
428.958	76.62
429.181	84.62
429.403	88.62
429.625	96.62
429.847	83.62
430.069	102.62
430.292	100.62
430.514	77.62
430.736	92.62
430.958	94.62
431.18	95.62
431.402	92.62
431.624	102.62
431.846	85.62
432.068	70.62
432.29	93.62
432.512	87.62
432.734	87.62
432.956	92.62
433.178	107.62
433.4	104.62
433.622	94.62
433.844	101.62
434.066	95.62
434.287	94.62
434.509	103.62
434.731	86.62
434.953	76.62
435.175	99.62
435.397	83.62
435.618	103.62
435.84	101.62
436.062	127.62
436.284	112.62
436.505	108.62
436.727	102.62
436.949	95.62
437.17	90.62
437.392	82.62
437.614	105.62
437.835	95.62
438.057	117.62
438.278	110.62
438.5	104.62
438.721	111.62
438.943	98.62
439.165	87.62
439.386	97.62
439.608	97.62
439.829	109.62
440.05	117.62
440.272	150.62
440.493	112.62
440.715	81.62
440.936	79.62
441.158	80.62
441.379	110.62
441.6	88.62
441.822	90.62
442.043	100.62
442.264	113.62
442.486	105.62
442.707	86.62
442.928	95.62
443.149	138.62
443.371	131.62
443.592	104.62
443.813	105.62
444.034	102.62
444.255	91.62
444.476	101.62
444.698	99.62
444.919	104.62
445.14	132.62
445.361	117.62
445.582	125.62
445.803	148.62
446.024	147.62
446.245	138.62
446.466	97.62
446.687	101.62
446.908	81.62
447.129	86.62
447.35	95.62
447.571	80.62
447.792	91.62
448.013	104.62
448.234	114.62
448.455	105.62
448.675	100.62
448.896	113.62
449.117	94.62
449.338	108.62
449.559	136.62
449.779	109.62
450	89.62
450.221	78.62
450.442	81.62
450.662	97.62
450.883	111.62
451.104	116.62
451.324	110.62
451.545	103.62
451.766	92.62
451.986	90.62
452.207	86.62
452.428	92.62
452.648	97.62
452.869	111.62
453.089	108.62
453.31	115.62
453.53	83.62
453.751	98.62
453.971	115.62
454.192	108.62
454.412	95.62
454.633	90.62
454.853	98.62
455.073	89.62
455.294	95.62
455.514	107.62
455.734	87.62
455.955	87.62
456.175	88.62
456.395	85.62
456.616	84.62
456.836	83.62
457.056	106.62
457.276	89.62
457.497	83.62
457.717	77.62
457.937	92.62
458.157	82.62
458.377	99.62
458.598	104.62
458.818	157.62
459.038	174.62
459.258	109.62
459.478	83.62
459.698	94.62
459.918	74.62
460.138	88.62
460.358	85.62
460.578	95.62
460.798	92.62
461.018	96.62
461.238	82.62
461.458	86.62
461.678	82.62
461.898	79.62
462.118	94.62
462.338	84.62
462.558	74.62
462.777	87.62
462.997	83.62
463.217	83.62
463.437	83.62
463.657	91.62
463.876	78.62
464.096	96.62
464.316	93.62
464.536	104.62
464.755	83.62
464.975	116.62
465.195	154.62
465.414	166.62
465.634	93.62
465.854	84.62
466.073	94.62
466.293	93.62
466.512	76.62
466.732	76.62
466.951	86.62
467.171	87.62
467.391	85.62
467.61	90.62
467.829	127.62
468.049	198.62
468.268	266.62
468.488	110.62
468.707	110.62
468.927	97.62
469.146	84.62
469.365	85.62
469.585	100.62
469.804	100.62
470.023	90.62
470.243	86.62
470.462	101.62
470.681	119.62
470.901	91.62
471.12	94.62
471.339	91.62
471.558	98.62
471.777	96.62
471.997	135.62
472.216	293.62
472.435	626.62
472.654	212.62
472.873	104.62
473.092	105.62
473.311	93.62
473.53	76.62
473.749	82.62
473.968	92.62
474.187	93.62
474.406	94.62
474.625	70.62
474.844	85.62
475.063	80.62
475.282	87.62
475.501	98.62
475.72	81.62
475.939	95.62
476.158	85.62
476.377	87.62
476.596	102.62
476.814	93.62
477.033	87.62
477.252	96.62
477.471	93.62
477.69	91.62
477.908	92.62
478.127	83.62
478.346	93.62
478.564	87.62
478.783	92.62
479.002	94.62
479.22	85.62
479.439	118.62
479.658	104.62
479.876	95.62
480.095	84.62
480.313	111.62
480.532	101.62
480.751	128.62
480.969	288.62
481.188	1059.62
481.406	651.62
481.624	154.62
481.843	98.62
482.061	85.62
482.28	90.62
482.498	82.62
482.717	84.62
482.935	80.62
483.153	84.62
483.372	89.62
483.59	82.62
483.808	89.62
484.027	84.62
484.245	86.62
484.463	91.62
484.681	115.62
484.9	102.62
485.118	91.62
485.336	95.62
485.554	117.62
485.772	100.62
485.99	126.62
486.209	120.62
486.427	110.62
486.645	123.62
486.863	107.62
487.081	106.62
487.299	93.62
487.517	93.62
487.735	91.62
487.953	101.62
488.171	111.62
488.389	95.62
488.607	103.62
488.825	87.62
489.043	90.62
489.261	86.62
489.479	81.62
489.696	82.62
489.914	82.62
490.132	94.62
490.35	100.62
490.568	103.62
490.786	80.62
491.003	82.62
491.221	99.62
491.439	93.62
491.657	87.62
491.874	87.62
492.092	101.62
492.31	87.62
492.527	94.62
492.745	80.62
492.963	80.62
493.18	87.62
493.398	85.62
493.615	85.62
493.833	94.62
494.05	92.62
494.268	88.62
494.485	87.62
494.703	85.62
494.92	81.62
495.138	91.62
495.355	95.62
495.573	102.62
495.79	97.62
496.008	110.62
496.225	111.62
496.442	91.62
496.66	94.62
496.877	94.62
497.094	90.62
497.312	87.62
497.529	93.62
497.746	87.62
497.963	90.62
498.181	92.62
498.398	95.62
498.615	99.62
498.832	101.62
499.049	91.62
499.267	101.62
499.484	108.62
499.701	98.62
499.918	91.62
500.135	94.62
500.352	92.62
500.569	82.62
500.786	90.62
501.003	104.62
501.22	90.62
501.437	92.62
501.654	97.62
501.871	114.62
502.088	95.62
502.305	105.62
502.522	97.62
502.739	96.62
502.956	87.62
503.172	84.62
503.389	95.62
503.606	96.62
503.823	98.62
504.04	103.62
504.256	80.62
504.473	92.62
504.69	97.62
504.907	94.62
505.123	102.62
505.34	98.62
505.557	79.62
505.773	92.62
505.99	84.62
506.207	87.62
506.423	91.62
506.64	76.62
506.856	94.62
507.073	82.62
507.289	96.62
507.506	97.62
507.722	109.62
507.939	111.62
508.155	79.62
508.372	90.62
508.588	99.62
508.805	103.62
509.021	97.62
509.238	100.62
509.454	97.62
509.67	95.62
509.887	110.62
510.103	141.62
510.319	202.62
510.536	650.62
510.752	2121.62
510.968	590.62
511.184	147.62
511.401	116.62
511.617	106.62
511.833	97.62
512.049	108.62
512.265	100.62
512.481	95.62
512.698	97.62
512.914	87.62
513.13	86.62
513.346	75.62
513.562	94.62
513.778	102.62
513.994	95.62
514.21	92.62
