Data from Circ_1992_H10_HRD10591_00005.txt Node
Date: Wed Jan 03 11:47:45 EST 2024
User: Yrep
Spectrometer: HR+D1059
Trigger mode: 1
Integration Time (sec): 1.000000E-1
Scans to average: 1
Electric dark correction enabled: true
Nonlinearity correction enabled: false
Boxcar width: 0
XAxis mode: Wavelengths
Number of Pixels in Spectrum: 2048
>>>>>Begin Spectral Data<<<<<
223.165	-19.12
223.4	-19.12
223.635	-19.12
223.869	-18.12
224.104	-16.12
224.338	-9.12
224.573	-9.12
224.808	-11.12
225.042	-14.12
225.277	-15.12
225.511	-14.12
225.746	14.88
225.98	10.88
226.215	4.88
226.449	5.88
226.683	9.88
226.918	37.88
227.152	41.88
227.387	41.88
227.621	34.88
227.856	45.88
228.09	59.88
228.324	51.88
228.559	58.88
228.793	59.88
229.027	58.88
229.262	54.88
229.496	70.88
229.73	78.88
229.964	83.88
230.199	65.88
230.433	69.88
230.667	76.88
230.901	84.88
231.136	55.88
231.37	77.88
231.604	79.88
231.838	98.88
232.072	82.88
232.306	87.88
232.541	94.88
232.775	83.88
233.009	93.88
233.243	69.88
233.477	88.88
233.711	90.88
233.945	79.88
234.179	85.88
234.413	84.88
234.647	82.88
234.881	74.88
235.115	92.88
235.349	70.88
235.583	83.88
235.817	78.88
236.051	69.88
236.285	57.88
236.519	71.88
236.753	83.88
236.987	88.88
237.221	78.88
237.455	78.88
237.689	75.88
237.922	79.88
238.156	81.88
238.39	67.88
238.624	77.88
238.858	93.88
239.091	61.88
239.325	69.88
239.559	83.88
239.793	94.88
240.027	73.88
240.26	87.88
240.494	74.88
240.728	59.88
240.961	66.88
241.195	69.88
241.429	67.88
241.662	72.88
241.896	83.88
242.13	77.88
242.363	87.88
242.597	70.88
242.83	77.88
243.064	68.88
243.298	81.88
243.531	79.88
243.765	61.88
243.998	74.88
244.232	90.88
244.465	82.88
244.699	81.88
244.932	71.88
245.166	72.88
245.399	77.88
245.633	78.88
245.866	77.88
246.099	73.88
246.333	78.88
246.566	69.88
246.8	70.88
247.033	79.88
247.266	65.88
247.5	83.88
247.733	84.88
247.966	93.88
248.2	81.88
248.433	80.88
248.666	65.88
248.899	79.88
249.133	83.88
249.366	86.88
249.599	89.88
249.832	80.88
250.066	86.88
250.299	86.88
250.532	84.88
250.765	88.88
250.998	89.88
251.231	88.88
251.465	84.88
251.698	78.88
251.931	75.88
252.164	78.88
252.397	75.88
252.63	83.88
252.863	81.88
253.096	98.88
253.329	64.88
253.562	83.88
253.795	67.88
254.028	78.88
254.261	85.88
254.494	76.88
254.727	77.88
254.96	76.88
255.193	85.88
255.426	89.88
255.659	86.88
255.892	82.88
256.124	92.88
256.357	87.88
256.59	80.88
256.823	77.88
257.056	70.88
257.289	73.88
257.521	79.88
257.754	86.88
257.987	81.88
258.22	88.88
258.452	77.88
258.685	74.88
258.918	75.88
259.151	81.88
259.383	94.88
259.616	75.88
259.849	80.88
260.081	94.88
260.314	86.88
260.547	74.88
260.779	73.88
261.012	79.88
261.244	83.88
261.477	112.88
261.71	111.88
261.942	110.88
262.175	124.88
262.407	87.88
262.64	83.88
262.872	87.88
263.105	80.88
263.337	95.88
263.57	89.88
263.802	89.88
264.035	82.88
264.267	93.88
264.499	86.88
264.732	91.88
264.964	77.88
265.197	70.88
265.429	91.88
265.661	86.88
265.894	83.88
266.126	92.88
266.358	89.88
266.591	87.88
266.823	84.88
267.055	85.88
267.287	89.88
267.52	59.88
267.752	68.88
267.984	75.88
268.216	85.88
268.448	83.88
268.681	81.88
268.913	87.88
269.145	91.88
269.377	94.88
269.609	78.88
269.841	85.88
270.073	96.88
270.306	92.88
270.538	77.88
270.77	103.88
271.002	82.88
271.234	73.88
271.466	93.88
271.698	91.88
271.93	78.88
272.162	89.88
272.394	73.88
272.626	90.88
272.858	82.88
273.09	91.88
273.322	77.88
273.553	82.88
273.785	85.88
274.017	89.88
274.249	73.88
274.481	95.88
274.713	84.88
274.945	91.88
275.176	85.88
275.408	83.88
275.64	90.88
275.872	92.88
276.104	90.88
276.335	74.88
276.567	95.88
276.799	113.88
277.031	98.88
277.262	87.88
277.494	106.88
277.726	100.88
277.957	86.88
278.189	77.88
278.421	89.88
278.652	85.88
278.884	84.88
279.115	92.88
279.347	82.88
279.579	79.88
279.81	86.88
280.042	89.88
280.273	112.88
280.505	101.88
280.736	95.88
280.968	82.88
281.199	86.88
281.431	79.88
281.662	98.88
281.894	89.88
282.125	76.88
282.356	106.88
282.588	118.88
282.819	114.88
283.051	89.88
283.282	84.88
283.513	90.88
283.745	84.88
283.976	103.88
284.207	93.88
284.439	103.88
284.67	88.88
284.901	105.88
285.132	77.88
285.364	89.88
285.595	97.88
285.826	80.88
286.057	82.88
286.288	82.88
286.52	88.88
286.751	91.88
286.982	91.88
287.213	67.88
287.444	86.88
287.675	101.88
287.906	89.88
288.138	88.88
288.369	98.88
288.6	113.88
288.831	100.88
289.062	106.88
289.293	82.88
289.524	83.88
289.755	90.88
289.986	73.88
290.217	89.88
290.448	88.88
290.679	82.88
290.91	77.88
291.141	88.88
291.371	87.88
291.602	91.88
291.833	85.88
292.064	96.88
292.295	87.88
292.526	86.88
292.757	76.88
292.987	77.88
293.218	86.88
293.449	89.88
293.68	86.88
293.91	94.88
294.141	77.88
294.372	91.88
294.603	87.88
294.833	78.88
295.064	103.88
295.295	94.88
295.525	90.88
295.756	107.88
295.987	121.88
296.217	121.88
296.448	99.88
296.679	87.88
296.909	82.88
297.14	87.88
297.37	87.88
297.601	90.88
297.831	95.88
298.062	83.88
298.292	84.88
298.523	94.88
298.753	82.88
298.984	75.88
299.214	74.88
299.445	81.88
299.675	89.88
299.905	89.88
300.136	80.88
300.366	82.88
300.597	76.88
300.827	87.88
301.057	96.88
301.288	102.88
301.518	82.88
301.748	99.88
301.979	99.88
302.209	86.88
302.439	91.88
302.669	83.88
302.9	90.88
303.13	75.88
303.36	90.88
303.59	88.88
303.82	95.88
304.051	78.88
304.281	94.88
304.511	98.88
304.741	95.88
304.971	95.88
305.201	75.88
305.431	100.88
305.661	83.88
305.891	96.88
306.121	96.88
306.352	90.88
306.582	85.88
306.812	87.88
307.042	87.88
307.272	99.88
307.502	108.88
307.731	109.88
307.961	99.88
308.191	85.88
308.421	96.88
308.651	91.88
308.881	83.88
309.111	92.88
309.341	101.88
309.571	96.88
309.8	103.88
310.03	98.88
310.26	94.88
310.49	102.88
310.72	98.88
310.949	104.88
311.179	102.88
311.409	96.88
311.639	90.88
311.868	91.88
312.098	106.88
312.328	93.88
312.557	89.88
312.787	100.88
313.017	118.88
313.246	94.88
313.476	109.88
313.706	87.88
313.935	81.88
314.165	99.88
314.394	86.88
314.624	99.88
314.853	96.88
315.083	102.88
315.312	85.88
315.542	96.88
315.771	93.88
316.001	72.88
316.23	95.88
316.46	93.88
316.689	85.88
316.919	97.88
317.148	105.88
317.377	96.88
317.607	102.88
317.836	93.88
318.065	101.88
318.295	90.88
318.524	93.88
318.753	99.88
318.983	108.88
319.212	110.88
319.441	95.88
319.67	115.88
319.9	88.88
320.129	77.88
320.358	95.88
320.587	97.88
320.816	107.88
321.046	89.88
321.275	80.88
321.504	92.88
321.733	102.88
321.962	113.88
322.191	100.88
322.42	111.88
322.649	113.88
322.878	103.88
323.108	118.88
323.337	125.88
323.566	110.88
323.795	136.88
324.024	189.88
324.253	328.88
324.482	706.88
324.71	1385.88
324.939	1883.88
325.168	705.88
325.397	229.88
325.626	133.88
325.855	135.88
326.084	121.88
326.313	136.88
326.542	137.88
326.77	199.88
326.999	389.88
327.228	796.88
327.457	1491.88
327.686	1222.88
327.914	339.88
328.143	209.88
328.372	203.88
328.6	143.88
328.829	123.88
329.058	140.88
329.287	120.88
329.515	114.88
329.744	130.88
329.972	157.88
330.201	217.88
330.43	295.88
330.658	193.88
330.887	131.88
331.115	111.88
331.344	102.88
331.572	100.88
331.801	97.88
332.03	92.88
332.258	107.88
332.486	93.88
332.715	92.88
332.943	100.88
333.172	91.88
333.4	83.88
333.629	108.88
333.857	130.88
334.085	139.88
334.314	215.88
334.542	340.88
334.771	332.88
334.999	140.88
335.227	106.88
335.455	99.88
335.684	91.88
335.912	106.88
336.14	104.88
336.369	96.88
336.597	88.88
336.825	96.88
337.053	77.88
337.281	90.88
337.51	85.88
337.738	88.88
337.966	97.88
338.194	90.88
338.422	90.88
338.65	86.88
338.878	88.88
339.106	92.88
339.334	86.88
339.562	82.88
339.79	98.88
340.018	89.88
340.246	90.88
340.474	95.88
340.702	86.88
340.93	85.88
341.158	81.88
341.386	99.88
341.614	89.88
341.842	93.88
342.07	96.88
342.298	93.88
342.526	80.88
342.754	95.88
342.981	81.88
343.209	86.88
343.437	98.88
343.665	104.88
343.893	87.88
344.12	103.88
344.348	92.88
344.576	95.88
344.804	98.88
345.031	92.88
345.259	89.88
345.487	92.88
345.714	106.88
345.942	94.88
346.17	96.88
346.397	76.88
346.625	97.88
346.853	99.88
347.08	90.88
347.308	91.88
347.535	92.88
347.763	105.88
347.99	92.88
348.218	102.88
348.445	107.88
348.673	101.88
348.9	94.88
349.128	108.88
349.355	98.88
349.583	80.88
349.81	89.88
350.037	100.88
350.265	93.88
350.492	98.88
350.72	94.88
350.947	90.88
351.174	89.88
351.402	97.88
351.629	84.88
351.856	83.88
352.083	104.88
352.311	103.88
352.538	92.88
352.765	105.88
352.992	117.88
353.22	101.88
353.447	98.88
353.674	104.88
353.901	105.88
354.128	99.88
354.355	99.88
354.583	102.88
354.81	98.88
355.037	96.88
355.264	78.88
355.491	106.88
355.718	94.88
355.945	109.88
356.172	87.88
356.399	98.88
356.626	102.88
356.853	93.88
357.08	87.88
357.307	92.88
357.534	97.88
357.761	106.88
357.988	94.88
358.215	96.88
358.441	106.88
358.668	109.88
358.895	92.88
359.122	97.88
359.349	84.88
359.576	87.88
359.802	83.88
360.029	123.88
360.256	102.88
360.483	80.88
360.709	86.88
360.936	93.88
361.163	84.88
361.39	86.88
361.616	97.88
361.843	95.88
362.07	102.88
362.296	87.88
362.523	97.88
362.749	88.88
362.976	92.88
363.203	94.88
363.429	94.88
363.656	89.88
363.882	90.88
364.109	83.88
364.335	89.88
364.562	89.88
364.788	97.88
365.015	97.88
365.241	84.88
365.468	99.88
365.694	111.88
365.92	109.88
366.147	81.88
366.373	96.88
366.599	89.88
366.826	86.88
367.052	93.88
367.278	83.88
367.505	94.88
367.731	95.88
367.957	77.88
368.184	75.88
368.41	91.88
368.636	93.88
368.862	106.88
369.089	91.88
369.315	92.88
369.541	99.88
369.767	86.88
369.993	89.88
370.219	78.88
370.445	88.88
370.672	75.88
370.898	84.88
371.124	77.88
371.35	89.88
371.576	86.88
371.802	89.88
372.028	64.88
372.254	83.88
372.48	99.88
372.706	91.88
372.932	97.88
373.158	85.88
373.384	82.88
373.61	90.88
373.835	91.88
374.061	93.88
374.287	101.88
374.513	90.88
374.739	91.88
374.965	89.88
375.191	87.88
375.416	104.88
375.642	87.88
375.868	93.88
376.094	85.88
376.319	87.88
376.545	92.88
376.771	78.88
376.997	92.88
377.222	88.88
377.448	90.88
377.674	85.88
377.899	105.88
378.125	99.88
378.35	98.88
378.576	98.88
378.802	94.88
379.027	92.88
379.253	100.88
379.478	113.88
379.704	86.88
379.929	108.88
380.155	112.88
380.38	98.88
380.606	100.88
380.831	117.88
381.057	119.88
381.282	118.88
381.507	107.88
381.733	118.88
381.958	90.88
382.184	117.88
382.409	114.88
382.634	111.88
382.86	114.88
383.085	121.88
383.31	123.88
383.535	121.88
383.761	110.88
383.986	130.88
384.211	129.88
384.436	110.88
384.662	139.88
384.887	127.88
385.112	152.88
385.337	150.88
385.562	141.88
385.787	142.88
386.013	148.88
386.238	133.88
386.463	143.88
386.688	128.88
386.913	123.88
387.138	134.88
387.363	131.88
387.588	118.88
387.813	126.88
388.038	145.88
388.263	156.88
388.488	149.88
388.713	107.88
388.938	95.88
389.163	97.88
389.387	98.88
389.612	95.88
389.837	73.88
390.062	91.88
390.287	102.88
390.512	100.88
390.736	91.88
390.961	82.88
391.186	80.88
391.411	93.88
391.636	106.88
391.86	83.88
392.085	90.88
392.31	81.88
392.534	78.88
392.759	84.88
392.984	101.88
393.208	92.88
393.433	98.88
393.658	95.88
393.882	80.88
394.107	81.88
394.331	88.88
394.556	88.88
394.78	82.88
395.005	94.88
395.229	92.88
395.454	85.88
395.678	89.88
395.903	90.88
396.127	97.88
396.352	91.88
396.576	92.88
396.801	92.88
397.025	84.88
397.249	89.88
397.474	75.88
397.698	97.88
397.922	95.88
398.147	72.88
398.371	99.88
398.595	91.88
398.82	78.88
399.044	85.88
399.268	87.88
399.492	93.88
399.717	74.88
399.941	94.88
400.165	101.88
400.389	80.88
400.613	85.88
400.837	98.88
401.062	99.88
401.286	78.88
401.51	70.88
401.734	79.88
401.958	89.88
402.182	111.88
402.406	130.88
402.63	105.88
402.854	100.88
403.078	103.88
403.302	83.88
403.526	85.88
403.75	92.88
403.974	84.88
404.198	91.88
404.422	95.88
404.645	80.88
404.869	89.88
405.093	97.88
405.317	111.88
405.541	85.88
405.765	107.88
405.988	106.88
406.212	151.88
406.436	174.88
406.66	130.88
406.883	101.88
407.107	94.88
407.331	100.88
407.555	94.88
407.778	98.88
408.002	86.88
408.226	103.88
408.449	103.88
408.673	96.88
408.896	96.88
409.12	99.88
409.344	82.88
409.567	99.88
409.791	95.88
410.014	95.88
410.238	98.88
410.461	84.88
410.685	108.88
410.908	80.88
411.132	94.88
411.355	101.88
411.578	85.88
411.802	101.88
412.025	97.88
412.249	101.88
412.472	98.88
412.695	105.88
412.919	99.88
413.142	99.88
413.365	84.88
413.589	80.88
413.812	80.88
414.035	99.88
414.258	95.88
414.482	95.88
414.705	100.88
414.928	102.88
415.151	89.88
415.374	107.88
415.597	101.88
415.821	85.88
416.044	86.88
416.267	100.88
416.49	90.88
416.713	93.88
416.936	85.88
417.159	76.88
417.382	89.88
417.605	90.88
417.828	97.88
418.051	105.88
418.274	94.88
418.497	91.88
418.72	85.88
418.943	90.88
419.166	90.88
419.389	88.88
419.611	93.88
419.834	98.88
420.057	96.88
420.28	93.88
420.503	84.88
420.726	91.88
420.948	90.88
421.171	84.88
421.394	97.88
421.617	93.88
421.839	95.88
422.062	83.88
422.285	98.88
422.507	97.88
422.73	118.88
422.953	101.88
423.175	88.88
423.398	97.88
423.621	85.88
423.843	87.88
424.066	73.88
424.288	93.88
424.511	84.88
424.733	96.88
424.956	92.88
425.178	81.88
425.401	99.88
425.623	107.88
425.846	83.88
426.068	91.88
426.291	95.88
426.513	112.88
426.735	90.88
426.958	91.88
427.18	97.88
427.402	109.88
427.625	160.88
427.847	130.88
428.069	132.88
428.292	92.88
428.514	84.88
428.736	103.88
428.958	79.88
429.181	90.88
429.403	79.88
429.625	77.88
429.847	94.88
430.069	100.88
430.292	97.88
430.514	83.88
430.736	78.88
430.958	93.88
431.18	92.88
431.402	77.88
431.624	89.88
431.846	82.88
432.068	83.88
432.29	90.88
432.512	97.88
432.734	83.88
432.956	94.88
433.178	81.88
433.4	85.88
433.622	87.88
433.844	88.88
434.066	103.88
434.287	89.88
434.509	89.88
434.731	86.88
434.953	92.88
435.175	78.88
435.397	83.88
435.618	89.88
435.84	101.88
436.062	110.88
436.284	116.88
436.505	108.88
436.727	99.88
436.949	94.88
437.17	86.88
437.392	87.88
437.614	101.88
437.835	108.88
438.057	118.88
438.278	113.88
438.5	97.88
438.721	105.88
438.943	96.88
439.165	92.88
439.386	102.88
439.608	95.88
439.829	89.88
440.05	116.88
440.272	129.88
440.493	97.88
440.715	94.88
440.936	94.88
441.158	96.88
441.379	95.88
441.6	77.88
441.822	94.88
442.043	92.88
442.264	89.88
442.486	108.88
442.707	89.88
442.928	99.88
443.149	109.88
443.371	114.88
443.592	109.88
443.813	115.88
444.034	99.88
444.255	85.88
444.476	94.88
444.698	87.88
444.919	97.88
445.14	133.88
445.361	117.88
445.582	122.88
445.803	121.88
446.024	127.88
446.245	117.88
446.466	129.88
446.687	97.88
446.908	92.88
447.129	85.88
447.35	86.88
447.571	92.88
447.792	100.88
448.013	88.88
448.234	112.88
448.455	105.88
448.675	102.88
448.896	111.88
449.117	94.88
449.338	91.88
449.559	132.88
449.779	124.88
450	86.88
450.221	71.88
450.442	93.88
450.662	105.88
450.883	99.88
451.104	98.88
451.324	96.88
451.545	92.88
451.766	96.88
451.986	79.88
452.207	81.88
452.428	83.88
452.648	94.88
452.869	97.88
453.089	107.88
453.31	100.88
453.53	92.88
453.751	97.88
453.971	93.88
454.192	109.88
454.412	96.88
454.633	88.88
454.853	74.88
455.073	93.88
455.294	82.88
455.514	98.88
455.734	89.88
455.955	82.88
456.175	68.88
456.395	68.88
456.616	83.88
456.836	89.88
457.056	81.88
457.276	76.88
457.497	65.88
457.717	103.88
457.937	84.88
458.157	94.88
458.377	85.88
458.598	83.88
458.818	113.88
459.038	137.88
459.258	126.88
459.478	86.88
459.698	73.88
459.918	99.88
460.138	75.88
460.358	70.88
460.578	97.88
460.798	95.88
461.018	85.88
461.238	80.88
461.458	84.88
461.678	84.88
461.898	87.88
462.118	78.88
462.338	81.88
462.558	77.88
462.777	87.88
462.997	89.88
463.217	79.88
463.437	91.88
463.657	83.88
463.876	80.88
464.096	90.88
464.316	98.88
464.536	97.88
464.755	101.88
464.975	114.88
465.195	135.88
465.414	137.88
465.634	93.88
465.854	96.88
466.073	82.88
466.293	85.88
466.512	83.88
466.732	87.88
466.951	83.88
467.171	106.88
467.391	91.88
467.61	89.88
467.829	119.88
468.049	162.88
468.268	185.88
468.488	122.88
468.707	87.88
468.927	83.88
469.146	91.88
469.365	71.88
469.585	83.88
469.804	104.88
470.023	101.88
470.243	96.88
470.462	93.88
470.681	108.88
470.901	96.88
471.12	84.88
471.339	79.88
471.558	87.88
471.777	95.88
471.997	127.88
472.216	237.88
472.435	448.88
472.654	157.88
472.873	89.88
473.092	88.88
473.311	77.88
473.53	70.88
473.749	85.88
473.968	78.88
474.187	104.88
474.406	99.88
474.625	78.88
474.844	81.88
475.063	89.88
475.282	77.88
475.501	86.88
475.72	87.88
475.939	88.88
476.158	97.88
476.377	100.88
476.596	95.88
476.814	80.88
477.033	96.88
477.252	88.88
477.471	99.88
477.69	88.88
477.908	81.88
478.127	75.88
478.346	88.88
478.564	86.88
478.783	93.88
479.002	85.88
479.22	89.88
479.439	99.88
479.658	99.88
479.876	98.88
480.095	95.88
480.313	102.88
480.532	98.88
480.751	130.88
480.969	233.88
481.188	749.88
481.406	466.88
481.624	142.88
481.843	94.88
482.061	106.88
482.28	95.88
482.498	85.88
482.717	78.88
482.935	84.88
483.153	80.88
483.372	85.88
483.59	77.88
483.808	93.88
484.027	99.88
484.245	73.88
484.463	91.88
484.681	86.88
484.9	87.88
485.118	92.88
485.336	86.88
485.554	101.88
485.772	107.88
485.99	100.88
486.209	103.88
486.427	106.88
486.645	109.88
486.863	111.88
487.081	94.88
487.299	92.88
487.517	95.88
487.735	78.88
487.953	83.88
488.171	89.88
488.389	83.88
488.607	86.88
488.825	85.88
489.043	98.88
489.261	111.88
489.479	97.88
489.696	95.88
489.914	100.88
490.132	100.88
490.35	104.88
490.568	84.88
490.786	76.88
491.003	92.88
491.221	91.88
491.439	95.88
491.657	97.88
491.874	81.88
492.092	79.88
492.31	78.88
492.527	91.88
492.745	84.88
492.963	105.88
493.18	94.88
493.398	81.88
493.615	90.88
493.833	100.88
494.05	109.88
494.268	86.88
494.485	83.88
494.703	85.88
494.92	90.88
495.138	92.88
495.355	80.88
495.573	100.88
495.79	69.88
496.008	96.88
496.225	87.88
496.442	73.88
496.66	85.88
496.877	89.88
497.094	94.88
497.312	80.88
497.529	90.88
497.746	83.88
497.963	86.88
498.181	102.88
498.398	103.88
498.615	116.88
498.832	93.88
499.049	82.88
499.267	97.88
499.484	94.88
499.701	90.88
499.918	105.88
500.135	86.88
500.352	79.88
500.569	77.88
500.786	83.88
501.003	94.88
501.22	87.88
501.437	89.88
501.654	102.88
501.871	102.88
502.088	86.88
502.305	94.88
502.522	79.88
502.739	75.88
502.956	91.88
503.172	91.88
503.389	89.88
503.606	98.88
503.823	96.88
504.04	97.88
504.256	91.88
504.473	88.88
504.69	98.88
504.907	91.88
505.123	85.88
505.34	73.88
505.557	78.88
505.773	101.88
505.99	89.88
506.207	77.88
506.423	88.88
506.64	97.88
506.856	95.88
507.073	71.88
507.289	82.88
507.506	89.88
507.722	110.88
507.939	82.88
508.155	71.88
508.372	91.88
508.588	96.88
508.805	86.88
509.021	108.88
509.238	101.88
509.454	97.88
509.67	112.88
509.887	105.88
510.103	103.88
510.319	179.88
510.536	545.88
510.752	1635.88
510.968	479.88
511.184	125.88
511.401	119.88
511.617	102.88
511.833	87.88
512.049	90.88
512.265	79.88
512.481	74.88
512.698	88.88
512.914	93.88
513.13	87.88
513.346	98.88
513.562	93.88
513.778	100.88
513.994	82.88
514.21	90.88
514.426	98.88
514.642	109.88
514.858	121.88
515.074	132.88
515.29	308.88
515.506	1021.88
