Data from Circ_1992_H10_HRD10591_00096.txt Node
Date: Wed Jan 03 11:48:04 EST 2024
User: Yrep
Spectrometer: HR+D1059
Trigger mode: 1
Integration Time (sec): 1.000000E-1
Scans to average: 1
Electric dark correction enabled: true
Nonlinearity correction enabled: false
Boxcar width: 0
XAxis mode: Wavelengths
Number of Pixels in Spectrum: 2048
>>>>>Begin Spectral Data<<<<<
223.165	-24.56
223.4	-24.56
223.635	-24.56
223.869	-18.56
224.104	-22.56
224.338	-6.56
224.573	-9.56
224.808	-15.56
225.042	-8.56
225.277	-10.56
225.511	-3.56
225.746	8.44
225.98	12.44
226.215	6.44
226.449	20.44
226.683	19.44
226.918	28.44
227.152	24.44
227.387	32.44
227.621	35.44
227.856	55.44
228.09	50.44
228.324	55.44
228.559	55.44
228.793	40.44
229.027	61.44
229.262	66.44
229.496	80.44
229.73	93.44
229.964	99.44
230.199	66.44
230.433	87.44
230.667	62.44
230.901	87.44
231.136	93.44
231.37	79.44
231.604	92.44
231.838	79.44
232.072	99.44
232.306	71.44
232.541	89.44
232.775	66.44
233.009	71.44
233.243	83.44
233.477	80.44
233.711	86.44
233.945	84.44
234.179	81.44
234.413	82.44
234.647	86.44
234.881	77.44
235.115	78.44
235.349	78.44
235.583	92.44
235.817	81.44
236.051	82.44
236.285	82.44
236.519	73.44
236.753	82.44
236.987	74.44
237.221	73.44
237.455	90.44
237.689	76.44
237.922	84.44
238.156	94.44
238.39	78.44
238.624	76.44
238.858	72.44
239.091	82.44
239.325	74.44
239.559	91.44
239.793	75.44
240.027	97.44
240.26	87.44
240.494	74.44
240.728	69.44
240.961	87.44
241.195	67.44
241.429	67.44
241.662	71.44
241.896	87.44
242.13	73.44
242.363	61.44
242.597	76.44
242.83	84.44
243.064	70.44
243.298	84.44
243.531	89.44
243.765	82.44
243.998	72.44
244.232	89.44
244.465	90.44
244.699	78.44
244.932	91.44
245.166	70.44
245.399	90.44
245.633	70.44
245.866	80.44
246.099	85.44
246.333	83.44
246.566	104.44
246.8	79.44
247.033	83.44
247.266	82.44
247.5	102.44
247.733	84.44
247.966	90.44
248.2	88.44
248.433	96.44
248.666	89.44
248.899	75.44
249.133	91.44
249.366	104.44
249.599	104.44
249.832	74.44
250.066	84.44
250.299	77.44
250.532	94.44
250.765	82.44
250.998	82.44
251.231	84.44
251.465	90.44
251.698	83.44
251.931	80.44
252.164	88.44
252.397	82.44
252.63	72.44
252.863	68.44
253.096	92.44
253.329	82.44
253.562	80.44
253.795	95.44
254.028	87.44
254.261	92.44
254.494	78.44
254.727	88.44
254.96	94.44
255.193	100.44
255.426	82.44
255.659	90.44
255.892	93.44
256.124	92.44
256.357	92.44
256.59	75.44
256.823	91.44
257.056	84.44
257.289	90.44
257.521	92.44
257.754	90.44
257.987	94.44
258.22	87.44
258.452	82.44
258.685	82.44
258.918	91.44
259.151	110.44
259.383	98.44
259.616	99.44
259.849	80.44
260.081	100.44
260.314	107.44
260.547	73.44
260.779	88.44
261.012	97.44
261.244	101.44
261.477	103.44
261.71	96.44
261.942	120.44
262.175	120.44
262.407	94.44
262.64	82.44
262.872	78.44
263.105	85.44
263.337	95.44
263.57	85.44
263.802	76.44
264.035	88.44
264.267	88.44
264.499	67.44
264.732	91.44
264.964	85.44
265.197	88.44
265.429	84.44
265.661	72.44
265.894	98.44
266.126	89.44
266.358	102.44
266.591	89.44
266.823	80.44
267.055	94.44
267.287	91.44
267.52	79.44
267.752	82.44
267.984	83.44
268.216	88.44
268.448	83.44
268.681	91.44
268.913	83.44
269.145	84.44
269.377	91.44
269.609	84.44
269.841	89.44
270.073	82.44
270.306	88.44
270.538	80.44
270.77	83.44
271.002	78.44
271.234	80.44
271.466	84.44
271.698	84.44
271.93	80.44
272.162	99.44
272.394	91.44
272.626	72.44
272.858	82.44
273.09	78.44
273.322	84.44
273.553	75.44
273.785	82.44
274.017	67.44
274.249	85.44
274.481	80.44
274.713	76.44
274.945	95.44
275.176	95.44
275.408	87.44
275.64	88.44
275.872	104.44
276.104	110.44
276.335	100.44
276.567	99.44
276.799	122.44
277.031	135.44
277.262	150.44
277.494	134.44
277.726	102.44
277.957	87.44
278.189	88.44
278.421	97.44
278.652	80.44
278.884	89.44
279.115	99.44
279.347	93.44
279.579	95.44
279.81	115.44
280.042	149.44
280.273	167.44
280.505	147.44
280.736	90.44
280.968	96.44
281.199	104.44
281.431	88.44
281.662	82.44
281.894	113.44
282.125	103.44
282.356	114.44
282.588	160.44
282.819	119.44
283.051	102.44
283.282	84.44
283.513	94.44
283.745	92.44
283.976	85.44
284.207	85.44
284.439	85.44
284.67	92.44
284.901	86.44
285.132	75.44
285.364	87.44
285.595	105.44
285.826	85.44
286.057	79.44
286.288	89.44
286.52	85.44
286.751	97.44
286.982	76.44
287.213	85.44
287.444	83.44
287.675	104.44
287.906	91.44
288.138	82.44
288.369	107.44
288.6	90.44
288.831	82.44
289.062	94.44
289.293	86.44
289.524	98.44
289.755	99.44
289.986	82.44
290.217	92.44
290.448	108.44
290.679	92.44
290.91	99.44
291.141	78.44
291.371	88.44
291.602	87.44
291.833	80.44
292.064	84.44
292.295	102.44
292.526	85.44
292.757	92.44
292.987	82.44
293.218	85.44
293.449	98.44
293.68	96.44
293.91	98.44
294.141	90.44
294.372	88.44
294.603	86.44
294.833	91.44
295.064	91.44
295.295	96.44
295.525	91.44
295.756	104.44
295.987	125.44
296.217	143.44
296.448	107.44
296.679	99.44
296.909	94.44
297.14	85.44
297.37	90.44
297.601	88.44
297.831	100.44
298.062	87.44
298.292	79.44
298.523	97.44
298.753	86.44
298.984	94.44
299.214	88.44
299.445	85.44
299.675	98.44
299.905	94.44
300.136	79.44
300.366	98.44
300.597	91.44
300.827	98.44
301.057	83.44
301.288	103.44
301.518	81.44
301.748	96.44
301.979	108.44
302.209	84.44
302.439	101.44
302.669	88.44
302.9	89.44
303.13	110.44
303.36	93.44
303.59	115.44
303.82	116.44
304.051	93.44
304.281	90.44
304.511	93.44
304.741	84.44
304.971	92.44
305.201	95.44
305.431	98.44
305.661	97.44
305.891	116.44
306.121	93.44
306.352	86.44
306.582	109.44
306.812	99.44
307.042	115.44
307.272	130.44
307.502	135.44
307.731	132.44
307.961	126.44
308.191	92.44
308.421	87.44
308.651	95.44
308.881	110.44
309.111	95.44
309.341	96.44
309.571	98.44
309.8	95.44
310.03	105.44
310.26	91.44
310.49	97.44
310.72	96.44
310.949	113.44
311.179	99.44
311.409	105.44
311.639	92.44
311.868	104.44
312.098	96.44
312.328	95.44
312.557	115.44
312.787	115.44
313.017	107.44
313.246	92.44
313.476	82.44
313.706	112.44
313.935	93.44
314.165	105.44
314.394	103.44
314.624	89.44
314.853	109.44
315.083	99.44
315.312	94.44
315.542	91.44
315.771	104.44
316.001	103.44
316.23	106.44
316.46	88.44
316.689	96.44
316.919	98.44
317.148	106.44
317.377	98.44
317.607	107.44
317.836	90.44
318.065	101.44
318.295	87.44
318.524	88.44
318.753	107.44
318.983	100.44
319.212	107.44
319.441	109.44
319.67	111.44
319.9	99.44
320.129	95.44
320.358	115.44
320.587	99.44
320.816	98.44
321.046	103.44
321.275	102.44
321.504	108.44
321.733	90.44
321.962	110.44
322.191	106.44
322.42	115.44
322.649	102.44
322.878	106.44
323.108	125.44
323.337	131.44
323.566	136.44
323.795	161.44
324.024	210.44
324.253	421.44
324.482	917.44
324.71	1909.44
324.939	2529.44
325.168	898.44
325.397	253.44
325.626	150.44
325.855	126.44
326.084	133.44
326.313	129.44
326.542	159.44
326.77	264.44
326.999	483.44
327.228	1037.44
327.457	1964.44
327.686	1529.44
327.914	469.44
328.143	396.44
328.372	430.44
328.6	257.44
328.829	164.44
329.058	148.44
329.287	159.44
329.515	145.44
329.744	195.44
329.972	327.44
330.201	645.44
330.43	929.44
330.658	431.44
330.887	222.44
331.115	158.44
331.344	127.44
331.572	112.44
331.801	116.44
332.03	120.44
332.258	106.44
332.486	87.44
332.715	90.44
332.943	110.44
333.172	115.44
333.4	112.44
333.629	135.44
333.857	174.44
334.085	318.44
334.314	594.44
334.542	1164.44
334.771	1104.44
334.999	323.44
335.227	148.44
335.455	108.44
335.684	114.44
335.912	106.44
336.14	91.44
336.369	98.44
336.597	120.44
336.825	99.44
337.053	88.44
337.281	98.44
337.51	106.44
337.738	94.44
337.966	108.44
338.194	92.44
338.422	86.44
338.65	97.44
338.878	92.44
339.106	96.44
339.334	90.44
339.562	91.44
339.79	96.44
340.018	95.44
340.246	97.44
340.474	102.44
340.702	105.44
340.93	98.44
341.158	105.44
341.386	88.44
341.614	108.44
341.842	104.44
342.07	113.44
342.298	94.44
342.526	82.44
342.754	86.44
342.981	86.44
343.209	77.44
343.437	104.44
343.665	109.44
343.893	84.44
344.12	98.44
344.348	99.44
344.576	84.44
344.804	102.44
345.031	99.44
345.259	99.44
345.487	115.44
345.714	105.44
345.942	90.44
346.17	100.44
346.397	87.44
346.625	86.44
346.853	97.44
347.08	87.44
347.308	105.44
347.535	102.44
347.763	110.44
347.99	106.44
348.218	110.44
348.445	104.44
348.673	102.44
348.9	103.44
349.128	93.44
349.355	111.44
349.583	82.44
349.81	110.44
350.037	96.44
350.265	93.44
350.492	98.44
350.72	82.44
350.947	100.44
351.174	110.44
351.402	103.44
351.629	98.44
351.856	108.44
352.083	108.44
352.311	113.44
352.538	119.44
352.765	108.44
352.992	122.44
353.22	115.44
353.447	124.44
353.674	111.44
353.901	110.44
354.128	97.44
354.355	97.44
354.583	99.44
354.81	108.44
355.037	112.44
355.264	103.44
355.491	109.44
355.718	98.44
355.945	87.44
356.172	78.44
356.399	81.44
356.626	82.44
356.853	79.44
357.08	98.44
357.307	101.44
357.534	87.44
357.761	95.44
357.988	93.44
358.215	90.44
358.441	105.44
358.668	92.44
358.895	81.44
359.122	89.44
359.349	99.44
359.576	93.44
359.802	95.44
360.029	124.44
360.256	109.44
360.483	107.44
360.709	110.44
360.936	95.44
361.163	88.44
361.39	101.44
361.616	84.44
361.843	98.44
362.07	116.44
362.296	102.44
362.523	88.44
362.749	106.44
362.976	94.44
363.203	91.44
363.429	99.44
363.656	78.44
363.882	88.44
364.109	98.44
364.335	87.44
364.562	102.44
364.788	94.44
365.015	103.44
365.241	111.44
365.468	103.44
365.694	107.44
365.92	106.44
366.147	98.44
366.373	88.44
366.599	98.44
366.826	98.44
367.052	92.44
367.278	93.44
367.505	88.44
367.731	87.44
367.957	93.44
368.184	82.44
368.41	88.44
368.636	100.44
368.862	110.44
369.089	91.44
369.315	92.44
369.541	87.44
369.767	88.44
369.993	90.44
370.219	91.44
370.445	95.44
370.672	97.44
370.898	96.44
371.124	79.44
371.35	90.44
371.576	82.44
371.802	86.44
372.028	90.44
372.254	100.44
372.48	79.44
372.706	79.44
372.932	91.44
373.158	84.44
373.384	87.44
373.61	94.44
373.835	102.44
374.061	93.44
374.287	88.44
374.513	98.44
374.739	87.44
374.965	78.44
375.191	107.44
375.416	104.44
375.642	107.44
375.868	94.44
376.094	101.44
376.319	92.44
376.545	100.44
376.771	100.44
376.997	68.44
377.222	95.44
377.448	106.44
377.674	92.44
377.899	87.44
378.125	95.44
378.35	62.44
378.576	80.44
378.802	95.44
379.027	99.44
379.253	92.44
379.478	87.44
379.704	97.44
379.929	94.44
380.155	99.44
380.38	92.44
380.606	85.44
380.831	103.44
381.057	105.44
381.282	94.44
381.507	94.44
381.733	107.44
381.958	101.44
382.184	100.44
382.409	102.44
382.634	102.44
382.86	87.44
383.085	109.44
383.31	103.44
383.535	100.44
383.761	95.44
383.986	88.44
384.211	103.44
384.436	96.44
384.662	102.44
384.887	106.44
385.112	109.44
385.337	99.44
385.562	111.44
385.787	103.44
386.013	120.44
386.238	109.44
386.463	99.44
386.688	110.44
386.913	106.44
387.138	97.44
387.363	104.44
387.588	82.44
387.813	95.44
388.038	92.44
388.263	110.44
388.488	110.44
388.713	93.44
388.938	95.44
389.163	83.44
389.387	76.44
389.612	101.44
389.837	98.44
390.062	78.44
390.287	81.44
390.512	91.44
390.736	81.44
390.961	90.44
391.186	90.44
391.411	98.44
391.636	101.44
391.86	90.44
392.085	76.44
392.31	98.44
392.534	92.44
392.759	76.44
392.984	101.44
393.208	71.44
393.433	96.44
393.658	80.44
393.882	98.44
394.107	86.44
394.331	92.44
394.556	93.44
394.78	87.44
395.005	77.44
395.229	94.44
395.454	80.44
395.678	107.44
395.903	85.44
396.127	79.44
396.352	99.44
396.576	80.44
396.801	86.44
397.025	82.44
397.249	72.44
397.474	80.44
397.698	77.44
397.922	82.44
398.147	78.44
398.371	80.44
398.595	90.44
398.82	85.44
399.044	95.44
399.268	99.44
399.492	92.44
399.717	101.44
399.941	91.44
400.165	100.44
400.389	109.44
400.613	76.44
400.837	79.44
401.062	93.44
401.286	92.44
401.51	84.44
401.734	101.44
401.958	104.44
402.182	126.44
402.406	162.44
402.63	126.44
402.854	103.44
403.078	98.44
403.302	93.44
403.526	92.44
403.75	86.44
403.974	70.44
404.198	93.44
404.422	98.44
404.645	92.44
404.869	110.44
405.093	95.44
405.317	127.44
405.541	116.44
405.765	113.44
405.988	119.44
406.212	171.44
406.436	238.44
406.66	156.44
406.883	105.44
407.107	93.44
407.331	112.44
407.555	102.44
407.778	110.44
408.002	91.44
408.226	93.44
408.449	84.44
408.673	76.44
408.896	94.44
409.12	99.44
409.344	97.44
409.567	78.44
409.791	90.44
410.014	90.44
410.238	93.44
410.461	97.44
410.685	96.44
410.908	98.44
411.132	97.44
411.355	100.44
411.578	103.44
411.802	86.44
412.025	107.44
412.249	108.44
412.472	114.44
412.695	130.44
412.919	107.44
413.142	98.44
413.365	101.44
413.589	93.44
413.812	77.44
414.035	90.44
414.258	77.44
414.482	94.44
414.705	88.44
414.928	92.44
415.151	91.44
415.374	95.44
415.597	98.44
415.821	94.44
416.044	93.44
416.267	95.44
416.49	95.44
416.713	83.44
416.936	96.44
417.159	101.44
417.382	94.44
417.605	102.44
417.828	101.44
418.051	108.44
418.274	90.44
418.497	83.44
418.72	86.44
418.943	92.44
419.166	85.44
419.389	83.44
419.611	99.44
419.834	91.44
420.057	103.44
420.28	92.44
420.503	98.44
420.726	87.44
420.948	102.44
421.171	91.44
421.394	90.44
421.617	93.44
421.839	95.44
422.062	87.44
422.285	98.44
422.507	100.44
422.73	104.44
422.953	91.44
423.175	87.44
423.398	88.44
423.621	93.44
423.843	92.44
424.066	78.44
424.288	94.44
424.511	94.44
424.733	94.44
424.956	107.44
425.178	110.44
425.401	106.44
425.623	109.44
425.846	96.44
426.068	106.44
426.291	101.44
426.513	97.44
426.735	107.44
426.958	111.44
427.18	100.44
427.402	164.44
427.625	214.44
427.847	190.44
428.069	192.44
428.292	112.44
428.514	94.44
428.736	84.44
428.958	85.44
429.181	94.44
429.403	92.44
429.625	92.44
429.847	90.44
430.069	104.44
430.292	93.44
430.514	97.44
430.736	88.44
430.958	84.44
431.18	75.44
431.402	101.44
431.624	84.44
431.846	84.44
432.068	90.44
432.29	84.44
432.512	91.44
432.734	101.44
432.956	95.44
433.178	109.44
433.4	101.44
433.622	101.44
433.844	83.44
434.066	84.44
434.287	91.44
434.509	100.44
434.731	90.44
434.953	86.44
435.175	92.44
435.397	100.44
435.618	91.44
435.84	115.44
436.062	138.44
436.284	126.44
436.505	120.44
436.727	110.44
436.949	93.44
437.17	107.44
437.392	92.44
437.614	98.44
437.835	111.44
438.057	123.44
438.278	122.44
438.5	116.44
438.721	127.44
438.943	112.44
439.165	92.44
439.386	87.44
439.608	89.44
439.829	111.44
440.05	130.44
440.272	170.44
440.493	119.44
440.715	96.44
440.936	89.44
441.158	93.44
441.379	79.44
441.6	83.44
441.822	102.44
442.043	87.44
442.264	103.44
442.486	101.44
442.707	91.44
442.928	111.44
443.149	156.44
443.371	135.44
443.592	129.44
443.813	115.44
444.034	113.44
444.255	103.44
444.476	91.44
444.698	80.44
444.919	83.44
445.14	131.44
445.361	125.44
445.582	129.44
445.803	164.44
446.024	154.44
446.245	147.44
446.466	112.44
446.687	97.44
446.908	85.44
447.129	89.44
447.35	79.44
447.571	91.44
447.792	94.44
448.013	105.44
448.234	113.44
448.455	119.44
448.675	124.44
448.896	126.44
449.117	106.44
449.338	122.44
449.559	140.44
449.779	156.44
450	97.44
450.221	88.44
450.442	86.44
450.662	85.44
450.883	96.44
451.104	138.44
451.324	88.44
451.545	83.44
451.766	92.44
451.986	98.44
452.207	87.44
452.428	103.44
452.648	94.44
452.869	97.44
453.089	128.44
453.31	105.44
453.53	92.44
453.751	86.44
453.971	106.44
454.192	98.44
454.412	94.44
454.633	92.44
454.853	96.44
455.073	79.44
455.294	94.44
455.514	115.44
455.734	84.44
455.955	93.44
456.175	84.44
456.395	82.44
456.616	83.44
456.836	70.44
457.056	84.44
457.276	80.44
457.497	81.44
457.717	90.44
457.937	90.44
458.157	95.44
458.377	102.44
458.598	109.44
458.818	160.44
459.038	190.44
459.258	127.44
459.478	92.44
459.698	92.44
459.918	78.44
460.138	95.44
460.358	94.44
460.578	92.44
460.798	91.44
461.018	90.44
461.238	90.44
461.458	87.44
461.678	92.44
461.898	85.44
462.118	83.44
462.338	67.44
462.558	104.44
462.777	78.44
462.997	90.44
463.217	102.44
463.437	103.44
463.657	93.44
463.876	105.44
464.096	90.44
464.316	103.44
464.536	82.44
464.755	87.44
464.975	102.44
465.195	194.44
465.414	188.44
465.634	101.44
465.854	100.44
466.073	88.44
466.293	92.44
466.512	104.44
466.732	107.44
466.951	95.44
467.171	103.44
467.391	113.44
467.61	115.44
467.829	166.44
468.049	387.44
468.268	527.44
468.488	165.44
468.707	108.44
468.927	90.44
469.146	92.44
469.365	80.44
469.585	110.44
469.804	106.44
470.023	104.44
470.243	91.44
470.462	91.44
470.681	117.44
470.901	100.44
471.12	95.44
471.339	109.44
471.558	108.44
471.777	138.44
471.997	222.44
472.216	711.44
472.435	1634.44
472.654	406.44
472.873	120.44
473.092	88.44
473.311	95.44
473.53	100.44
473.749	88.44
473.968	95.44
474.187	119.44
474.406	107.44
474.625	77.44
474.844	88.44
475.063	91.44
475.282	90.44
475.501	90.44
475.72	95.44
475.939	73.44
476.158	84.44
476.377	83.44
476.596	103.44
476.814	96.44
477.033	88.44
477.252	97.44
477.471	102.44
477.69	86.44
477.908	88.44
478.127	77.44
478.346	87.44
478.564	85.44
478.783	102.44
479.002	104.44
479.22	101.44
479.439	102.44
479.658	129.44
479.876	105.44
480.095	116.44
480.313	125.44
480.532	144.44
480.751	220.44
480.969	665.44
481.188	2766.44
481.406	1636.44
481.624	276.44
481.843	113.44
482.061	109.44
482.28	87.44
482.498	103.44
482.717	91.44
482.935	93.44
483.153	99.44
483.372	99.44
483.59	88.44
483.808	90.44
484.027	87.44
484.245	104.44
484.463	100.44
484.681	111.44
484.9	78.44
485.118	94.44
485.336	104.44
485.554	93.44
485.772	112.44
485.99	104.44
486.209	109.44
486.427	96.44
486.645	99.44
486.863	106.44
487.081	100.44
487.299	110.44
487.517	99.44
487.735	98.44
487.953	87.44
488.171	80.44
488.389	98.44
488.607	105.44
488.825	93.44
489.043	78.44
489.261	87.44
489.479	96.44
489.696	85.44
489.914	72.44
490.132	102.44
490.35	76.44
490.568	81.44
490.786	94.44
491.003	79.44
491.221	96.44
491.439	92.44
491.657	93.44
491.874	77.44
492.092	83.44
492.31	103.44
492.527	96.44
492.745	100.44
492.963	101.44
493.18	87.44
493.398	84.44
493.615	103.44
493.833	96.44
494.05	78.44
494.268	88.44
494.485	88.44
494.703	86.44
494.92	86.44
495.138	86.44
495.355	96.44
495.573	101.44
495.79	80.44
496.008	91.44
496.225	84.44
496.442	75.44
496.66	87.44
496.877	101.44
497.094	86.44
497.312	93.44
497.529	94.44
497.746	83.44
497.963	101.44
498.181	82.44
498.398	96.44
498.615	117.44
498.832	108.44
499.049	99.44
499.267	96.44
499.484	107.44
499.701	110.44
499.918	96.44
500.135	95.44
500.352	102.44
500.569	85.44
500.786	92.44
501.003	84.44
501.22	82.44
501.437	100.44
501.654	105.44
501.871	114.44
502.088	91.44
502.305	97.44
502.522	93.44
502.739	96.44
502.956	102.44
503.172	92.44
503.389	93.44
503.606	99.44
503.823	116.44
504.04	93.44
504.256	87.44
504.473	84.44
504.69	79.44
504.907	96.44
505.123	95.44
505.34	95.44
505.557	103.44
505.773	85.44
505.99	88.44
506.207	89.44
506.423	79.44
506.64	101.44
506.856	111.44
507.073	97.44
507.289	84.44
507.506	110.44
507.722	124.44
507.939	123.44
508.155	85.44
508.372	92.44
508.588	87.44
508.805	103.44
509.021	95.44
509.238	93.44
509.454	99.44
509.67	110.44
509.887	99.44
510.103	121.44
510.319	190.44
510.536	696.44
510.752	2283.44
510.968	658.44
511.184	150.44
511.401	110.44
511.617	100.44
511.833	102.44
512.049	94.44
512.265	86.44
512.481	98.44
512.698	92.44
512.914	97.44
513.13	97.44
513.346	88.44
513.562	108.44
