Data from Circ_1992_H10_HRD10591_00061.txt Node
Date: Wed Jan 03 11:47:57 EST 2024
User: Yrep
Spectrometer: HR+D1059
Trigger mode: 1
Integration Time (sec): 1.000000E-1
Scans to average: 1
Electric dark correction enabled: true
Nonlinearity correction enabled: false
Boxcar width: 0
XAxis mode: Wavelengths
Number of Pixels in Spectrum: 2048
>>>>>Begin Spectral Data<<<<<
223.165	-17.69
223.4	-17.69
223.635	-17.69
223.869	-23.69
224.104	-11.69
224.338	-8.69
224.573	-14.69
224.808	-6.69
225.042	-3.69
225.277	-8.69
225.511	-6.69
225.746	9.31
225.98	-12.69
226.215	10.31
226.449	8.31
226.683	21.31
226.918	30.31
227.152	35.31
227.387	27.31
227.621	31.31
227.856	47.31
228.09	58.31
228.324	47.31
228.559	36.31
228.793	142.31
229.027	444.31
229.262	482.31
229.496	592.31
229.73	781.31
229.964	807.31
230.199	527.31
230.433	494.31
230.667	464.31
230.901	465.31
231.136	444.31
231.37	431.31
231.604	440.31
231.838	458.31
232.072	464.31
232.306	455.31
232.541	462.31
232.775	467.31
233.009	469.31
233.243	462.31
233.477	475.31
233.711	501.31
233.945	505.31
234.179	503.31
234.413	513.31
234.647	518.31
234.881	521.31
235.115	518.31
235.349	521.31
235.583	545.31
235.817	579.31
236.051	618.31
236.285	608.31
236.519	607.31
236.753	691.31
236.987	927.31
237.221	1373.31
237.455	1453.31
237.689	877.31
237.922	729.31
238.156	713.31
238.39	685.31
238.624	641.31
238.858	626.31
239.091	669.31
239.325	677.31
239.559	713.31
239.793	687.31
240.027	767.31
240.26	907.31
240.494	962.31
240.728	951.31
240.961	877.31
241.195	823.31
241.429	786.31
241.662	782.31
241.896	785.31
242.13	781.31
242.363	804.31
242.597	833.31
242.83	863.31
243.064	874.31
243.298	878.31
243.531	867.31
243.765	874.31
243.998	896.31
244.232	882.31
244.465	927.31
244.699	950.31
244.932	934.31
245.166	923.31
245.399	943.31
245.633	934.31
245.866	956.31
246.099	971.31
246.333	986.31
246.566	990.31
246.8	992.31
247.033	1059.31
247.266	1096.31
247.5	1107.31
247.733	1187.31
247.966	1171.31
248.2	1160.31
248.433	1213.31
248.666	1278.31
248.899	1399.31
249.133	1489.31
249.366	1533.31
249.599	1458.31
249.832	1416.31
250.066	1594.31
250.299	2037.31
250.532	2601.31
250.765	2572.31
250.998	2241.31
251.231	1919.31
251.465	1658.31
251.698	1574.31
251.931	1514.31
252.164	1449.31
252.397	1470.31
252.63	1561.31
252.863	1586.31
253.096	1723.31
253.329	1767.31
253.562	1636.31
253.795	1586.31
254.028	1606.31
254.261	1663.31
254.494	1873.31
254.727	2242.31
254.96	2317.31
255.193	2077.31
255.426	2132.31
255.659	2515.31
255.892	3607.31
256.124	4669.31
256.357	3898.31
256.59	2840.31
256.823	2325.31
257.056	2071.31
257.289	1950.31
257.521	1882.31
257.754	1834.31
257.987	1729.31
258.22	1692.31
258.452	1709.31
258.685	1689.31
258.918	1684.31
259.151	1718.31
259.383	1778.31
259.616	1780.31
259.849	1789.31
260.081	1926.31
260.314	2091.31
260.547	2025.31
260.779	1836.31
261.012	1787.31
261.244	1781.31
261.477	1722.31
261.71	1787.31
261.942	1798.31
262.175	1809.31
262.407	1719.31
262.64	1677.31
262.872	1750.31
263.105	1708.31
263.337	1704.31
263.57	1738.31
263.802	1735.31
264.035	1720.31
264.267	1686.31
264.499	1666.31
264.732	1776.31
264.964	1738.31
265.197	1739.31
265.429	1781.31
265.661	1775.31
265.894	1743.31
266.126	1813.31
266.358	1805.31
266.591	1810.31
266.823	1889.31
267.055	1934.31
267.287	1904.31
267.52	1859.31
267.752	1849.31
267.984	1917.31
268.216	1923.31
268.448	1959.31
268.681	2011.31
268.913	2110.31
269.145	2289.31
269.377	2341.31
269.609	2231.31
269.841	2183.31
270.073	2352.31
270.306	2573.31
270.538	2699.31
270.77	2524.31
271.002	2399.31
271.234	2405.31
271.466	2586.31
271.698	2708.31
271.93	2636.31
272.162	2699.31
272.394	2578.31
272.626	2445.31
272.858	2343.31
273.09	2307.31
273.322	2281.31
273.553	2237.31
273.785	2283.31
274.017	2269.31
274.249	2302.31
274.481	2317.31
274.713	2335.31
274.945	2405.31
275.176	2361.31
275.408	2421.31
275.64	2433.31
275.872	2427.31
276.104	2479.31
276.335	2492.31
276.567	2621.31
276.799	2803.31
277.031	3090.31
277.262	3241.31
277.494	2999.31
277.726	2788.31
277.957	2741.31
278.189	2570.31
278.421	2555.31
278.652	2572.31
278.884	2525.31
279.115	2488.31
279.347	2553.31
279.579	2646.31
279.81	2648.31
280.042	2840.31
280.273	3026.31
280.505	2849.31
280.736	2731.31
280.968	2665.31
281.199	2655.31
281.431	2648.31
281.662	2612.31
281.894	2645.31
282.125	2650.31
282.356	2794.31
282.588	2892.31
282.819	2773.31
283.051	2626.31
283.282	2591.31
283.513	2618.31
283.745	2641.31
283.976	2734.31
284.207	2696.31
284.439	2709.31
284.67	2671.31
284.901	2676.31
285.132	2712.31
285.364	2694.31
285.595	2670.31
285.826	2681.31
286.057	2776.31
286.288	2766.31
286.52	2749.31
286.751	2708.31
286.982	2753.31
287.213	2741.31
287.444	2803.31
287.675	2847.31
287.906	2959.31
288.138	2942.31
288.369	2941.31
288.6	2932.31
288.831	2917.31
289.062	2875.31
289.293	2897.31
289.524	2907.31
289.755	2861.31
289.986	2829.31
290.217	2819.31
290.448	2862.31
290.679	2837.31
290.91	2915.31
291.141	2849.31
291.371	2849.31
291.602	2881.31
291.833	2831.31
292.064	2847.31
292.295	2790.31
292.526	2878.31
292.757	2866.31
292.987	2778.31
293.218	2830.31
293.449	2879.31
293.68	2860.31
293.91	2867.31
294.141	2855.31
294.372	2847.31
294.603	2843.31
294.833	2895.31
295.064	2848.31
295.295	2893.31
295.525	2891.31
295.756	2962.31
295.987	3011.31
296.217	3170.31
296.448	3138.31
296.679	2944.31
296.909	2933.31
297.14	2982.31
297.37	3048.31
297.601	3015.31
297.831	3041.31
298.062	3042.31
298.292	3031.31
298.523	3126.31
298.753	3108.31
298.984	3114.31
299.214	3094.31
299.445	3155.31
299.675	3103.31
299.905	3149.31
300.136	3135.31
300.366	3133.31
300.597	3246.31
300.827	3248.31
301.057	3314.31
301.288	3361.31
301.518	3383.31
301.748	3363.31
301.979	3453.31
302.209	3487.31
302.439	3413.31
302.669	3346.31
302.9	3352.31
303.13	3335.31
303.36	3379.31
303.59	3468.31
303.82	3554.31
304.051	3411.31
304.281	3376.31
304.511	3260.31
304.741	3288.31
304.971	3303.31
305.201	3239.31
305.431	3273.31
305.661	3281.31
305.891	3286.31
306.121	3336.31
306.352	3333.31
306.582	3331.31
306.812	3283.31
307.042	3319.31
307.272	3468.31
307.502	3517.31
307.731	3494.31
307.961	3378.31
308.191	3317.31
308.421	3282.31
308.651	3333.31
308.881	3317.31
309.111	3333.31
309.341	3397.31
309.571	3453.31
309.8	3508.31
310.03	3602.31
310.26	3607.31
310.49	3573.31
310.72	3754.31
310.949	3817.31
311.179	3759.31
311.409	3651.31
311.639	3671.31
311.868	3643.31
312.098	3702.31
312.328	3811.31
312.557	3984.31
312.787	4037.31
313.017	3889.31
313.246	3778.31
313.476	3705.31
313.706	3751.31
313.935	3878.31
314.165	3896.31
314.394	3992.31
314.624	3934.31
314.853	3796.31
315.083	3790.31
315.312	3784.31
315.542	3723.31
315.771	3706.31
316.001	3696.31
316.23	3688.31
316.46	3720.31
316.689	3789.31
316.919	3778.31
317.148	3843.31
317.377	3841.31
317.607	3756.31
317.836	3783.31
318.065	3740.31
318.295	3738.31
318.524	3731.31
318.753	3720.31
318.983	3710.31
319.212	3689.31
319.441	3835.31
319.67	3809.31
319.9	3753.31
320.129	3744.31
320.358	3825.31
320.587	3789.31
320.816	3923.31
321.046	3900.31
321.275	3969.31
321.504	3943.31
321.733	3924.31
321.962	4036.31
322.191	4098.31
322.42	4221.31
322.649	4296.31
322.878	4386.31
323.108	4517.31
323.337	4684.31
323.566	4841.31
323.795	5171.31
324.024	5735.31
324.253	7534.31
324.482	11296.31
324.71	15517.31
324.939	15619.31
325.168	13223.31
325.397	6685.31
325.626	5425.31
325.855	5065.31
326.084	5037.31
326.313	5088.31
326.542	5300.31
326.77	6022.31
326.999	7486.31
327.228	11000.31
327.457	14921.31
327.686	14378.31
327.914	8845.31
328.143	8335.31
328.372	8711.31
328.6	7241.31
328.829	6478.31
329.058	6592.31
329.287	6750.31
329.515	6766.31
329.744	7401.31
329.972	9126.31
330.201	11657.31
330.43	12909.31
330.658	9683.31
330.887	7863.31
331.115	6766.31
331.344	6025.31
331.572	5778.31
331.801	5838.31
332.03	5849.31
332.258	5758.31
332.486	5776.31
332.715	5951.31
332.943	6118.31
333.172	6535.31
333.4	6945.31
333.629	7545.31
333.857	8507.31
334.085	10406.31
334.314	13182.31
334.542	15126.31
334.771	14458.31
334.999	9492.31
335.227	7409.31
335.455	6599.31
335.684	6124.31
335.912	5824.31
336.14	5642.31
336.369	5500.31
336.597	5449.31
336.825	5276.31
337.053	5174.31
337.281	5132.31
337.51	5023.31
337.738	4998.31
337.966	4952.31
338.194	4961.31
338.422	4808.31
338.65	4735.31
338.878	4709.31
339.106	4577.31
339.334	4651.31
339.562	4569.31
339.79	4540.31
340.018	4542.31
340.246	4455.31
340.474	4527.31
340.702	4455.31
340.93	4438.31
341.158	4478.31
341.386	4504.31
341.614	4432.31
341.842	4439.31
342.07	4315.31
342.298	4371.31
342.526	4317.31
342.754	4293.31
342.981	4309.31
343.209	4447.31
343.437	4640.31
343.665	4873.31
343.893	5078.31
344.12	5110.31
344.348	4857.31
344.576	4743.31
344.804	4737.31
345.031	4702.31
345.259	4575.31
345.487	4527.31
345.714	4368.31
345.942	4220.31
346.17	4131.31
346.397	4233.31
346.625	4205.31
346.853	4164.31
347.08	4161.31
347.308	4239.31
347.535	4280.31
347.763	4335.31
347.99	4271.31
348.218	4334.31
348.445	4408.31
348.673	4247.31
348.9	4181.31
349.128	4157.31
349.355	4064.31
349.583	4088.31
349.81	4044.31
350.037	4109.31
350.265	4054.31
350.492	4017.31
350.72	4017.31
350.947	4059.31
351.174	4181.31
351.402	4235.31
351.629	4175.31
351.856	4159.31
352.083	4275.31
352.311	4252.31
352.538	4285.31
352.765	4256.31
352.992	4234.31
353.22	4162.31
353.447	4107.31
353.674	4053.31
353.901	3973.31
354.128	3978.31
354.355	3978.31
354.583	3922.31
354.81	3998.31
355.037	3988.31
355.264	3962.31
355.491	3925.31
355.718	3899.31
355.945	3938.31
356.172	3932.31
356.399	3931.31
356.626	3931.31
356.853	3928.31
357.08	3902.31
357.307	3964.31
357.534	3832.31
357.761	3925.31
357.988	3934.31
358.215	3992.31
358.441	4000.31
358.668	3996.31
358.895	4006.31
359.122	4020.31
359.349	4130.31
359.576	4284.31
359.802	4445.31
360.029	4603.31
360.256	4557.31
360.483	4416.31
360.709	4202.31
360.936	4210.31
361.163	4208.31
361.39	4231.31
361.616	4149.31
361.843	4188.31
362.07	4160.31
362.296	4203.31
362.523	4185.31
362.749	4161.31
362.976	4127.31
363.203	4116.31
363.429	4147.31
363.656	4069.31
363.882	4074.31
364.109	4000.31
364.335	3994.31
364.562	4068.31
364.788	4013.31
365.015	4090.31
365.241	4063.31
365.468	4024.31
365.694	4085.31
365.92	4053.31
366.147	4029.31
366.373	4049.31
366.599	4019.31
366.826	3946.31
367.052	3896.31
367.278	4037.31
367.505	4049.31
367.731	4041.31
367.957	4111.31
368.184	4141.31
368.41	4213.31
368.636	4270.31
368.862	4208.31
369.089	4167.31
369.315	4110.31
369.541	4128.31
369.767	4131.31
369.993	4159.31
370.219	4181.31
370.445	4158.31
370.672	4154.31
370.898	4155.31
371.124	4259.31
371.35	4303.31
371.576	4197.31
371.802	4223.31
372.028	4215.31
372.254	4267.31
372.48	4319.31
372.706	4354.31
372.932	4414.31
373.158	4348.31
373.384	4272.31
373.61	4305.31
373.835	4297.31
374.061	4287.31
374.287	4425.31
374.513	4439.31
374.739	4596.31
374.965	4672.31
375.191	4596.31
375.416	4523.31
375.642	4407.31
375.868	4365.31
376.094	4306.31
376.319	4316.31
376.545	4288.31
376.771	4272.31
376.997	4249.31
377.222	4243.31
377.448	4181.31
377.674	4241.31
377.899	4172.31
378.125	4188.31
378.35	4169.31
378.576	4111.31
378.802	4135.31
379.027	4257.31
379.253	4215.31
379.478	4176.31
379.704	4213.31
379.929	4247.31
380.155	4279.31
380.38	4266.31
380.606	4272.31
380.831	4226.31
381.057	4274.31
381.282	4253.31
381.507	4254.31
381.733	4384.31
381.958	4395.31
382.184	4389.31
382.409	4425.31
382.634	4513.31
382.86	4480.31
383.085	4524.31
383.31	4620.31
383.535	4686.31
383.761	4725.31
383.986	4815.31
384.211	4886.31
384.436	4908.31
384.662	4955.31
384.887	5074.31
385.112	5054.31
385.337	5091.31
385.562	5067.31
385.787	5097.31
386.013	5192.31
386.238	5195.31
386.463	5223.31
386.688	5140.31
386.913	5065.31
387.138	5039.31
387.363	5101.31
387.588	4979.31
387.813	4968.31
388.038	5028.31
388.263	4988.31
388.488	5089.31
388.713	5019.31
388.938	5003.31
389.163	5010.31
389.387	4923.31
389.612	4874.31
389.837	4965.31
390.062	4919.31
390.287	4954.31
390.512	5019.31
390.736	5002.31
390.961	5094.31
391.186	5115.31
391.411	5349.31
391.636	5495.31
391.86	5547.31
392.085	5643.31
392.31	5484.31
392.534	5437.31
392.759	5247.31
392.984	5393.31
393.208	5277.31
393.433	5169.31
393.658	5166.31
393.882	5257.31
394.107	5239.31
394.331	5293.31
394.556	5274.31
394.78	5361.31
395.005	5395.31
395.229	5369.31
395.454	5579.31
395.678	5736.31
395.903	5734.31
396.127	5759.31
396.352	5558.31
396.576	5363.31
396.801	5385.31
397.025	5408.31
397.249	5526.31
397.474	5644.31
397.698	5658.31
397.922	5805.31
398.147	5937.31
398.371	5985.31
398.595	6192.31
398.82	6392.31
399.044	6959.31
399.268	7585.31
399.492	8645.31
399.717	9189.31
399.941	9059.31
400.165	8535.31
400.389	7815.31
400.613	7138.31
400.837	6649.31
401.062	6473.31
401.286	6443.31
401.51	6394.31
401.734	6355.31
401.958	6413.31
402.182	6586.31
402.406	6744.31
402.63	6702.31
402.854	6789.31
403.078	6911.31
403.302	7006.31
403.526	7166.31
403.75	7223.31
403.974	7335.31
404.198	7406.31
404.422	7492.31
404.645	7605.31
404.869	7918.31
405.093	8416.31
405.317	9088.31
405.541	8894.31
405.765	7941.31
405.988	7522.31
406.212	7537.31
406.436	7558.31
406.66	7696.31
406.883	7625.31
407.107	8152.31
407.331	8683.31
407.555	9133.31
407.778	8823.31
408.002	8118.31
408.226	7756.31
408.449	7581.31
408.673	7517.31
408.896	7697.31
409.12	7728.31
409.344	7344.31
409.567	7030.31
409.791	7055.31
410.014	6906.31
410.238	6828.31
410.461	6961.31
410.685	6925.31
410.908	7037.31
411.132	7240.31
411.355	7340.31
411.578	6978.31
411.802	6842.31
412.025	7113.31
412.249	7600.31
412.472	8255.31
412.695	8969.31
412.919	8134.31
413.142	7529.31
413.365	7262.31
413.589	6943.31
413.812	6699.31
414.035	6602.31
414.258	6639.31
414.482	6486.31
414.705	6573.31
414.928	6449.31
415.151	6415.31
415.374	6403.31
415.597	6336.31
415.821	6275.31
416.044	6335.31
416.267	6377.31
416.49	6224.31
416.713	6139.31
416.936	6289.31
417.159	6304.31
417.382	6557.31
417.605	6654.31
417.828	6757.31
418.051	6708.31
418.274	6496.31
418.497	6413.31
418.72	6498.31
418.943	6465.31
419.166	6892.31
419.389	7290.31
419.611	7316.31
419.834	7307.31
420.057	7482.31
420.28	7785.31
420.503	7621.31
420.726	7233.31
420.948	7256.31
421.171	7369.31
421.394	7143.31
421.617	6683.31
421.839	6583.31
422.062	6635.31
422.285	6707.31
422.507	7301.31
422.73	7903.31
422.953	7159.31
423.175	6869.31
423.398	6890.31
423.621	6853.31
423.843	7151.31
424.066	6999.31
424.288	6877.31
424.511	7089.31
424.733	7581.31
424.956	7973.31
425.178	7473.31
425.401	7768.31
425.623	7648.31
425.846	6634.31
426.068	6477.31
426.291	6416.31
426.513	6393.31
426.735	6595.31
426.958	7038.31
427.18	7857.31
427.402	9126.31
427.625	9427.31
427.847	8848.31
428.069	8656.31
428.292	7200.31
428.514	6374.31
428.736	6067.31
428.958	5953.31
429.181	5762.31
429.403	5736.31
429.625	5959.31
429.847	6208.31
430.069	6701.31
430.292	6283.31
430.514	5711.31
430.736	5717.31
430.958	5639.31
431.18	5614.31
431.402	5570.31
431.624	5464.31
431.846	5597.31
432.068	5563.31
432.29	5749.31
432.512	5625.31
432.734	5738.31
432.956	5620.31
433.178	5661.31
433.4	5745.31
433.622	5597.31
433.844	5687.31
434.066	5677.31
434.287	5735.31
434.509	5901.31
434.731	6140.31
434.953	6266.31
435.175	6383.31
435.397	6526.31
435.618	6496.31
435.84	6790.31
436.062	7709.31
436.284	7575.31
436.505	6336.31
436.727	6032.31
436.949	5830.31
437.17	5681.31
437.392	5615.31
437.614	5732.31
437.835	6206.31
438.057	7256.31
438.278	7855.31
438.5	7679.31
438.721	8587.31
438.943	7359.31
439.165	6254.31
439.386	6108.31
439.608	6094.31
439.829	6267.31
440.05	6634.31
440.272	6949.31
440.493	6357.31
440.715	5964.31
440.936	5880.31
441.158	5941.31
441.379	6085.31
441.6	6428.31
441.822	6621.31
442.043	7120.31
442.264	7848.31
442.486	7551.31
442.707	6628.31
442.928	6531.31
443.149	6785.31
443.371	6993.31
443.592	7451.31
443.813	8425.31
444.034	8385.31
444.255	7195.31
444.476	7066.31
444.698	7269.31
444.919	7350.31
445.14	7089.31
445.361	7071.31
445.582	7222.31
445.803	7955.31
446.024	8674.31
446.245	8175.31
446.466	7214.31
446.687	6234.31
446.908	5915.31
447.129	5648.31
447.35	5599.31
447.571	5552.31
447.792	5379.31
448.013	5563.31
448.234	5742.31
448.455	6347.31
448.675	7569.31
448.896	7962.31
449.117	6538.31
449.338	6789.31
449.559	8182.31
449.779	8335.31
450	6245.31
450.221	5648.31
450.442	5344.31
450.662	5363.31
450.883	5492.31
451.104	5529.31
451.324	5403.31
451.545	5238.31
451.766	5073.31
451.986	4976.31
452.207	4967.31
452.428	4913.31
452.648	4964.31
452.869	4976.31
453.089	4989.31
453.31	5102.31
453.53	5005.31
453.751	4961.31
453.971	4917.31
454.192	5102.31
454.412	4951.31
454.633	4786.31
454.853	4798.31
455.073	4825.31
455.294	5250.31
455.514	5801.31
455.734	5240.31
455.955	4689.31
456.175	4653.31
456.395	4626.31
456.616	4551.31
456.836	4621.31
457.056	4557.31
457.276	4559.31
457.497	4748.31
457.717	4659.31
457.937	4728.31
458.157	4845.31
458.377	4901.31
458.598	5287.31
458.818	5923.31
459.038	6717.31
459.258	6520.31
459.478	5815.31
459.698	5714.31
459.918	5748.31
460.138	5870.31
460.358	6110.31
460.578	6202.31
460.798	6205.31
461.018	6142.31
461.238	6168.31
461.458	6029.31
461.678	6098.31
461.898	6194.31
462.118	6213.31
462.338	6528.31
462.558	6725.31
462.777	6997.31
462.997	7450.31
463.217	7935.31
463.437	7699.31
463.657	7176.31
463.876	7063.31
464.096	7049.31
464.316	7058.31
464.536	7071.31
464.755	6864.31
464.975	6757.31
465.195	6943.31
465.414	7052.31
465.634	6222.31
465.854	5831.31
466.073	5580.31
466.293	5445.31
466.512	5342.31
466.732	5103.31
466.951	5223.31
467.171	5211.31
467.391	5374.31
467.61	5433.31
467.829	5655.31
468.049	6429.31
468.268	7202.31
468.488	6113.31
468.707	5457.31
468.927	5315.31
469.146	5219.31
469.365	5192.31
469.585	5174.31
469.804	5324.31
470.023	5522.31
470.243	5421.31
470.462	5572.31
470.681	5681.31
470.901	5622.31
471.12	5488.31
471.339	5546.31
471.558	5585.31
471.777	5677.31
471.997	6097.31
472.216	8042.31
472.435	12102.31
472.654	9095.31
472.873	6854.31
473.092	6123.31
473.311	5886.31
473.53	5695.31
473.749	5580.31
473.968	6007.31
474.187	6970.31
474.406	6482.31
474.625	5494.31
474.844	5236.31
475.063	5222.31
475.282	5196.31
475.501	5270.31
475.72	5264.31
475.939	5205.31
476.158	5352.31
476.377	5349.31
476.596	5292.31
476.814	5453.31
477.033	5541.31
477.252	5541.31
477.471	5664.31
477.69	5734.31
477.908	5906.31
478.127	6008.31
478.346	6038.31
478.564	6141.31
478.783	6220.31
479.002	6462.31
479.22	6453.31
479.439	6542.31
479.658	6749.31
479.876	6831.31
480.095	7095.31
480.313	7610.31
480.532	7647.31
480.751	8149.31
480.969	10138.31
481.188	15328.31
481.406	15473.31
481.624	10913.31
481.843	8985.31
482.061	7967.31
482.28	7429.31
482.498	7035.31
482.717	6840.31
482.935	6676.31
483.153	6607.31
483.372	6465.31
483.59	6369.31
483.808	6319.31
484.027	6295.31
484.245	6358.31
484.463	6362.31
484.681	6382.31
484.9	6380.31
485.118	6446.31
485.336	6452.31
485.554	6576.31
485.772	6439.31
485.99	6580.31
486.209	6685.31
486.427	6626.31
486.645	6637.31
486.863	6775.31
487.081	6744.31
487.299	6653.31
487.517	6727.31
487.735	6646.31
