Data from Circ_1992_H10_HRD10591_00033.txt Node
Date: Wed Jan 03 11:47:51 EST 2024
User: Yrep
Spectrometer: HR+D1059
Trigger mode: 1
Integration Time (sec): 1.000000E-1
Scans to average: 1
Electric dark correction enabled: true
Nonlinearity correction enabled: false
Boxcar width: 0
XAxis mode: Wavelengths
Number of Pixels in Spectrum: 2048
>>>>>Begin Spectral Data<<<<<
223.165	-20.88
223.4	-20.88
223.635	-20.88
223.869	-21.88
224.104	-8.88
224.338	-16.88
224.573	-8.88
224.808	-19.88
225.042	-6.88
225.277	-5.88
225.511	-6.88
225.746	11.12
225.98	6.12
226.215	7.12
226.449	10.12
226.683	26.12
226.918	29.12
227.152	27.12
227.387	42.12
227.621	50.12
227.856	39.12
228.09	54.12
228.324	48.12
228.559	51.12
228.793	55.12
229.027	63.12
229.262	43.12
229.496	76.12
229.73	90.12
229.964	81.12
230.199	80.12
230.433	85.12
230.667	89.12
230.901	80.12
231.136	71.12
231.37	76.12
231.604	86.12
231.838	80.12
232.072	68.12
232.306	76.12
232.541	81.12
232.775	86.12
233.009	82.12
233.243	98.12
233.477	90.12
233.711	77.12
233.945	83.12
234.179	64.12
234.413	100.12
234.647	90.12
234.881	79.12
235.115	90.12
235.349	74.12
235.583	82.12
235.817	92.12
236.051	88.12
236.285	92.12
236.519	76.12
236.753	79.12
236.987	76.12
237.221	84.12
237.455	95.12
237.689	72.12
237.922	96.12
238.156	79.12
238.39	79.12
238.624	71.12
238.858	66.12
239.091	80.12
239.325	80.12
239.559	83.12
239.793	87.12
240.027	84.12
240.26	78.12
240.494	81.12
240.728	72.12
240.961	74.12
241.195	84.12
241.429	82.12
241.662	75.12
241.896	70.12
242.13	73.12
242.363	85.12
242.597	86.12
242.83	76.12
243.064	77.12
243.298	79.12
243.531	76.12
243.765	75.12
243.998	79.12
244.232	84.12
244.465	95.12
244.699	70.12
244.932	85.12
245.166	80.12
245.399	78.12
245.633	88.12
245.866	77.12
246.099	71.12
246.333	74.12
246.566	89.12
246.8	85.12
247.033	78.12
247.266	78.12
247.5	70.12
247.733	56.12
247.966	80.12
248.2	92.12
248.433	89.12
248.666	79.12
248.899	92.12
249.133	78.12
249.366	107.12
249.599	102.12
249.832	71.12
250.066	86.12
250.299	76.12
250.532	94.12
250.765	77.12
250.998	80.12
251.231	79.12
251.465	87.12
251.698	77.12
251.931	86.12
252.164	69.12
252.397	86.12
252.63	68.12
252.863	69.12
253.096	98.12
253.329	81.12
253.562	82.12
253.795	78.12
254.028	76.12
254.261	86.12
254.494	77.12
254.727	85.12
254.96	81.12
255.193	86.12
255.426	81.12
255.659	72.12
255.892	78.12
256.124	74.12
256.357	94.12
256.59	87.12
256.823	89.12
257.056	92.12
257.289	84.12
257.521	80.12
257.754	65.12
257.987	96.12
258.22	76.12
258.452	72.12
258.685	92.12
258.918	85.12
259.151	76.12
259.383	85.12
259.616	99.12
259.849	81.12
260.081	90.12
260.314	85.12
260.547	90.12
260.779	105.12
261.012	83.12
261.244	87.12
261.477	90.12
261.71	92.12
261.942	114.12
262.175	128.12
262.407	96.12
262.64	97.12
262.872	86.12
263.105	89.12
263.337	88.12
263.57	87.12
263.802	81.12
264.035	83.12
264.267	78.12
264.499	82.12
264.732	76.12
264.964	65.12
265.197	78.12
265.429	85.12
265.661	82.12
265.894	93.12
266.126	78.12
266.358	79.12
266.591	86.12
266.823	84.12
267.055	88.12
267.287	79.12
267.52	64.12
267.752	83.12
267.984	92.12
268.216	87.12
268.448	91.12
268.681	109.12
268.913	68.12
269.145	80.12
269.377	90.12
269.609	83.12
269.841	83.12
270.073	98.12
270.306	95.12
270.538	91.12
270.77	87.12
271.002	83.12
271.234	86.12
271.466	83.12
271.698	92.12
271.93	85.12
272.162	80.12
272.394	92.12
272.626	84.12
272.858	89.12
273.09	87.12
273.322	82.12
273.553	104.12
273.785	96.12
274.017	90.12
274.249	99.12
274.481	93.12
274.713	87.12
274.945	96.12
275.176	85.12
275.408	91.12
275.64	92.12
275.872	95.12
276.104	99.12
276.335	97.12
276.567	95.12
276.799	124.12
277.031	122.12
277.262	125.12
277.494	117.12
277.726	109.12
277.957	94.12
278.189	93.12
278.421	97.12
278.652	94.12
278.884	78.12
279.115	89.12
279.347	84.12
279.579	91.12
279.81	112.12
280.042	118.12
280.273	142.12
280.505	118.12
280.736	101.12
280.968	98.12
281.199	99.12
281.431	83.12
281.662	74.12
281.894	88.12
282.125	86.12
282.356	131.12
282.588	150.12
282.819	128.12
283.051	91.12
283.282	90.12
283.513	94.12
283.745	99.12
283.976	94.12
284.207	86.12
284.439	67.12
284.67	90.12
284.901	84.12
285.132	84.12
285.364	92.12
285.595	86.12
285.826	84.12
286.057	85.12
286.288	78.12
286.52	99.12
286.751	87.12
286.982	98.12
287.213	96.12
287.444	103.12
287.675	89.12
287.906	106.12
288.138	91.12
288.369	90.12
288.6	103.12
288.831	94.12
289.062	78.12
289.293	90.12
289.524	90.12
289.755	84.12
289.986	79.12
290.217	91.12
290.448	98.12
290.679	83.12
290.91	88.12
291.141	95.12
291.371	83.12
291.602	85.12
291.833	82.12
292.064	78.12
292.295	81.12
292.526	94.12
292.757	91.12
292.987	101.12
293.218	75.12
293.449	80.12
293.68	85.12
293.91	103.12
294.141	91.12
294.372	79.12
294.603	81.12
294.833	93.12
295.064	98.12
295.295	79.12
295.525	82.12
295.756	114.12
295.987	114.12
296.217	151.12
296.448	134.12
296.679	94.12
296.909	90.12
297.14	83.12
297.37	77.12
297.601	90.12
297.831	85.12
298.062	92.12
298.292	84.12
298.523	85.12
298.753	84.12
298.984	95.12
299.214	83.12
299.445	94.12
299.675	98.12
299.905	99.12
300.136	90.12
300.366	95.12
300.597	96.12
300.827	105.12
301.057	88.12
301.288	100.12
301.518	109.12
301.748	89.12
301.979	92.12
302.209	101.12
302.439	83.12
302.669	89.12
302.9	85.12
303.13	92.12
303.36	100.12
303.59	104.12
303.82	98.12
304.051	100.12
304.281	83.12
304.511	82.12
304.741	92.12
304.971	94.12
305.201	83.12
305.431	80.12
305.661	92.12
305.891	90.12
306.121	89.12
306.352	104.12
306.582	103.12
306.812	95.12
307.042	107.12
307.272	120.12
307.502	124.12
307.731	127.12
307.961	111.12
308.191	97.12
308.421	88.12
308.651	76.12
308.881	91.12
309.111	102.12
309.341	101.12
309.571	112.12
309.8	100.12
310.03	114.12
310.26	101.12
310.49	110.12
310.72	107.12
310.949	105.12
311.179	100.12
311.409	108.12
311.639	101.12
311.868	122.12
312.098	105.12
312.328	97.12
312.557	110.12
312.787	103.12
313.017	113.12
313.246	94.12
313.476	96.12
313.706	84.12
313.935	95.12
314.165	110.12
314.394	119.12
314.624	105.12
314.853	103.12
315.083	94.12
315.312	84.12
315.542	98.12
315.771	94.12
316.001	94.12
316.23	92.12
316.46	88.12
316.689	69.12
316.919	90.12
317.148	103.12
317.377	97.12
317.607	101.12
317.836	86.12
318.065	92.12
318.295	82.12
318.524	84.12
318.753	95.12
318.983	104.12
319.212	107.12
319.441	117.12
319.67	105.12
319.9	90.12
320.129	109.12
320.358	98.12
320.587	95.12
320.816	88.12
321.046	99.12
321.275	95.12
321.504	100.12
321.733	95.12
321.962	108.12
322.191	97.12
322.42	114.12
322.649	123.12
322.878	124.12
323.108	118.12
323.337	121.12
323.566	143.12
323.795	174.12
324.024	220.12
324.253	451.12
324.482	959.12
324.71	1968.12
324.939	2578.12
325.168	940.12
325.397	260.12
325.626	158.12
325.855	133.12
326.084	118.12
326.313	150.12
326.542	158.12
326.77	252.12
326.999	501.12
327.228	1070.12
327.457	1946.12
327.686	1551.12
327.914	451.12
328.143	324.12
328.372	335.12
328.6	220.12
328.829	133.12
329.058	146.12
329.287	170.12
329.515	143.12
329.744	177.12
329.972	263.12
330.201	475.12
330.43	634.12
330.658	338.12
330.887	204.12
331.115	146.12
331.344	104.12
331.572	127.12
331.801	115.12
332.03	103.12
332.258	114.12
332.486	111.12
332.715	95.12
332.943	93.12
333.172	112.12
333.4	110.12
333.629	138.12
333.857	162.12
334.085	233.12
334.314	463.12
334.542	829.12
334.771	795.12
334.999	244.12
335.227	118.12
335.455	115.12
335.684	124.12
335.912	102.12
336.14	117.12
336.369	110.12
336.597	103.12
336.825	112.12
337.053	96.12
337.281	88.12
337.51	102.12
337.738	86.12
337.966	99.12
338.194	87.12
338.422	100.12
338.65	99.12
338.878	92.12
339.106	101.12
339.334	89.12
339.562	81.12
339.79	85.12
340.018	87.12
340.246	88.12
340.474	89.12
340.702	92.12
340.93	91.12
341.158	103.12
341.386	104.12
341.614	100.12
341.842	108.12
342.07	91.12
342.298	87.12
342.526	92.12
342.754	107.12
342.981	81.12
343.209	110.12
343.437	100.12
343.665	87.12
343.893	87.12
344.12	101.12
344.348	96.12
344.576	66.12
344.804	89.12
345.031	101.12
345.259	104.12
345.487	102.12
345.714	95.12
345.942	86.12
346.17	108.12
346.397	100.12
346.625	95.12
346.853	94.12
347.08	96.12
347.308	106.12
347.535	105.12
347.763	100.12
347.99	111.12
348.218	111.12
348.445	110.12
348.673	112.12
348.9	106.12
349.128	84.12
349.355	91.12
349.583	101.12
349.81	89.12
350.037	111.12
350.265	96.12
350.492	103.12
350.72	104.12
350.947	110.12
351.174	125.12
351.402	103.12
351.629	112.12
351.856	102.12
352.083	112.12
352.311	118.12
352.538	113.12
352.765	119.12
352.992	123.12
353.22	107.12
353.447	110.12
353.674	128.12
353.901	98.12
354.128	98.12
354.355	103.12
354.583	94.12
354.81	101.12
355.037	90.12
355.264	91.12
355.491	97.12
355.718	85.12
355.945	106.12
356.172	110.12
356.399	102.12
356.626	87.12
356.853	85.12
357.08	104.12
357.307	97.12
357.534	86.12
357.761	105.12
357.988	102.12
358.215	103.12
358.441	83.12
358.668	103.12
358.895	91.12
359.122	97.12
359.349	95.12
359.576	104.12
359.802	90.12
360.029	138.12
360.256	119.12
360.483	111.12
360.709	93.12
360.936	97.12
361.163	95.12
361.39	94.12
361.616	107.12
361.843	82.12
362.07	105.12
362.296	106.12
362.523	100.12
362.749	97.12
362.976	91.12
363.203	104.12
363.429	96.12
363.656	91.12
363.882	92.12
364.109	97.12
364.335	98.12
364.562	110.12
364.788	91.12
365.015	88.12
365.241	103.12
365.468	106.12
365.694	114.12
365.92	100.12
366.147	91.12
366.373	98.12
366.599	99.12
366.826	86.12
367.052	95.12
367.278	103.12
367.505	96.12
367.731	94.12
367.957	100.12
368.184	103.12
368.41	108.12
368.636	110.12
368.862	129.12
369.089	113.12
369.315	106.12
369.541	100.12
369.767	91.12
369.993	85.12
370.219	84.12
370.445	92.12
370.672	82.12
370.898	88.12
371.124	90.12
371.35	86.12
371.576	102.12
371.802	93.12
372.028	83.12
372.254	101.12
372.48	92.12
372.706	81.12
372.932	94.12
373.158	90.12
373.384	98.12
373.61	100.12
373.835	103.12
374.061	93.12
374.287	89.12
374.513	102.12
374.739	84.12
374.965	91.12
375.191	84.12
375.416	98.12
375.642	93.12
375.868	104.12
376.094	92.12
376.319	108.12
376.545	99.12
376.771	100.12
376.997	104.12
377.222	99.12
377.448	96.12
377.674	104.12
377.899	102.12
378.125	111.12
378.35	93.12
378.576	78.12
378.802	77.12
379.027	95.12
379.253	95.12
379.478	111.12
379.704	103.12
379.929	103.12
380.155	95.12
380.38	107.12
380.606	104.12
380.831	86.12
381.057	104.12
381.282	97.12
381.507	100.12
381.733	95.12
381.958	84.12
382.184	110.12
382.409	103.12
382.634	119.12
382.86	106.12
383.085	112.12
383.31	107.12
383.535	108.12
383.761	109.12
383.986	87.12
384.211	90.12
384.436	118.12
384.662	106.12
384.887	110.12
385.112	111.12
385.337	118.12
385.562	128.12
385.787	97.12
386.013	106.12
386.238	124.12
386.463	111.12
386.688	115.12
386.913	117.12
387.138	103.12
387.363	104.12
387.588	92.12
387.813	99.12
388.038	122.12
388.263	116.12
388.488	125.12
388.713	88.12
388.938	86.12
389.163	83.12
389.387	97.12
389.612	103.12
389.837	88.12
390.062	97.12
390.287	93.12
390.512	103.12
390.736	87.12
390.961	79.12
391.186	97.12
391.411	79.12
391.636	82.12
391.86	78.12
392.085	90.12
392.31	85.12
392.534	99.12
392.759	93.12
392.984	90.12
393.208	93.12
393.433	94.12
393.658	87.12
393.882	98.12
394.107	86.12
394.331	87.12
394.556	94.12
394.78	94.12
395.005	100.12
395.229	80.12
395.454	99.12
395.678	87.12
395.903	85.12
396.127	92.12
396.352	101.12
396.576	88.12
396.801	98.12
397.025	91.12
397.249	82.12
397.474	98.12
397.698	92.12
397.922	83.12
398.147	85.12
398.371	87.12
398.595	79.12
398.82	93.12
399.044	81.12
399.268	87.12
399.492	84.12
399.717	83.12
399.941	92.12
400.165	76.12
400.389	93.12
400.613	88.12
400.837	78.12
401.062	86.12
401.286	94.12
401.51	99.12
401.734	92.12
401.958	96.12
402.182	112.12
402.406	181.12
402.63	124.12
402.854	104.12
403.078	85.12
403.302	98.12
403.526	81.12
403.75	108.12
403.974	86.12
404.198	87.12
404.422	86.12
404.645	107.12
404.869	88.12
405.093	94.12
405.317	104.12
405.541	131.12
405.765	127.12
405.988	139.12
406.212	199.12
406.436	267.12
406.66	163.12
406.883	114.12
407.107	104.12
407.331	99.12
407.555	116.12
407.778	92.12
408.002	83.12
408.226	92.12
408.449	94.12
408.673	104.12
408.896	97.12
409.12	101.12
409.344	87.12
409.567	83.12
409.791	83.12
410.014	100.12
410.238	87.12
410.461	96.12
410.685	94.12
410.908	86.12
411.132	90.12
411.355	102.12
411.578	98.12
411.802	93.12
412.025	96.12
412.249	108.12
412.472	96.12
412.695	123.12
412.919	102.12
413.142	102.12
413.365	95.12
413.589	88.12
413.812	82.12
414.035	91.12
414.258	95.12
414.482	92.12
414.705	82.12
414.928	96.12
415.151	98.12
415.374	96.12
415.597	87.12
415.821	101.12
416.044	100.12
416.267	90.12
416.49	92.12
416.713	85.12
416.936	83.12
417.159	81.12
417.382	102.12
417.605	98.12
417.828	94.12
418.051	102.12
418.274	90.12
418.497	79.12
418.72	88.12
418.943	88.12
419.166	94.12
419.389	88.12
419.611	93.12
419.834	80.12
420.057	79.12
420.28	101.12
420.503	87.12
420.726	97.12
420.948	102.12
421.171	96.12
421.394	104.12
421.617	93.12
421.839	94.12
422.062	85.12
422.285	96.12
422.507	105.12
422.73	108.12
422.953	95.12
423.175	94.12
423.398	82.12
423.621	100.12
423.843	93.12
424.066	87.12
424.288	92.12
424.511	85.12
424.733	105.12
424.956	117.12
425.178	107.12
425.401	103.12
425.623	104.12
425.846	82.12
426.068	96.12
426.291	91.12
426.513	101.12
426.735	99.12
426.958	92.12
427.18	115.12
427.402	173.12
427.625	221.12
427.847	204.12
428.069	161.12
428.292	116.12
428.514	98.12
428.736	74.12
428.958	77.12
429.181	92.12
429.403	84.12
429.625	91.12
429.847	101.12
430.069	107.12
430.292	97.12
430.514	72.12
430.736	92.12
430.958	104.12
431.18	80.12
431.402	81.12
431.624	101.12
431.846	93.12
432.068	85.12
432.29	78.12
432.512	95.12
432.734	84.12
432.956	91.12
433.178	106.12
433.4	95.12
433.622	106.12
433.844	102.12
434.066	87.12
434.287	95.12
434.509	103.12
434.731	91.12
434.953	84.12
435.175	83.12
435.397	100.12
435.618	115.12
435.84	111.12
436.062	138.12
436.284	113.12
436.505	109.12
436.727	103.12
436.949	90.12
437.17	77.12
437.392	77.12
437.614	92.12
437.835	124.12
438.057	151.12
438.278	124.12
438.5	111.12
438.721	127.12
438.943	107.12
439.165	87.12
439.386	86.12
439.608	89.12
439.829	109.12
440.05	133.12
440.272	179.12
440.493	110.12
440.715	89.12
440.936	91.12
441.158	107.12
441.379	87.12
441.6	101.12
441.822	101.12
442.043	98.12
442.264	108.12
442.486	102.12
442.707	116.12
442.928	116.12
443.149	140.12
443.371	149.12
443.592	124.12
443.813	114.12
444.034	117.12
444.255	100.12
444.476	80.12
444.698	82.12
444.919	97.12
445.14	129.12
445.361	131.12
445.582	116.12
445.803	170.12
446.024	159.12
446.245	160.12
446.466	130.12
446.687	96.12
446.908	73.12
447.129	97.12
447.35	95.12
447.571	101.12
447.792	90.12
448.013	100.12
448.234	108.12
448.455	115.12
448.675	111.12
448.896	142.12
449.117	110.12
449.338	124.12
449.559	150.12
449.779	158.12
450	106.12
450.221	87.12
450.442	100.12
450.662	109.12
450.883	112.12
451.104	109.12
451.324	88.12
451.545	81.12
451.766	100.12
451.986	87.12
452.207	83.12
452.428	93.12
452.648	111.12
452.869	104.12
453.089	119.12
453.31	121.12
453.53	97.12
453.751	98.12
453.971	112.12
454.192	111.12
454.412	101.12
454.633	91.12
454.853	90.12
455.073	92.12
455.294	90.12
455.514	114.12
455.734	100.12
455.955	90.12
456.175	95.12
456.395	85.12
456.616	86.12
456.836	93.12
457.056	87.12
457.276	85.12
457.497	85.12
457.717	84.12
457.937	90.12
458.157	91.12
458.377	94.12
458.598	104.12
458.818	177.12
459.038	188.12
459.258	125.12
459.478	93.12
459.698	87.12
459.918	84.12
460.138	83.12
460.358	91.12
460.578	97.12
460.798	86.12
461.018	103.12
461.238	77.12
461.458	93.12
461.678	90.12
461.898	90.12
462.118	108.12
462.338	99.12
462.558	91.12
462.777	97.12
462.997	89.12
463.217	95.12
463.437	97.12
463.657	91.12
463.876	94.12
464.096	91.12
464.316	92.12
464.536	103.12
464.755	94.12
464.975	116.12
465.195	191.12
465.414	197.12
465.634	102.12
465.854	92.12
466.073	98.12
466.293	84.12
466.512	87.12
466.732	87.12
466.951	90.12
467.171	98.12
467.391	110.12
467.61	116.12
467.829	153.12
468.049	274.12
468.268	375.12
468.488	135.12
468.707	83.12
468.927	90.12
469.146	98.12
469.365	70.12
469.585	91.12
469.804	86.12
470.023	95.12
470.243	99.12
470.462	107.12
470.681	140.12
470.901	98.12
471.12	91.12
471.339	104.12
471.558	105.12
471.777	107.12
471.997	186.12
472.216	524.12
472.435	1120.12
472.654	306.12
472.873	115.12
473.092	112.12
473.311	100.12
473.53	84.12
473.749	97.12
473.968	105.12
474.187	116.12
474.406	117.12
474.625	100.12
474.844	78.12
475.063	79.12
475.282	83.12
475.501	84.12
475.72	83.12
475.939	80.12
476.158	86.12
476.377	80.12
476.596	80.12
476.814	87.12
477.033	101.12
477.252	98.12
477.471	107.12
477.69	86.12
477.908	80.12
478.127	89.12
478.346	95.12
478.564	108.12
478.783	109.12
479.002	90.12
479.22	93.12
479.439	99.12
479.658	124.12
479.876	103.12
480.095	101.12
480.313	101.12
480.532	142.12
480.751	173.12
480.969	507.12
481.188	1918.12
481.406	1126.12
481.624	210.12
481.843	103.12
482.061	94.12
482.28	82.12
482.498	99.12
482.717	109.12
482.935	90.12
483.153	98.12
483.372	98.12
483.59	75.12
483.808	87.12
484.027	104.12
484.245	91.12
484.463	94.12
484.681	95.12
484.9	95.12
485.118	93.12
485.336	82.12
485.554	76.12
485.772	103.12
485.99	86.12
486.209	100.12
486.427	117.12
486.645	113.12
486.863	116.12
487.081	106.12
487.299	99.12
487.517	87.12
487.735	102.12
487.953	102.12
488.171	95.12
488.389	101.12
488.607	95.12
488.825	102.12
489.043	91.12
489.261	88.12
489.479	94.12
489.696	103.12
489.914	88.12
490.132	100.12
490.35	100.12
490.568	91.12
490.786	85.12
491.003	82.12
491.221	96.12
491.439	89.12
491.657	82.12
491.874	103.12
492.092	88.12
492.31	92.12
492.527	96.12
492.745	100.12
492.963	79.12
493.18	90.12
493.398	108.12
493.615	102.12
493.833	91.12
494.05	83.12
494.268	98.12
494.485	83.12
494.703	83.12
494.92	101.12
495.138	92.12
495.355	83.12
495.573	94.12
495.79	83.12
496.008	77.12
496.225	104.12
496.442	88.12
496.66	92.12
496.877	90.12
497.094	99.12
497.312	87.12
497.529	85.12
497.746	85.12
497.963	95.12
498.181	109.12
498.398	97.12
498.615	102.12
498.832	83.12
499.049	99.12
499.267	83.12
499.484	83.12
499.701	86.12
499.918	95.12
500.135	90.12
500.352	94.12
500.569	99.12
500.786	93.12
501.003	92.12
501.22	87.12
501.437	95.12
501.654	84.12
501.871	112.12
502.088	99.12
502.305	98.12
502.522	87.12
502.739	86.12
502.956	82.12
503.172	87.12
503.389	98.12
503.606	121.12
503.823	102.12
504.04	111.12
504.256	94.12
504.473	91.12
504.69	87.12
504.907	101.12
505.123	91.12
505.34	93.12
505.557	97.12
505.773	90.12
505.99	94.12
506.207	88.12
506.423	80.12
506.64	83.12
506.856	87.12
507.073	88.12
507.289	101.12
507.506	94.12
507.722	115.12
507.939	123.12
508.155	109.12
508.372	83.12
508.588	90.12
508.805	97.12
509.021	94.12
509.238	84.12
509.454	95.12
509.67	103.12
509.887	112.12
510.103	144.12
510.319	219.12
510.536	805.12
510.752	2766.12
510.968	748.12
511.184	162.12
511.401	111.12
511.617	107.12
511.833	92.12
512.049	102.12
512.265	92.12
512.481	94.12
512.698	91.12
512.914	89.12
513.13	95.12
513.346	87.12
