Data from Circ_1992_H10_HRD10591_00018.txt Node
Date: Wed Jan 03 11:47:48 EST 2024
User: Yrep
Spectrometer: HR+D1059
Trigger mode: 1
Integration Time (sec): 1.000000E-1
Scans to average: 1
Electric dark correction enabled: true
Nonlinearity correction enabled: false
Boxcar width: 0
XAxis mode: Wavelengths
Number of Pixels in Spectrum: 2048
>>>>>Begin Spectral Data<<<<<
223.165	-12
223.4	-12
223.635	-12
223.869	-12
224.104	-25
224.338	-8
224.573	-26
224.808	-18
225.042	-4
225.277	-15
225.511	2
225.746	-12
225.98	4
226.215	14
226.449	20
226.683	28
226.918	43
227.152	21
227.387	20
227.621	44
227.856	43
228.09	47
228.324	35
228.559	66
228.793	68
229.027	66
229.262	79
229.496	74
229.73	87
229.964	84
230.199	54
230.433	81
230.667	77
230.901	78
231.136	83
231.37	84
231.604	82
231.838	70
232.072	85
232.306	94
232.541	86
232.775	71
233.009	84
233.243	85
233.477	86
233.711	88
233.945	87
234.179	83
234.413	82
234.647	83
234.881	90
235.115	77
235.349	82
235.583	75
235.817	94
236.051	82
236.285	78
236.519	80
236.753	78
236.987	78
237.221	76
237.455	95
237.689	79
237.922	69
238.156	75
238.39	66
238.624	68
238.858	77
239.091	75
239.325	68
239.559	81
239.793	83
240.027	79
240.26	77
240.494	67
240.728	83
240.961	69
241.195	78
241.429	86
241.662	83
241.896	70
242.13	66
242.363	69
242.597	79
242.83	75
243.064	75
243.298	56
243.531	74
243.765	69
243.998	84
244.232	82
244.465	74
244.699	83
244.932	77
245.166	73
245.399	90
245.633	83
245.866	69
246.099	76
246.333	92
246.566	84
246.8	80
247.033	89
247.266	70
247.5	75
247.733	90
247.966	78
248.2	69
248.433	58
248.666	88
248.899	80
249.133	90
249.366	108
249.599	100
249.832	78
250.066	79
250.299	87
250.532	63
250.765	84
250.998	74
251.231	67
251.465	67
251.698	89
251.931	69
252.164	67
252.397	90
252.63	69
252.863	81
253.096	102
253.329	86
253.562	75
253.795	67
254.028	78
254.261	88
254.494	80
254.727	83
254.96	76
255.193	90
255.426	83
255.659	82
255.892	81
256.124	91
256.357	84
256.59	96
256.823	75
257.056	85
257.289	91
257.521	74
257.754	85
257.987	74
258.22	86
258.452	98
258.685	79
258.918	92
259.151	72
259.383	94
259.616	88
259.849	78
260.081	69
260.314	78
260.547	80
260.779	85
261.012	86
261.244	86
261.477	88
261.71	98
261.942	113
262.175	112
262.407	99
262.64	96
262.872	81
263.105	76
263.337	76
263.57	78
263.802	80
264.035	59
264.267	84
264.499	76
264.732	86
264.964	88
265.197	90
265.429	93
265.661	83
265.894	76
266.126	82
266.358	81
266.591	91
266.823	85
267.055	77
267.287	76
267.52	89
267.752	67
267.984	96
268.216	76
268.448	81
268.681	81
268.913	78
269.145	68
269.377	77
269.609	88
269.841	88
270.073	88
270.306	84
270.538	80
270.77	92
271.002	81
271.234	93
271.466	104
271.698	86
271.93	78
272.162	84
272.394	88
272.626	85
272.858	91
273.09	97
273.322	79
273.553	75
273.785	93
274.017	93
274.249	78
274.481	82
274.713	87
274.945	95
275.176	98
275.408	103
275.64	91
275.872	95
276.104	84
276.335	89
276.567	110
276.799	125
277.031	107
277.262	119
277.494	102
277.726	98
277.957	98
278.189	87
278.421	80
278.652	84
278.884	107
279.115	92
279.347	95
279.579	97
279.81	106
280.042	123
280.273	137
280.505	121
280.736	98
280.968	90
281.199	91
281.431	88
281.662	87
281.894	94
282.125	103
282.356	131
282.588	154
282.819	112
283.051	101
283.282	72
283.513	91
283.745	79
283.976	88
284.207	72
284.439	100
284.67	92
284.901	94
285.132	78
285.364	91
285.595	96
285.826	92
286.057	98
286.288	88
286.52	89
286.751	95
286.982	82
287.213	87
287.444	82
287.675	99
287.906	97
288.138	110
288.369	82
288.6	85
288.831	75
289.062	92
289.293	83
289.524	85
289.755	68
289.986	93
290.217	76
290.448	89
290.679	94
290.91	89
291.141	93
291.371	101
291.602	101
291.833	88
292.064	84
292.295	86
292.526	75
292.757	76
292.987	97
293.218	81
293.449	95
293.68	99
293.91	83
294.141	78
294.372	78
294.603	94
294.833	92
295.064	82
295.295	77
295.525	101
295.756	95
295.987	114
296.217	124
296.448	129
296.679	106
296.909	103
297.14	86
297.37	87
297.601	80
297.831	90
298.062	97
298.292	90
298.523	82
298.753	80
298.984	78
299.214	102
299.445	94
299.675	95
299.905	77
300.136	79
300.366	91
300.597	99
300.827	105
301.057	96
301.288	118
301.518	98
301.748	91
301.979	103
302.209	82
302.439	97
302.669	90
302.9	94
303.13	95
303.36	94
303.59	103
303.82	116
304.051	81
304.281	81
304.511	101
304.741	85
304.971	84
305.201	80
305.431	85
305.661	82
305.891	101
306.121	96
306.352	90
306.582	106
306.812	99
307.042	101
307.272	121
307.502	130
307.731	105
307.961	92
308.191	98
308.421	96
308.651	96
308.881	117
309.111	94
309.341	90
309.571	85
309.8	87
310.03	93
310.26	101
310.49	105
310.72	94
310.949	105
311.179	108
311.409	102
311.639	99
311.868	95
312.098	101
312.328	102
312.557	103
312.787	105
313.017	100
313.246	99
313.476	90
313.706	82
313.935	92
314.165	99
314.394	104
314.624	93
314.853	98
315.083	94
315.312	100
315.542	86
315.771	103
316.001	84
316.23	91
316.46	74
316.689	96
316.919	105
317.148	106
317.377	107
317.607	107
317.836	93
318.065	84
318.295	82
318.524	93
318.753	92
318.983	103
319.212	106
319.441	127
319.67	120
319.9	85
320.129	88
320.358	102
320.587	91
320.816	84
321.046	99
321.275	90
321.504	95
321.733	93
321.962	99
322.191	83
322.42	103
322.649	110
322.878	110
323.108	117
323.337	139
323.566	130
323.795	172
324.024	201
324.253	406
324.482	824
324.71	1696
324.939	2251
325.168	806
325.397	234
325.626	145
325.855	140
326.084	120
326.313	138
326.542	158
326.77	221
326.999	454
327.228	942
327.457	1697
327.686	1317
327.914	411
328.143	267
328.372	301
328.6	197
328.829	114
329.058	141
329.287	147
329.515	134
329.744	163
329.972	239
330.201	396
330.43	576
330.658	276
330.887	175
331.115	128
331.344	105
331.572	119
331.801	115
332.03	104
332.258	106
332.486	88
332.715	101
332.943	103
333.172	95
333.4	101
333.629	102
333.857	159
334.085	215
334.314	392
334.542	696
334.771	689
334.999	224
335.227	120
335.455	100
335.684	103
335.912	112
336.14	105
336.369	104
336.597	99
336.825	104
337.053	79
337.281	87
337.51	94
337.738	96
337.966	83
338.194	100
338.422	103
338.65	87
338.878	100
339.106	91
339.334	99
339.562	94
339.79	99
340.018	87
340.246	102
340.474	84
340.702	86
340.93	94
341.158	110
341.386	93
341.614	100
341.842	100
342.07	90
342.298	89
342.526	70
342.754	87
342.981	78
343.209	90
343.437	93
343.665	90
343.893	95
344.12	94
344.348	87
344.576	100
344.804	95
345.031	108
345.259	95
345.487	90
345.714	104
345.942	103
346.17	87
346.397	105
346.625	94
346.853	92
347.08	112
347.308	102
347.535	114
347.763	97
347.99	88
348.218	93
348.445	98
348.673	110
348.9	88
349.128	95
349.355	97
349.583	83
349.81	94
350.037	100
350.265	101
350.492	105
350.72	99
350.947	99
351.174	111
351.402	101
351.629	106
351.856	105
352.083	108
352.311	112
352.538	106
352.765	113
352.992	129
353.22	110
353.447	102
353.674	103
353.901	107
354.128	102
354.355	107
354.583	100
354.81	94
355.037	102
355.264	90
355.491	91
355.718	86
355.945	94
356.172	109
356.399	91
356.626	96
356.853	80
357.08	91
357.307	86
357.534	96
357.761	98
357.988	104
358.215	103
358.441	97
358.668	109
358.895	87
359.122	80
359.349	78
359.576	91
359.802	115
360.029	120
360.256	124
360.483	112
360.709	97
360.936	101
361.163	104
361.39	105
361.616	111
361.843	95
362.07	96
362.296	102
362.523	78
362.749	93
362.976	95
363.203	99
363.429	98
363.656	85
363.882	88
364.109	76
364.335	95
364.562	80
364.788	94
365.015	78
365.241	101
365.468	110
365.694	97
365.92	104
366.147	101
366.373	77
366.599	78
366.826	87
367.052	96
367.278	85
367.505	80
367.731	94
367.957	99
368.184	93
368.41	104
368.636	113
368.862	131
369.089	93
369.315	96
369.541	95
369.767	76
369.993	109
370.219	96
370.445	91
370.672	102
370.898	86
371.124	86
371.35	109
371.576	86
371.802	76
372.028	91
372.254	88
372.48	92
372.706	80
372.932	93
373.158	76
373.384	87
373.61	93
373.835	85
374.061	107
374.287	93
374.513	76
374.739	98
374.965	91
375.191	85
375.416	86
375.642	76
375.868	97
376.094	84
376.319	80
376.545	93
376.771	94
376.997	98
377.222	99
377.448	96
377.674	104
377.899	97
378.125	94
378.35	89
378.576	86
378.802	92
379.027	111
379.253	104
379.478	103
379.704	116
379.929	89
380.155	105
380.38	98
380.606	105
380.831	106
381.057	101
381.282	116
381.507	109
381.733	107
381.958	88
382.184	98
382.409	108
382.634	107
382.86	97
383.085	114
383.31	113
383.535	115
383.761	135
383.986	103
384.211	107
384.436	120
384.662	105
384.887	117
385.112	124
385.337	125
385.562	128
385.787	125
386.013	125
386.238	135
386.463	128
386.688	116
386.913	126
387.138	128
387.363	125
387.588	116
387.813	122
388.038	128
388.263	134
388.488	139
388.713	96
388.938	86
389.163	98
389.387	95
389.612	81
389.837	103
390.062	94
390.287	99
390.512	106
390.736	87
390.961	104
391.186	84
391.411	82
391.636	98
391.86	93
392.085	96
392.31	87
392.534	72
392.759	88
392.984	96
393.208	94
393.433	101
393.658	93
393.882	88
394.107	83
394.331	102
394.556	91
394.78	90
395.005	79
395.229	81
395.454	104
395.678	87
395.903	94
396.127	103
396.352	99
396.576	86
396.801	88
397.025	90
397.249	89
397.474	92
397.698	93
397.922	80
398.147	99
398.371	93
398.595	88
398.82	84
399.044	95
399.268	91
399.492	109
399.717	82
399.941	100
400.165	102
400.389	108
400.613	92
400.837	96
401.062	71
401.286	86
401.51	91
401.734	87
401.958	94
402.182	139
402.406	169
402.63	122
402.854	102
403.078	99
403.302	91
403.526	87
403.75	86
403.974	87
404.198	85
404.422	91
404.645	88
404.869	92
405.093	105
405.317	104
405.541	119
405.765	114
405.988	118
406.212	191
406.436	243
406.66	158
406.883	116
407.107	108
407.331	86
407.555	102
407.778	97
408.002	87
408.226	94
408.449	86
408.673	93
408.896	104
409.12	95
409.344	89
409.567	84
409.791	85
410.014	107
410.238	90
410.461	95
410.685	89
410.908	103
411.132	110
411.355	106
411.578	94
411.802	68
412.025	105
412.249	97
412.472	119
412.695	122
412.919	108
413.142	100
413.365	97
413.589	91
413.812	97
414.035	101
414.258	96
414.482	105
414.705	98
414.928	87
415.151	101
415.374	94
415.597	98
415.821	79
416.044	89
416.267	84
416.49	97
416.713	81
416.936	87
417.159	99
417.382	95
417.605	100
417.828	99
418.051	101
418.274	100
418.497	104
418.72	74
418.943	93
419.166	77
419.389	96
419.611	94
419.834	88
420.057	99
420.28	81
420.503	86
420.726	94
420.948	85
421.171	106
421.394	103
421.617	92
421.839	93
422.062	91
422.285	89
422.507	97
422.73	103
422.953	111
423.175	104
423.398	94
423.621	95
423.843	90
424.066	77
424.288	91
424.511	106
424.733	107
424.956	103
425.178	97
425.401	116
425.623	94
425.846	96
426.068	91
426.291	88
426.513	100
426.735	97
426.958	99
427.18	108
427.402	156
427.625	179
427.847	177
428.069	175
428.292	103
428.514	106
428.736	89
428.958	84
429.181	77
429.403	92
429.625	105
429.847	104
430.069	115
430.292	104
430.514	89
430.736	81
430.958	93
431.18	100
431.402	103
431.624	94
431.846	83
432.068	94
432.29	93
432.512	96
432.734	98
432.956	91
433.178	100
433.4	106
433.622	102
433.844	97
434.066	98
434.287	86
434.509	84
434.731	109
434.953	86
435.175	92
435.397	98
435.618	89
435.84	113
436.062	136
436.284	125
436.505	114
436.727	96
436.949	91
437.17	90
437.392	102
437.614	88
437.835	107
438.057	135
438.278	103
438.5	108
438.721	122
438.943	108
439.165	89
439.386	96
439.608	87
439.829	86
440.05	130
440.272	170
440.493	110
440.715	85
440.936	77
441.158	98
441.379	84
441.6	100
441.822	101
442.043	85
442.264	110
442.486	96
442.707	102
442.928	121
443.149	161
443.371	152
443.592	112
443.813	119
444.034	110
444.255	96
444.476	78
444.698	93
444.919	82
445.14	120
445.361	134
445.582	125
445.803	147
446.024	145
446.245	149
446.466	128
446.687	84
446.908	97
447.129	95
447.35	97
447.571	90
447.792	92
448.013	91
448.234	107
448.455	109
448.675	114
448.896	122
449.117	96
449.338	109
449.559	139
449.779	133
450	103
450.221	94
450.442	98
450.662	91
450.883	108
451.104	113
451.324	108
451.545	79
451.766	81
451.986	86
452.207	100
452.428	97
452.648	105
452.869	115
453.089	111
453.31	116
453.53	94
453.751	86
453.971	108
454.192	131
454.412	103
454.633	86
454.853	84
455.073	96
455.294	99
455.514	118
455.734	78
455.955	75
456.175	83
456.395	96
456.616	84
456.836	101
457.056	90
457.276	83
457.497	99
457.717	72
457.937	95
458.157	81
458.377	91
458.598	109
458.818	166
459.038	178
459.258	120
459.478	100
459.698	82
459.918	80
460.138	96
460.358	94
460.578	88
460.798	103
461.018	92
461.238	81
461.458	93
461.678	88
461.898	80
462.118	85
462.338	88
462.558	98
462.777	80
462.997	106
463.217	91
463.437	81
463.657	72
463.876	92
464.096	86
464.316	99
464.536	103
464.755	99
464.975	98
465.195	167
465.414	180
465.634	95
465.854	94
466.073	87
466.293	105
466.512	97
466.732	83
466.951	85
467.171	90
467.391	101
467.61	109
467.829	130
468.049	242
468.268	330
468.488	131
468.707	97
468.927	91
469.146	82
469.365	76
469.585	96
469.804	100
470.023	100
470.243	107
470.462	105
470.681	112
470.901	91
471.12	84
471.339	84
471.558	105
471.777	103
471.997	170
472.216	463
472.435	970
472.654	290
472.873	108
473.092	92
473.311	89
473.53	98
473.749	90
473.968	86
474.187	126
474.406	103
474.625	93
474.844	79
475.063	94
475.282	93
475.501	87
475.72	82
475.939	99
476.158	99
476.377	85
476.596	106
476.814	100
477.033	84
477.252	102
477.471	74
477.69	92
477.908	86
478.127	85
478.346	91
478.564	94
478.783	90
479.002	96
479.22	99
479.439	94
479.658	105
479.876	98
480.095	114
480.313	107
480.532	123
480.751	162
480.969	443
481.188	1669
481.406	990
481.624	190
481.843	95
482.061	100
482.28	88
482.498	110
482.717	91
482.935	69
483.153	90
483.372	86
483.59	82
483.808	86
484.027	92
484.245	92
484.463	92
484.681	93
484.9	93
485.118	83
485.336	88
485.554	110
485.772	109
485.99	106
486.209	102
486.427	112
486.645	91
486.863	118
487.081	118
487.299	107
487.517	93
487.735	99
487.953	87
488.171	94
488.389	95
488.607	106
488.825	94
489.043	101
489.261	97
489.479	82
489.696	84
489.914	103
490.132	86
490.35	98
490.568	88
490.786	75
491.003	84
491.221	95
491.439	104
491.657	91
491.874	81
492.092	98
492.31	90
492.527	88
492.745	109
492.963	88
493.18	82
493.398	89
493.615	93
493.833	84
494.05	79
494.268	100
494.485	90
494.703	98
494.92	100
495.138	81
495.355	107
495.573	93
495.79	92
496.008	90
496.225	93
496.442	87
496.66	80
496.877	94
497.094	92
497.312	87
497.529	97
497.746	86
497.963	82
498.181	94
498.398	107
498.615	117
498.832	106
499.049	89
499.267	106
499.484	109
499.701	97
499.918	92
500.135	83
500.352	96
500.569	78
500.786	98
501.003	91
501.22	96
501.437	104
501.654	103
501.871	107
502.088	96
502.305	94
502.522	108
502.739	95
502.956	93
503.172	103
503.389	98
503.606	101
503.823	83
504.04	78
504.256	100
504.473	106
504.69	87
504.907	102
505.123	90
505.34	96
505.557	81
505.773	100
505.99	87
506.207	86
506.423	76
506.64	85
506.856	85
507.073	88
507.289	97
507.506	104
507.722	111
507.939	96
508.155	95
508.372	90
508.588	97
508.805	89
509.021	104
509.238	110
509.454	100
509.67	110
509.887	99
510.103	132
510.319	218
510.536	766
510.752	2440
510.968	684
511.184	154
511.401	125
511.617	97
511.833	106
512.049	92
512.265	99
512.481	99
512.698	84
512.914	103
513.13	82
513.346	80
513.562	91
513.778	100
513.994	101
514.21	105
514.426	132
514.642	146
514.858	115
515.074	166
515.29	476
515.506	1630
515.721	581
515.937	171
516.153	116
516.369	92
516.585	103
516.801	106
517.016	99
517.232	97
517.448	101
517.664	93
517.879	106
518.095	94
518.311	96
518.527	93
518.742	104
518.958	99
519.173	94
519.389	94
519.605	92
519.82	90
520.036	106
520.251	121
520.467	130
520.682	97
520.898	109
521.113	120
521.329	135
521.544	228
521.76	607
521.975	2677
522.19	1598
522.406	344
522.621	125
522.836	100
523.052	104
523.267	100
523.482	95
523.698	107
523.913	135
524.128	106
524.343	97
524.559	98
524.774	97
524.989	102
525.204	95
525.419	87
525.634	99
525.849	88
526.064	88
526.28	90
526.495	90
526.71	70
526.925	89
527.14	101
527.355	92
527.57	93
527.785	97
527.999	80
528.214	98
528.429	94
528.644	91
528.859	106
529.074	99
529.289	115
529.503	187
529.718	110
529.933	96
530.148	84
530.363	106
530.577	93
530.792	75
531.007	97
531.221	102
531.436	91
531.651	112
531.865	91
532.08	86
532.295	104
532.509	83
532.724	102
532.938	92
533.153	102
533.367	95
533.582	80
533.796	83
534.011	79
534.225	74
534.44	92
534.654	95
534.868	98
535.083	103
535.297	93
535.511	112
535.726	112
535.94	102
536.154	104
536.369	101
536.583	88
536.797	98
537.011	86
537.225	93
537.44	87
537.654	86
537.868	70
538.082	91
538.296	82
538.51	97
538.724	91
538.938	90
539.153	102
539.367	106
539.581	98
539.795	84
540.009	102
540.222	87
540.436	96
540.65	102
540.864	87
541.078	90
541.292	90
541.506	92
541.72	76
541.934	85
542.147	97
542.361	85
542.575	93
542.789	103
543.002	82
543.216	98
543.43	109
543.644	92
543.857	90
544.071	98
544.285	103
544.498	93
544.712	95
544.925	85
545.139	99
545.352	99
545.566	92
545.779	71
545.993	99
546.206	88
546.42	78
546.633	108
546.847	82
547.06	96
547.274	82
547.487	81
547.7	84
547.914	84
548.127	99
548.34	90
548.554	76
548.767	98
548.98	99
549.193	95
549.407	85
549.62	88
549.833	96
550.046	90
550.259	99
550.473	88
550.686	80
550.899	85
551.112	90
551.325	83
551.538	89
551.751	87
551.964	88
552.177	99
552.39	98
552.603	94
552.816	83
553.029	96
553.242	105
553.455	106
553.667	105
553.88	102
554.093	97
554.306	103
554.519	100
554.732	82
554.944	84
555.157	94
555.37	84
555.583	91
555.795	95
556.008	83
556.221	95
556.433	95
556.646	90
556.859	99
557.071	80
557.284	94
557.496	100
557.709	89
557.921	96
558.134	84
558.346	82
558.559	82
558.771	97
558.984	94
559.196	84
559.409	84
559.621	99
559.833	99
560.046	82
560.258	97
560.47	104
560.683	101
560.895	92
561.107	91
561.32	87
561.532	85
561.744	90
561.956	84
562.168	91
562.381	91
562.593	84
562.805	95
563.017	83
563.229	98
563.441	96
563.653	81
563.865	90
564.077	79
564.289	91
564.501	76
564.713	77
564.925	101
565.137	113
565.349	106
565.561	88
565.773	100
565.985	90
566.197	90
566.408	86
566.62	97
566.832	98
567.044	105
567.255	95
567.467	88
567.679	69
567.891	92
568.102	89
568.314	79
568.526	85
568.737	96
568.949	95
569.161	96
569.372	86
569.584	87
569.795	101
570.007	122
570.218	241
570.43	144
570.641	97
570.853	94
571.064	90
571.276	87
571.487	91
571.698	104
571.91	87
572.121	86
572.333	79
572.544	88
572.755	91
572.966	98
573.178	79
573.389	93
573.6	74
573.811	89
574.023	82
574.234	68
574.445	83
574.656	84
574.867	90
575.078	105
575.289	88
575.501	95
575.712	88
575.923	79
576.134	82
576.345	95
576.556	94
576.767	72
576.978	99
577.188	93
577.399	107
577.61	81
577.821	91
578.032	127
578.243	242
578.454	736
578.665	202
578.875	99
579.086	90
579.297	98
579.508	97
579.718	99
579.929	84
580.14	84
580.35	96
580.561	75
580.772	79
580.982	81
581.193	84
581.403	97
581.614	87
