Data from Circ_1992_H10_HRD10591_00052.txt Node
Date: Wed Jan 03 11:47:55 EST 2024
User: Yrep
Spectrometer: HR+D1059
Trigger mode: 1
Integration Time (sec): 1.000000E-1
Scans to average: 1
Electric dark correction enabled: true
Nonlinearity correction enabled: false
Boxcar width: 0
XAxis mode: Wavelengths
Number of Pixels in Spectrum: 2048
>>>>>Begin Spectral Data<<<<<
223.165	-30.75
223.4	-30.75
223.635	-30.75
223.869	-17.75
224.104	-29.75
224.338	-6.75
224.573	-9.75
224.808	-22.75
225.042	-18.75
225.277	0.25
225.511	-2.75
225.746	15.25
225.98	4.25
226.215	19.25
226.449	11.25
226.683	27.25
226.918	32.25
227.152	29.25
227.387	33.25
227.621	39.25
227.856	48.25
228.09	55.25
228.324	63.25
228.559	58.25
228.793	75.25
229.027	59.25
229.262	47.25
229.496	69.25
229.73	68.25
229.964	74.25
230.199	73.25
230.433	65.25
230.667	81.25
230.901	91.25
231.136	84.25
231.37	93.25
231.604	85.25
231.838	78.25
232.072	66.25
232.306	88.25
232.541	91.25
232.775	75.25
233.009	77.25
233.243	85.25
233.477	91.25
233.711	82.25
233.945	77.25
234.179	84.25
234.413	89.25
234.647	83.25
234.881	91.25
235.115	83.25
235.349	90.25
235.583	84.25
235.817	79.25
236.051	75.25
236.285	82.25
236.519	61.25
236.753	74.25
236.987	82.25
237.221	91.25
237.455	79.25
237.689	63.25
237.922	81.25
238.156	75.25
238.39	73.25
238.624	74.25
238.858	83.25
239.091	84.25
239.325	73.25
239.559	77.25
239.793	62.25
240.027	90.25
240.26	90.25
240.494	81.25
240.728	76.25
240.961	84.25
241.195	76.25
241.429	73.25
241.662	71.25
241.896	69.25
242.13	74.25
242.363	58.25
242.597	75.25
242.83	85.25
243.064	67.25
243.298	75.25
243.531	53.25
243.765	86.25
243.998	81.25
244.232	76.25
244.465	81.25
244.699	84.25
244.932	87.25
245.166	81.25
245.399	82.25
245.633	76.25
245.866	81.25
246.099	71.25
246.333	86.25
246.566	75.25
246.8	87.25
247.033	77.25
247.266	73.25
247.5	70.25
247.733	81.25
247.966	86.25
248.2	77.25
248.433	83.25
248.666	74.25
248.899	85.25
249.133	86.25
249.366	103.25
249.599	96.25
249.832	72.25
250.066	75.25
250.299	66.25
250.532	81.25
250.765	92.25
250.998	79.25
251.231	73.25
251.465	69.25
251.698	89.25
251.931	80.25
252.164	94.25
252.397	79.25
252.63	73.25
252.863	65.25
253.096	73.25
253.329	79.25
253.562	71.25
253.795	81.25
254.028	83.25
254.261	78.25
254.494	73.25
254.727	86.25
254.96	78.25
255.193	70.25
255.426	75.25
255.659	69.25
255.892	87.25
256.124	76.25
256.357	77.25
256.59	82.25
256.823	77.25
257.056	98.25
257.289	75.25
257.521	79.25
257.754	89.25
257.987	78.25
258.22	59.25
258.452	79.25
258.685	81.25
258.918	86.25
259.151	89.25
259.383	73.25
259.616	81.25
259.849	80.25
260.081	84.25
260.314	70.25
260.547	93.25
260.779	80.25
261.012	94.25
261.244	94.25
261.477	86.25
261.71	91.25
261.942	104.25
262.175	100.25
262.407	92.25
262.64	94.25
262.872	96.25
263.105	81.25
263.337	74.25
263.57	85.25
263.802	85.25
264.035	73.25
264.267	66.25
264.499	91.25
264.732	76.25
264.964	78.25
265.197	92.25
265.429	85.25
265.661	89.25
265.894	79.25
266.126	88.25
266.358	81.25
266.591	67.25
266.823	89.25
267.055	83.25
267.287	79.25
267.52	73.25
267.752	66.25
267.984	75.25
268.216	69.25
268.448	93.25
268.681	90.25
268.913	94.25
269.145	95.25
269.377	87.25
269.609	87.25
269.841	82.25
270.073	85.25
270.306	101.25
270.538	75.25
270.77	83.25
271.002	88.25
271.234	96.25
271.466	78.25
271.698	75.25
271.93	69.25
272.162	103.25
272.394	73.25
272.626	75.25
272.858	84.25
273.09	90.25
273.322	70.25
273.553	83.25
273.785	82.25
274.017	93.25
274.249	87.25
274.481	98.25
274.713	70.25
274.945	80.25
275.176	79.25
275.408	81.25
275.64	92.25
275.872	84.25
276.104	76.25
276.335	87.25
276.567	92.25
276.799	92.25
277.031	117.25
277.262	118.25
277.494	96.25
277.726	86.25
277.957	91.25
278.189	87.25
278.421	85.25
278.652	67.25
278.884	68.25
279.115	83.25
279.347	84.25
279.579	88.25
279.81	103.25
280.042	113.25
280.273	134.25
280.505	109.25
280.736	95.25
280.968	83.25
281.199	84.25
281.431	86.25
281.662	88.25
281.894	81.25
282.125	87.25
282.356	100.25
282.588	129.25
282.819	111.25
283.051	78.25
283.282	84.25
283.513	94.25
283.745	107.25
283.976	88.25
284.207	92.25
284.439	85.25
284.67	78.25
284.901	79.25
285.132	87.25
285.364	86.25
285.595	79.25
285.826	85.25
286.057	82.25
286.288	76.25
286.52	97.25
286.751	85.25
286.982	76.25
287.213	86.25
287.444	87.25
287.675	77.25
287.906	87.25
288.138	80.25
288.369	99.25
288.6	86.25
288.831	77.25
289.062	87.25
289.293	90.25
289.524	87.25
289.755	87.25
289.986	84.25
290.217	74.25
290.448	86.25
290.679	91.25
290.91	77.25
291.141	78.25
291.371	92.25
291.602	80.25
291.833	90.25
292.064	92.25
292.295	92.25
292.526	76.25
292.757	86.25
292.987	93.25
293.218	84.25
293.449	100.25
293.68	87.25
293.91	83.25
294.141	100.25
294.372	87.25
294.603	86.25
294.833	79.25
295.064	88.25
295.295	97.25
295.525	82.25
295.756	90.25
295.987	100.25
296.217	143.25
296.448	111.25
296.679	91.25
296.909	95.25
297.14	97.25
297.37	91.25
297.601	77.25
297.831	68.25
298.062	84.25
298.292	89.25
298.523	92.25
298.753	97.25
298.984	83.25
299.214	92.25
299.445	86.25
299.675	93.25
299.905	101.25
300.136	96.25
300.366	73.25
300.597	89.25
300.827	96.25
301.057	87.25
301.288	100.25
301.518	86.25
301.748	107.25
301.979	103.25
302.209	103.25
302.439	80.25
302.669	93.25
302.9	86.25
303.13	102.25
303.36	107.25
303.59	105.25
303.82	98.25
304.051	104.25
304.281	94.25
304.511	91.25
304.741	85.25
304.971	80.25
305.201	96.25
305.431	95.25
305.661	91.25
305.891	93.25
306.121	83.25
306.352	94.25
306.582	107.25
306.812	96.25
307.042	95.25
307.272	115.25
307.502	110.25
307.731	130.25
307.961	94.25
308.191	85.25
308.421	73.25
308.651	81.25
308.881	97.25
309.111	87.25
309.341	103.25
309.571	90.25
309.8	80.25
310.03	97.25
310.26	80.25
310.49	84.25
310.72	94.25
310.949	107.25
311.179	99.25
311.409	87.25
311.639	101.25
311.868	97.25
312.098	89.25
312.328	109.25
312.557	100.25
312.787	118.25
313.017	96.25
313.246	93.25
313.476	107.25
313.706	92.25
313.935	81.25
314.165	100.25
314.394	101.25
314.624	97.25
314.853	101.25
315.083	92.25
315.312	87.25
315.542	87.25
315.771	93.25
316.001	86.25
316.23	95.25
316.46	89.25
316.689	95.25
316.919	91.25
317.148	82.25
317.377	94.25
317.607	94.25
317.836	94.25
318.065	90.25
318.295	94.25
318.524	86.25
318.753	95.25
318.983	111.25
319.212	104.25
319.441	110.25
319.67	106.25
319.9	102.25
320.129	97.25
320.358	87.25
320.587	117.25
320.816	99.25
321.046	102.25
321.275	108.25
321.504	84.25
321.733	90.25
321.962	91.25
322.191	112.25
322.42	99.25
322.649	110.25
322.878	95.25
323.108	118.25
323.337	113.25
323.566	120.25
323.795	160.25
324.024	207.25
324.253	408.25
324.482	841.25
324.71	1808.25
324.939	2408.25
325.168	861.25
325.397	229.25
325.626	151.25
325.855	138.25
326.084	124.25
326.313	122.25
326.542	129.25
326.77	213.25
326.999	465.25
327.228	966.25
327.457	1863.25
327.686	1450.25
327.914	397.25
328.143	289.25
328.372	297.25
328.6	189.25
328.829	142.25
329.058	125.25
329.287	148.25
329.515	124.25
329.744	154.25
329.972	220.25
330.201	396.25
330.43	529.25
330.658	274.25
330.887	175.25
331.115	137.25
331.344	113.25
331.572	106.25
331.801	124.25
332.03	109.25
332.258	104.25
332.486	83.25
332.715	93.25
332.943	97.25
333.172	115.25
333.4	112.25
333.629	129.25
333.857	153.25
334.085	228.25
334.314	390.25
334.542	657.25
334.771	654.25
334.999	215.25
335.227	132.25
335.455	107.25
335.684	96.25
335.912	109.25
336.14	93.25
336.369	91.25
336.597	96.25
336.825	101.25
337.053	90.25
337.281	82.25
337.51	89.25
337.738	85.25
337.966	90.25
338.194	109.25
338.422	105.25
338.65	102.25
338.878	84.25
339.106	90.25
339.334	92.25
339.562	95.25
339.79	93.25
340.018	97.25
340.246	102.25
340.474	88.25
340.702	99.25
340.93	81.25
341.158	95.25
341.386	91.25
341.614	89.25
341.842	85.25
342.07	90.25
342.298	97.25
342.526	86.25
342.754	95.25
342.981	93.25
343.209	79.25
343.437	104.25
343.665	90.25
343.893	98.25
344.12	101.25
344.348	99.25
344.576	86.25
344.804	102.25
345.031	99.25
345.259	88.25
345.487	92.25
345.714	100.25
345.942	94.25
346.17	85.25
346.397	94.25
346.625	94.25
346.853	86.25
347.08	108.25
347.308	99.25
347.535	86.25
347.763	106.25
347.99	98.25
348.218	92.25
348.445	104.25
348.673	96.25
348.9	95.25
349.128	87.25
349.355	83.25
349.583	103.25
349.81	107.25
350.037	89.25
350.265	93.25
350.492	95.25
350.72	97.25
350.947	101.25
351.174	103.25
351.402	102.25
351.629	82.25
351.856	100.25
352.083	93.25
352.311	90.25
352.538	93.25
352.765	102.25
352.992	105.25
353.22	89.25
353.447	107.25
353.674	108.25
353.901	95.25
354.128	110.25
354.355	82.25
354.583	84.25
354.81	86.25
355.037	97.25
355.264	93.25
355.491	87.25
355.718	76.25
355.945	99.25
356.172	106.25
356.399	85.25
356.626	97.25
356.853	103.25
357.08	91.25
357.307	89.25
357.534	93.25
357.761	87.25
357.988	99.25
358.215	77.25
358.441	98.25
358.668	82.25
358.895	83.25
359.122	96.25
359.349	94.25
359.576	87.25
359.802	117.25
360.029	110.25
360.256	111.25
360.483	99.25
360.709	75.25
360.936	89.25
361.163	100.25
361.39	93.25
361.616	97.25
361.843	95.25
362.07	87.25
362.296	97.25
362.523	80.25
362.749	97.25
362.976	91.25
363.203	81.25
363.429	97.25
363.656	99.25
363.882	98.25
364.109	80.25
364.335	86.25
364.562	83.25
364.788	91.25
365.015	88.25
365.241	96.25
365.468	107.25
365.694	99.25
365.92	88.25
366.147	88.25
366.373	87.25
366.599	83.25
366.826	99.25
367.052	93.25
367.278	92.25
367.505	89.25
367.731	90.25
367.957	85.25
368.184	93.25
368.41	103.25
368.636	109.25
368.862	119.25
369.089	104.25
369.315	89.25
369.541	88.25
369.767	81.25
369.993	90.25
370.219	99.25
370.445	94.25
370.672	85.25
370.898	103.25
371.124	100.25
371.35	91.25
371.576	94.25
371.802	82.25
372.028	98.25
372.254	88.25
372.48	86.25
372.706	91.25
372.932	81.25
373.158	90.25
373.384	91.25
373.61	85.25
373.835	93.25
374.061	92.25
374.287	88.25
374.513	95.25
374.739	79.25
374.965	80.25
375.191	93.25
375.416	93.25
375.642	99.25
375.868	86.25
376.094	77.25
376.319	76.25
376.545	85.25
376.771	90.25
376.997	86.25
377.222	93.25
377.448	111.25
377.674	87.25
377.899	79.25
378.125	102.25
378.35	88.25
378.576	90.25
378.802	84.25
379.027	91.25
379.253	86.25
379.478	90.25
379.704	97.25
379.929	96.25
380.155	102.25
380.38	87.25
380.606	89.25
380.831	106.25
381.057	96.25
381.282	103.25
381.507	112.25
381.733	93.25
381.958	85.25
382.184	99.25
382.409	100.25
382.634	90.25
382.86	102.25
383.085	110.25
383.31	108.25
383.535	100.25
383.761	98.25
383.986	101.25
384.211	80.25
384.436	103.25
384.662	99.25
384.887	107.25
385.112	93.25
385.337	109.25
385.562	94.25
385.787	94.25
386.013	109.25
386.238	121.25
386.463	112.25
386.688	97.25
386.913	108.25
387.138	106.25
387.363	91.25
387.588	98.25
387.813	91.25
388.038	93.25
388.263	110.25
388.488	119.25
388.713	103.25
388.938	105.25
389.163	93.25
389.387	93.25
389.612	103.25
389.837	98.25
390.062	94.25
390.287	101.25
390.512	84.25
390.736	100.25
390.961	92.25
391.186	91.25
391.411	83.25
391.636	90.25
391.86	89.25
392.085	90.25
392.31	79.25
392.534	77.25
392.759	91.25
392.984	79.25
393.208	98.25
393.433	93.25
393.658	85.25
393.882	85.25
394.107	78.25
394.331	79.25
394.556	81.25
394.78	98.25
395.005	78.25
395.229	94.25
395.454	87.25
395.678	69.25
395.903	93.25
396.127	90.25
396.352	91.25
396.576	91.25
396.801	76.25
397.025	85.25
397.249	96.25
397.474	100.25
397.698	88.25
397.922	84.25
398.147	85.25
398.371	70.25
398.595	94.25
398.82	75.25
399.044	84.25
399.268	81.25
399.492	76.25
399.717	86.25
399.941	102.25
400.165	81.25
400.389	87.25
400.613	98.25
400.837	85.25
401.062	84.25
401.286	101.25
401.51	83.25
401.734	102.25
401.958	108.25
402.182	121.25
402.406	153.25
402.63	103.25
402.854	93.25
403.078	90.25
403.302	84.25
403.526	95.25
403.75	83.25
403.974	82.25
404.198	114.25
404.422	92.25
404.645	83.25
404.869	97.25
405.093	107.25
405.317	107.25
405.541	113.25
405.765	97.25
405.988	115.25
406.212	185.25
406.436	205.25
406.66	156.25
406.883	97.25
407.107	100.25
407.331	99.25
407.555	95.25
407.778	97.25
408.002	98.25
408.226	70.25
408.449	102.25
408.673	92.25
408.896	93.25
409.12	97.25
409.344	87.25
409.567	91.25
409.791	91.25
410.014	96.25
410.238	103.25
410.461	82.25
410.685	91.25
410.908	98.25
411.132	97.25
411.355	98.25
411.578	87.25
411.802	93.25
412.025	106.25
412.249	85.25
412.472	101.25
412.695	117.25
412.919	106.25
413.142	96.25
413.365	81.25
413.589	87.25
413.812	90.25
414.035	108.25
414.258	94.25
414.482	96.25
414.705	102.25
414.928	93.25
415.151	99.25
415.374	80.25
415.597	96.25
415.821	99.25
416.044	89.25
416.267	94.25
416.49	89.25
416.713	105.25
416.936	91.25
417.159	81.25
417.382	99.25
417.605	89.25
417.828	99.25
418.051	92.25
418.274	91.25
418.497	86.25
418.72	87.25
418.943	84.25
419.166	89.25
419.389	86.25
419.611	91.25
419.834	92.25
420.057	91.25
420.28	102.25
420.503	85.25
420.726	91.25
420.948	92.25
421.171	93.25
421.394	89.25
421.617	89.25
421.839	84.25
422.062	104.25
422.285	83.25
422.507	98.25
422.73	93.25
422.953	80.25
423.175	87.25
423.398	107.25
423.621	92.25
423.843	84.25
424.066	100.25
424.288	94.25
424.511	87.25
424.733	100.25
424.956	113.25
425.178	98.25
425.401	82.25
425.623	81.25
425.846	92.25
426.068	105.25
426.291	94.25
426.513	77.25
426.735	98.25
426.958	89.25
427.18	114.25
427.402	138.25
427.625	179.25
427.847	165.25
428.069	172.25
428.292	101.25
428.514	99.25
428.736	92.25
428.958	72.25
429.181	85.25
429.403	80.25
429.625	97.25
429.847	106.25
430.069	109.25
430.292	99.25
430.514	85.25
430.736	79.25
430.958	92.25
431.18	78.25
431.402	77.25
431.624	92.25
431.846	81.25
432.068	83.25
432.29	91.25
432.512	96.25
432.734	96.25
432.956	79.25
433.178	94.25
433.4	103.25
433.622	87.25
433.844	86.25
434.066	108.25
434.287	99.25
434.509	86.25
434.731	98.25
434.953	78.25
435.175	98.25
435.397	90.25
435.618	100.25
435.84	93.25
436.062	129.25
436.284	109.25
436.505	102.25
436.727	106.25
436.949	91.25
437.17	86.25
437.392	96.25
437.614	93.25
437.835	103.25
438.057	122.25
438.278	102.25
438.5	100.25
438.721	135.25
438.943	98.25
439.165	93.25
439.386	82.25
439.608	104.25
439.829	91.25
440.05	122.25
440.272	137.25
440.493	111.25
440.715	77.25
440.936	83.25
441.158	89.25
441.379	81.25
441.6	86.25
441.822	86.25
442.043	88.25
442.264	95.25
442.486	123.25
442.707	96.25
442.928	97.25
443.149	129.25
443.371	128.25
443.592	111.25
443.813	130.25
444.034	107.25
444.255	89.25
444.476	90.25
444.698	99.25
444.919	90.25
445.14	137.25
445.361	122.25
445.582	132.25
445.803	155.25
446.024	150.25
446.245	153.25
446.466	116.25
446.687	87.25
446.908	83.25
447.129	80.25
447.35	83.25
447.571	76.25
447.792	98.25
448.013	108.25
448.234	89.25
448.455	93.25
448.675	114.25
448.896	121.25
449.117	101.25
449.338	110.25
449.559	106.25
449.779	120.25
450	94.25
450.221	94.25
450.442	78.25
450.662	95.25
450.883	92.25
451.104	111.25
451.324	103.25
451.545	95.25
451.766	97.25
451.986	88.25
452.207	84.25
452.428	93.25
452.648	89.25
452.869	110.25
453.089	124.25
453.31	108.25
453.53	96.25
453.751	91.25
453.971	94.25
454.192	98.25
454.412	98.25
454.633	90.25
454.853	93.25
455.073	81.25
455.294	114.25
455.514	96.25
455.734	81.25
455.955	103.25
456.175	76.25
456.395	92.25
456.616	85.25
456.836	82.25
457.056	95.25
457.276	81.25
457.497	78.25
457.717	84.25
457.937	86.25
458.157	86.25
458.377	106.25
458.598	89.25
458.818	139.25
459.038	158.25
459.258	112.25
459.478	90.25
459.698	89.25
459.918	79.25
460.138	89.25
460.358	66.25
460.578	88.25
460.798	100.25
461.018	95.25
461.238	93.25
461.458	87.25
461.678	93.25
461.898	82.25
462.118	87.25
462.338	95.25
462.558	87.25
462.777	89.25
462.997	87.25
463.217	94.25
463.437	83.25
463.657	90.25
463.876	89.25
464.096	86.25
464.316	94.25
464.536	97.25
464.755	73.25
464.975	96.25
465.195	162.25
465.414	162.25
465.634	100.25
465.854	80.25
466.073	81.25
466.293	89.25
466.512	96.25
466.732	92.25
466.951	113.25
467.171	102.25
467.391	102.25
467.61	104.25
467.829	124.25
468.049	251.25
468.268	335.25
468.488	136.25
468.707	97.25
468.927	93.25
469.146	94.25
469.365	96.25
469.585	75.25
469.804	87.25
470.023	101.25
470.243	93.25
470.462	112.25
470.681	124.25
470.901	92.25
471.12	74.25
471.339	92.25
471.558	85.25
471.777	98.25
471.997	160.25
472.216	464.25
472.435	979.25
472.654	294.25
472.873	120.25
473.092	87.25
473.311	93.25
473.53	82.25
473.749	77.25
473.968	100.25
474.187	111.25
474.406	91.25
474.625	82.25
474.844	90.25
475.063	86.25
475.282	95.25
475.501	84.25
475.72	88.25
475.939	109.25
476.158	78.25
476.377	82.25
476.596	86.25
476.814	98.25
477.033	91.25
477.252	91.25
477.471	84.25
477.69	92.25
477.908	85.25
478.127	98.25
478.346	86.25
478.564	79.25
478.783	94.25
479.002	94.25
479.22	97.25
479.439	104.25
479.658	94.25
479.876	89.25
480.095	97.25
480.313	94.25
480.532	115.25
480.751	164.25
480.969	454.25
481.188	1657.25
481.406	977.25
481.624	198.25
481.843	97.25
482.061	84.25
482.28	112.25
482.498	90.25
482.717	95.25
482.935	99.25
483.153	87.25
483.372	90.25
483.59	79.25
483.808	78.25
484.027	89.25
484.245	103.25
484.463	85.25
484.681	81.25
484.9	100.25
485.118	101.25
485.336	103.25
485.554	102.25
485.772	85.25
485.99	100.25
486.209	112.25
486.427	100.25
486.645	115.25
486.863	111.25
487.081	107.25
487.299	98.25
487.517	85.25
487.735	93.25
487.953	90.25
488.171	83.25
488.389	95.25
488.607	112.25
488.825	105.25
489.043	80.25
489.261	86.25
489.479	99.25
489.696	85.25
489.914	84.25
490.132	86.25
490.35	98.25
490.568	90.25
490.786	83.25
491.003	73.25
491.221	100.25
491.439	92.25
491.657	89.25
491.874	94.25
492.092	87.25
492.31	97.25
492.527	97.25
492.745	69.25
492.963	78.25
493.18	93.25
493.398	97.25
493.615	90.25
493.833	91.25
494.05	87.25
494.268	94.25
494.485	72.25
494.703	75.25
494.92	86.25
495.138	93.25
495.355	83.25
495.573	91.25
495.79	97.25
496.008	100.25
496.225	94.25
496.442	91.25
496.66	94.25
496.877	86.25
497.094	101.25
497.312	80.25
497.529	79.25
497.746	92.25
497.963	92.25
498.181	91.25
498.398	86.25
498.615	109.25
498.832	92.25
499.049	90.25
499.267	86.25
499.484	85.25
499.701	84.25
499.918	87.25
500.135	89.25
500.352	92.25
500.569	90.25
500.786	94.25
501.003	80.25
501.22	106.25
501.437	93.25
501.654	98.25
501.871	89.25
502.088	97.25
502.305	91.25
502.522	86.25
502.739	87.25
502.956	93.25
503.172	80.25
503.389	88.25
503.606	100.25
503.823	79.25
504.04	84.25
504.256	98.25
504.473	76.25
504.69	99.25
504.907	91.25
505.123	93.25
505.34	89.25
505.557	90.25
505.773	99.25
505.99	92.25
506.207	102.25
506.423	98.25
506.64	94.25
506.856	86.25
507.073	84.25
507.289	91.25
507.506	102.25
507.722	126.25
507.939	111.25
508.155	89.25
508.372	89.25
508.588	97.25
508.805	89.25
509.021	96.25
509.238	92.25
509.454	94.25
509.67	105.25
509.887	103.25
510.103	130.25
510.319	186.25
510.536	651.25
510.752	2133.25
510.968	603.25
511.184	139.25
511.401	107.25
511.617	108.25
511.833	109.25
512.049	88.25
512.265	79.25
512.481	101.25
512.698	91.25
512.914	98.25
513.13	84.25
513.346	101.25
513.562	99.25
513.778	102.25
513.994	94.25
514.21	104.25
514.426	125.25
514.642	116.25
514.858	117.25
515.074	163.25
515.29	416.25
