Data from Circ_1992_H10_HRD10591_00021.txt Node
Date: Wed Jan 03 11:47:49 EST 2024
User: Yrep
Spectrometer: HR+D1059
Trigger mode: 1
Integration Time (sec): 1.000000E-1
Scans to average: 1
Electric dark correction enabled: true
Nonlinearity correction enabled: false
Boxcar width: 0
XAxis mode: Wavelengths
Number of Pixels in Spectrum: 2048
>>>>>Begin Spectral Data<<<<<
223.165	-26.56
223.4	-26.56
223.635	-26.56
223.869	-5.56
224.104	-18.56
224.338	-3.56
224.573	-12.56
224.808	5.44
225.042	-6.56
225.277	0.44
225.511	3.44
225.746	-0.56
225.98	1.44
226.215	12.44
226.449	16.44
226.683	5.44
226.918	14.44
227.152	14.44
227.387	39.44
227.621	38.44
227.856	49.44
228.09	53.44
228.324	50.44
228.559	70.44
228.793	61.44
229.027	58.44
229.262	68.44
229.496	61.44
229.73	65.44
229.964	85.44
230.199	75.44
230.433	76.44
230.667	75.44
230.901	75.44
231.136	76.44
231.37	85.44
231.604	86.44
231.838	76.44
232.072	74.44
232.306	78.44
232.541	82.44
232.775	80.44
233.009	64.44
233.243	74.44
233.477	80.44
233.711	82.44
233.945	85.44
234.179	76.44
234.413	80.44
234.647	77.44
234.881	85.44
235.115	62.44
235.349	67.44
235.583	73.44
235.817	70.44
236.051	79.44
236.285	75.44
236.519	78.44
236.753	81.44
236.987	82.44
237.221	83.44
237.455	83.44
237.689	88.44
237.922	72.44
238.156	83.44
238.39	81.44
238.624	66.44
238.858	72.44
239.091	65.44
239.325	76.44
239.559	57.44
239.793	86.44
240.027	72.44
240.26	84.44
240.494	90.44
240.728	81.44
240.961	86.44
241.195	62.44
241.429	69.44
241.662	70.44
241.896	83.44
242.13	84.44
242.363	72.44
242.597	74.44
242.83	66.44
243.064	79.44
243.298	76.44
243.531	96.44
243.765	76.44
243.998	79.44
244.232	84.44
244.465	95.44
244.699	86.44
244.932	79.44
245.166	68.44
245.399	74.44
245.633	88.44
245.866	71.44
246.099	82.44
246.333	88.44
246.566	83.44
246.8	86.44
247.033	95.44
247.266	78.44
247.5	72.44
247.733	71.44
247.966	82.44
248.2	85.44
248.433	79.44
248.666	83.44
248.899	94.44
249.133	72.44
249.366	88.44
249.599	86.44
249.832	78.44
250.066	77.44
250.299	81.44
250.532	83.44
250.765	67.44
250.998	69.44
251.231	83.44
251.465	86.44
251.698	89.44
251.931	76.44
252.164	78.44
252.397	62.44
252.63	81.44
252.863	84.44
253.096	72.44
253.329	81.44
253.562	78.44
253.795	79.44
254.028	77.44
254.261	83.44
254.494	75.44
254.727	91.44
254.96	83.44
255.193	65.44
255.426	86.44
255.659	78.44
255.892	87.44
256.124	90.44
256.357	78.44
256.59	79.44
256.823	83.44
257.056	76.44
257.289	86.44
257.521	96.44
257.754	88.44
257.987	82.44
258.22	86.44
258.452	94.44
258.685	81.44
258.918	68.44
259.151	84.44
259.383	68.44
259.616	73.44
259.849	83.44
260.081	93.44
260.314	82.44
260.547	75.44
260.779	92.44
261.012	85.44
261.244	94.44
261.477	98.44
261.71	84.44
261.942	106.44
262.175	110.44
262.407	84.44
262.64	89.44
262.872	84.44
263.105	76.44
263.337	82.44
263.57	85.44
263.802	92.44
264.035	86.44
264.267	89.44
264.499	79.44
264.732	85.44
264.964	77.44
265.197	96.44
265.429	91.44
265.661	88.44
265.894	73.44
266.126	83.44
266.358	78.44
266.591	84.44
266.823	86.44
267.055	93.44
267.287	94.44
267.52	75.44
267.752	84.44
267.984	91.44
268.216	82.44
268.448	73.44
268.681	91.44
268.913	86.44
269.145	83.44
269.377	78.44
269.609	81.44
269.841	97.44
270.073	80.44
270.306	87.44
270.538	85.44
270.77	81.44
271.002	101.44
271.234	99.44
271.466	92.44
271.698	90.44
271.93	92.44
272.162	83.44
272.394	95.44
272.626	80.44
272.858	75.44
273.09	71.44
273.322	76.44
273.553	78.44
273.785	87.44
274.017	78.44
274.249	93.44
274.481	95.44
274.713	82.44
274.945	84.44
275.176	80.44
275.408	85.44
275.64	97.44
275.872	86.44
276.104	95.44
276.335	92.44
276.567	92.44
276.799	112.44
277.031	100.44
277.262	114.44
277.494	92.44
277.726	72.44
277.957	84.44
278.189	78.44
278.421	70.44
278.652	84.44
278.884	97.44
279.115	86.44
279.347	86.44
279.579	98.44
279.81	95.44
280.042	117.44
280.273	110.44
280.505	96.44
280.736	101.44
280.968	90.44
281.199	100.44
281.431	77.44
281.662	84.44
281.894	79.44
282.125	88.44
282.356	105.44
282.588	133.44
282.819	112.44
283.051	72.44
283.282	95.44
283.513	96.44
283.745	91.44
283.976	102.44
284.207	87.44
284.439	89.44
284.67	95.44
284.901	81.44
285.132	77.44
285.364	96.44
285.595	81.44
285.826	85.44
286.057	91.44
286.288	87.44
286.52	84.44
286.751	95.44
286.982	81.44
287.213	81.44
287.444	83.44
287.675	87.44
287.906	78.44
288.138	78.44
288.369	104.44
288.6	88.44
288.831	93.44
289.062	78.44
289.293	88.44
289.524	80.44
289.755	90.44
289.986	74.44
290.217	80.44
290.448	88.44
290.679	85.44
290.91	84.44
291.141	89.44
291.371	98.44
291.602	85.44
291.833	68.44
292.064	76.44
292.295	87.44
292.526	103.44
292.757	82.44
292.987	89.44
293.218	81.44
293.449	74.44
293.68	91.44
293.91	88.44
294.141	85.44
294.372	75.44
294.603	87.44
294.833	93.44
295.064	88.44
295.295	95.44
295.525	98.44
295.756	93.44
295.987	102.44
296.217	130.44
296.448	117.44
296.679	94.44
296.909	105.44
297.14	93.44
297.37	89.44
297.601	95.44
297.831	86.44
298.062	88.44
298.292	92.44
298.523	95.44
298.753	88.44
298.984	73.44
299.214	92.44
299.445	97.44
299.675	95.44
299.905	102.44
300.136	89.44
300.366	104.44
300.597	93.44
300.827	84.44
301.057	110.44
301.288	94.44
301.518	88.44
301.748	92.44
301.979	94.44
302.209	68.44
302.439	82.44
302.669	83.44
302.9	79.44
303.13	89.44
303.36	103.44
303.59	99.44
303.82	107.44
304.051	105.44
304.281	90.44
304.511	99.44
304.741	78.44
304.971	72.44
305.201	82.44
305.431	96.44
305.661	89.44
305.891	88.44
306.121	91.44
306.352	98.44
306.582	111.44
306.812	102.44
307.042	95.44
307.272	109.44
307.502	107.44
307.731	115.44
307.961	95.44
308.191	77.44
308.421	96.44
308.651	91.44
308.881	87.44
309.111	98.44
309.341	96.44
309.571	97.44
309.8	90.44
310.03	100.44
310.26	101.44
310.49	97.44
310.72	85.44
310.949	114.44
311.179	100.44
311.409	102.44
311.639	100.44
311.868	107.44
312.098	89.44
312.328	90.44
312.557	106.44
312.787	108.44
313.017	84.44
313.246	88.44
313.476	81.44
313.706	99.44
313.935	93.44
314.165	85.44
314.394	96.44
314.624	99.44
314.853	89.44
315.083	96.44
315.312	89.44
315.542	82.44
315.771	88.44
316.001	95.44
316.23	84.44
316.46	84.44
316.689	80.44
316.919	93.44
317.148	100.44
317.377	94.44
317.607	96.44
317.836	88.44
318.065	79.44
318.295	92.44
318.524	96.44
318.753	98.44
318.983	98.44
319.212	107.44
319.441	101.44
319.67	91.44
319.9	91.44
320.129	96.44
320.358	90.44
320.587	85.44
320.816	110.44
321.046	103.44
321.275	97.44
321.504	98.44
321.733	78.44
321.962	93.44
322.191	93.44
322.42	99.44
322.649	120.44
322.878	106.44
323.108	125.44
323.337	128.44
323.566	130.44
323.795	145.44
324.024	181.44
324.253	361.44
324.482	728.44
324.71	1537.44
324.939	2099.44
325.168	776.44
325.397	236.44
325.626	143.44
325.855	121.44
326.084	117.44
326.313	133.44
326.542	158.44
326.77	224.44
326.999	411.44
327.228	840.44
327.457	1580.44
327.686	1296.44
327.914	366.44
328.143	251.44
328.372	258.44
328.6	173.44
328.829	129.44
329.058	132.44
329.287	145.44
329.515	117.44
329.744	131.44
329.972	183.44
330.201	307.44
330.43	474.44
330.658	245.44
330.887	157.44
331.115	130.44
331.344	97.44
331.572	98.44
331.801	113.44
332.03	97.44
332.258	102.44
332.486	97.44
332.715	96.44
332.943	94.44
333.172	93.44
333.4	97.44
333.629	102.44
333.857	131.44
334.085	204.44
334.314	303.44
334.542	542.44
334.771	520.44
334.999	196.44
335.227	115.44
335.455	95.44
335.684	114.44
335.912	105.44
336.14	93.44
336.369	102.44
336.597	93.44
336.825	101.44
337.053	98.44
337.281	83.44
337.51	78.44
337.738	99.44
337.966	93.44
338.194	92.44
338.422	96.44
338.65	99.44
338.878	97.44
339.106	89.44
339.334	84.44
339.562	102.44
339.79	90.44
340.018	91.44
340.246	80.44
340.474	84.44
340.702	85.44
340.93	98.44
341.158	101.44
341.386	104.44
341.614	122.44
341.842	92.44
342.07	83.44
342.298	80.44
342.526	80.44
342.754	96.44
342.981	85.44
343.209	99.44
343.437	100.44
343.665	89.44
343.893	82.44
344.12	99.44
344.348	80.44
344.576	89.44
344.804	81.44
345.031	108.44
345.259	103.44
345.487	98.44
345.714	94.44
345.942	85.44
346.17	91.44
346.397	106.44
346.625	81.44
346.853	83.44
347.08	87.44
347.308	110.44
347.535	99.44
347.763	98.44
347.99	96.44
348.218	98.44
348.445	101.44
348.673	97.44
348.9	90.44
349.128	86.44
349.355	82.44
349.583	95.44
349.81	93.44
350.037	96.44
350.265	97.44
350.492	92.44
350.72	103.44
350.947	101.44
351.174	101.44
351.402	107.44
351.629	94.44
351.856	86.44
352.083	92.44
352.311	99.44
352.538	105.44
352.765	105.44
352.992	105.44
353.22	109.44
353.447	104.44
353.674	100.44
353.901	100.44
354.128	105.44
354.355	85.44
354.583	98.44
354.81	84.44
355.037	94.44
355.264	90.44
355.491	106.44
355.718	89.44
355.945	97.44
356.172	70.44
356.399	87.44
356.626	98.44
356.853	88.44
357.08	93.44
357.307	104.44
357.534	98.44
357.761	88.44
357.988	87.44
358.215	98.44
358.441	94.44
358.668	100.44
358.895	96.44
359.122	89.44
359.349	93.44
359.576	92.44
359.802	100.44
360.029	113.44
360.256	99.44
360.483	93.44
360.709	80.44
360.936	88.44
361.163	94.44
361.39	77.44
361.616	99.44
361.843	91.44
362.07	87.44
362.296	95.44
362.523	94.44
362.749	104.44
362.976	100.44
363.203	106.44
363.429	97.44
363.656	102.44
363.882	84.44
364.109	78.44
364.335	86.44
364.562	90.44
364.788	85.44
365.015	96.44
365.241	97.44
365.468	102.44
365.694	106.44
365.92	108.44
366.147	99.44
366.373	85.44
366.599	99.44
366.826	95.44
367.052	100.44
367.278	95.44
367.505	95.44
367.731	89.44
367.957	96.44
368.184	76.44
368.41	82.44
368.636	99.44
368.862	110.44
369.089	98.44
369.315	93.44
369.541	86.44
369.767	82.44
369.993	91.44
370.219	80.44
370.445	84.44
370.672	108.44
370.898	84.44
371.124	81.44
371.35	78.44
371.576	85.44
371.802	96.44
372.028	93.44
372.254	83.44
372.48	97.44
372.706	92.44
372.932	92.44
373.158	85.44
373.384	90.44
373.61	90.44
373.835	94.44
374.061	82.44
374.287	85.44
374.513	99.44
374.739	83.44
374.965	82.44
375.191	83.44
375.416	96.44
375.642	78.44
375.868	95.44
376.094	82.44
376.319	96.44
376.545	89.44
376.771	91.44
376.997	86.44
377.222	90.44
377.448	100.44
377.674	91.44
377.899	83.44
378.125	88.44
378.35	90.44
378.576	95.44
378.802	86.44
379.027	89.44
379.253	89.44
379.478	85.44
379.704	106.44
379.929	85.44
380.155	107.44
380.38	98.44
380.606	81.44
380.831	97.44
381.057	100.44
381.282	99.44
381.507	93.44
381.733	97.44
381.958	103.44
382.184	111.44
382.409	78.44
382.634	108.44
382.86	95.44
383.085	101.44
383.31	105.44
383.535	107.44
383.761	115.44
383.986	86.44
384.211	111.44
384.436	93.44
384.662	109.44
384.887	111.44
385.112	120.44
385.337	119.44
385.562	126.44
385.787	116.44
386.013	129.44
386.238	120.44
386.463	96.44
386.688	119.44
386.913	108.44
387.138	126.44
387.363	106.44
387.588	90.44
387.813	106.44
388.038	113.44
388.263	128.44
388.488	124.44
388.713	97.44
388.938	92.44
389.163	79.44
389.387	102.44
389.612	80.44
389.837	88.44
390.062	82.44
390.287	88.44
390.512	86.44
390.736	90.44
390.961	93.44
391.186	92.44
391.411	80.44
391.636	77.44
391.86	82.44
392.085	77.44
392.31	77.44
392.534	84.44
392.759	74.44
392.984	78.44
393.208	98.44
393.433	98.44
393.658	82.44
393.882	92.44
394.107	98.44
394.331	80.44
394.556	100.44
394.78	87.44
395.005	88.44
395.229	91.44
395.454	92.44
395.678	88.44
395.903	91.44
396.127	88.44
396.352	90.44
396.576	92.44
396.801	100.44
397.025	88.44
397.249	90.44
397.474	93.44
397.698	83.44
397.922	91.44
398.147	84.44
398.371	92.44
398.595	84.44
398.82	80.44
399.044	88.44
399.268	89.44
399.492	91.44
399.717	86.44
399.941	89.44
400.165	92.44
400.389	89.44
400.613	79.44
400.837	84.44
401.062	81.44
401.286	92.44
401.51	78.44
401.734	78.44
401.958	93.44
402.182	128.44
402.406	148.44
402.63	109.44
402.854	89.44
403.078	86.44
403.302	85.44
403.526	79.44
403.75	75.44
403.974	84.44
404.198	100.44
404.422	84.44
404.645	88.44
404.869	87.44
405.093	103.44
405.317	121.44
405.541	93.44
405.765	87.44
405.988	114.44
406.212	147.44
406.436	211.44
406.66	144.44
406.883	114.44
407.107	97.44
407.331	96.44
407.555	104.44
407.778	97.44
408.002	94.44
408.226	91.44
408.449	93.44
408.673	89.44
408.896	106.44
409.12	86.44
409.344	75.44
409.567	78.44
409.791	102.44
410.014	96.44
410.238	90.44
410.461	105.44
410.685	82.44
410.908	95.44
411.132	104.44
411.355	101.44
411.578	97.44
411.802	94.44
412.025	82.44
412.249	84.44
412.472	93.44
412.695	100.44
412.919	95.44
413.142	84.44
413.365	78.44
413.589	92.44
413.812	78.44
414.035	77.44
414.258	93.44
414.482	93.44
414.705	85.44
414.928	101.44
415.151	88.44
415.374	95.44
415.597	88.44
415.821	108.44
416.044	86.44
416.267	88.44
416.49	88.44
416.713	81.44
416.936	89.44
417.159	99.44
417.382	86.44
417.605	80.44
417.828	97.44
418.051	93.44
418.274	97.44
418.497	80.44
418.72	88.44
418.943	91.44
419.166	79.44
419.389	82.44
419.611	93.44
419.834	97.44
420.057	85.44
420.28	103.44
420.503	91.44
420.726	77.44
420.948	95.44
421.171	94.44
421.394	88.44
421.617	83.44
421.839	94.44
422.062	85.44
422.285	90.44
422.507	93.44
422.73	104.44
422.953	80.44
423.175	91.44
423.398	94.44
423.621	91.44
423.843	83.44
424.066	90.44
424.288	82.44
424.511	91.44
424.733	88.44
424.956	112.44
425.178	88.44
425.401	116.44
425.623	116.44
425.846	114.44
426.068	91.44
426.291	88.44
426.513	97.44
426.735	85.44
426.958	102.44
427.18	108.44
427.402	110.44
427.625	179.44
427.847	170.44
428.069	145.44
428.292	96.44
428.514	80.44
428.736	80.44
428.958	82.44
429.181	84.44
429.403	82.44
429.625	81.44
429.847	92.44
430.069	111.44
430.292	83.44
430.514	93.44
430.736	70.44
430.958	78.44
431.18	84.44
431.402	79.44
431.624	80.44
431.846	90.44
432.068	75.44
432.29	87.44
432.512	93.44
432.734	88.44
432.956	104.44
433.178	112.44
433.4	97.44
433.622	81.44
433.844	88.44
434.066	93.44
434.287	97.44
434.509	85.44
434.731	99.44
434.953	90.44
435.175	84.44
435.397	93.44
435.618	100.44
435.84	104.44
436.062	124.44
436.284	99.44
436.505	100.44
436.727	97.44
436.949	92.44
437.17	84.44
437.392	77.44
437.614	85.44
437.835	101.44
438.057	104.44
438.278	128.44
438.5	102.44
438.721	118.44
438.943	112.44
439.165	98.44
439.386	94.44
439.608	97.44
439.829	98.44
440.05	122.44
440.272	154.44
440.493	90.44
440.715	87.44
440.936	80.44
441.158	86.44
441.379	92.44
441.6	92.44
441.822	87.44
442.043	99.44
442.264	95.44
442.486	108.44
442.707	102.44
442.928	121.44
443.149	133.44
443.371	137.44
443.592	105.44
443.813	119.44
444.034	115.44
444.255	106.44
444.476	77.44
444.698	86.44
444.919	94.44
445.14	130.44
445.361	122.44
445.582	105.44
445.803	140.44
446.024	142.44
446.245	147.44
446.466	103.44
446.687	89.44
446.908	85.44
447.129	85.44
447.35	99.44
447.571	85.44
447.792	93.44
448.013	92.44
448.234	91.44
448.455	98.44
448.675	120.44
448.896	127.44
449.117	104.44
449.338	111.44
449.559	130.44
449.779	136.44
450	106.44
450.221	95.44
450.442	95.44
450.662	89.44
450.883	109.44
451.104	117.44
451.324	80.44
451.545	68.44
451.766	82.44
451.986	91.44
452.207	109.44
452.428	99.44
452.648	84.44
452.869	120.44
453.089	113.44
453.31	117.44
453.53	87.44
453.751	93.44
453.971	113.44
454.192	100.44
454.412	99.44
454.633	80.44
454.853	85.44
455.073	74.44
455.294	98.44
455.514	107.44
455.734	93.44
455.955	84.44
456.175	91.44
456.395	88.44
456.616	90.44
456.836	92.44
457.056	85.44
457.276	92.44
457.497	82.44
457.717	81.44
457.937	84.44
458.157	82.44
458.377	89.44
458.598	102.44
458.818	152.44
459.038	156.44
459.258	107.44
459.478	82.44
459.698	108.44
459.918	92.44
460.138	82.44
460.358	86.44
460.578	96.44
460.798	97.44
461.018	94.44
461.238	98.44
461.458	90.44
461.678	82.44
461.898	96.44
462.118	97.44
462.338	89.44
462.558	83.44
462.777	100.44
462.997	82.44
463.217	100.44
463.437	83.44
463.657	85.44
463.876	88.44
464.096	93.44
464.316	97.44
464.536	94.44
464.755	90.44
464.975	112.44
465.195	162.44
465.414	147.44
465.634	102.44
465.854	78.44
466.073	86.44
466.293	100.44
466.512	85.44
466.732	94.44
466.951	91.44
467.171	82.44
467.391	94.44
467.61	94.44
467.829	115.44
468.049	212.44
468.268	286.44
468.488	128.44
468.707	86.44
468.927	81.44
469.146	82.44
469.365	78.44
469.585	74.44
469.804	91.44
470.023	95.44
470.243	97.44
470.462	101.44
470.681	97.44
470.901	94.44
471.12	90.44
471.339	90.44
471.558	84.44
471.777	97.44
471.997	132.44
472.216	358.44
472.435	742.44
472.654	232.44
472.873	111.44
473.092	93.44
473.311	89.44
473.53	69.44
473.749	82.44
473.968	93.44
474.187	93.44
474.406	94.44
474.625	91.44
474.844	88.44
475.063	81.44
475.282	83.44
475.501	87.44
475.72	84.44
475.939	82.44
476.158	80.44
476.377	85.44
476.596	83.44
476.814	97.44
477.033	97.44
477.252	80.44
477.471	94.44
477.69	100.44
477.908	85.44
478.127	89.44
478.346	82.44
478.564	100.44
478.783	84.44
479.002	88.44
479.22	82.44
479.439	89.44
479.658	114.44
479.876	102.44
480.095	106.44
480.313	100.44
480.532	112.44
480.751	125.44
480.969	348.44
481.188	1243.44
481.406	774.44
481.624	172.44
481.843	112.44
482.061	98.44
482.28	76.44
482.498	86.44
482.717	82.44
482.935	90.44
483.153	73.44
483.372	96.44
483.59	91.44
483.808	88.44
484.027	96.44
484.245	99.44
484.463	89.44
484.681	97.44
484.9	83.44
485.118	92.44
485.336	88.44
485.554	88.44
485.772	114.44
485.99	99.44
486.209	93.44
486.427	102.44
486.645	110.44
486.863	114.44
487.081	93.44
487.299	82.44
487.517	96.44
487.735	93.44
487.953	97.44
488.171	81.44
488.389	100.44
488.607	104.44
488.825	94.44
489.043	91.44
489.261	78.44
489.479	79.44
489.696	84.44
489.914	78.44
490.132	97.44
490.35	112.44
490.568	85.44
490.786	83.44
491.003	96.44
491.221	100.44
491.439	95.44
491.657	92.44
491.874	96.44
492.092	93.44
492.31	97.44
492.527	91.44
492.745	82.44
492.963	92.44
493.18	101.44
493.398	100.44
493.615	84.44
493.833	107.44
494.05	91.44
494.268	82.44
494.485	88.44
494.703	94.44
494.92	90.44
495.138	83.44
495.355	105.44
495.573	109.44
495.79	85.44
496.008	99.44
496.225	83.44
496.442	78.44
496.66	90.44
496.877	90.44
497.094	87.44
497.312	89.44
497.529	78.44
497.746	85.44
497.963	82.44
498.181	76.44
498.398	106.44
498.615	108.44
498.832	105.44
499.049	91.44
499.267	89.44
499.484	90.44
499.701	93.44
499.918	94.44
500.135	73.44
500.352	87.44
500.569	79.44
500.786	94.44
501.003	101.44
501.22	90.44
501.437	78.44
501.654	98.44
501.871	110.44
502.088	92.44
502.305	93.44
502.522	96.44
502.739	88.44
502.956	84.44
503.172	80.44
503.389	92.44
503.606	107.44
503.823	99.44
504.04	91.44
504.256	101.44
504.473	85.44
504.69	74.44
504.907	91.44
505.123	90.44
505.34	88.44
505.557	91.44
505.773	89.44
505.99	91.44
506.207	80.44
506.423	83.44
506.64	89.44
506.856	94.44
507.073	89.44
507.289	86.44
507.506	90.44
507.722	112.44
507.939	109.44
508.155	102.44
508.372	101.44
508.588	102.44
508.805	85.44
509.021	88.44
509.238	101.44
509.454	99.44
509.67	79.44
509.887	110.44
510.103	118.44
510.319	184.44
510.536	628.44
510.752	1984.44
510.968	570.44
511.184	141.44
511.401	102.44
511.617	88.44
511.833	110.44
512.049	104.44
512.265	95.44
512.481	90.44
512.698	96.44
512.914	94.44
513.13	88.44
513.346	85.44
513.562	99.44
513.778	94.44
513.994	93.44
514.21	108.44
514.426	108.44
514.642	126.44
514.858	124.44
515.074	171.44
515.29	410.44
515.506	1314.44
