Data from Circ_1992_H10_HRD10591_00013.txt Node
Date: Wed Jan 03 11:47:47 EST 2024
User: Yrep
Spectrometer: HR+D1059
Trigger mode: 1
Integration Time (sec): 1.000000E-1
Scans to average: 1
Electric dark correction enabled: true
Nonlinearity correction enabled: false
Boxcar width: 0
XAxis mode: Wavelengths
Number of Pixels in Spectrum: 2048
>>>>>Begin Spectral Data<<<<<
223.165	-6.56
223.4	-6.56
223.635	-6.56
223.869	-15.56
224.104	-27.56
224.338	-18.56
224.573	-22.56
224.808	-12.56
225.042	-10.56
225.277	3.44
225.511	-4.56
225.746	9.44
225.98	15.44
226.215	5.44
226.449	18.44
226.683	11.44
226.918	25.44
227.152	29.44
227.387	40.44
227.621	28.44
227.856	48.44
228.09	40.44
228.324	50.44
228.559	47.44
228.793	53.44
229.027	57.44
229.262	70.44
229.496	81.44
229.73	87.44
229.964	90.44
230.199	71.44
230.433	79.44
230.667	79.44
230.901	84.44
231.136	76.44
231.37	70.44
231.604	79.44
231.838	81.44
232.072	79.44
232.306	75.44
232.541	79.44
232.775	78.44
233.009	86.44
233.243	87.44
233.477	71.44
233.711	71.44
233.945	81.44
234.179	76.44
234.413	72.44
234.647	80.44
234.881	62.44
235.115	82.44
235.349	76.44
235.583	94.44
235.817	81.44
236.051	79.44
236.285	69.44
236.519	65.44
236.753	63.44
236.987	74.44
237.221	85.44
237.455	84.44
237.689	90.44
237.922	77.44
238.156	79.44
238.39	78.44
238.624	82.44
238.858	71.44
239.091	83.44
239.325	63.44
239.559	78.44
239.793	84.44
240.027	88.44
240.26	67.44
240.494	89.44
240.728	63.44
240.961	85.44
241.195	81.44
241.429	71.44
241.662	79.44
241.896	67.44
242.13	82.44
242.363	69.44
242.597	77.44
242.83	79.44
243.064	59.44
243.298	72.44
243.531	73.44
243.765	77.44
243.998	82.44
244.232	70.44
244.465	90.44
244.699	77.44
244.932	72.44
245.166	69.44
245.399	85.44
245.633	57.44
245.866	79.44
246.099	62.44
246.333	66.44
246.566	77.44
246.8	73.44
247.033	73.44
247.266	79.44
247.5	68.44
247.733	85.44
247.966	70.44
248.2	94.44
248.433	73.44
248.666	86.44
248.899	82.44
249.133	77.44
249.366	92.44
249.599	78.44
249.832	81.44
250.066	80.44
250.299	96.44
250.532	83.44
250.765	75.44
250.998	84.44
251.231	82.44
251.465	79.44
251.698	82.44
251.931	79.44
252.164	77.44
252.397	84.44
252.63	95.44
252.863	61.44
253.096	91.44
253.329	59.44
253.562	62.44
253.795	85.44
254.028	70.44
254.261	67.44
254.494	87.44
254.727	93.44
254.96	73.44
255.193	77.44
255.426	76.44
255.659	64.44
255.892	74.44
256.124	93.44
256.357	61.44
256.59	79.44
256.823	81.44
257.056	77.44
257.289	81.44
257.521	85.44
257.754	66.44
257.987	73.44
258.22	76.44
258.452	74.44
258.685	87.44
258.918	89.44
259.151	75.44
259.383	82.44
259.616	77.44
259.849	75.44
260.081	81.44
260.314	85.44
260.547	74.44
260.779	85.44
261.012	92.44
261.244	88.44
261.477	87.44
261.71	94.44
261.942	103.44
262.175	122.44
262.407	93.44
262.64	88.44
262.872	86.44
263.105	95.44
263.337	76.44
263.57	70.44
263.802	87.44
264.035	76.44
264.267	77.44
264.499	84.44
264.732	76.44
264.964	87.44
265.197	67.44
265.429	74.44
265.661	80.44
265.894	86.44
266.126	80.44
266.358	91.44
266.591	80.44
266.823	81.44
267.055	86.44
267.287	81.44
267.52	82.44
267.752	90.44
267.984	73.44
268.216	74.44
268.448	79.44
268.681	72.44
268.913	92.44
269.145	69.44
269.377	91.44
269.609	82.44
269.841	61.44
270.073	78.44
270.306	80.44
270.538	72.44
270.77	83.44
271.002	86.44
271.234	80.44
271.466	84.44
271.698	66.44
271.93	73.44
272.162	83.44
272.394	74.44
272.626	75.44
272.858	75.44
273.09	88.44
273.322	76.44
273.553	96.44
273.785	81.44
274.017	74.44
274.249	83.44
274.481	78.44
274.713	69.44
274.945	88.44
275.176	79.44
275.408	87.44
275.64	96.44
275.872	89.44
276.104	74.44
276.335	96.44
276.567	101.44
276.799	112.44
277.031	112.44
277.262	127.44
277.494	104.44
277.726	90.44
277.957	77.44
278.189	79.44
278.421	90.44
278.652	77.44
278.884	93.44
279.115	77.44
279.347	85.44
279.579	95.44
279.81	93.44
280.042	115.44
280.273	123.44
280.505	107.44
280.736	102.44
280.968	81.44
281.199	75.44
281.431	71.44
281.662	79.44
281.894	85.44
282.125	97.44
282.356	103.44
282.588	139.44
282.819	103.44
283.051	84.44
283.282	78.44
283.513	85.44
283.745	88.44
283.976	75.44
284.207	89.44
284.439	97.44
284.67	84.44
284.901	78.44
285.132	88.44
285.364	95.44
285.595	91.44
285.826	99.44
286.057	95.44
286.288	75.44
286.52	83.44
286.751	83.44
286.982	75.44
287.213	91.44
287.444	63.44
287.675	89.44
287.906	97.44
288.138	76.44
288.369	88.44
288.6	81.44
288.831	77.44
289.062	85.44
289.293	87.44
289.524	95.44
289.755	96.44
289.986	90.44
290.217	75.44
290.448	85.44
290.679	86.44
290.91	77.44
291.141	89.44
291.371	88.44
291.602	68.44
291.833	93.44
292.064	79.44
292.295	85.44
292.526	97.44
292.757	96.44
292.987	106.44
293.218	76.44
293.449	92.44
293.68	96.44
293.91	83.44
294.141	94.44
294.372	94.44
294.603	80.44
294.833	77.44
295.064	80.44
295.295	76.44
295.525	89.44
295.756	96.44
295.987	113.44
296.217	143.44
296.448	113.44
296.679	100.44
296.909	97.44
297.14	78.44
297.37	78.44
297.601	90.44
297.831	87.44
298.062	102.44
298.292	83.44
298.523	90.44
298.753	77.44
298.984	84.44
299.214	94.44
299.445	91.44
299.675	86.44
299.905	102.44
300.136	90.44
300.366	93.44
300.597	89.44
300.827	82.44
301.057	94.44
301.288	89.44
301.518	97.44
301.748	74.44
301.979	103.44
302.209	77.44
302.439	91.44
302.669	87.44
302.9	86.44
303.13	96.44
303.36	95.44
303.59	99.44
303.82	120.44
304.051	87.44
304.281	77.44
304.511	91.44
304.741	92.44
304.971	93.44
305.201	88.44
305.431	82.44
305.661	82.44
305.891	99.44
306.121	94.44
306.352	92.44
306.582	91.44
306.812	94.44
307.042	90.44
307.272	115.44
307.502	105.44
307.731	109.44
307.961	91.44
308.191	88.44
308.421	72.44
308.651	85.44
308.881	94.44
309.111	88.44
309.341	90.44
309.571	98.44
309.8	90.44
310.03	87.44
310.26	106.44
310.49	91.44
310.72	89.44
310.949	102.44
311.179	110.44
311.409	88.44
311.639	86.44
311.868	96.44
312.098	81.44
312.328	93.44
312.557	108.44
312.787	92.44
313.017	102.44
313.246	91.44
313.476	94.44
313.706	104.44
313.935	99.44
314.165	93.44
314.394	102.44
314.624	93.44
314.853	85.44
315.083	81.44
315.312	86.44
315.542	73.44
315.771	81.44
316.001	97.44
316.23	82.44
316.46	95.44
316.689	95.44
316.919	99.44
317.148	101.44
317.377	95.44
317.607	108.44
317.836	93.44
318.065	94.44
318.295	77.44
318.524	88.44
318.753	73.44
318.983	74.44
319.212	92.44
319.441	104.44
319.67	110.44
319.9	81.44
320.129	91.44
320.358	91.44
320.587	103.44
320.816	105.44
321.046	86.44
321.275	95.44
321.504	87.44
321.733	89.44
321.962	98.44
322.191	101.44
322.42	97.44
322.649	92.44
322.878	103.44
323.108	127.44
323.337	121.44
323.566	141.44
323.795	141.44
324.024	208.44
324.253	381.44
324.482	832.44
324.71	1724.44
324.939	2317.44
325.168	841.44
325.397	250.44
325.626	151.44
325.855	128.44
326.084	123.44
326.313	126.44
326.542	149.44
326.77	243.44
326.999	451.44
327.228	949.44
327.457	1749.44
327.686	1421.44
327.914	419.44
328.143	292.44
328.372	303.44
328.6	192.44
328.829	126.44
329.058	136.44
329.287	133.44
329.515	112.44
329.744	139.44
329.972	225.44
330.201	382.44
330.43	547.44
330.658	292.44
330.887	170.44
331.115	152.44
331.344	114.44
331.572	119.44
331.801	108.44
332.03	96.44
332.258	85.44
332.486	87.44
332.715	100.44
332.943	79.44
333.172	105.44
333.4	105.44
333.629	122.44
333.857	138.44
334.085	209.44
334.314	369.44
334.542	696.44
334.771	644.44
334.999	206.44
335.227	114.44
335.455	99.44
335.684	94.44
335.912	96.44
336.14	99.44
336.369	90.44
336.597	92.44
336.825	99.44
337.053	84.44
337.281	102.44
337.51	86.44
337.738	93.44
337.966	94.44
338.194	91.44
338.422	83.44
338.65	101.44
338.878	99.44
339.106	89.44
339.334	91.44
339.562	103.44
339.79	93.44
340.018	93.44
340.246	105.44
340.474	89.44
340.702	85.44
340.93	76.44
341.158	89.44
341.386	93.44
341.614	86.44
341.842	89.44
342.07	88.44
342.298	97.44
342.526	89.44
342.754	78.44
342.981	99.44
343.209	99.44
343.437	97.44
343.665	84.44
343.893	83.44
344.12	83.44
344.348	86.44
344.576	82.44
344.804	86.44
345.031	86.44
345.259	94.44
345.487	80.44
345.714	91.44
345.942	82.44
346.17	85.44
346.397	78.44
346.625	79.44
346.853	93.44
347.08	94.44
347.308	86.44
347.535	93.44
347.763	113.44
347.99	104.44
348.218	97.44
348.445	103.44
348.673	114.44
348.9	94.44
349.128	90.44
349.355	83.44
349.583	105.44
349.81	98.44
350.037	89.44
350.265	91.44
350.492	92.44
350.72	84.44
350.947	94.44
351.174	113.44
351.402	111.44
351.629	101.44
351.856	91.44
352.083	103.44
352.311	87.44
352.538	107.44
352.765	92.44
352.992	120.44
353.22	122.44
353.447	107.44
353.674	97.44
353.901	93.44
354.128	91.44
354.355	86.44
354.583	104.44
354.81	106.44
355.037	95.44
355.264	92.44
355.491	83.44
355.718	82.44
355.945	82.44
356.172	102.44
356.399	93.44
356.626	83.44
356.853	105.44
357.08	81.44
357.307	85.44
357.534	95.44
357.761	81.44
357.988	93.44
358.215	104.44
358.441	97.44
358.668	90.44
358.895	85.44
359.122	88.44
359.349	96.44
359.576	96.44
359.802	105.44
360.029	112.44
360.256	114.44
360.483	98.44
360.709	94.44
360.936	88.44
361.163	108.44
361.39	77.44
361.616	90.44
361.843	93.44
362.07	75.44
362.296	95.44
362.523	103.44
362.749	81.44
362.976	91.44
363.203	91.44
363.429	95.44
363.656	95.44
363.882	98.44
364.109	106.44
364.335	97.44
364.562	85.44
364.788	86.44
365.015	86.44
365.241	98.44
365.468	94.44
365.694	90.44
365.92	99.44
366.147	89.44
366.373	81.44
366.599	84.44
366.826	96.44
367.052	86.44
367.278	85.44
367.505	87.44
367.731	102.44
367.957	86.44
368.184	87.44
368.41	100.44
368.636	115.44
368.862	109.44
369.089	100.44
369.315	95.44
369.541	83.44
369.767	96.44
369.993	93.44
370.219	87.44
370.445	86.44
370.672	67.44
370.898	79.44
371.124	89.44
371.35	94.44
371.576	102.44
371.802	83.44
372.028	77.44
372.254	53.44
372.48	81.44
372.706	79.44
372.932	78.44
373.158	74.44
373.384	86.44
373.61	91.44
373.835	95.44
374.061	80.44
374.287	83.44
374.513	86.44
374.739	88.44
374.965	77.44
375.191	87.44
375.416	80.44
375.642	83.44
375.868	87.44
376.094	98.44
376.319	89.44
376.545	74.44
376.771	90.44
376.997	88.44
377.222	99.44
377.448	88.44
377.674	87.44
377.899	98.44
378.125	94.44
378.35	88.44
378.576	80.44
378.802	90.44
379.027	93.44
379.253	91.44
379.478	100.44
379.704	107.44
379.929	107.44
380.155	98.44
380.38	99.44
380.606	82.44
380.831	97.44
381.057	98.44
381.282	103.44
381.507	99.44
381.733	103.44
381.958	95.44
382.184	101.44
382.409	101.44
382.634	101.44
382.86	114.44
383.085	119.44
383.31	106.44
383.535	110.44
383.761	120.44
383.986	103.44
384.211	104.44
384.436	124.44
384.662	127.44
384.887	113.44
385.112	119.44
385.337	123.44
385.562	117.44
385.787	135.44
386.013	139.44
386.238	128.44
386.463	124.44
386.688	116.44
386.913	116.44
387.138	112.44
387.363	122.44
387.588	101.44
387.813	118.44
388.038	125.44
388.263	143.44
388.488	124.44
388.713	90.44
388.938	89.44
389.163	93.44
389.387	92.44
389.612	82.44
389.837	94.44
390.062	80.44
390.287	77.44
390.512	86.44
390.736	92.44
390.961	85.44
391.186	95.44
391.411	98.44
391.636	67.44
391.86	89.44
392.085	75.44
392.31	85.44
392.534	96.44
392.759	65.44
392.984	81.44
393.208	80.44
393.433	79.44
393.658	88.44
393.882	73.44
394.107	78.44
394.331	83.44
394.556	80.44
394.78	73.44
395.005	71.44
395.229	72.44
395.454	75.44
395.678	79.44
395.903	104.44
396.127	82.44
396.352	77.44
396.576	89.44
396.801	84.44
397.025	91.44
397.249	82.44
397.474	79.44
397.698	90.44
397.922	78.44
398.147	70.44
398.371	83.44
398.595	80.44
398.82	90.44
399.044	82.44
399.268	91.44
399.492	85.44
399.717	82.44
399.941	71.44
400.165	95.44
400.389	90.44
400.613	89.44
400.837	86.44
401.062	92.44
401.286	99.44
401.51	83.44
401.734	86.44
401.958	101.44
402.182	111.44
402.406	141.44
402.63	120.44
402.854	103.44
403.078	76.44
403.302	77.44
403.526	96.44
403.75	73.44
403.974	80.44
404.198	73.44
404.422	88.44
404.645	92.44
404.869	91.44
405.093	95.44
405.317	105.44
405.541	113.44
405.765	90.44
405.988	109.44
406.212	173.44
406.436	223.44
406.66	128.44
406.883	103.44
407.107	93.44
407.331	98.44
407.555	110.44
407.778	81.44
408.002	64.44
408.226	73.44
408.449	86.44
408.673	80.44
408.896	92.44
409.12	96.44
409.344	82.44
409.567	76.44
409.791	95.44
410.014	84.44
410.238	99.44
410.461	93.44
410.685	89.44
410.908	93.44
411.132	98.44
411.355	91.44
411.578	81.44
411.802	81.44
412.025	81.44
412.249	90.44
412.472	102.44
412.695	106.44
412.919	94.44
413.142	94.44
413.365	86.44
413.589	95.44
413.812	86.44
414.035	73.44
414.258	75.44
414.482	90.44
414.705	90.44
414.928	94.44
415.151	81.44
415.374	91.44
415.597	90.44
415.821	92.44
416.044	82.44
416.267	86.44
416.49	92.44
416.713	78.44
416.936	92.44
417.159	86.44
417.382	96.44
417.605	82.44
417.828	95.44
418.051	93.44
418.274	89.44
418.497	80.44
418.72	93.44
418.943	86.44
419.166	81.44
419.389	93.44
419.611	97.44
419.834	88.44
420.057	74.44
420.28	92.44
420.503	91.44
420.726	91.44
420.948	81.44
421.171	96.44
421.394	83.44
421.617	86.44
421.839	85.44
422.062	71.44
422.285	93.44
422.507	79.44
422.73	94.44
422.953	85.44
423.175	74.44
423.398	88.44
423.621	80.44
423.843	85.44
424.066	89.44
424.288	85.44
424.511	94.44
424.733	100.44
424.956	109.44
425.178	88.44
425.401	111.44
425.623	94.44
425.846	82.44
426.068	97.44
426.291	99.44
426.513	90.44
426.735	90.44
426.958	110.44
427.18	123.44
427.402	147.44
427.625	193.44
427.847	169.44
428.069	152.44
428.292	94.44
428.514	96.44
428.736	82.44
428.958	80.44
429.181	90.44
429.403	75.44
429.625	73.44
429.847	99.44
430.069	105.44
430.292	93.44
430.514	89.44
430.736	77.44
430.958	87.44
431.18	80.44
431.402	75.44
431.624	81.44
431.846	95.44
432.068	73.44
432.29	82.44
432.512	95.44
432.734	79.44
432.956	84.44
433.178	98.44
433.4	92.44
433.622	90.44
433.844	86.44
434.066	85.44
434.287	91.44
434.509	84.44
434.731	105.44
434.953	86.44
435.175	69.44
435.397	89.44
435.618	102.44
435.84	98.44
436.062	117.44
436.284	114.44
436.505	93.44
436.727	103.44
436.949	91.44
437.17	89.44
437.392	80.44
437.614	96.44
437.835	104.44
438.057	102.44
438.278	119.44
438.5	98.44
438.721	119.44
438.943	103.44
439.165	84.44
439.386	80.44
439.608	87.44
439.829	101.44
440.05	129.44
440.272	152.44
440.493	109.44
440.715	82.44
440.936	83.44
441.158	85.44
441.379	89.44
441.6	85.44
441.822	89.44
442.043	103.44
442.264	101.44
442.486	105.44
442.707	94.44
442.928	98.44
443.149	133.44
443.371	124.44
443.592	105.44
443.813	122.44
444.034	106.44
444.255	79.44
444.476	74.44
444.698	95.44
444.919	85.44
445.14	121.44
445.361	112.44
445.582	120.44
445.803	143.44
446.024	150.44
446.245	149.44
446.466	124.44
446.687	78.44
446.908	83.44
447.129	98.44
447.35	81.44
447.571	89.44
447.792	98.44
448.013	71.44
448.234	105.44
448.455	103.44
448.675	128.44
448.896	114.44
449.117	98.44
449.338	96.44
449.559	135.44
449.779	153.44
450	103.44
450.221	73.44
450.442	81.44
450.662	95.44
450.883	94.44
451.104	107.44
451.324	85.44
451.545	88.44
451.766	86.44
451.986	107.44
452.207	93.44
452.428	90.44
452.648	99.44
452.869	108.44
453.089	120.44
453.31	120.44
453.53	96.44
453.751	101.44
453.971	108.44
454.192	97.44
454.412	78.44
454.633	79.44
454.853	84.44
455.073	90.44
455.294	88.44
455.514	104.44
455.734	93.44
455.955	73.44
456.175	87.44
456.395	73.44
456.616	93.44
456.836	71.44
457.056	84.44
457.276	94.44
457.497	77.44
457.717	76.44
457.937	80.44
458.157	103.44
458.377	82.44
458.598	109.44
458.818	157.44
459.038	162.44
459.258	118.44
459.478	89.44
459.698	78.44
459.918	87.44
460.138	92.44
460.358	83.44
460.578	87.44
460.798	99.44
461.018	94.44
461.238	65.44
461.458	83.44
461.678	86.44
461.898	77.44
462.118	86.44
462.338	83.44
462.558	91.44
462.777	92.44
462.997	81.44
463.217	87.44
463.437	97.44
463.657	77.44
463.876	85.44
464.096	76.44
464.316	81.44
464.536	87.44
464.755	92.44
464.975	99.44
465.195	179.44
465.414	155.44
465.634	100.44
465.854	86.44
466.073	96.44
466.293	83.44
466.512	87.44
466.732	85.44
466.951	81.44
467.171	88.44
467.391	88.44
467.61	94.44
467.829	123.44
468.049	249.44
468.268	329.44
468.488	114.44
468.707	82.44
468.927	79.44
469.146	94.44
469.365	71.44
469.585	74.44
469.804	74.44
470.023	92.44
470.243	95.44
470.462	91.44
470.681	112.44
470.901	87.44
471.12	87.44
471.339	85.44
471.558	71.44
471.777	113.44
471.997	152.44
472.216	424.44
472.435	890.44
472.654	240.44
472.873	95.44
473.092	96.44
473.311	89.44
473.53	79.44
473.749	78.44
473.968	87.44
474.187	105.44
474.406	98.44
474.625	89.44
474.844	92.44
475.063	82.44
475.282	87.44
475.501	63.44
475.72	74.44
475.939	95.44
476.158	80.44
476.377	92.44
476.596	82.44
476.814	80.44
477.033	98.44
477.252	78.44
477.471	106.44
477.69	94.44
477.908	86.44
478.127	81.44
478.346	94.44
478.564	87.44
478.783	91.44
479.002	82.44
479.22	80.44
479.439	100.44
479.658	97.44
479.876	85.44
480.095	112.44
480.313	96.44
480.532	107.44
480.751	155.44
480.969	393.44
481.188	1527.44
481.406	925.44
481.624	173.44
481.843	99.44
482.061	91.44
482.28	94.44
482.498	81.44
482.717	89.44
482.935	80.44
483.153	86.44
483.372	90.44
483.59	93.44
483.808	85.44
484.027	78.44
484.245	89.44
484.463	84.44
484.681	93.44
484.9	82.44
485.118	85.44
485.336	94.44
485.554	103.44
485.772	105.44
485.99	98.44
486.209	95.44
486.427	82.44
486.645	117.44
486.863	123.44
487.081	85.44
487.299	88.44
487.517	92.44
487.735	80.44
487.953	85.44
488.171	97.44
488.389	95.44
488.607	91.44
488.825	78.44
489.043	61.44
489.261	82.44
489.479	89.44
489.696	89.44
489.914	90.44
490.132	91.44
490.35	82.44
490.568	91.44
490.786	78.44
491.003	78.44
491.221	82.44
491.439	87.44
491.657	85.44
491.874	85.44
492.092	92.44
492.31	73.44
492.527	85.44
492.745	91.44
492.963	83.44
493.18	77.44
493.398	98.44
493.615	98.44
493.833	90.44
494.05	89.44
494.268	82.44
494.485	98.44
494.703	79.44
494.92	85.44
495.138	88.44
495.355	95.44
495.573	80.44
495.79	92.44
496.008	89.44
496.225	72.44
496.442	75.44
496.66	89.44
496.877	67.44
497.094	83.44
497.312	98.44
497.529	90.44
497.746	97.44
497.963	88.44
498.181	102.44
498.398	105.44
498.615	99.44
498.832	94.44
499.049	96.44
499.267	92.44
499.484	95.44
499.701	89.44
499.918	87.44
500.135	88.44
500.352	94.44
500.569	85.44
500.786	84.44
501.003	101.44
501.22	74.44
501.437	93.44
501.654	100.44
501.871	106.44
502.088	88.44
502.305	90.44
502.522	98.44
502.739	97.44
502.956	102.44
503.172	90.44
503.389	86.44
503.606	106.44
503.823	90.44
504.04	90.44
504.256	80.44
504.473	77.44
504.69	90.44
504.907	93.44
505.123	98.44
505.34	86.44
505.557	97.44
505.773	87.44
505.99	88.44
506.207	90.44
506.423	92.44
506.64	86.44
506.856	85.44
507.073	88.44
507.289	92.44
507.506	87.44
507.722	103.44
507.939	106.44
508.155	89.44
508.372	92.44
508.588	73.44
508.805	81.44
509.021	87.44
509.238	95.44
509.454	90.44
509.67	86.44
509.887	92.44
510.103	109.44
510.319	183.44
510.536	641.44
510.752	2086.44
510.968	583.44
511.184	145.44
511.401	111.44
511.617	99.44
511.833	87.44
512.049	96.44
512.265	77.44
512.481	82.44
512.698	86.44
512.914	91.44
513.13	97.44
513.346	86.44
513.562	86.44
513.778	96.44
513.994	105.44
514.21	90.44
514.426	114.44
514.642	130.44
514.858	120.44
515.074	177.44
515.29	434.44
515.506	1483.44
515.721	557.44
515.937	165.44
