Data from Circ_1992_H10_HRD10591_00083.txt Node
Date: Wed Jan 03 11:48:01 EST 2024
User: Yrep
Spectrometer: HR+D1059
Trigger mode: 1
Integration Time (sec): 1.000000E-1
Scans to average: 1
Electric dark correction enabled: true
Nonlinearity correction enabled: false
Boxcar width: 0
XAxis mode: Wavelengths
Number of Pixels in Spectrum: 2048
>>>>>Begin Spectral Data<<<<<
223.165	-14.25
223.4	-14.25
223.635	-14.25
223.869	-22.25
224.104	-15.25
224.338	-9.25
224.573	-21.25
224.808	-16.25
225.042	-16.25
225.277	-9.25
225.511	14.75
225.746	3.75
225.98	14.75
226.215	15.75
226.449	3.75
226.683	16.75
226.918	17.75
227.152	36.75
227.387	35.75
227.621	33.75
227.856	43.75
228.09	46.75
228.324	38.75
228.559	51.75
228.793	55.75
229.027	60.75
229.262	55.75
229.496	66.75
229.73	93.75
229.964	97.75
230.199	79.75
230.433	84.75
230.667	74.75
230.901	74.75
231.136	79.75
231.37	74.75
231.604	83.75
231.838	82.75
232.072	95.75
232.306	92.75
232.541	62.75
232.775	85.75
233.009	75.75
233.243	92.75
233.477	76.75
233.711	79.75
233.945	82.75
234.179	93.75
234.413	71.75
234.647	84.75
234.881	89.75
235.115	91.75
235.349	84.75
235.583	86.75
235.817	74.75
236.051	76.75
236.285	80.75
236.519	67.75
236.753	96.75
236.987	83.75
237.221	75.75
237.455	73.75
237.689	62.75
237.922	78.75
238.156	66.75
238.39	75.75
238.624	59.75
238.858	85.75
239.091	73.75
239.325	78.75
239.559	80.75
239.793	80.75
240.027	92.75
240.26	90.75
240.494	85.75
240.728	74.75
240.961	78.75
241.195	67.75
241.429	72.75
241.662	66.75
241.896	72.75
242.13	70.75
242.363	72.75
242.597	68.75
242.83	84.75
243.064	79.75
243.298	73.75
243.531	70.75
243.765	80.75
243.998	74.75
244.232	83.75
244.465	82.75
244.699	60.75
244.932	88.75
245.166	74.75
245.399	74.75
245.633	74.75
245.866	72.75
246.099	77.75
246.333	88.75
246.566	80.75
246.8	81.75
247.033	76.75
247.266	75.75
247.5	81.75
247.733	64.75
247.966	73.75
248.2	82.75
248.433	79.75
248.666	87.75
248.899	94.75
249.133	78.75
249.366	99.75
249.599	100.75
249.832	64.75
250.066	73.75
250.299	78.75
250.532	80.75
250.765	82.75
250.998	83.75
251.231	90.75
251.465	96.75
251.698	75.75
251.931	92.75
252.164	71.75
252.397	81.75
252.63	98.75
252.863	78.75
253.096	83.75
253.329	79.75
253.562	95.75
253.795	87.75
254.028	79.75
254.261	81.75
254.494	70.75
254.727	85.75
254.96	85.75
255.193	87.75
255.426	81.75
255.659	78.75
255.892	93.75
256.124	79.75
256.357	76.75
256.59	78.75
256.823	70.75
257.056	86.75
257.289	87.75
257.521	74.75
257.754	80.75
257.987	84.75
258.22	91.75
258.452	93.75
258.685	94.75
258.918	84.75
259.151	73.75
259.383	86.75
259.616	82.75
259.849	92.75
260.081	98.75
260.314	87.75
260.547	101.75
260.779	93.75
261.012	97.75
261.244	102.75
261.477	89.75
261.71	102.75
261.942	117.75
262.175	121.75
262.407	94.75
262.64	84.75
262.872	82.75
263.105	84.75
263.337	87.75
263.57	75.75
263.802	96.75
264.035	84.75
264.267	83.75
264.499	81.75
264.732	78.75
264.964	83.75
265.197	71.75
265.429	77.75
265.661	82.75
265.894	79.75
266.126	80.75
266.358	85.75
266.591	67.75
266.823	71.75
267.055	82.75
267.287	82.75
267.52	80.75
267.752	104.75
267.984	83.75
268.216	83.75
268.448	81.75
268.681	89.75
268.913	94.75
269.145	97.75
269.377	91.75
269.609	93.75
269.841	76.75
270.073	80.75
270.306	86.75
270.538	87.75
270.77	81.75
271.002	78.75
271.234	87.75
271.466	93.75
271.698	80.75
271.93	70.75
272.162	82.75
272.394	91.75
272.626	87.75
272.858	68.75
273.09	85.75
273.322	85.75
273.553	78.75
273.785	78.75
274.017	91.75
274.249	78.75
274.481	82.75
274.713	90.75
274.945	76.75
275.176	91.75
275.408	89.75
275.64	95.75
275.872	104.75
276.104	97.75
276.335	94.75
276.567	100.75
276.799	123.75
277.031	149.75
277.262	149.75
277.494	121.75
277.726	108.75
277.957	100.75
278.189	87.75
278.421	82.75
278.652	84.75
278.884	76.75
279.115	71.75
279.347	77.75
279.579	95.75
279.81	107.75
280.042	143.75
280.273	203.75
280.505	144.75
280.736	88.75
280.968	96.75
281.199	84.75
281.431	91.75
281.662	80.75
281.894	85.75
282.125	109.75
282.356	126.75
282.588	150.75
282.819	118.75
283.051	100.75
283.282	87.75
283.513	81.75
283.745	79.75
283.976	79.75
284.207	77.75
284.439	104.75
284.67	78.75
284.901	89.75
285.132	89.75
285.364	82.75
285.595	91.75
285.826	72.75
286.057	103.75
286.288	93.75
286.52	91.75
286.751	82.75
286.982	86.75
287.213	93.75
287.444	90.75
287.675	99.75
287.906	92.75
288.138	90.75
288.369	98.75
288.6	90.75
288.831	87.75
289.062	86.75
289.293	80.75
289.524	78.75
289.755	86.75
289.986	75.75
290.217	98.75
290.448	90.75
290.679	88.75
290.91	92.75
291.141	91.75
291.371	82.75
291.602	82.75
291.833	89.75
292.064	94.75
292.295	76.75
292.526	91.75
292.757	82.75
292.987	81.75
293.218	80.75
293.449	92.75
293.68	102.75
293.91	89.75
294.141	96.75
294.372	83.75
294.603	97.75
294.833	92.75
295.064	80.75
295.295	90.75
295.525	84.75
295.756	89.75
295.987	111.75
296.217	151.75
296.448	128.75
296.679	99.75
296.909	86.75
297.14	93.75
297.37	92.75
297.601	89.75
297.831	89.75
298.062	91.75
298.292	90.75
298.523	81.75
298.753	85.75
298.984	83.75
299.214	95.75
299.445	97.75
299.675	86.75
299.905	95.75
300.136	97.75
300.366	87.75
300.597	101.75
300.827	95.75
301.057	95.75
301.288	104.75
301.518	98.75
301.748	78.75
301.979	101.75
302.209	93.75
302.439	87.75
302.669	64.75
302.9	86.75
303.13	83.75
303.36	104.75
303.59	96.75
303.82	131.75
304.051	98.75
304.281	91.75
304.511	88.75
304.741	90.75
304.971	87.75
305.201	80.75
305.431	76.75
305.661	84.75
305.891	94.75
306.121	92.75
306.352	124.75
306.582	102.75
306.812	94.75
307.042	114.75
307.272	124.75
307.502	148.75
307.731	140.75
307.961	113.75
308.191	86.75
308.421	89.75
308.651	103.75
308.881	94.75
309.111	96.75
309.341	97.75
309.571	113.75
309.8	100.75
310.03	110.75
310.26	102.75
310.49	74.75
310.72	107.75
310.949	105.75
311.179	113.75
311.409	98.75
311.639	92.75
311.868	102.75
312.098	88.75
312.328	108.75
312.557	93.75
312.787	98.75
313.017	99.75
313.246	95.75
313.476	100.75
313.706	104.75
313.935	94.75
314.165	97.75
314.394	108.75
314.624	102.75
314.853	106.75
315.083	95.75
315.312	90.75
315.542	97.75
315.771	83.75
316.001	72.75
316.23	98.75
316.46	93.75
316.689	80.75
316.919	90.75
317.148	98.75
317.377	95.75
317.607	103.75
317.836	85.75
318.065	97.75
318.295	91.75
318.524	91.75
318.753	92.75
318.983	104.75
319.212	99.75
319.441	120.75
319.67	118.75
319.9	96.75
320.129	82.75
320.358	94.75
320.587	96.75
320.816	87.75
321.046	114.75
321.275	104.75
321.504	94.75
321.733	108.75
321.962	108.75
322.191	110.75
322.42	107.75
322.649	117.75
322.878	112.75
323.108	121.75
323.337	140.75
323.566	143.75
323.795	194.75
324.024	239.75
324.253	529.75
324.482	1130.75
324.71	2363.75
324.939	3260.75
325.168	1158.75
325.397	318.75
325.626	170.75
325.855	159.75
326.084	144.75
326.313	141.75
326.542	175.75
326.77	287.75
326.999	602.75
327.228	1304.75
327.457	2431.75
327.686	1916.75
327.914	538.75
328.143	441.75
328.372	490.75
328.6	284.75
328.829	170.75
329.058	160.75
329.287	182.75
329.515	150.75
329.744	193.75
329.972	371.75
330.201	728.75
330.43	1036.75
330.658	470.75
330.887	246.75
331.115	171.75
331.344	114.75
331.572	110.75
331.801	104.75
332.03	121.75
332.258	108.75
332.486	91.75
332.715	101.75
332.943	109.75
333.172	120.75
333.4	104.75
333.629	136.75
333.857	191.75
334.085	317.75
334.314	666.75
334.542	1305.75
334.771	1230.75
334.999	344.75
335.227	158.75
335.455	111.75
335.684	109.75
335.912	94.75
336.14	97.75
336.369	95.75
336.597	112.75
336.825	102.75
337.053	98.75
337.281	88.75
337.51	93.75
337.738	100.75
337.966	104.75
338.194	93.75
338.422	92.75
338.65	107.75
338.878	107.75
339.106	100.75
339.334	100.75
339.562	91.75
339.79	100.75
340.018	89.75
340.246	102.75
340.474	102.75
340.702	97.75
340.93	86.75
341.158	96.75
341.386	98.75
341.614	96.75
341.842	84.75
342.07	113.75
342.298	83.75
342.526	94.75
342.754	88.75
342.981	82.75
343.209	80.75
343.437	96.75
343.665	87.75
343.893	87.75
344.12	89.75
344.348	95.75
344.576	90.75
344.804	85.75
345.031	115.75
345.259	105.75
345.487	106.75
345.714	93.75
345.942	94.75
346.17	80.75
346.397	92.75
346.625	97.75
346.853	84.75
347.08	88.75
347.308	100.75
347.535	97.75
347.763	98.75
347.99	105.75
348.218	107.75
348.445	90.75
348.673	106.75
348.9	87.75
349.128	94.75
349.355	87.75
349.583	87.75
349.81	98.75
350.037	107.75
350.265	84.75
350.492	88.75
350.72	87.75
350.947	95.75
351.174	114.75
351.402	116.75
351.629	102.75
351.856	95.75
352.083	98.75
352.311	120.75
352.538	106.75
352.765	100.75
352.992	112.75
353.22	93.75
353.447	92.75
353.674	108.75
353.901	100.75
354.128	106.75
354.355	91.75
354.583	95.75
354.81	95.75
355.037	90.75
355.264	90.75
355.491	95.75
355.718	95.75
355.945	87.75
356.172	84.75
356.399	97.75
356.626	101.75
356.853	92.75
357.08	98.75
357.307	87.75
357.534	71.75
357.761	104.75
357.988	95.75
358.215	95.75
358.441	105.75
358.668	72.75
358.895	86.75
359.122	96.75
359.349	88.75
359.576	91.75
359.802	98.75
360.029	117.75
360.256	130.75
360.483	94.75
360.709	89.75
360.936	83.75
361.163	100.75
361.39	106.75
361.616	107.75
361.843	106.75
362.07	100.75
362.296	98.75
362.523	88.75
362.749	97.75
362.976	88.75
363.203	93.75
363.429	99.75
363.656	100.75
363.882	95.75
364.109	91.75
364.335	95.75
364.562	106.75
364.788	90.75
365.015	98.75
365.241	99.75
365.468	118.75
365.694	113.75
365.92	104.75
366.147	99.75
366.373	92.75
366.599	90.75
366.826	94.75
367.052	83.75
367.278	95.75
367.505	80.75
367.731	93.75
367.957	95.75
368.184	97.75
368.41	100.75
368.636	106.75
368.862	107.75
369.089	110.75
369.315	102.75
369.541	94.75
369.767	101.75
369.993	92.75
370.219	94.75
370.445	95.75
370.672	92.75
370.898	82.75
371.124	85.75
371.35	92.75
371.576	103.75
371.802	92.75
372.028	93.75
372.254	96.75
372.48	84.75
372.706	81.75
372.932	86.75
373.158	100.75
373.384	91.75
373.61	88.75
373.835	90.75
374.061	77.75
374.287	84.75
374.513	71.75
374.739	96.75
374.965	93.75
375.191	86.75
375.416	80.75
375.642	93.75
375.868	84.75
376.094	78.75
376.319	100.75
376.545	81.75
376.771	79.75
376.997	91.75
377.222	107.75
377.448	86.75
377.674	93.75
377.899	87.75
378.125	86.75
378.35	96.75
378.576	87.75
378.802	93.75
379.027	98.75
379.253	97.75
379.478	79.75
379.704	87.75
379.929	95.75
380.155	89.75
380.38	79.75
380.606	91.75
380.831	91.75
381.057	93.75
381.282	97.75
381.507	96.75
381.733	89.75
381.958	107.75
382.184	110.75
382.409	111.75
382.634	97.75
382.86	103.75
383.085	93.75
383.31	104.75
383.535	104.75
383.761	113.75
383.986	85.75
384.211	83.75
384.436	89.75
384.662	88.75
384.887	95.75
385.112	107.75
385.337	94.75
385.562	113.75
385.787	104.75
386.013	120.75
386.238	135.75
386.463	98.75
386.688	110.75
386.913	92.75
387.138	98.75
387.363	102.75
387.588	95.75
387.813	105.75
388.038	119.75
388.263	111.75
388.488	96.75
388.713	91.75
388.938	78.75
389.163	94.75
389.387	99.75
389.612	86.75
389.837	85.75
390.062	95.75
390.287	78.75
390.512	91.75
390.736	93.75
390.961	103.75
391.186	99.75
391.411	95.75
391.636	81.75
391.86	87.75
392.085	99.75
392.31	96.75
392.534	92.75
392.759	74.75
392.984	82.75
393.208	92.75
393.433	89.75
393.658	90.75
393.882	69.75
394.107	90.75
394.331	97.75
394.556	89.75
394.78	98.75
395.005	90.75
395.229	86.75
395.454	78.75
395.678	80.75
395.903	83.75
396.127	92.75
396.352	91.75
396.576	81.75
396.801	72.75
397.025	74.75
397.249	89.75
397.474	91.75
397.698	94.75
397.922	96.75
398.147	95.75
398.371	90.75
398.595	78.75
398.82	75.75
399.044	85.75
399.268	101.75
399.492	104.75
399.717	94.75
399.941	89.75
400.165	93.75
400.389	89.75
400.613	80.75
400.837	87.75
401.062	82.75
401.286	91.75
401.51	78.75
401.734	86.75
401.958	94.75
402.182	124.75
402.406	160.75
402.63	118.75
402.854	102.75
403.078	103.75
403.302	93.75
403.526	84.75
403.75	103.75
403.974	103.75
404.198	84.75
404.422	93.75
404.645	81.75
404.869	97.75
405.093	124.75
405.317	139.75
405.541	129.75
405.765	119.75
405.988	125.75
406.212	176.75
406.436	236.75
406.66	167.75
406.883	119.75
407.107	96.75
407.331	97.75
407.555	111.75
407.778	97.75
408.002	84.75
408.226	84.75
408.449	89.75
408.673	96.75
408.896	102.75
409.12	95.75
409.344	83.75
409.567	94.75
409.791	90.75
410.014	106.75
410.238	76.75
410.461	75.75
410.685	93.75
410.908	82.75
411.132	107.75
411.355	106.75
411.578	94.75
411.802	76.75
412.025	97.75
412.249	104.75
412.472	115.75
412.695	122.75
412.919	107.75
413.142	102.75
413.365	94.75
413.589	98.75
413.812	92.75
414.035	94.75
414.258	92.75
414.482	101.75
414.705	84.75
414.928	88.75
415.151	83.75
415.374	100.75
415.597	78.75
415.821	78.75
416.044	97.75
416.267	80.75
416.49	83.75
416.713	94.75
416.936	73.75
417.159	75.75
417.382	94.75
417.605	106.75
417.828	108.75
418.051	98.75
418.274	94.75
418.497	74.75
418.72	83.75
418.943	88.75
419.166	99.75
419.389	88.75
419.611	85.75
419.834	98.75
420.057	99.75
420.28	87.75
420.503	94.75
420.726	97.75
420.948	83.75
421.171	101.75
421.394	96.75
421.617	97.75
421.839	96.75
422.062	85.75
422.285	83.75
422.507	94.75
422.73	112.75
422.953	86.75
423.175	104.75
423.398	93.75
423.621	91.75
423.843	82.75
424.066	72.75
424.288	87.75
424.511	97.75
424.733	99.75
424.956	116.75
425.178	115.75
425.401	110.75
425.623	106.75
425.846	90.75
426.068	114.75
426.291	90.75
426.513	99.75
426.735	77.75
426.958	99.75
427.18	112.75
427.402	190.75
427.625	236.75
427.847	224.75
428.069	218.75
428.292	119.75
428.514	94.75
428.736	89.75
428.958	90.75
429.181	82.75
429.403	82.75
429.625	91.75
429.847	95.75
430.069	95.75
430.292	97.75
430.514	95.75
430.736	83.75
430.958	92.75
431.18	97.75
431.402	86.75
431.624	94.75
431.846	83.75
432.068	81.75
432.29	93.75
432.512	78.75
432.734	86.75
432.956	88.75
433.178	107.75
433.4	97.75
433.622	104.75
433.844	88.75
434.066	88.75
434.287	79.75
434.509	67.75
434.731	83.75
434.953	92.75
435.175	83.75
435.397	79.75
435.618	94.75
435.84	115.75
436.062	162.75
436.284	137.75
436.505	119.75
436.727	107.75
436.949	96.75
437.17	82.75
437.392	86.75
437.614	86.75
437.835	131.75
438.057	125.75
438.278	134.75
438.5	115.75
438.721	152.75
438.943	98.75
439.165	86.75
439.386	93.75
439.608	92.75
439.829	100.75
440.05	164.75
440.272	193.75
440.493	118.75
440.715	90.75
440.936	86.75
441.158	84.75
441.379	90.75
441.6	99.75
441.822	88.75
442.043	98.75
442.264	131.75
442.486	121.75
442.707	101.75
442.928	123.75
443.149	153.75
443.371	170.75
443.592	125.75
443.813	127.75
444.034	116.75
444.255	97.75
444.476	90.75
444.698	91.75
444.919	92.75
445.14	132.75
445.361	126.75
445.582	138.75
445.803	200.75
446.024	179.75
446.245	172.75
446.466	128.75
446.687	110.75
446.908	94.75
447.129	87.75
447.35	78.75
447.571	94.75
447.792	83.75
448.013	99.75
448.234	106.75
448.455	118.75
448.675	128.75
448.896	148.75
449.117	111.75
449.338	99.75
449.559	145.75
449.779	153.75
450	110.75
450.221	92.75
450.442	93.75
450.662	100.75
450.883	124.75
451.104	129.75
451.324	102.75
451.545	92.75
451.766	89.75
451.986	94.75
452.207	89.75
452.428	104.75
452.648	114.75
452.869	114.75
453.089	119.75
453.31	124.75
453.53	80.75
453.751	101.75
453.971	107.75
454.192	113.75
454.412	91.75
454.633	86.75
454.853	68.75
455.073	91.75
455.294	103.75
455.514	108.75
455.734	90.75
455.955	96.75
456.175	90.75
456.395	92.75
456.616	91.75
456.836	94.75
457.056	93.75
457.276	91.75
457.497	87.75
457.717	94.75
457.937	88.75
458.157	84.75
458.377	90.75
458.598	116.75
458.818	170.75
459.038	200.75
459.258	128.75
459.478	90.75
459.698	76.75
459.918	99.75
460.138	103.75
460.358	69.75
460.578	62.75
460.798	86.75
461.018	95.75
461.238	76.75
461.458	82.75
461.678	79.75
461.898	74.75
462.118	110.75
462.338	92.75
462.558	81.75
462.777	71.75
462.997	99.75
463.217	91.75
463.437	95.75
463.657	86.75
463.876	78.75
464.096	87.75
464.316	83.75
464.536	107.75
464.755	104.75
464.975	112.75
465.195	207.75
465.414	205.75
465.634	99.75
465.854	80.75
466.073	81.75
466.293	82.75
466.512	84.75
466.732	70.75
466.951	76.75
467.171	109.75
467.391	99.75
467.61	121.75
467.829	161.75
468.049	377.75
468.268	584.75
468.488	191.75
468.707	90.75
468.927	86.75
469.146	80.75
469.365	99.75
469.585	91.75
469.804	91.75
470.023	100.75
470.243	91.75
470.462	112.75
470.681	119.75
470.901	100.75
471.12	102.75
471.339	91.75
471.558	95.75
471.777	127.75
471.997	226.75
472.216	767.75
472.435	1712.75
472.654	423.75
472.873	129.75
473.092	102.75
473.311	107.75
473.53	96.75
473.749	91.75
473.968	111.75
474.187	115.75
474.406	99.75
474.625	81.75
474.844	96.75
475.063	75.75
475.282	100.75
475.501	87.75
475.72	87.75
475.939	82.75
476.158	73.75
476.377	96.75
476.596	85.75
476.814	98.75
477.033	87.75
477.252	92.75
477.471	94.75
477.69	78.75
477.908	92.75
478.127	107.75
478.346	80.75
478.564	92.75
478.783	108.75
479.002	103.75
479.22	119.75
479.439	122.75
479.658	127.75
479.876	111.75
480.095	113.75
480.313	110.75
480.532	140.75
480.751	218.75
480.969	751.75
481.188	3042.75
481.406	1759.75
481.624	289.75
481.843	136.75
482.061	98.75
482.28	93.75
482.498	105.75
482.717	88.75
482.935	84.75
483.153	91.75
483.372	96.75
483.59	84.75
483.808	84.75
484.027	88.75
484.245	86.75
484.463	95.75
484.681	99.75
484.9	88.75
485.118	98.75
485.336	91.75
485.554	93.75
485.772	92.75
485.99	104.75
486.209	98.75
486.427	91.75
486.645	125.75
486.863	107.75
487.081	105.75
487.299	98.75
487.517	89.75
487.735	94.75
487.953	113.75
488.171	95.75
488.389	90.75
488.607	104.75
488.825	88.75
489.043	75.75
489.261	78.75
489.479	89.75
489.696	95.75
489.914	95.75
490.132	103.75
490.35	90.75
490.568	83.75
490.786	92.75
491.003	89.75
491.221	99.75
491.439	103.75
491.657	88.75
491.874	97.75
492.092	90.75
492.31	87.75
492.527	96.75
492.745	99.75
492.963	90.75
493.18	94.75
493.398	83.75
493.615	82.75
493.833	98.75
494.05	87.75
494.268	77.75
494.485	87.75
494.703	81.75
494.92	91.75
495.138	80.75
495.355	81.75
495.573	81.75
495.79	78.75
496.008	88.75
496.225	96.75
496.442	91.75
496.66	86.75
496.877	86.75
497.094	96.75
497.312	95.75
497.529	90.75
497.746	90.75
497.963	79.75
498.181	91.75
498.398	82.75
498.615	114.75
498.832	100.75
499.049	87.75
499.267	89.75
499.484	94.75
499.701	94.75
499.918	99.75
500.135	77.75
500.352	104.75
500.569	96.75
500.786	94.75
501.003	74.75
501.22	96.75
501.437	90.75
501.654	78.75
501.871	98.75
502.088	100.75
502.305	89.75
502.522	96.75
502.739	76.75
502.956	96.75
503.172	90.75
503.389	81.75
503.606	105.75
503.823	94.75
504.04	110.75
504.256	93.75
504.473	73.75
504.69	72.75
504.907	80.75
505.123	82.75
505.34	86.75
505.557	97.75
505.773	91.75
505.99	99.75
506.207	100.75
506.423	84.75
506.64	92.75
506.856	78.75
507.073	95.75
507.289	93.75
507.506	101.75
507.722	115.75
507.939	123.75
508.155	90.75
508.372	83.75
508.588	87.75
508.805	84.75
509.021	90.75
509.238	101.75
509.454	100.75
509.67	101.75
509.887	114.75
510.103	132.75
510.319	207.75
510.536	742.75
510.752	2507.75
510.968	702.75
511.184	161.75
511.401	106.75
511.617	102.75
511.833	100.75
512.049	94.75
512.265	88.75
512.481	89.75
512.698	91.75
512.914	103.75
513.13	85.75
513.346	103.75
513.562	103.75
513.778	108.75
513.994	106.75
514.21	108.75
514.426	114.75
