Data from Circ_1992_H10_HRD10591_00098.txt Node
Date: Wed Jan 03 11:48:04 EST 2024
User: Yrep
Spectrometer: HR+D1059
Trigger mode: 1
Integration Time (sec): 1.000000E-1
Scans to average: 1
Electric dark correction enabled: true
Nonlinearity correction enabled: false
Boxcar width: 0
XAxis mode: Wavelengths
Number of Pixels in Spectrum: 2048
>>>>>Begin Spectral Data<<<<<
223.165	-13.12
223.4	-13.12
223.635	-13.12
223.869	-15.12
224.104	-17.12
224.338	-23.12
224.573	-21.12
224.808	-5.12
225.042	-8.12
225.277	-3.12
225.511	11.88
225.746	3.88
225.98	0.88
226.215	-3.12
226.449	17.88
226.683	8.88
226.918	32.88
227.152	32.88
227.387	38.88
227.621	45.88
227.856	43.88
228.09	44.88
228.324	55.88
228.559	60.88
228.793	58.88
229.027	56.88
229.262	63.88
229.496	64.88
229.73	88.88
229.964	88.88
230.199	62.88
230.433	79.88
230.667	79.88
230.901	68.88
231.136	83.88
231.37	71.88
231.604	87.88
231.838	84.88
232.072	79.88
232.306	82.88
232.541	88.88
232.775	91.88
233.009	79.88
233.243	83.88
233.477	90.88
233.711	83.88
233.945	82.88
234.179	82.88
234.413	62.88
234.647	91.88
234.881	84.88
235.115	76.88
235.349	71.88
235.583	87.88
235.817	72.88
236.051	75.88
236.285	68.88
236.519	85.88
236.753	78.88
236.987	89.88
237.221	100.88
237.455	92.88
237.689	80.88
237.922	75.88
238.156	84.88
238.39	84.88
238.624	72.88
238.858	66.88
239.091	73.88
239.325	78.88
239.559	83.88
239.793	97.88
240.027	76.88
240.26	74.88
240.494	78.88
240.728	79.88
240.961	75.88
241.195	89.88
241.429	93.88
241.662	75.88
241.896	93.88
242.13	86.88
242.363	70.88
242.597	73.88
242.83	76.88
243.064	66.88
243.298	66.88
243.531	72.88
243.765	65.88
243.998	79.88
244.232	66.88
244.465	79.88
244.699	89.88
244.932	66.88
245.166	69.88
245.399	92.88
245.633	85.88
245.866	81.88
246.099	69.88
246.333	85.88
246.566	85.88
246.8	88.88
247.033	72.88
247.266	75.88
247.5	87.88
247.733	80.88
247.966	89.88
248.2	79.88
248.433	77.88
248.666	78.88
248.899	91.88
249.133	94.88
249.366	102.88
249.599	119.88
249.832	69.88
250.066	88.88
250.299	88.88
250.532	80.88
250.765	73.88
250.998	80.88
251.231	71.88
251.465	68.88
251.698	84.88
251.931	85.88
252.164	81.88
252.397	70.88
252.63	72.88
252.863	68.88
253.096	95.88
253.329	69.88
253.562	80.88
253.795	87.88
254.028	77.88
254.261	80.88
254.494	86.88
254.727	73.88
254.96	82.88
255.193	95.88
255.426	67.88
255.659	75.88
255.892	84.88
256.124	80.88
256.357	86.88
256.59	82.88
256.823	72.88
257.056	80.88
257.289	89.88
257.521	88.88
257.754	82.88
257.987	77.88
258.22	93.88
258.452	84.88
258.685	96.88
258.918	77.88
259.151	81.88
259.383	77.88
259.616	67.88
259.849	87.88
260.081	80.88
260.314	83.88
260.547	97.88
260.779	83.88
261.012	95.88
261.244	100.88
261.477	97.88
261.71	99.88
261.942	136.88
262.175	152.88
262.407	101.88
262.64	79.88
262.872	96.88
263.105	88.88
263.337	86.88
263.57	89.88
263.802	87.88
264.035	90.88
264.267	75.88
264.499	81.88
264.732	78.88
264.964	90.88
265.197	77.88
265.429	71.88
265.661	83.88
265.894	88.88
266.126	92.88
266.358	75.88
266.591	92.88
266.823	89.88
267.055	86.88
267.287	98.88
267.52	73.88
267.752	89.88
267.984	84.88
268.216	83.88
268.448	84.88
268.681	75.88
268.913	78.88
269.145	72.88
269.377	75.88
269.609	89.88
269.841	88.88
270.073	87.88
270.306	84.88
270.538	81.88
270.77	91.88
271.002	80.88
271.234	82.88
271.466	105.88
271.698	91.88
271.93	93.88
272.162	87.88
272.394	91.88
272.626	81.88
272.858	77.88
273.09	98.88
273.322	92.88
273.553	81.88
273.785	87.88
274.017	91.88
274.249	91.88
274.481	88.88
274.713	96.88
274.945	104.88
275.176	87.88
275.408	101.88
275.64	98.88
275.872	109.88
276.104	111.88
276.335	88.88
276.567	107.88
276.799	137.88
277.031	151.88
277.262	168.88
277.494	136.88
277.726	97.88
277.957	87.88
278.189	80.88
278.421	96.88
278.652	75.88
278.884	110.88
279.115	76.88
279.347	98.88
279.579	105.88
279.81	112.88
280.042	163.88
280.273	203.88
280.505	160.88
280.736	107.88
280.968	95.88
281.199	74.88
281.431	82.88
281.662	81.88
281.894	94.88
282.125	108.88
282.356	138.88
282.588	169.88
282.819	130.88
283.051	100.88
283.282	81.88
283.513	98.88
283.745	91.88
283.976	93.88
284.207	83.88
284.439	91.88
284.67	100.88
284.901	80.88
285.132	78.88
285.364	91.88
285.595	82.88
285.826	82.88
286.057	80.88
286.288	81.88
286.52	99.88
286.751	80.88
286.982	98.88
287.213	77.88
287.444	85.88
287.675	81.88
287.906	94.88
288.138	101.88
288.369	96.88
288.6	75.88
288.831	89.88
289.062	90.88
289.293	77.88
289.524	79.88
289.755	87.88
289.986	96.88
290.217	93.88
290.448	83.88
290.679	89.88
290.91	91.88
291.141	90.88
291.371	82.88
291.602	92.88
291.833	92.88
292.064	95.88
292.295	92.88
292.526	89.88
292.757	100.88
292.987	83.88
293.218	84.88
293.449	97.88
293.68	75.88
293.91	95.88
294.141	74.88
294.372	88.88
294.603	88.88
294.833	96.88
295.064	85.88
295.295	89.88
295.525	102.88
295.756	105.88
295.987	115.88
296.217	171.88
296.448	136.88
296.679	82.88
296.909	96.88
297.14	95.88
297.37	82.88
297.601	84.88
297.831	94.88
298.062	93.88
298.292	91.88
298.523	104.88
298.753	91.88
298.984	78.88
299.214	64.88
299.445	81.88
299.675	99.88
299.905	96.88
300.136	98.88
300.366	85.88
300.597	78.88
300.827	97.88
301.057	101.88
301.288	123.88
301.518	93.88
301.748	95.88
301.979	112.88
302.209	94.88
302.439	114.88
302.669	86.88
302.9	89.88
303.13	104.88
303.36	89.88
303.59	122.88
303.82	120.88
304.051	112.88
304.281	100.88
304.511	87.88
304.741	91.88
304.971	83.88
305.201	91.88
305.431	98.88
305.661	91.88
305.891	106.88
306.121	105.88
306.352	111.88
306.582	117.88
306.812	103.88
307.042	109.88
307.272	146.88
307.502	165.88
307.731	135.88
307.961	114.88
308.191	106.88
308.421	92.88
308.651	94.88
308.881	85.88
309.111	81.88
309.341	94.88
309.571	99.88
309.8	98.88
310.03	107.88
310.26	105.88
310.49	98.88
310.72	116.88
310.949	118.88
311.179	136.88
311.409	105.88
311.639	118.88
311.868	102.88
312.098	112.88
312.328	120.88
312.557	110.88
312.787	145.88
313.017	131.88
313.246	93.88
313.476	94.88
313.706	86.88
313.935	98.88
314.165	111.88
314.394	97.88
314.624	106.88
314.853	93.88
315.083	92.88
315.312	102.88
315.542	87.88
315.771	89.88
316.001	101.88
316.23	83.88
316.46	88.88
316.689	104.88
316.919	96.88
317.148	99.88
317.377	90.88
317.607	92.88
317.836	93.88
318.065	80.88
318.295	90.88
318.524	96.88
318.753	93.88
318.983	99.88
319.212	111.88
319.441	108.88
319.67	120.88
319.9	100.88
320.129	94.88
320.358	83.88
320.587	109.88
320.816	111.88
321.046	110.88
321.275	101.88
321.504	90.88
321.733	107.88
321.962	98.88
322.191	97.88
322.42	108.88
322.649	127.88
322.878	120.88
323.108	122.88
323.337	151.88
323.566	156.88
323.795	187.88
324.024	236.88
324.253	497.88
324.482	1135.88
324.71	2406.88
324.939	3247.88
325.168	1140.88
325.397	323.88
325.626	172.88
325.855	148.88
326.084	140.88
326.313	147.88
326.542	178.88
326.77	298.88
326.999	568.88
327.228	1221.88
327.457	2311.88
327.686	1871.88
327.914	533.88
328.143	459.88
328.372	567.88
328.6	330.88
328.829	175.88
329.058	182.88
329.287	192.88
329.515	175.88
329.744	209.88
329.972	399.88
330.201	772.88
330.43	1195.88
330.658	568.88
330.887	263.88
331.115	187.88
331.344	103.88
331.572	125.88
331.801	116.88
332.03	112.88
332.258	114.88
332.486	100.88
332.715	99.88
332.943	113.88
333.172	110.88
333.4	112.88
333.629	154.88
333.857	208.88
334.085	352.88
334.314	733.88
334.542	1437.88
334.771	1457.88
334.999	384.88
335.227	165.88
335.455	115.88
335.684	117.88
335.912	104.88
336.14	105.88
336.369	123.88
336.597	113.88
336.825	103.88
337.053	101.88
337.281	99.88
337.51	96.88
337.738	85.88
337.966	92.88
338.194	101.88
338.422	106.88
338.65	103.88
338.878	100.88
339.106	99.88
339.334	101.88
339.562	89.88
339.79	79.88
340.018	94.88
340.246	90.88
340.474	100.88
340.702	93.88
340.93	93.88
341.158	95.88
341.386	107.88
341.614	100.88
341.842	94.88
342.07	108.88
342.298	111.88
342.526	90.88
342.754	86.88
342.981	90.88
343.209	99.88
343.437	87.88
343.665	82.88
343.893	66.88
344.12	92.88
344.348	89.88
344.576	76.88
344.804	94.88
345.031	114.88
345.259	101.88
345.487	97.88
345.714	112.88
345.942	96.88
346.17	94.88
346.397	97.88
346.625	90.88
346.853	96.88
347.08	82.88
347.308	97.88
347.535	111.88
347.763	119.88
347.99	96.88
348.218	101.88
348.445	113.88
348.673	120.88
348.9	96.88
349.128	101.88
349.355	91.88
349.583	88.88
349.81	69.88
350.037	79.88
350.265	98.88
350.492	82.88
350.72	94.88
350.947	90.88
351.174	126.88
351.402	117.88
351.629	119.88
351.856	100.88
352.083	109.88
352.311	110.88
352.538	127.88
352.765	129.88
352.992	131.88
353.22	115.88
353.447	102.88
353.674	95.88
353.901	95.88
354.128	107.88
354.355	95.88
354.583	91.88
354.81	94.88
355.037	88.88
355.264	89.88
355.491	88.88
355.718	89.88
355.945	90.88
356.172	101.88
356.399	93.88
356.626	89.88
356.853	104.88
357.08	91.88
357.307	84.88
357.534	100.88
357.761	83.88
357.988	89.88
358.215	87.88
358.441	93.88
358.668	99.88
358.895	94.88
359.122	79.88
359.349	75.88
359.576	98.88
359.802	105.88
360.029	131.88
360.256	138.88
360.483	101.88
360.709	82.88
360.936	107.88
361.163	90.88
361.39	107.88
361.616	100.88
361.843	85.88
362.07	98.88
362.296	96.88
362.523	104.88
362.749	105.88
362.976	93.88
363.203	79.88
363.429	79.88
363.656	85.88
363.882	90.88
364.109	91.88
364.335	100.88
364.562	95.88
364.788	104.88
365.015	115.88
365.241	110.88
365.468	122.88
365.694	122.88
365.92	90.88
366.147	101.88
366.373	76.88
366.599	87.88
366.826	81.88
367.052	85.88
367.278	100.88
367.505	84.88
367.731	91.88
367.957	101.88
368.184	96.88
368.41	108.88
368.636	113.88
368.862	130.88
369.089	104.88
369.315	100.88
369.541	102.88
369.767	79.88
369.993	91.88
370.219	83.88
370.445	92.88
370.672	96.88
370.898	95.88
371.124	78.88
371.35	77.88
371.576	85.88
371.802	91.88
372.028	71.88
372.254	96.88
372.48	87.88
372.706	81.88
372.932	87.88
373.158	79.88
373.384	83.88
373.61	96.88
373.835	82.88
374.061	91.88
374.287	83.88
374.513	91.88
374.739	101.88
374.965	88.88
375.191	93.88
375.416	91.88
375.642	76.88
375.868	79.88
376.094	92.88
376.319	80.88
376.545	88.88
376.771	95.88
376.997	85.88
377.222	81.88
377.448	100.88
377.674	103.88
377.899	90.88
378.125	81.88
378.35	73.88
378.576	88.88
378.802	85.88
379.027	83.88
379.253	95.88
379.478	99.88
379.704	86.88
379.929	100.88
380.155	81.88
380.38	97.88
380.606	98.88
380.831	96.88
381.057	100.88
381.282	93.88
381.507	94.88
381.733	94.88
381.958	106.88
382.184	95.88
382.409	100.88
382.634	107.88
382.86	100.88
383.085	101.88
383.31	105.88
383.535	102.88
383.761	113.88
383.986	100.88
384.211	83.88
384.436	95.88
384.662	101.88
384.887	111.88
385.112	107.88
385.337	105.88
385.562	108.88
385.787	100.88
386.013	111.88
386.238	125.88
386.463	105.88
386.688	113.88
386.913	95.88
387.138	100.88
387.363	90.88
387.588	103.88
387.813	89.88
388.038	100.88
388.263	111.88
388.488	115.88
388.713	98.88
388.938	83.88
389.163	108.88
389.387	111.88
389.612	79.88
389.837	104.88
390.062	100.88
390.287	93.88
390.512	84.88
390.736	96.88
390.961	88.88
391.186	90.88
391.411	91.88
391.636	96.88
391.86	78.88
392.085	85.88
392.31	81.88
392.534	85.88
392.759	76.88
392.984	78.88
393.208	85.88
393.433	66.88
393.658	83.88
393.882	81.88
394.107	94.88
394.331	89.88
394.556	95.88
394.78	84.88
395.005	69.88
395.229	90.88
395.454	93.88
395.678	89.88
395.903	81.88
396.127	96.88
396.352	81.88
396.576	84.88
396.801	95.88
397.025	84.88
397.249	75.88
397.474	104.88
397.698	90.88
397.922	85.88
398.147	91.88
398.371	81.88
398.595	98.88
398.82	97.88
399.044	91.88
399.268	76.88
399.492	95.88
399.717	91.88
399.941	83.88
400.165	96.88
400.389	87.88
400.613	81.88
400.837	79.88
401.062	85.88
401.286	78.88
401.51	85.88
401.734	92.88
401.958	100.88
402.182	140.88
402.406	186.88
402.63	157.88
402.854	98.88
403.078	95.88
403.302	84.88
403.526	77.88
403.75	93.88
403.974	92.88
404.198	76.88
404.422	84.88
404.645	98.88
404.869	103.88
405.093	115.88
405.317	135.88
405.541	147.88
405.765	127.88
405.988	139.88
406.212	203.88
406.436	297.88
406.66	204.88
406.883	119.88
407.107	84.88
407.331	99.88
407.555	102.88
407.778	111.88
408.002	98.88
408.226	90.88
408.449	84.88
408.673	90.88
408.896	99.88
409.12	99.88
409.344	98.88
409.567	73.88
409.791	91.88
410.014	83.88
410.238	111.88
410.461	102.88
410.685	102.88
410.908	108.88
411.132	100.88
411.355	108.88
411.578	84.88
411.802	81.88
412.025	100.88
412.249	107.88
412.472	115.88
412.695	131.88
412.919	114.88
413.142	99.88
413.365	84.88
413.589	76.88
413.812	75.88
414.035	89.88
414.258	100.88
414.482	101.88
414.705	94.88
414.928	84.88
415.151	87.88
415.374	84.88
415.597	84.88
415.821	81.88
416.044	98.88
416.267	83.88
416.49	89.88
416.713	95.88
416.936	96.88
417.159	84.88
417.382	90.88
417.605	91.88
417.828	113.88
418.051	101.88
418.274	86.88
418.497	87.88
418.72	87.88
418.943	78.88
419.166	80.88
419.389	95.88
419.611	100.88
419.834	80.88
420.057	105.88
420.28	96.88
420.503	69.88
420.726	87.88
420.948	95.88
421.171	101.88
421.394	96.88
421.617	83.88
421.839	92.88
422.062	83.88
422.285	95.88
422.507	108.88
422.73	121.88
422.953	105.88
423.175	92.88
423.398	86.88
423.621	104.88
423.843	96.88
424.066	93.88
424.288	81.88
424.511	87.88
424.733	93.88
424.956	116.88
425.178	110.88
425.401	109.88
425.623	108.88
425.846	89.88
426.068	86.88
426.291	104.88
426.513	95.88
426.735	95.88
426.958	98.88
427.18	111.88
427.402	169.88
427.625	235.88
427.847	245.88
428.069	219.88
428.292	104.88
428.514	87.88
428.736	90.88
428.958	87.88
429.181	93.88
429.403	100.88
429.625	97.88
429.847	95.88
430.069	105.88
430.292	97.88
430.514	90.88
430.736	96.88
430.958	88.88
431.18	88.88
431.402	94.88
431.624	99.88
431.846	94.88
432.068	93.88
432.29	87.88
432.512	95.88
432.734	87.88
432.956	92.88
433.178	108.88
433.4	104.88
433.622	87.88
433.844	88.88
434.066	91.88
434.287	104.88
434.509	98.88
434.731	104.88
434.953	94.88
435.175	95.88
435.397	95.88
435.618	84.88
435.84	105.88
436.062	142.88
436.284	131.88
436.505	107.88
436.727	116.88
436.949	95.88
437.17	96.88
437.392	93.88
437.614	95.88
437.835	127.88
438.057	130.88
438.278	140.88
438.5	114.88
438.721	133.88
438.943	114.88
439.165	96.88
439.386	94.88
439.608	106.88
439.829	112.88
440.05	138.88
440.272	187.88
440.493	120.88
440.715	93.88
440.936	93.88
441.158	98.88
441.379	93.88
441.6	113.88
441.822	122.88
442.043	112.88
442.264	113.88
442.486	114.88
442.707	102.88
442.928	126.88
443.149	170.88
443.371	169.88
443.592	121.88
443.813	132.88
444.034	119.88
444.255	92.88
444.476	92.88
444.698	96.88
444.919	94.88
445.14	139.88
445.361	120.88
445.582	139.88
445.803	186.88
446.024	166.88
446.245	178.88
446.466	128.88
446.687	87.88
446.908	100.88
447.129	86.88
447.35	95.88
447.571	84.88
447.792	101.88
448.013	97.88
448.234	119.88
448.455	111.88
448.675	119.88
448.896	142.88
449.117	109.88
449.338	114.88
449.559	145.88
449.779	162.88
450	101.88
450.221	81.88
450.442	89.88
450.662	93.88
450.883	107.88
451.104	141.88
451.324	102.88
451.545	97.88
451.766	89.88
451.986	89.88
452.207	85.88
452.428	91.88
452.648	94.88
452.869	128.88
453.089	131.88
453.31	150.88
453.53	124.88
453.751	99.88
453.971	108.88
454.192	123.88
454.412	105.88
454.633	108.88
454.853	86.88
455.073	89.88
455.294	95.88
455.514	116.88
455.734	96.88
455.955	88.88
456.175	88.88
456.395	86.88
456.616	97.88
456.836	73.88
457.056	95.88
457.276	91.88
457.497	84.88
457.717	82.88
457.937	83.88
458.157	98.88
458.377	103.88
458.598	128.88
458.818	195.88
459.038	217.88
459.258	142.88
459.478	95.88
459.698	81.88
459.918	76.88
460.138	89.88
460.358	105.88
460.578	112.88
460.798	97.88
461.018	80.88
461.238	97.88
461.458	91.88
461.678	71.88
461.898	97.88
462.118	86.88
462.338	85.88
462.558	89.88
462.777	85.88
462.997	77.88
463.217	107.88
463.437	100.88
463.657	87.88
463.876	88.88
464.096	95.88
464.316	106.88
464.536	111.88
464.755	97.88
464.975	119.88
465.195	224.88
465.414	219.88
465.634	96.88
465.854	98.88
466.073	100.88
466.293	91.88
466.512	99.88
466.732	89.88
466.951	94.88
467.171	89.88
467.391	114.88
467.61	143.88
467.829	186.88
468.049	445.88
468.268	706.88
468.488	189.88
468.707	112.88
468.927	100.88
469.146	89.88
469.365	103.88
469.585	97.88
469.804	98.88
470.023	124.88
470.243	103.88
470.462	122.88
470.681	123.88
470.901	82.88
471.12	93.88
471.339	111.88
471.558	102.88
471.777	141.88
471.997	260.88
472.216	885.88
472.435	2077.88
472.654	516.88
472.873	133.88
473.092	105.88
473.311	99.88
473.53	97.88
473.749	105.88
473.968	115.88
474.187	126.88
474.406	114.88
474.625	94.88
474.844	105.88
475.063	92.88
475.282	85.88
475.501	96.88
475.72	91.88
475.939	90.88
476.158	100.88
476.377	104.88
476.596	92.88
476.814	104.88
477.033	105.88
477.252	84.88
477.471	93.88
477.69	78.88
477.908	85.88
478.127	86.88
478.346	96.88
478.564	108.88
478.783	99.88
479.002	96.88
479.22	107.88
479.439	127.88
479.658	122.88
479.876	111.88
480.095	114.88
480.313	125.88
480.532	150.88
480.751	243.88
480.969	832.88
481.188	3627.88
481.406	2097.88
481.624	335.88
481.843	139.88
482.061	109.88
482.28	95.88
482.498	85.88
482.717	107.88
482.935	90.88
483.153	90.88
483.372	92.88
483.59	107.88
483.808	104.88
484.027	91.88
484.245	101.88
484.463	97.88
484.681	93.88
484.9	100.88
485.118	105.88
485.336	98.88
485.554	111.88
485.772	97.88
485.99	109.88
486.209	107.88
486.427	105.88
486.645	123.88
486.863	123.88
487.081	121.88
487.299	108.88
487.517	103.88
487.735	97.88
487.953	105.88
488.171	100.88
488.389	97.88
488.607	107.88
488.825	99.88
489.043	81.88
489.261	93.88
489.479	96.88
489.696	88.88
489.914	78.88
490.132	88.88
490.35	85.88
490.568	94.88
490.786	89.88
491.003	94.88
491.221	105.88
491.439	105.88
491.657	79.88
491.874	85.88
492.092	99.88
492.31	88.88
492.527	91.88
492.745	95.88
492.963	108.88
493.18	96.88
493.398	96.88
493.615	93.88
493.833	100.88
494.05	90.88
494.268	74.88
494.485	88.88
494.703	79.88
494.92	87.88
495.138	81.88
495.355	105.88
495.573	100.88
495.79	92.88
496.008	93.88
496.225	92.88
496.442	91.88
496.66	90.88
496.877	85.88
497.094	89.88
497.312	92.88
497.529	94.88
497.746	90.88
497.963	93.88
498.181	82.88
498.398	112.88
498.615	120.88
498.832	107.88
499.049	91.88
499.267	86.88
499.484	93.88
499.701	95.88
499.918	92.88
500.135	83.88
500.352	97.88
500.569	93.88
500.786	78.88
501.003	92.88
501.22	81.88
501.437	99.88
501.654	97.88
501.871	125.88
502.088	105.88
502.305	87.88
502.522	76.88
502.739	97.88
502.956	93.88
503.172	99.88
503.389	109.88
503.606	120.88
503.823	111.88
504.04	103.88
504.256	105.88
504.473	91.88
504.69	96.88
504.907	94.88
505.123	93.88
505.34	91.88
505.557	81.88
505.773	96.88
505.99	97.88
506.207	84.88
506.423	91.88
506.64	99.88
506.856	99.88
507.073	109.88
507.289	92.88
507.506	95.88
507.722	117.88
507.939	138.88
508.155	94.88
508.372	87.88
508.588	93.88
508.805	104.88
509.021	100.88
509.238	104.88
509.454	100.88
509.67	105.88
509.887	119.88
510.103	157.88
510.319	233.88
510.536	921.88
510.752	3133.88
510.968	851.88
511.184	182.88
511.401	123.88
511.617	108.88
511.833	99.88
512.049	106.88
512.265	107.88
512.481	92.88
512.698	85.88
512.914	97.88
513.13	102.88
513.346	101.88
