Data from Circ_1992_H10_HRD10591_00057.txt Node
Date: Wed Jan 03 11:47:56 EST 2024
User: Yrep
Spectrometer: HR+D1059
Trigger mode: 1
Integration Time (sec): 1.000000E-1
Scans to average: 1
Electric dark correction enabled: true
Nonlinearity correction enabled: false
Boxcar width: 0
XAxis mode: Wavelengths
Number of Pixels in Spectrum: 2048
>>>>>Begin Spectral Data<<<<<
223.165	-13.44
223.4	-13.44
223.635	-13.44
223.869	-15.44
224.104	-9.44
224.338	-7.44
224.573	-21.44
224.808	-17.44
225.042	-11.44
225.277	-14.44
225.511	1.56
225.746	15.56
225.98	9.56
226.215	-0.44
226.449	21.56
226.683	16.56
226.918	22.56
227.152	23.56
227.387	48.56
227.621	37.56
227.856	36.56
228.09	28.56
228.324	41.56
228.559	58.56
228.793	64.56
229.027	49.56
229.262	65.56
229.496	74.56
229.73	77.56
229.964	81.56
230.199	65.56
230.433	75.56
230.667	72.56
230.901	78.56
231.136	73.56
231.37	83.56
231.604	73.56
231.838	91.56
232.072	67.56
232.306	79.56
232.541	83.56
232.775	74.56
233.009	71.56
233.243	80.56
233.477	73.56
233.711	83.56
233.945	82.56
234.179	77.56
234.413	75.56
234.647	80.56
234.881	79.56
235.115	72.56
235.349	73.56
235.583	74.56
235.817	82.56
236.051	76.56
236.285	69.56
236.519	67.56
236.753	73.56
236.987	79.56
237.221	76.56
237.455	67.56
237.689	77.56
237.922	69.56
238.156	72.56
238.39	67.56
238.624	83.56
238.858	76.56
239.091	73.56
239.325	84.56
239.559	75.56
239.793	77.56
240.027	63.56
240.26	80.56
240.494	71.56
240.728	67.56
240.961	93.56
241.195	84.56
241.429	67.56
241.662	81.56
241.896	79.56
242.13	62.56
242.363	75.56
242.597	71.56
242.83	75.56
243.064	74.56
243.298	67.56
243.531	73.56
243.765	79.56
243.998	79.56
244.232	75.56
244.465	89.56
244.699	81.56
244.932	79.56
245.166	62.56
245.399	76.56
245.633	75.56
245.866	80.56
246.099	67.56
246.333	73.56
246.566	75.56
246.8	74.56
247.033	79.56
247.266	68.56
247.5	79.56
247.733	79.56
247.966	81.56
248.2	83.56
248.433	71.56
248.666	78.56
248.899	104.56
249.133	88.56
249.366	82.56
249.599	92.56
249.832	84.56
250.066	83.56
250.299	92.56
250.532	76.56
250.765	81.56
250.998	63.56
251.231	75.56
251.465	88.56
251.698	76.56
251.931	75.56
252.164	64.56
252.397	80.56
252.63	69.56
252.863	83.56
253.096	91.56
253.329	72.56
253.562	83.56
253.795	79.56
254.028	80.56
254.261	75.56
254.494	79.56
254.727	68.56
254.96	93.56
255.193	82.56
255.426	73.56
255.659	88.56
255.892	93.56
256.124	70.56
256.357	74.56
256.59	82.56
256.823	72.56
257.056	79.56
257.289	86.56
257.521	91.56
257.754	69.56
257.987	73.56
258.22	83.56
258.452	89.56
258.685	76.56
258.918	74.56
259.151	82.56
259.383	79.56
259.616	81.56
259.849	77.56
260.081	78.56
260.314	82.56
260.547	80.56
260.779	72.56
261.012	77.56
261.244	75.56
261.477	79.56
261.71	65.56
261.942	93.56
262.175	115.56
262.407	69.56
262.64	87.56
262.872	81.56
263.105	75.56
263.337	96.56
263.57	76.56
263.802	67.56
264.035	100.56
264.267	87.56
264.499	88.56
264.732	75.56
264.964	87.56
265.197	92.56
265.429	75.56
265.661	83.56
265.894	77.56
266.126	81.56
266.358	72.56
266.591	85.56
266.823	97.56
267.055	83.56
267.287	75.56
267.52	74.56
267.752	73.56
267.984	84.56
268.216	78.56
268.448	86.56
268.681	90.56
268.913	80.56
269.145	87.56
269.377	82.56
269.609	84.56
269.841	95.56
270.073	75.56
270.306	81.56
270.538	79.56
270.77	93.56
271.002	85.56
271.234	84.56
271.466	85.56
271.698	79.56
271.93	87.56
272.162	76.56
272.394	77.56
272.626	93.56
272.858	74.56
273.09	65.56
273.322	77.56
273.553	88.56
273.785	78.56
274.017	86.56
274.249	97.56
274.481	78.56
274.713	78.56
274.945	84.56
275.176	66.56
275.408	98.56
275.64	78.56
275.872	92.56
276.104	80.56
276.335	97.56
276.567	103.56
276.799	95.56
277.031	100.56
277.262	113.56
277.494	89.56
277.726	86.56
277.957	74.56
278.189	76.56
278.421	83.56
278.652	80.56
278.884	75.56
279.115	77.56
279.347	93.56
279.579	97.56
279.81	87.56
280.042	108.56
280.273	98.56
280.505	107.56
280.736	90.56
280.968	84.56
281.199	89.56
281.431	81.56
281.662	95.56
281.894	92.56
282.125	95.56
282.356	114.56
282.588	116.56
282.819	95.56
283.051	72.56
283.282	88.56
283.513	91.56
283.745	79.56
283.976	76.56
284.207	73.56
284.439	79.56
284.67	73.56
284.901	87.56
285.132	78.56
285.364	95.56
285.595	83.56
285.826	83.56
286.057	81.56
286.288	87.56
286.52	104.56
286.751	89.56
286.982	92.56
287.213	77.56
287.444	100.56
287.675	83.56
287.906	99.56
288.138	85.56
288.369	88.56
288.6	85.56
288.831	89.56
289.062	91.56
289.293	79.56
289.524	91.56
289.755	101.56
289.986	89.56
290.217	97.56
290.448	86.56
290.679	74.56
290.91	82.56
291.141	82.56
291.371	96.56
291.602	81.56
291.833	85.56
292.064	98.56
292.295	92.56
292.526	79.56
292.757	88.56
292.987	80.56
293.218	80.56
293.449	82.56
293.68	75.56
293.91	83.56
294.141	87.56
294.372	95.56
294.603	86.56
294.833	98.56
295.064	82.56
295.295	82.56
295.525	93.56
295.756	100.56
295.987	112.56
296.217	113.56
296.448	101.56
296.679	103.56
296.909	83.56
297.14	78.56
297.37	83.56
297.601	83.56
297.831	71.56
298.062	95.56
298.292	95.56
298.523	92.56
298.753	87.56
298.984	96.56
299.214	83.56
299.445	98.56
299.675	85.56
299.905	88.56
300.136	87.56
300.366	85.56
300.597	96.56
300.827	82.56
301.057	107.56
301.288	90.56
301.518	76.56
301.748	80.56
301.979	88.56
302.209	86.56
302.439	91.56
302.669	74.56
302.9	100.56
303.13	100.56
303.36	75.56
303.59	97.56
303.82	101.56
304.051	91.56
304.281	92.56
304.511	93.56
304.741	84.56
304.971	88.56
305.201	84.56
305.431	88.56
305.661	87.56
305.891	83.56
306.121	89.56
306.352	91.56
306.582	108.56
306.812	96.56
307.042	92.56
307.272	106.56
307.502	94.56
307.731	101.56
307.961	111.56
308.191	87.56
308.421	93.56
308.651	95.56
308.881	82.56
309.111	96.56
309.341	86.56
309.571	94.56
309.8	92.56
310.03	109.56
310.26	94.56
310.49	85.56
310.72	92.56
310.949	96.56
311.179	95.56
311.409	79.56
311.639	90.56
311.868	93.56
312.098	85.56
312.328	98.56
312.557	84.56
312.787	98.56
313.017	91.56
313.246	82.56
313.476	97.56
313.706	98.56
313.935	87.56
314.165	96.56
314.394	98.56
314.624	88.56
314.853	83.56
315.083	79.56
315.312	71.56
315.542	97.56
315.771	89.56
316.001	85.56
316.23	87.56
316.46	101.56
316.689	92.56
316.919	82.56
317.148	83.56
317.377	90.56
317.607	100.56
317.836	94.56
318.065	84.56
318.295	78.56
318.524	81.56
318.753	107.56
318.983	95.56
319.212	97.56
319.441	95.56
319.67	99.56
319.9	82.56
320.129	89.56
320.358	90.56
320.587	95.56
320.816	79.56
321.046	92.56
321.275	87.56
321.504	87.56
321.733	96.56
321.962	95.56
322.191	83.56
322.42	95.56
322.649	114.56
322.878	103.56
323.108	98.56
323.337	101.56
323.566	118.56
323.795	139.56
324.024	168.56
324.253	333.56
324.482	761.56
324.71	1512.56
324.939	1966.56
325.168	695.56
325.397	210.56
325.626	128.56
325.855	117.56
326.084	103.56
326.313	111.56
326.542	128.56
326.77	209.56
326.999	396.56
327.228	845.56
327.457	1547.56
327.686	1221.56
327.914	355.56
328.143	237.56
328.372	217.56
328.6	160.56
328.829	131.56
329.058	114.56
329.287	115.56
329.515	103.56
329.744	108.56
329.972	167.56
330.201	285.56
330.43	360.56
330.658	191.56
330.887	149.56
331.115	117.56
331.344	108.56
331.572	106.56
331.801	109.56
332.03	97.56
332.258	98.56
332.486	97.56
332.715	89.56
332.943	89.56
333.172	89.56
333.4	99.56
333.629	119.56
333.857	130.56
334.085	176.56
334.314	273.56
334.542	481.56
334.771	424.56
334.999	166.56
335.227	98.56
335.455	99.56
335.684	100.56
335.912	104.56
336.14	109.56
336.369	109.56
336.597	89.56
336.825	98.56
337.053	99.56
337.281	86.56
337.51	77.56
337.738	67.56
337.966	67.56
338.194	93.56
338.422	84.56
338.65	97.56
338.878	91.56
339.106	90.56
339.334	85.56
339.562	91.56
339.79	79.56
340.018	85.56
340.246	71.56
340.474	95.56
340.702	87.56
340.93	95.56
341.158	92.56
341.386	88.56
341.614	78.56
341.842	92.56
342.07	91.56
342.298	80.56
342.526	89.56
342.754	88.56
342.981	89.56
343.209	96.56
343.437	100.56
343.665	84.56
343.893	85.56
344.12	94.56
344.348	99.56
344.576	101.56
344.804	95.56
345.031	97.56
345.259	87.56
345.487	80.56
345.714	92.56
345.942	97.56
346.17	101.56
346.397	87.56
346.625	96.56
346.853	92.56
347.08	80.56
347.308	97.56
347.535	103.56
347.763	82.56
347.99	111.56
348.218	90.56
348.445	95.56
348.673	97.56
348.9	101.56
349.128	95.56
349.355	90.56
349.583	93.56
349.81	77.56
350.037	75.56
350.265	66.56
350.492	84.56
350.72	87.56
350.947	98.56
351.174	93.56
351.402	81.56
351.629	104.56
351.856	93.56
352.083	95.56
352.311	105.56
352.538	104.56
352.765	102.56
352.992	98.56
353.22	93.56
353.447	84.56
353.674	92.56
353.901	97.56
354.128	98.56
354.355	98.56
354.583	91.56
354.81	87.56
355.037	91.56
355.264	94.56
355.491	85.56
355.718	79.56
355.945	96.56
356.172	91.56
356.399	89.56
356.626	94.56
356.853	81.56
357.08	85.56
357.307	79.56
357.534	76.56
357.761	88.56
357.988	85.56
358.215	91.56
358.441	82.56
358.668	91.56
358.895	79.56
359.122	82.56
359.349	88.56
359.576	96.56
359.802	92.56
360.029	111.56
360.256	87.56
360.483	88.56
360.709	98.56
360.936	87.56
361.163	81.56
361.39	88.56
361.616	84.56
361.843	101.56
362.07	98.56
362.296	93.56
362.523	86.56
362.749	91.56
362.976	84.56
363.203	84.56
363.429	87.56
363.656	79.56
363.882	86.56
364.109	80.56
364.335	96.56
364.562	95.56
364.788	74.56
365.015	89.56
365.241	67.56
365.468	91.56
365.694	80.56
365.92	101.56
366.147	96.56
366.373	85.56
366.599	94.56
366.826	80.56
367.052	85.56
367.278	100.56
367.505	84.56
367.731	83.56
367.957	88.56
368.184	88.56
368.41	94.56
368.636	99.56
368.862	97.56
369.089	109.56
369.315	95.56
369.541	95.56
369.767	81.56
369.993	91.56
370.219	84.56
370.445	96.56
370.672	81.56
370.898	87.56
371.124	97.56
371.35	86.56
371.576	87.56
371.802	84.56
372.028	79.56
372.254	86.56
372.48	91.56
372.706	83.56
372.932	88.56
373.158	84.56
373.384	92.56
373.61	80.56
373.835	84.56
374.061	91.56
374.287	87.56
374.513	89.56
374.739	90.56
374.965	80.56
375.191	92.56
375.416	93.56
375.642	95.56
375.868	105.56
376.094	91.56
376.319	80.56
376.545	91.56
376.771	93.56
376.997	75.56
377.222	79.56
377.448	90.56
377.674	104.56
377.899	95.56
378.125	87.56
378.35	79.56
378.576	84.56
378.802	71.56
379.027	89.56
379.253	95.56
379.478	83.56
379.704	79.56
379.929	67.56
380.155	90.56
380.38	89.56
380.606	95.56
380.831	95.56
381.057	94.56
381.282	100.56
381.507	102.56
381.733	96.56
381.958	96.56
382.184	103.56
382.409	95.56
382.634	89.56
382.86	93.56
383.085	80.56
383.31	96.56
383.535	86.56
383.761	96.56
383.986	96.56
384.211	88.56
384.436	94.56
384.662	111.56
384.887	105.56
385.112	98.56
385.337	93.56
385.562	105.56
385.787	102.56
386.013	98.56
386.238	93.56
386.463	101.56
386.688	111.56
386.913	96.56
387.138	100.56
387.363	110.56
387.588	91.56
387.813	103.56
388.038	107.56
388.263	112.56
388.488	105.56
388.713	82.56
388.938	81.56
389.163	91.56
389.387	80.56
389.612	89.56
389.837	87.56
390.062	80.56
390.287	91.56
390.512	83.56
390.736	81.56
390.961	68.56
391.186	85.56
391.411	90.56
391.636	95.56
391.86	79.56
392.085	73.56
392.31	91.56
392.534	98.56
392.759	91.56
392.984	78.56
393.208	83.56
393.433	81.56
393.658	89.56
393.882	79.56
394.107	74.56
394.331	87.56
394.556	87.56
394.78	86.56
395.005	85.56
395.229	77.56
395.454	76.56
395.678	91.56
395.903	80.56
396.127	85.56
396.352	76.56
396.576	88.56
396.801	85.56
397.025	74.56
397.249	88.56
397.474	77.56
397.698	81.56
397.922	87.56
398.147	88.56
398.371	82.56
398.595	77.56
398.82	93.56
399.044	71.56
399.268	72.56
399.492	81.56
399.717	97.56
399.941	79.56
400.165	107.56
400.389	92.56
400.613	81.56
400.837	93.56
401.062	90.56
401.286	81.56
401.51	76.56
401.734	81.56
401.958	97.56
402.182	97.56
402.406	125.56
402.63	98.56
402.854	93.56
403.078	76.56
403.302	90.56
403.526	86.56
403.75	77.56
403.974	73.56
404.198	86.56
404.422	76.56
404.645	66.56
404.869	96.56
405.093	85.56
405.317	106.56
405.541	100.56
405.765	93.56
405.988	108.56
406.212	139.56
406.436	169.56
406.66	123.56
406.883	76.56
407.107	78.56
407.331	96.56
407.555	115.56
407.778	97.56
408.002	98.56
408.226	79.56
408.449	71.56
408.673	92.56
408.896	87.56
409.12	91.56
409.344	74.56
409.567	87.56
409.791	89.56
410.014	101.56
410.238	93.56
410.461	82.56
410.685	87.56
410.908	97.56
411.132	89.56
411.355	97.56
411.578	96.56
411.802	77.56
412.025	94.56
412.249	93.56
412.472	92.56
412.695	113.56
412.919	101.56
413.142	95.56
413.365	93.56
413.589	68.56
413.812	79.56
414.035	95.56
414.258	93.56
414.482	87.56
414.705	83.56
414.928	96.56
415.151	81.56
415.374	81.56
415.597	78.56
415.821	87.56
416.044	81.56
416.267	76.56
416.49	88.56
416.713	87.56
416.936	94.56
417.159	85.56
417.382	100.56
417.605	87.56
417.828	79.56
418.051	85.56
418.274	98.56
418.497	84.56
418.72	90.56
418.943	89.56
419.166	85.56
419.389	93.56
419.611	88.56
419.834	91.56
420.057	88.56
420.28	92.56
420.503	87.56
420.726	78.56
420.948	87.56
421.171	98.56
421.394	87.56
421.617	84.56
421.839	82.56
422.062	86.56
422.285	88.56
422.507	84.56
422.73	78.56
422.953	91.56
423.175	86.56
423.398	95.56
423.621	100.56
423.843	95.56
424.066	89.56
424.288	85.56
424.511	101.56
424.733	105.56
424.956	97.56
425.178	72.56
425.401	95.56
425.623	96.56
425.846	83.56
426.068	87.56
426.291	75.56
426.513	88.56
426.735	90.56
426.958	94.56
427.18	106.56
427.402	130.56
427.625	155.56
427.847	143.56
428.069	130.56
428.292	96.56
428.514	84.56
428.736	80.56
428.958	78.56
429.181	97.56
429.403	75.56
429.625	86.56
429.847	98.56
430.069	96.56
430.292	82.56
430.514	80.56
430.736	96.56
430.958	94.56
431.18	92.56
431.402	81.56
431.624	89.56
431.846	71.56
432.068	81.56
432.29	80.56
432.512	91.56
432.734	69.56
432.956	78.56
433.178	105.56
433.4	88.56
433.622	96.56
433.844	92.56
434.066	83.56
434.287	96.56
434.509	85.56
434.731	92.56
434.953	81.56
435.175	68.56
435.397	84.56
435.618	96.56
435.84	99.56
436.062	89.56
436.284	97.56
436.505	89.56
436.727	106.56
436.949	89.56
437.17	98.56
437.392	65.56
437.614	88.56
437.835	85.56
438.057	78.56
438.278	99.56
438.5	104.56
438.721	101.56
438.943	99.56
439.165	96.56
439.386	83.56
439.608	93.56
439.829	91.56
440.05	111.56
440.272	107.56
440.493	96.56
440.715	81.56
440.936	86.56
441.158	84.56
441.379	96.56
441.6	92.56
441.822	75.56
442.043	81.56
442.264	99.56
442.486	103.56
442.707	84.56
442.928	97.56
443.149	106.56
443.371	120.56
443.592	100.56
443.813	109.56
444.034	106.56
444.255	101.56
444.476	77.56
444.698	77.56
444.919	89.56
445.14	136.56
445.361	117.56
445.582	101.56
445.803	139.56
446.024	118.56
446.245	130.56
446.466	104.56
446.687	96.56
446.908	83.56
447.129	83.56
447.35	86.56
447.571	86.56
447.792	89.56
448.013	93.56
448.234	96.56
448.455	99.56
448.675	92.56
448.896	107.56
449.117	99.56
449.338	98.56
449.559	99.56
449.779	124.56
450	85.56
450.221	93.56
450.442	87.56
450.662	88.56
450.883	100.56
451.104	98.56
451.324	85.56
451.545	94.56
451.766	88.56
451.986	89.56
452.207	100.56
452.428	96.56
452.648	90.56
452.869	83.56
453.089	110.56
453.31	108.56
453.53	87.56
453.751	92.56
453.971	88.56
454.192	84.56
454.412	91.56
454.633	93.56
454.853	79.56
455.073	74.56
455.294	88.56
455.514	104.56
455.734	94.56
455.955	101.56
456.175	81.56
456.395	97.56
456.616	74.56
456.836	95.56
457.056	83.56
457.276	82.56
457.497	86.56
457.717	81.56
457.937	86.56
458.157	81.56
458.377	84.56
458.598	94.56
458.818	109.56
459.038	118.56
459.258	105.56
459.478	77.56
459.698	79.56
459.918	98.56
460.138	82.56
460.358	91.56
460.578	84.56
460.798	82.56
461.018	88.56
461.238	91.56
461.458	81.56
461.678	81.56
461.898	88.56
462.118	89.56
462.338	80.56
462.558	77.56
462.777	90.56
462.997	89.56
463.217	84.56
463.437	91.56
463.657	90.56
463.876	100.56
464.096	91.56
464.316	83.56
464.536	95.56
464.755	102.56
464.975	87.56
465.195	126.56
465.414	124.56
465.634	90.56
465.854	91.56
466.073	107.56
466.293	97.56
466.512	81.56
466.732	99.56
466.951	78.56
467.171	96.56
467.391	85.56
467.61	97.56
467.829	121.56
468.049	203.56
468.268	258.56
468.488	110.56
468.707	82.56
468.927	78.56
469.146	98.56
469.365	87.56
469.585	92.56
469.804	80.56
470.023	98.56
470.243	91.56
470.462	96.56
470.681	97.56
470.901	98.56
471.12	83.56
471.339	85.56
471.558	89.56
471.777	101.56
471.997	142.56
472.216	322.56
472.435	668.56
472.654	186.56
472.873	79.56
473.092	87.56
473.311	79.56
473.53	76.56
473.749	89.56
473.968	92.56
474.187	93.56
474.406	92.56
474.625	88.56
474.844	95.56
475.063	83.56
475.282	82.56
475.501	74.56
475.72	84.56
475.939	92.56
476.158	84.56
476.377	83.56
476.596	74.56
476.814	92.56
477.033	92.56
477.252	89.56
477.471	84.56
477.69	83.56
477.908	89.56
478.127	89.56
478.346	99.56
478.564	81.56
478.783	94.56
479.002	99.56
479.22	96.56
479.439	91.56
479.658	94.56
479.876	104.56
480.095	89.56
480.313	94.56
480.532	97.56
480.751	145.56
480.969	339.56
481.188	1187.56
481.406	693.56
481.624	149.56
481.843	98.56
482.061	99.56
482.28	88.56
482.498	89.56
482.717	85.56
482.935	75.56
483.153	93.56
483.372	87.56
483.59	81.56
483.808	106.56
484.027	88.56
484.245	65.56
484.463	83.56
484.681	82.56
484.9	70.56
485.118	99.56
485.336	84.56
485.554	107.56
485.772	100.56
485.99	100.56
486.209	101.56
486.427	96.56
486.645	114.56
486.863	98.56
487.081	96.56
487.299	97.56
487.517	94.56
487.735	86.56
487.953	95.56
488.171	87.56
488.389	97.56
488.607	104.56
488.825	98.56
489.043	80.56
489.261	95.56
489.479	90.56
489.696	80.56
489.914	73.56
490.132	97.56
490.35	107.56
490.568	88.56
490.786	92.56
491.003	79.56
491.221	78.56
491.439	85.56
491.657	85.56
491.874	91.56
492.092	87.56
492.31	81.56
492.527	90.56
492.745	100.56
492.963	96.56
493.18	97.56
493.398	101.56
493.615	92.56
493.833	101.56
494.05	80.56
494.268	81.56
494.485	100.56
494.703	87.56
494.92	77.56
495.138	95.56
495.355	75.56
495.573	83.56
495.79	77.56
496.008	104.56
496.225	102.56
496.442	84.56
496.66	81.56
496.877	89.56
497.094	104.56
497.312	88.56
497.529	89.56
497.746	102.56
497.963	71.56
498.181	93.56
498.398	97.56
498.615	113.56
498.832	101.56
499.049	99.56
499.267	75.56
499.484	95.56
499.701	92.56
499.918	88.56
500.135	90.56
500.352	78.56
500.569	90.56
500.786	89.56
501.003	80.56
501.22	81.56
501.437	67.56
501.654	95.56
501.871	84.56
502.088	77.56
502.305	100.56
502.522	81.56
502.739	90.56
502.956	74.56
503.172	93.56
503.389	94.56
503.606	95.56
503.823	90.56
504.04	81.56
504.256	65.56
504.473	90.56
504.69	83.56
504.907	107.56
505.123	95.56
505.34	90.56
505.557	92.56
505.773	89.56
505.99	82.56
506.207	86.56
506.423	91.56
506.64	84.56
506.856	88.56
507.073	80.56
507.289	81.56
507.506	75.56
507.722	92.56
507.939	107.56
508.155	91.56
508.372	93.56
508.588	92.56
508.805	91.56
509.021	83.56
509.238	99.56
509.454	87.56
509.67	101.56
509.887	118.56
510.103	124.56
510.319	172.56
510.536	529.56
510.752	1631.56
510.968	476.56
511.184	128.56
511.401	100.56
511.617	100.56
511.833	90.56
512.049	103.56
512.265	83.56
512.481	95.56
512.698	88.56
512.914	99.56
513.13	92.56
513.346	74.56
513.562	95.56
513.778	92.56
513.994	85.56
514.21	104.56
514.426	96.56
514.642	99.56
514.858	101.56
515.074	125.56
515.29	322.56
515.506	951.56
515.721	368.56
515.937	123.56
516.153	105.56
516.369	80.56
516.585	96.56
516.801	92.56
