Data from Circ_1992_H10_HRD10591_00001.txt Node
Date: Wed Jan 03 11:47:45 EST 2024
User: Yrep
Spectrometer: HR+D1059
Trigger mode: 1
Integration Time (sec): 1.000000E-1
Scans to average: 1
Electric dark correction enabled: true
Nonlinearity correction enabled: false
Boxcar width: 0
XAxis mode: Wavelengths
Number of Pixels in Spectrum: 2048
>>>>>Begin Spectral Data<<<<<
223.165	-9.44
223.4	-9.44
223.635	-9.44
223.869	-11.44
224.104	-10.44
224.338	-15.44
224.573	-20.44
224.808	-5.44
225.042	-16.44
225.277	-11.44
225.511	-7.44
225.746	6.56
225.98	-4.44
226.215	8.56
226.449	17.56
226.683	11.56
226.918	23.56
227.152	44.56
227.387	17.56
227.621	31.56
227.856	49.56
228.09	45.56
228.324	38.56
228.559	46.56
228.793	51.56
229.027	59.56
229.262	67.56
229.496	69.56
229.73	79.56
229.964	95.56
230.199	80.56
230.433	92.56
230.667	80.56
230.901	79.56
231.136	70.56
231.37	80.56
231.604	78.56
231.838	87.56
232.072	78.56
232.306	83.56
232.541	81.56
232.775	91.56
233.009	87.56
233.243	85.56
233.477	80.56
233.711	70.56
233.945	85.56
234.179	77.56
234.413	82.56
234.647	70.56
234.881	73.56
235.115	83.56
235.349	71.56
235.583	92.56
235.817	88.56
236.051	80.56
236.285	76.56
236.519	85.56
236.753	101.56
236.987	82.56
237.221	99.56
237.455	98.56
237.689	79.56
237.922	70.56
238.156	57.56
238.39	75.56
238.624	79.56
238.858	79.56
239.091	79.56
239.325	88.56
239.559	98.56
239.793	79.56
240.027	84.56
240.26	83.56
240.494	98.56
240.728	77.56
240.961	79.56
241.195	80.56
241.429	82.56
241.662	77.56
241.896	79.56
242.13	63.56
242.363	77.56
242.597	88.56
242.83	84.56
243.064	72.56
243.298	81.56
243.531	87.56
243.765	75.56
243.998	80.56
244.232	96.56
244.465	84.56
244.699	94.56
244.932	87.56
245.166	91.56
245.399	91.56
245.633	71.56
245.866	76.56
246.099	88.56
246.333	88.56
246.566	86.56
246.8	81.56
247.033	77.56
247.266	64.56
247.5	80.56
247.733	91.56
247.966	81.56
248.2	92.56
248.433	94.56
248.666	91.56
248.899	91.56
249.133	89.56
249.366	95.56
249.599	100.56
249.832	78.56
250.066	86.56
250.299	74.56
250.532	92.56
250.765	87.56
250.998	79.56
251.231	79.56
251.465	83.56
251.698	71.56
251.931	84.56
252.164	89.56
252.397	90.56
252.63	85.56
252.863	70.56
253.096	69.56
253.329	72.56
253.562	75.56
253.795	82.56
254.028	72.56
254.261	67.56
254.494	69.56
254.727	92.56
254.96	95.56
255.193	90.56
255.426	96.56
255.659	69.56
255.892	85.56
256.124	89.56
256.357	84.56
256.59	88.56
256.823	89.56
257.056	97.56
257.289	73.56
257.521	72.56
257.754	75.56
257.987	80.56
258.22	99.56
258.452	84.56
258.685	83.56
258.918	81.56
259.151	82.56
259.383	87.56
259.616	83.56
259.849	82.56
260.081	62.56
260.314	81.56
260.547	88.56
260.779	83.56
261.012	96.56
261.244	91.56
261.477	97.56
261.71	101.56
261.942	112.56
262.175	108.56
262.407	94.56
262.64	83.56
262.872	85.56
263.105	88.56
263.337	100.56
263.57	91.56
263.802	107.56
264.035	92.56
264.267	92.56
264.499	84.56
264.732	80.56
264.964	92.56
265.197	83.56
265.429	91.56
265.661	85.56
265.894	72.56
266.126	71.56
266.358	59.56
266.591	87.56
266.823	92.56
267.055	95.56
267.287	83.56
267.52	85.56
267.752	89.56
267.984	92.56
268.216	87.56
268.448	90.56
268.681	83.56
268.913	91.56
269.145	84.56
269.377	93.56
269.609	82.56
269.841	80.56
270.073	81.56
270.306	85.56
270.538	87.56
270.77	86.56
271.002	92.56
271.234	103.56
271.466	82.56
271.698	70.56
271.93	76.56
272.162	92.56
272.394	94.56
272.626	84.56
272.858	72.56
273.09	99.56
273.322	89.56
273.553	89.56
273.785	78.56
274.017	93.56
274.249	60.56
274.481	75.56
274.713	71.56
274.945	87.56
275.176	79.56
275.408	103.56
275.64	88.56
275.872	101.56
276.104	98.56
276.335	84.56
276.567	96.56
276.799	111.56
277.031	110.56
277.262	117.56
277.494	97.56
277.726	84.56
277.957	85.56
278.189	95.56
278.421	86.56
278.652	82.56
278.884	89.56
279.115	88.56
279.347	88.56
279.579	99.56
279.81	85.56
280.042	102.56
280.273	108.56
280.505	115.56
280.736	86.56
280.968	95.56
281.199	86.56
281.431	83.56
281.662	88.56
281.894	115.56
282.125	96.56
282.356	110.56
282.588	134.56
282.819	111.56
283.051	88.56
283.282	86.56
283.513	83.56
283.745	81.56
283.976	85.56
284.207	79.56
284.439	91.56
284.67	87.56
284.901	94.56
285.132	88.56
285.364	97.56
285.595	92.56
285.826	87.56
286.057	89.56
286.288	89.56
286.52	91.56
286.751	85.56
286.982	83.56
287.213	89.56
287.444	83.56
287.675	101.56
287.906	93.56
288.138	87.56
288.369	89.56
288.6	92.56
288.831	96.56
289.062	82.56
289.293	77.56
289.524	83.56
289.755	88.56
289.986	91.56
290.217	99.56
290.448	86.56
290.679	85.56
290.91	95.56
291.141	81.56
291.371	99.56
291.602	90.56
291.833	96.56
292.064	95.56
292.295	78.56
292.526	92.56
292.757	94.56
292.987	94.56
293.218	94.56
293.449	86.56
293.68	93.56
293.91	98.56
294.141	89.56
294.372	86.56
294.603	105.56
294.833	80.56
295.064	84.56
295.295	88.56
295.525	87.56
295.756	110.56
295.987	117.56
296.217	123.56
296.448	121.56
296.679	92.56
296.909	101.56
297.14	104.56
297.37	95.56
297.601	102.56
297.831	94.56
298.062	88.56
298.292	88.56
298.523	83.56
298.753	88.56
298.984	86.56
299.214	99.56
299.445	102.56
299.675	91.56
299.905	96.56
300.136	87.56
300.366	77.56
300.597	81.56
300.827	95.56
301.057	99.56
301.288	104.56
301.518	100.56
301.748	101.56
301.979	111.56
302.209	92.56
302.439	93.56
302.669	86.56
302.9	85.56
303.13	77.56
303.36	102.56
303.59	112.56
303.82	111.56
304.051	95.56
304.281	97.56
304.511	100.56
304.741	101.56
304.971	79.56
305.201	96.56
305.431	101.56
305.661	101.56
305.891	84.56
306.121	89.56
306.352	101.56
306.582	92.56
306.812	97.56
307.042	80.56
307.272	91.56
307.502	105.56
307.731	126.56
307.961	96.56
308.191	89.56
308.421	98.56
308.651	94.56
308.881	108.56
309.111	109.56
309.341	95.56
309.571	91.56
309.8	98.56
310.03	95.56
310.26	80.56
310.49	99.56
310.72	93.56
310.949	103.56
311.179	104.56
311.409	115.56
311.639	104.56
311.868	96.56
312.098	88.56
312.328	98.56
312.557	117.56
312.787	116.56
313.017	96.56
313.246	102.56
313.476	116.56
313.706	76.56
313.935	112.56
314.165	109.56
314.394	107.56
314.624	93.56
314.853	96.56
315.083	95.56
315.312	96.56
315.542	96.56
315.771	100.56
316.001	95.56
316.23	95.56
316.46	113.56
316.689	86.56
316.919	92.56
317.148	95.56
317.377	85.56
317.607	96.56
317.836	103.56
318.065	91.56
318.295	100.56
318.524	87.56
318.753	106.56
318.983	92.56
319.212	96.56
319.441	105.56
319.67	97.56
319.9	114.56
320.129	97.56
320.358	104.56
320.587	93.56
320.816	109.56
321.046	100.56
321.275	89.56
321.504	91.56
321.733	103.56
321.962	97.56
322.191	103.56
322.42	83.56
322.649	118.56
322.878	111.56
323.108	113.56
323.337	123.56
323.566	127.56
323.795	152.56
324.024	222.56
324.253	411.56
324.482	815.56
324.71	1699.56
324.939	2324.56
325.168	875.56
325.397	244.56
325.626	159.56
325.855	121.56
326.084	128.56
326.313	140.56
326.542	168.56
326.77	233.56
326.999	450.56
327.228	951.56
327.457	1800.56
327.686	1441.56
327.914	404.56
328.143	266.56
328.372	233.56
328.6	177.56
328.829	122.56
329.058	127.56
329.287	139.56
329.515	124.56
329.744	125.56
329.972	156.56
330.201	258.56
330.43	364.56
330.658	214.56
330.887	162.56
331.115	143.56
331.344	112.56
331.572	109.56
331.801	100.56
332.03	104.56
332.258	100.56
332.486	100.56
332.715	91.56
332.943	97.56
333.172	98.56
333.4	103.56
333.629	104.56
333.857	128.56
334.085	176.56
334.314	253.56
334.542	449.56
334.771	424.56
334.999	154.56
335.227	109.56
335.455	96.56
335.684	102.56
335.912	95.56
336.14	103.56
336.369	115.56
336.597	102.56
336.825	105.56
337.053	91.56
337.281	85.56
337.51	95.56
337.738	108.56
337.966	99.56
338.194	128.56
338.422	99.56
338.65	95.56
338.878	99.56
339.106	88.56
339.334	95.56
339.562	90.56
339.79	98.56
340.018	104.56
340.246	108.56
340.474	91.56
340.702	93.56
340.93	95.56
341.158	100.56
341.386	101.56
341.614	113.56
341.842	107.56
342.07	103.56
342.298	98.56
342.526	98.56
342.754	87.56
342.981	83.56
343.209	77.56
343.437	110.56
343.665	88.56
343.893	94.56
344.12	115.56
344.348	95.56
344.576	111.56
344.804	102.56
345.031	93.56
345.259	107.56
345.487	95.56
345.714	96.56
345.942	98.56
346.17	86.56
346.397	104.56
346.625	93.56
346.853	90.56
347.08	102.56
347.308	108.56
347.535	95.56
347.763	104.56
347.99	116.56
348.218	99.56
348.445	114.56
348.673	101.56
348.9	105.56
349.128	96.56
349.355	73.56
349.583	104.56
349.81	91.56
350.037	93.56
350.265	100.56
350.492	106.56
350.72	111.56
350.947	101.56
351.174	105.56
351.402	93.56
351.629	99.56
351.856	98.56
352.083	103.56
352.311	115.56
352.538	112.56
352.765	131.56
352.992	119.56
353.22	120.56
353.447	106.56
353.674	107.56
353.901	105.56
354.128	108.56
354.355	93.56
354.583	103.56
354.81	103.56
355.037	96.56
355.264	96.56
355.491	111.56
355.718	100.56
355.945	98.56
356.172	95.56
356.399	108.56
356.626	98.56
356.853	95.56
357.08	97.56
357.307	100.56
357.534	96.56
357.761	94.56
357.988	103.56
358.215	120.56
358.441	129.56
358.668	96.56
358.895	104.56
359.122	102.56
359.349	97.56
359.576	95.56
359.802	104.56
360.029	119.56
360.256	117.56
360.483	87.56
360.709	88.56
360.936	103.56
361.163	90.56
361.39	87.56
361.616	94.56
361.843	91.56
362.07	109.56
362.296	106.56
362.523	88.56
362.749	101.56
362.976	99.56
363.203	81.56
363.429	101.56
363.656	99.56
363.882	86.56
364.109	99.56
364.335	88.56
364.562	107.56
364.788	85.56
365.015	103.56
365.241	112.56
365.468	105.56
365.694	105.56
365.92	91.56
366.147	96.56
366.373	77.56
366.599	104.56
366.826	98.56
367.052	79.56
367.278	112.56
367.505	98.56
367.731	78.56
367.957	92.56
368.184	93.56
368.41	86.56
368.636	116.56
368.862	119.56
369.089	108.56
369.315	107.56
369.541	105.56
369.767	105.56
369.993	87.56
370.219	94.56
370.445	87.56
370.672	93.56
370.898	90.56
371.124	97.56
371.35	81.56
371.576	94.56
371.802	80.56
372.028	92.56
372.254	93.56
372.48	98.56
372.706	79.56
372.932	98.56
373.158	87.56
373.384	103.56
373.61	105.56
373.835	104.56
374.061	101.56
374.287	95.56
374.513	81.56
374.739	109.56
374.965	101.56
375.191	94.56
375.416	86.56
375.642	100.56
375.868	93.56
376.094	98.56
376.319	92.56
376.545	102.56
376.771	101.56
376.997	90.56
377.222	103.56
377.448	92.56
377.674	107.56
377.899	117.56
378.125	92.56
378.35	102.56
378.576	90.56
378.802	95.56
379.027	101.56
379.253	93.56
379.478	113.56
379.704	115.56
379.929	117.56
380.155	104.56
380.38	111.56
380.606	116.56
380.831	116.56
381.057	127.56
381.282	112.56
381.507	125.56
381.733	110.56
381.958	116.56
382.184	129.56
382.409	112.56
382.634	123.56
382.86	130.56
383.085	136.56
383.31	127.56
383.535	140.56
383.761	143.56
383.986	139.56
384.211	144.56
384.436	127.56
384.662	145.56
384.887	147.56
385.112	166.56
385.337	161.56
385.562	189.56
385.787	181.56
386.013	166.56
386.238	190.56
386.463	155.56
386.688	142.56
386.913	168.56
387.138	175.56
387.363	171.56
387.588	140.56
387.813	140.56
388.038	161.56
388.263	182.56
388.488	177.56
388.713	119.56
388.938	95.56
389.163	108.56
389.387	105.56
389.612	104.56
389.837	93.56
390.062	96.56
390.287	92.56
390.512	102.56
390.736	88.56
390.961	88.56
391.186	87.56
391.411	101.56
391.636	103.56
391.86	106.56
392.085	95.56
392.31	92.56
392.534	94.56
392.759	79.56
392.984	83.56
393.208	85.56
393.433	98.56
393.658	95.56
393.882	89.56
394.107	97.56
394.331	91.56
394.556	107.56
394.78	101.56
395.005	100.56
395.229	95.56
395.454	81.56
395.678	85.56
395.903	84.56
396.127	108.56
396.352	109.56
396.576	88.56
396.801	96.56
397.025	91.56
397.249	85.56
397.474	109.56
397.698	81.56
397.922	70.56
398.147	105.56
398.371	81.56
398.595	101.56
398.82	75.56
399.044	90.56
399.268	91.56
399.492	84.56
399.717	97.56
399.941	84.56
400.165	85.56
400.389	87.56
400.613	84.56
400.837	76.56
401.062	91.56
401.286	94.56
401.51	103.56
401.734	94.56
401.958	100.56
402.182	119.56
402.406	144.56
402.63	123.56
402.854	100.56
403.078	91.56
403.302	82.56
403.526	86.56
403.75	98.56
403.974	83.56
404.198	91.56
404.422	95.56
404.645	89.56
404.869	102.56
405.093	118.56
405.317	110.56
405.541	118.56
405.765	116.56
405.988	104.56
406.212	158.56
406.436	223.56
406.66	139.56
406.883	99.56
407.107	98.56
407.331	101.56
407.555	110.56
407.778	113.56
408.002	106.56
408.226	97.56
408.449	81.56
408.673	100.56
408.896	93.56
409.12	108.56
409.344	107.56
409.567	85.56
409.791	106.56
410.014	93.56
410.238	97.56
410.461	103.56
410.685	101.56
410.908	100.56
411.132	105.56
411.355	100.56
411.578	95.56
411.802	96.56
412.025	100.56
412.249	97.56
412.472	117.56
412.695	110.56
412.919	100.56
413.142	97.56
413.365	83.56
413.589	90.56
413.812	97.56
414.035	88.56
414.258	90.56
414.482	102.56
414.705	102.56
414.928	96.56
415.151	118.56
415.374	99.56
415.597	107.56
415.821	104.56
416.044	108.56
416.267	98.56
416.49	96.56
416.713	95.56
416.936	97.56
417.159	93.56
417.382	96.56
417.605	121.56
417.828	100.56
418.051	115.56
418.274	103.56
418.497	88.56
418.72	97.56
418.943	102.56
419.166	102.56
419.389	80.56
419.611	100.56
419.834	96.56
420.057	103.56
420.28	102.56
420.503	98.56
420.726	98.56
420.948	102.56
421.171	91.56
421.394	109.56
421.617	91.56
421.839	94.56
422.062	92.56
422.285	91.56
422.507	125.56
422.73	116.56
422.953	92.56
423.175	93.56
423.398	82.56
423.621	79.56
423.843	91.56
424.066	85.56
424.288	104.56
424.511	103.56
424.733	105.56
424.956	113.56
425.178	109.56
425.401	115.56
425.623	109.56
425.846	101.56
426.068	100.56
426.291	86.56
426.513	92.56
426.735	109.56
426.958	97.56
427.18	98.56
427.402	146.56
427.625	172.56
427.847	165.56
428.069	142.56
428.292	92.56
428.514	101.56
428.736	92.56
428.958	81.56
429.181	88.56
429.403	81.56
429.625	98.56
429.847	87.56
430.069	103.56
430.292	93.56
430.514	64.56
430.736	96.56
430.958	78.56
431.18	84.56
431.402	91.56
431.624	79.56
431.846	83.56
432.068	90.56
432.29	96.56
432.512	91.56
432.734	91.56
432.956	89.56
433.178	106.56
433.4	111.56
433.622	78.56
433.844	87.56
434.066	88.56
434.287	89.56
434.509	83.56
434.731	113.56
434.953	103.56
435.175	83.56
435.397	89.56
435.618	92.56
435.84	105.56
436.062	135.56
436.284	119.56
436.505	111.56
436.727	110.56
436.949	96.56
437.17	99.56
437.392	96.56
437.614	95.56
437.835	113.56
438.057	118.56
438.278	130.56
438.5	118.56
438.721	137.56
438.943	106.56
439.165	89.56
439.386	93.56
439.608	81.56
439.829	102.56
440.05	141.56
440.272	163.56
440.493	109.56
440.715	97.56
440.936	96.56
441.158	100.56
441.379	86.56
441.6	100.56
441.822	97.56
442.043	93.56
442.264	105.56
442.486	95.56
442.707	93.56
442.928	103.56
443.149	136.56
443.371	133.56
443.592	121.56
443.813	112.56
444.034	104.56
444.255	83.56
444.476	91.56
444.698	86.56
444.919	92.56
445.14	122.56
445.361	140.56
445.582	123.56
445.803	150.56
446.024	141.56
446.245	148.56
446.466	109.56
446.687	91.56
446.908	96.56
447.129	82.56
447.35	102.56
447.571	91.56
447.792	91.56
448.013	106.56
448.234	125.56
448.455	107.56
448.675	110.56
448.896	125.56
449.117	115.56
449.338	120.56
449.559	129.56
449.779	141.56
450	111.56
450.221	87.56
450.442	95.56
450.662	98.56
450.883	112.56
451.104	103.56
451.324	103.56
451.545	81.56
451.766	67.56
451.986	86.56
452.207	105.56
452.428	105.56
452.648	119.56
452.869	117.56
453.089	104.56
453.31	106.56
453.53	103.56
453.751	94.56
453.971	108.56
454.192	108.56
454.412	88.56
454.633	91.56
454.853	99.56
455.073	86.56
455.294	98.56
455.514	105.56
455.734	92.56
455.955	89.56
456.175	78.56
456.395	86.56
456.616	94.56
456.836	95.56
457.056	91.56
457.276	95.56
457.497	81.56
457.717	98.56
457.937	98.56
458.157	90.56
458.377	84.56
458.598	100.56
458.818	150.56
459.038	168.56
459.258	133.56
459.478	88.56
459.698	89.56
459.918	77.56
460.138	77.56
460.358	79.56
460.578	71.56
460.798	85.56
461.018	85.56
461.238	89.56
461.458	92.56
461.678	83.56
461.898	94.56
462.118	89.56
462.338	75.56
462.558	88.56
462.777	77.56
462.997	87.56
463.217	96.56
463.437	95.56
463.657	95.56
463.876	69.56
464.096	98.56
464.316	80.56
464.536	98.56
464.755	102.56
464.975	100.56
465.195	168.56
465.414	169.56
465.634	104.56
465.854	86.56
466.073	96.56
466.293	91.56
466.512	98.56
466.732	85.56
466.951	97.56
467.171	89.56
467.391	84.56
467.61	103.56
467.829	118.56
468.049	181.56
468.268	224.56
468.488	92.56
468.707	88.56
468.927	96.56
469.146	90.56
469.365	81.56
469.585	93.56
469.804	80.56
470.023	99.56
470.243	99.56
470.462	120.56
470.681	99.56
470.901	107.56
471.12	101.56
471.339	84.56
471.558	96.56
471.777	111.56
471.997	118.56
472.216	292.56
472.435	578.56
472.654	182.56
472.873	115.56
473.092	104.56
473.311	85.56
473.53	91.56
473.749	88.56
473.968	105.56
474.187	104.56
474.406	114.56
474.625	92.56
474.844	98.56
475.063	92.56
475.282	88.56
475.501	91.56
475.72	79.56
475.939	99.56
476.158	92.56
476.377	85.56
476.596	81.56
476.814	88.56
477.033	90.56
477.252	91.56
477.471	93.56
477.69	80.56
477.908	84.56
478.127	96.56
478.346	96.56
478.564	106.56
478.783	98.56
479.002	100.56
479.22	108.56
479.439	101.56
479.658	106.56
479.876	92.56
480.095	87.56
480.313	123.56
480.532	102.56
480.751	125.56
480.969	296.56
481.188	931.56
481.406	594.56
481.624	158.56
481.843	91.56
482.061	87.56
482.28	79.56
482.498	82.56
482.717	77.56
482.935	107.56
483.153	103.56
483.372	104.56
483.59	93.56
483.808	82.56
484.027	95.56
484.245	94.56
484.463	101.56
484.681	99.56
484.9	99.56
485.118	97.56
485.336	114.56
485.554	112.56
485.772	114.56
485.99	104.56
486.209	114.56
486.427	118.56
486.645	110.56
486.863	114.56
487.081	108.56
487.299	99.56
487.517	98.56
487.735	88.56
487.953	96.56
488.171	102.56
488.389	104.56
488.607	103.56
488.825	102.56
489.043	100.56
489.261	84.56
489.479	91.56
489.696	92.56
489.914	83.56
490.132	93.56
490.35	95.56
490.568	94.56
490.786	92.56
491.003	99.56
491.221	97.56
491.439	96.56
491.657	95.56
491.874	94.56
492.092	99.56
492.31	103.56
492.527	101.56
492.745	93.56
492.963	84.56
493.18	60.56
493.398	88.56
493.615	99.56
493.833	88.56
494.05	89.56
494.268	88.56
494.485	87.56
494.703	86.56
494.92	91.56
495.138	81.56
495.355	96.56
495.573	90.56
495.79	91.56
496.008	105.56
496.225	97.56
496.442	88.56
496.66	83.56
496.877	105.56
497.094	88.56
497.312	93.56
497.529	85.56
497.746	95.56
497.963	105.56
498.181	103.56
498.398	96.56
498.615	105.56
498.832	109.56
499.049	97.56
499.267	100.56
499.484	83.56
499.701	98.56
499.918	92.56
500.135	90.56
500.352	96.56
500.569	99.56
500.786	99.56
501.003	90.56
501.22	92.56
501.437	98.56
501.654	97.56
501.871	98.56
502.088	95.56
502.305	86.56
502.522	84.56
502.739	100.56
502.956	90.56
503.172	103.56
503.389	103.56
503.606	115.56
503.823	92.56
504.04	95.56
504.256	87.56
504.473	95.56
504.69	93.56
504.907	108.56
505.123	87.56
505.34	109.56
505.557	88.56
505.773	101.56
505.99	83.56
506.207	81.56
506.423	87.56
506.64	90.56
506.856	91.56
507.073	101.56
507.289	97.56
507.506	107.56
507.722	114.56
507.939	111.56
508.155	93.56
508.372	92.56
508.588	104.56
508.805	110.56
509.021	87.56
509.238	94.56
509.454	101.56
509.67	102.56
509.887	112.56
510.103	118.56
510.319	181.56
510.536	656.56
510.752	2146.56
510.968	600.56
511.184	161.56
511.401	111.56
511.617	110.56
511.833	85.56
512.049	85.56
512.265	86.56
512.481	86.56
512.698	94.56
512.914	83.56
513.13	97.56
