Data from Circ_1992_H10_HRD10591_00031.txt Node
Date: Wed Jan 03 11:47:51 EST 2024
User: Yrep
Spectrometer: HR+D1059
Trigger mode: 1
Integration Time (sec): 1.000000E-1
Scans to average: 1
Electric dark correction enabled: true
Nonlinearity correction enabled: false
Boxcar width: 0
XAxis mode: Wavelengths
Number of Pixels in Spectrum: 2048
>>>>>Begin Spectral Data<<<<<
223.165	-32.69
223.4	-32.69
223.635	-32.69
223.869	-17.69
224.104	-10.69
224.338	-17.69
224.573	-14.69
224.808	-15.69
225.042	-10.69
225.277	-0.69
225.511	3.31
225.746	-10.69
225.98	10.31
226.215	4.31
226.449	7.31
226.683	33.31
226.918	37.31
227.152	35.31
227.387	28.31
227.621	44.31
227.856	34.31
228.09	38.31
228.324	52.31
228.559	62.31
228.793	60.31
229.027	64.31
229.262	66.31
229.496	68.31
229.73	75.31
229.964	88.31
230.199	71.31
230.433	89.31
230.667	93.31
230.901	70.31
231.136	79.31
231.37	87.31
231.604	76.31
231.838	93.31
232.072	92.31
232.306	86.31
232.541	87.31
232.775	70.31
233.009	90.31
233.243	78.31
233.477	84.31
233.711	78.31
233.945	79.31
234.179	74.31
234.413	91.31
234.647	89.31
234.881	73.31
235.115	73.31
235.349	84.31
235.583	86.31
235.817	85.31
236.051	79.31
236.285	67.31
236.519	83.31
236.753	81.31
236.987	78.31
237.221	98.31
237.455	88.31
237.689	77.31
237.922	70.31
238.156	90.31
238.39	68.31
238.624	73.31
238.858	84.31
239.091	78.31
239.325	90.31
239.559	77.31
239.793	77.31
240.027	80.31
240.26	80.31
240.494	83.31
240.728	83.31
240.961	80.31
241.195	67.31
241.429	80.31
241.662	78.31
241.896	77.31
242.13	77.31
242.363	78.31
242.597	78.31
242.83	84.31
243.064	90.31
243.298	72.31
243.531	71.31
243.765	79.31
243.998	86.31
244.232	73.31
244.465	86.31
244.699	68.31
244.932	71.31
245.166	75.31
245.399	91.31
245.633	85.31
245.866	77.31
246.099	67.31
246.333	77.31
246.566	78.31
246.8	83.31
247.033	86.31
247.266	81.31
247.5	90.31
247.733	79.31
247.966	93.31
248.2	95.31
248.433	75.31
248.666	78.31
248.899	83.31
249.133	88.31
249.366	104.31
249.599	105.31
249.832	75.31
250.066	89.31
250.299	81.31
250.532	84.31
250.765	84.31
250.998	74.31
251.231	90.31
251.465	80.31
251.698	87.31
251.931	71.31
252.164	67.31
252.397	89.31
252.63	83.31
252.863	84.31
253.096	68.31
253.329	78.31
253.562	89.31
253.795	81.31
254.028	76.31
254.261	79.31
254.494	79.31
254.727	84.31
254.96	85.31
255.193	97.31
255.426	81.31
255.659	69.31
255.892	94.31
256.124	88.31
256.357	75.31
256.59	85.31
256.823	87.31
257.056	80.31
257.289	101.31
257.521	82.31
257.754	77.31
257.987	84.31
258.22	86.31
258.452	86.31
258.685	87.31
258.918	100.31
259.151	81.31
259.383	90.31
259.616	76.31
259.849	89.31
260.081	78.31
260.314	87.31
260.547	89.31
260.779	94.31
261.012	101.31
261.244	84.31
261.477	82.31
261.71	102.31
261.942	112.31
262.175	119.31
262.407	107.31
262.64	78.31
262.872	79.31
263.105	82.31
263.337	82.31
263.57	85.31
263.802	86.31
264.035	94.31
264.267	91.31
264.499	78.31
264.732	86.31
264.964	72.31
265.197	75.31
265.429	94.31
265.661	93.31
265.894	81.31
266.126	84.31
266.358	77.31
266.591	81.31
266.823	74.31
267.055	75.31
267.287	66.31
267.52	74.31
267.752	85.31
267.984	93.31
268.216	83.31
268.448	84.31
268.681	93.31
268.913	77.31
269.145	85.31
269.377	82.31
269.609	85.31
269.841	93.31
270.073	87.31
270.306	95.31
270.538	79.31
270.77	87.31
271.002	103.31
271.234	84.31
271.466	95.31
271.698	89.31
271.93	92.31
272.162	87.31
272.394	108.31
272.626	81.31
272.858	85.31
273.09	86.31
273.322	84.31
273.553	90.31
273.785	93.31
274.017	88.31
274.249	92.31
274.481	80.31
274.713	76.31
274.945	98.31
275.176	108.31
275.408	81.31
275.64	98.31
275.872	98.31
276.104	95.31
276.335	105.31
276.567	98.31
276.799	122.31
277.031	110.31
277.262	128.31
277.494	109.31
277.726	96.31
277.957	88.31
278.189	83.31
278.421	106.31
278.652	78.31
278.884	85.31
279.115	78.31
279.347	85.31
279.579	94.31
279.81	98.31
280.042	113.31
280.273	137.31
280.505	131.31
280.736	96.31
280.968	90.31
281.199	84.31
281.431	86.31
281.662	83.31
281.894	93.31
282.125	95.31
282.356	121.31
282.588	146.31
282.819	127.31
283.051	85.31
283.282	90.31
283.513	80.31
283.745	93.31
283.976	77.31
284.207	89.31
284.439	86.31
284.67	89.31
284.901	105.31
285.132	86.31
285.364	80.31
285.595	82.31
285.826	85.31
286.057	80.31
286.288	85.31
286.52	95.31
286.751	80.31
286.982	89.31
287.213	83.31
287.444	86.31
287.675	97.31
287.906	85.31
288.138	85.31
288.369	96.31
288.6	97.31
288.831	82.31
289.062	87.31
289.293	86.31
289.524	82.31
289.755	82.31
289.986	81.31
290.217	81.31
290.448	84.31
290.679	99.31
290.91	83.31
291.141	92.31
291.371	85.31
291.602	97.31
291.833	107.31
292.064	108.31
292.295	95.31
292.526	94.31
292.757	74.31
292.987	105.31
293.218	92.31
293.449	98.31
293.68	91.31
293.91	96.31
294.141	79.31
294.372	89.31
294.603	88.31
294.833	93.31
295.064	103.31
295.295	81.31
295.525	97.31
295.756	102.31
295.987	125.31
296.217	154.31
296.448	143.31
296.679	89.31
296.909	93.31
297.14	79.31
297.37	84.31
297.601	90.31
297.831	89.31
298.062	97.31
298.292	88.31
298.523	89.31
298.753	99.31
298.984	89.31
299.214	92.31
299.445	91.31
299.675	90.31
299.905	116.31
300.136	93.31
300.366	114.31
300.597	93.31
300.827	99.31
301.057	105.31
301.288	101.31
301.518	99.31
301.748	92.31
301.979	102.31
302.209	95.31
302.439	103.31
302.669	96.31
302.9	67.31
303.13	93.31
303.36	98.31
303.59	101.31
303.82	110.31
304.051	100.31
304.281	83.31
304.511	82.31
304.741	90.31
304.971	85.31
305.201	101.31
305.431	88.31
305.661	86.31
305.891	89.31
306.121	103.31
306.352	106.31
306.582	107.31
306.812	90.31
307.042	107.31
307.272	119.31
307.502	129.31
307.731	134.31
307.961	105.31
308.191	90.31
308.421	82.31
308.651	95.31
308.881	91.31
309.111	95.31
309.341	97.31
309.571	102.31
309.8	101.31
310.03	108.31
310.26	97.31
310.49	92.31
310.72	102.31
310.949	108.31
311.179	106.31
311.409	98.31
311.639	99.31
311.868	86.31
312.098	88.31
312.328	95.31
312.557	99.31
312.787	98.31
313.017	97.31
313.246	89.31
313.476	90.31
313.706	93.31
313.935	89.31
314.165	110.31
314.394	118.31
314.624	100.31
314.853	101.31
315.083	95.31
315.312	82.31
315.542	94.31
315.771	100.31
316.001	92.31
316.23	90.31
316.46	89.31
316.689	84.31
316.919	100.31
317.148	90.31
317.377	85.31
317.607	112.31
317.836	94.31
318.065	100.31
318.295	101.31
318.524	87.31
318.753	92.31
318.983	101.31
319.212	94.31
319.441	92.31
319.67	101.31
319.9	84.31
320.129	95.31
320.358	79.31
320.587	102.31
320.816	92.31
321.046	89.31
321.275	94.31
321.504	96.31
321.733	101.31
321.962	90.31
322.191	117.31
322.42	116.31
322.649	112.31
322.878	102.31
323.108	122.31
323.337	121.31
323.566	133.31
323.795	148.31
324.024	214.31
324.253	420.31
324.482	861.31
324.71	1755.31
324.939	2321.31
325.168	834.31
325.397	266.31
325.626	156.31
325.855	125.31
326.084	120.31
326.313	142.31
326.542	159.31
326.77	234.31
326.999	465.31
327.228	946.31
327.457	1757.31
327.686	1337.31
327.914	430.31
328.143	315.31
328.372	341.31
328.6	221.31
328.829	140.31
329.058	145.31
329.287	147.31
329.515	115.31
329.744	146.31
329.972	258.31
330.201	436.31
330.43	651.31
330.658	323.31
330.887	201.31
331.115	139.31
331.344	107.31
331.572	108.31
331.801	109.31
332.03	104.31
332.258	98.31
332.486	102.31
332.715	95.31
332.943	101.31
333.172	114.31
333.4	108.31
333.629	124.31
333.857	147.31
334.085	218.31
334.314	429.31
334.542	821.31
334.771	753.31
334.999	235.31
335.227	122.31
335.455	118.31
335.684	114.31
335.912	106.31
336.14	98.31
336.369	99.31
336.597	121.31
336.825	114.31
337.053	100.31
337.281	109.31
337.51	99.31
337.738	93.31
337.966	93.31
338.194	93.31
338.422	111.31
338.65	95.31
338.878	94.31
339.106	99.31
339.334	93.31
339.562	81.31
339.79	77.31
340.018	85.31
340.246	96.31
340.474	81.31
340.702	105.31
340.93	99.31
341.158	90.31
341.386	101.31
341.614	109.31
341.842	87.31
342.07	93.31
342.298	101.31
342.526	87.31
342.754	99.31
342.981	80.31
343.209	83.31
343.437	104.31
343.665	95.31
343.893	94.31
344.12	89.31
344.348	91.31
344.576	89.31
344.804	87.31
345.031	101.31
345.259	113.31
345.487	92.31
345.714	107.31
345.942	84.31
346.17	94.31
346.397	87.31
346.625	86.31
346.853	90.31
347.08	89.31
347.308	85.31
347.535	91.31
347.763	101.31
347.99	109.31
348.218	116.31
348.445	115.31
348.673	103.31
348.9	106.31
349.128	102.31
349.355	85.31
349.583	99.31
349.81	94.31
350.037	100.31
350.265	72.31
350.492	96.31
350.72	95.31
350.947	106.31
351.174	113.31
351.402	110.31
351.629	110.31
351.856	118.31
352.083	119.31
352.311	109.31
352.538	124.31
352.765	116.31
352.992	127.31
353.22	100.31
353.447	92.31
353.674	110.31
353.901	96.31
354.128	104.31
354.355	93.31
354.583	116.31
354.81	98.31
355.037	96.31
355.264	96.31
355.491	98.31
355.718	87.31
355.945	97.31
356.172	89.31
356.399	104.31
356.626	93.31
356.853	89.31
357.08	87.31
357.307	93.31
357.534	86.31
357.761	87.31
357.988	98.31
358.215	99.31
358.441	87.31
358.668	87.31
358.895	92.31
359.122	90.31
359.349	77.31
359.576	88.31
359.802	104.31
360.029	120.31
360.256	113.31
360.483	108.31
360.709	90.31
360.936	94.31
361.163	83.31
361.39	95.31
361.616	88.31
361.843	93.31
362.07	91.31
362.296	111.31
362.523	107.31
362.749	95.31
362.976	99.31
363.203	97.31
363.429	84.31
363.656	111.31
363.882	86.31
364.109	105.31
364.335	91.31
364.562	79.31
364.788	86.31
365.015	106.31
365.241	105.31
365.468	109.31
365.694	113.31
365.92	108.31
366.147	96.31
366.373	80.31
366.599	92.31
366.826	89.31
367.052	102.31
367.278	93.31
367.505	86.31
367.731	91.31
367.957	77.31
368.184	88.31
368.41	96.31
368.636	110.31
368.862	119.31
369.089	99.31
369.315	89.31
369.541	90.31
369.767	92.31
369.993	87.31
370.219	80.31
370.445	99.31
370.672	82.31
370.898	100.31
371.124	99.31
371.35	97.31
371.576	79.31
371.802	87.31
372.028	88.31
372.254	79.31
372.48	80.31
372.706	89.31
372.932	91.31
373.158	92.31
373.384	85.31
373.61	92.31
373.835	95.31
374.061	83.31
374.287	101.31
374.513	92.31
374.739	89.31
374.965	97.31
375.191	77.31
375.416	89.31
375.642	87.31
375.868	99.31
376.094	97.31
376.319	85.31
376.545	87.31
376.771	77.31
376.997	89.31
377.222	96.31
377.448	90.31
377.674	101.31
377.899	95.31
378.125	84.31
378.35	97.31
378.576	97.31
378.802	88.31
379.027	85.31
379.253	85.31
379.478	85.31
379.704	98.31
379.929	93.31
380.155	98.31
380.38	96.31
380.606	111.31
380.831	107.31
381.057	106.31
381.282	96.31
381.507	95.31
381.733	93.31
381.958	106.31
382.184	102.31
382.409	89.31
382.634	95.31
382.86	92.31
383.085	79.31
383.31	104.31
383.535	107.31
383.761	93.31
383.986	99.31
384.211	118.31
384.436	99.31
384.662	105.31
384.887	100.31
385.112	105.31
385.337	110.31
385.562	107.31
385.787	107.31
386.013	115.31
386.238	109.31
386.463	123.31
386.688	122.31
386.913	99.31
387.138	107.31
387.363	119.31
387.588	122.31
387.813	112.31
388.038	91.31
388.263	125.31
388.488	115.31
388.713	101.31
388.938	95.31
389.163	91.31
389.387	85.31
389.612	82.31
389.837	80.31
390.062	105.31
390.287	92.31
390.512	81.31
390.736	83.31
390.961	89.31
391.186	98.31
391.411	89.31
391.636	100.31
391.86	90.31
392.085	81.31
392.31	87.31
392.534	82.31
392.759	85.31
392.984	73.31
393.208	76.31
393.433	92.31
393.658	94.31
393.882	76.31
394.107	72.31
394.331	78.31
394.556	93.31
394.78	92.31
395.005	90.31
395.229	89.31
395.454	79.31
395.678	93.31
395.903	87.31
396.127	83.31
396.352	98.31
396.576	71.31
396.801	73.31
397.025	80.31
397.249	94.31
397.474	87.31
397.698	90.31
397.922	90.31
398.147	86.31
398.371	88.31
398.595	88.31
398.82	92.31
399.044	87.31
399.268	87.31
399.492	93.31
399.717	89.31
399.941	95.31
400.165	106.31
400.389	106.31
400.613	87.31
400.837	78.31
401.062	96.31
401.286	86.31
401.51	82.31
401.734	91.31
401.958	111.31
402.182	130.31
402.406	165.31
402.63	126.31
402.854	102.31
403.078	96.31
403.302	85.31
403.526	91.31
403.75	85.31
403.974	83.31
404.198	106.31
404.422	95.31
404.645	101.31
404.869	88.31
405.093	110.31
405.317	117.31
405.541	129.31
405.765	100.31
405.988	114.31
406.212	172.31
406.436	247.31
406.66	173.31
406.883	129.31
407.107	96.31
407.331	106.31
407.555	105.31
407.778	101.31
408.002	100.31
408.226	99.31
408.449	92.31
408.673	100.31
408.896	86.31
409.12	94.31
409.344	95.31
409.567	85.31
409.791	98.31
410.014	87.31
410.238	87.31
410.461	94.31
410.685	92.31
410.908	93.31
411.132	113.31
411.355	93.31
411.578	93.31
411.802	86.31
412.025	103.31
412.249	96.31
412.472	94.31
412.695	122.31
412.919	107.31
413.142	90.31
413.365	102.31
413.589	92.31
413.812	96.31
414.035	103.31
414.258	94.31
414.482	89.31
414.705	92.31
414.928	98.31
415.151	95.31
415.374	105.31
415.597	84.31
415.821	89.31
416.044	97.31
416.267	73.31
416.49	89.31
416.713	81.31
416.936	93.31
417.159	94.31
417.382	93.31
417.605	97.31
417.828	97.31
418.051	103.31
418.274	86.31
418.497	93.31
418.72	100.31
418.943	95.31
419.166	77.31
419.389	67.31
419.611	95.31
419.834	83.31
420.057	89.31
420.28	93.31
420.503	81.31
420.726	84.31
420.948	84.31
421.171	95.31
421.394	86.31
421.617	101.31
421.839	84.31
422.062	88.31
422.285	111.31
422.507	106.31
422.73	107.31
422.953	89.31
423.175	105.31
423.398	98.31
423.621	99.31
423.843	91.31
424.066	80.31
424.288	91.31
424.511	97.31
424.733	91.31
424.956	103.31
425.178	100.31
425.401	97.31
425.623	93.31
425.846	93.31
426.068	86.31
426.291	89.31
426.513	94.31
426.735	103.31
426.958	100.31
427.18	100.31
427.402	163.31
427.625	193.31
427.847	184.31
428.069	169.31
428.292	107.31
428.514	86.31
428.736	91.31
428.958	81.31
429.181	93.31
429.403	75.31
429.625	101.31
429.847	91.31
430.069	100.31
430.292	86.31
430.514	81.31
430.736	85.31
430.958	96.31
431.18	83.31
431.402	102.31
431.624	70.31
431.846	85.31
432.068	76.31
432.29	85.31
432.512	93.31
432.734	94.31
432.956	94.31
433.178	112.31
433.4	97.31
433.622	79.31
433.844	77.31
434.066	87.31
434.287	87.31
434.509	96.31
434.731	81.31
434.953	81.31
435.175	112.31
435.397	90.31
435.618	90.31
435.84	105.31
436.062	111.31
436.284	110.31
436.505	111.31
436.727	99.31
436.949	108.31
437.17	89.31
437.392	83.31
437.614	105.31
437.835	113.31
438.057	154.31
438.278	123.31
438.5	114.31
438.721	123.31
438.943	110.31
439.165	88.31
439.386	89.31
439.608	86.31
439.829	94.31
440.05	134.31
440.272	154.31
440.493	114.31
440.715	94.31
440.936	81.31
441.158	93.31
441.379	79.31
441.6	102.31
441.822	103.31
442.043	109.31
442.264	101.31
442.486	113.31
442.707	81.31
442.928	107.31
443.149	145.31
443.371	153.31
443.592	117.31
443.813	140.31
444.034	111.31
444.255	89.31
444.476	80.31
444.698	76.31
444.919	90.31
445.14	138.31
445.361	127.31
445.582	119.31
445.803	148.31
446.024	146.31
446.245	143.31
446.466	123.31
446.687	87.31
446.908	93.31
447.129	90.31
447.35	89.31
447.571	95.31
447.792	84.31
448.013	89.31
448.234	106.31
448.455	118.31
448.675	128.31
448.896	127.31
449.117	113.31
449.338	109.31
449.559	152.31
449.779	149.31
450	103.31
450.221	86.31
450.442	84.31
450.662	93.31
450.883	106.31
451.104	125.31
451.324	89.31
451.545	97.31
451.766	81.31
451.986	88.31
452.207	84.31
452.428	99.31
452.648	99.31
452.869	122.31
453.089	122.31
453.31	130.31
453.53	90.31
453.751	93.31
453.971	114.31
454.192	120.31
454.412	98.31
454.633	79.31
454.853	85.31
455.073	66.31
455.294	97.31
455.514	100.31
455.734	92.31
455.955	79.31
456.175	75.31
456.395	85.31
456.616	91.31
456.836	102.31
457.056	86.31
457.276	78.31
457.497	106.31
457.717	75.31
457.937	90.31
458.157	88.31
458.377	100.31
458.598	121.31
458.818	162.31
459.038	189.31
459.258	127.31
459.478	102.31
459.698	94.31
459.918	91.31
460.138	85.31
460.358	81.31
460.578	96.31
460.798	94.31
461.018	100.31
461.238	100.31
461.458	86.31
461.678	100.31
461.898	79.31
462.118	88.31
462.338	89.31
462.558	79.31
462.777	72.31
462.997	85.31
463.217	97.31
463.437	85.31
463.657	81.31
463.876	83.31
464.096	74.31
464.316	95.31
464.536	87.31
464.755	102.31
464.975	109.31
465.195	181.31
465.414	194.31
465.634	102.31
465.854	88.31
466.073	87.31
466.293	96.31
466.512	88.31
466.732	92.31
466.951	83.31
467.171	83.31
467.391	100.31
467.61	118.31
467.829	140.31
468.049	269.31
468.268	370.31
468.488	142.31
468.707	93.31
468.927	88.31
469.146	74.31
469.365	81.31
469.585	86.31
469.804	106.31
470.023	108.31
470.243	89.31
470.462	90.31
470.681	119.31
470.901	84.31
471.12	89.31
471.339	86.31
471.558	96.31
471.777	119.31
471.997	168.31
472.216	494.31
472.435	1060.31
472.654	302.31
472.873	122.31
473.092	100.31
473.311	96.31
473.53	76.31
473.749	98.31
473.968	91.31
474.187	117.31
474.406	118.31
474.625	96.31
474.844	94.31
475.063	89.31
475.282	87.31
475.501	73.31
475.72	83.31
475.939	85.31
476.158	84.31
476.377	79.31
476.596	86.31
476.814	91.31
477.033	98.31
477.252	103.31
477.471	95.31
477.69	84.31
477.908	83.31
478.127	83.31
478.346	87.31
478.564	97.31
478.783	96.31
479.002	93.31
479.22	111.31
479.439	119.31
479.658	112.31
479.876	99.31
480.095	106.31
480.313	115.31
480.532	105.31
480.751	150.31
480.969	469.31
481.188	1829.31
481.406	1127.31
481.624	211.31
481.843	114.31
482.061	89.31
482.28	106.31
482.498	94.31
482.717	91.31
482.935	94.31
483.153	87.31
483.372	89.31
483.59	93.31
483.808	87.31
484.027	84.31
484.245	85.31
484.463	89.31
484.681	93.31
484.9	87.31
485.118	84.31
485.336	93.31
485.554	98.31
485.772	95.31
485.99	107.31
486.209	97.31
486.427	110.31
486.645	126.31
486.863	120.31
487.081	112.31
487.299	103.31
487.517	89.31
487.735	94.31
487.953	95.31
488.171	102.31
488.389	92.31
488.607	96.31
488.825	86.31
489.043	95.31
489.261	89.31
489.479	86.31
489.696	78.31
489.914	94.31
490.132	86.31
490.35	85.31
490.568	83.31
490.786	86.31
491.003	82.31
491.221	101.31
491.439	84.31
491.657	89.31
491.874	95.31
492.092	99.31
492.31	91.31
492.527	77.31
492.745	96.31
492.963	97.31
493.18	106.31
493.398	109.31
493.615	85.31
493.833	90.31
494.05	105.31
494.268	98.31
494.485	97.31
494.703	99.31
494.92	93.31
495.138	83.31
495.355	78.31
495.573	93.31
495.79	81.31
496.008	88.31
496.225	93.31
496.442	88.31
496.66	99.31
496.877	95.31
497.094	100.31
497.312	80.31
497.529	91.31
497.746	97.31
497.963	91.31
498.181	102.31
498.398	86.31
498.615	120.31
498.832	102.31
499.049	89.31
499.267	99.31
499.484	86.31
499.701	96.31
499.918	94.31
500.135	95.31
500.352	78.31
500.569	100.31
500.786	85.31
501.003	86.31
501.22	87.31
501.437	89.31
501.654	84.31
501.871	107.31
502.088	100.31
502.305	90.31
502.522	85.31
502.739	92.31
502.956	99.31
503.172	90.31
503.389	77.31
503.606	110.31
503.823	100.31
504.04	83.31
504.256	87.31
504.473	81.31
504.69	84.31
504.907	97.31
505.123	102.31
505.34	82.31
505.557	92.31
505.773	85.31
505.99	100.31
506.207	87.31
506.423	93.31
506.64	96.31
506.856	93.31
507.073	93.31
507.289	95.31
507.506	97.31
507.722	97.31
507.939	106.31
508.155	100.31
508.372	87.31
508.588	94.31
508.805	108.31
509.021	106.31
509.238	102.31
509.454	101.31
509.67	105.31
509.887	117.31
510.103	126.31
510.319	217.31
510.536	753.31
510.752	2561.31
510.968	689.31
511.184	156.31
511.401	118.31
511.617	100.31
511.833	94.31
512.049	89.31
512.265	102.31
512.481	91.31
512.698	85.31
512.914	95.31
513.13	96.31
513.346	103.31
513.562	94.31
513.778	104.31
513.994	92.31
514.21	110.31
