Data from Circ_1992_H10_HRD10591_00035.txt Node
Date: Wed Jan 03 11:47:51 EST 2024
User: Yrep
Spectrometer: HR+D1059
Trigger mode: 1
Integration Time (sec): 1.000000E-1
Scans to average: 1
Electric dark correction enabled: true
Nonlinearity correction enabled: false
Boxcar width: 0
XAxis mode: Wavelengths
Number of Pixels in Spectrum: 2048
>>>>>Begin Spectral Data<<<<<
223.165	-13.44
223.4	-13.44
223.635	-13.44
223.869	-13.44
224.104	-17.44
224.338	-24.44
224.573	-13.44
224.808	-17.44
225.042	-7.44
225.277	1.56
225.511	-17.44
225.746	9.56
225.98	18.56
226.215	5.56
226.449	7.56
226.683	20.56
226.918	35.56
227.152	25.56
227.387	39.56
227.621	32.56
227.856	46.56
228.09	38.56
228.324	52.56
228.559	57.56
228.793	53.56
229.027	71.56
229.262	70.56
229.496	61.56
229.73	93.56
229.964	92.56
230.199	70.56
230.433	71.56
230.667	74.56
230.901	82.56
231.136	85.56
231.37	83.56
231.604	84.56
231.838	90.56
232.072	78.56
232.306	84.56
232.541	91.56
232.775	77.56
233.009	73.56
233.243	82.56
233.477	84.56
233.711	75.56
233.945	80.56
234.179	73.56
234.413	74.56
234.647	80.56
234.881	77.56
235.115	85.56
235.349	81.56
235.583	78.56
235.817	73.56
236.051	81.56
236.285	84.56
236.519	77.56
236.753	73.56
236.987	70.56
237.221	89.56
237.455	79.56
237.689	83.56
237.922	81.56
238.156	68.56
238.39	89.56
238.624	80.56
238.858	81.56
239.091	70.56
239.325	83.56
239.559	68.56
239.793	66.56
240.027	76.56
240.26	83.56
240.494	76.56
240.728	73.56
240.961	84.56
241.195	77.56
241.429	84.56
241.662	78.56
241.896	70.56
242.13	77.56
242.363	67.56
242.597	86.56
242.83	79.56
243.064	64.56
243.298	71.56
243.531	87.56
243.765	67.56
243.998	83.56
244.232	79.56
244.465	91.56
244.699	69.56
244.932	73.56
245.166	85.56
245.399	79.56
245.633	84.56
245.866	84.56
246.099	78.56
246.333	88.56
246.566	75.56
246.8	75.56
247.033	90.56
247.266	86.56
247.5	81.56
247.733	97.56
247.966	90.56
248.2	91.56
248.433	66.56
248.666	78.56
248.899	91.56
249.133	86.56
249.366	97.56
249.599	104.56
249.832	87.56
250.066	84.56
250.299	81.56
250.532	85.56
250.765	76.56
250.998	92.56
251.231	74.56
251.465	89.56
251.698	89.56
251.931	76.56
252.164	80.56
252.397	78.56
252.63	76.56
252.863	74.56
253.096	78.56
253.329	86.56
253.562	85.56
253.795	95.56
254.028	86.56
254.261	78.56
254.494	77.56
254.727	76.56
254.96	81.56
255.193	75.56
255.426	93.56
255.659	92.56
255.892	92.56
256.124	105.56
256.357	86.56
256.59	87.56
256.823	79.56
257.056	83.56
257.289	90.56
257.521	69.56
257.754	79.56
257.987	89.56
258.22	69.56
258.452	96.56
258.685	77.56
258.918	79.56
259.151	82.56
259.383	81.56
259.616	76.56
259.849	99.56
260.081	100.56
260.314	90.56
260.547	85.56
260.779	102.56
261.012	97.56
261.244	105.56
261.477	94.56
261.71	105.56
261.942	132.56
262.175	137.56
262.407	99.56
262.64	85.56
262.872	81.56
263.105	89.56
263.337	96.56
263.57	85.56
263.802	85.56
264.035	77.56
264.267	66.56
264.499	89.56
264.732	84.56
264.964	86.56
265.197	86.56
265.429	75.56
265.661	83.56
265.894	75.56
266.126	79.56
266.358	78.56
266.591	77.56
266.823	95.56
267.055	98.56
267.287	96.56
267.52	93.56
267.752	95.56
267.984	103.56
268.216	92.56
268.448	96.56
268.681	91.56
268.913	86.56
269.145	85.56
269.377	92.56
269.609	81.56
269.841	73.56
270.073	82.56
270.306	89.56
270.538	89.56
270.77	77.56
271.002	84.56
271.234	86.56
271.466	95.56
271.698	94.56
271.93	85.56
272.162	96.56
272.394	97.56
272.626	73.56
272.858	94.56
273.09	95.56
273.322	93.56
273.553	86.56
273.785	112.56
274.017	90.56
274.249	94.56
274.481	82.56
274.713	85.56
274.945	97.56
275.176	79.56
275.408	93.56
275.64	90.56
275.872	88.56
276.104	81.56
276.335	92.56
276.567	107.56
276.799	126.56
277.031	131.56
277.262	132.56
277.494	109.56
277.726	86.56
277.957	84.56
278.189	80.56
278.421	81.56
278.652	83.56
278.884	87.56
279.115	86.56
279.347	85.56
279.579	89.56
279.81	98.56
280.042	134.56
280.273	149.56
280.505	119.56
280.736	86.56
280.968	78.56
281.199	84.56
281.431	98.56
281.662	99.56
281.894	98.56
282.125	110.56
282.356	129.56
282.588	140.56
282.819	130.56
283.051	93.56
283.282	98.56
283.513	90.56
283.745	89.56
283.976	83.56
284.207	100.56
284.439	90.56
284.67	75.56
284.901	94.56
285.132	90.56
285.364	78.56
285.595	89.56
285.826	89.56
286.057	88.56
286.288	88.56
286.52	87.56
286.751	107.56
286.982	90.56
287.213	91.56
287.444	84.56
287.675	81.56
287.906	90.56
288.138	88.56
288.369	92.56
288.6	105.56
288.831	94.56
289.062	97.56
289.293	101.56
289.524	85.56
289.755	77.56
289.986	84.56
290.217	76.56
290.448	75.56
290.679	103.56
290.91	88.56
291.141	92.56
291.371	83.56
291.602	86.56
291.833	77.56
292.064	98.56
292.295	81.56
292.526	82.56
292.757	87.56
292.987	72.56
293.218	85.56
293.449	88.56
293.68	92.56
293.91	97.56
294.141	81.56
294.372	94.56
294.603	97.56
294.833	98.56
295.064	80.56
295.295	82.56
295.525	91.56
295.756	102.56
295.987	130.56
296.217	166.56
296.448	142.56
296.679	98.56
296.909	89.56
297.14	89.56
297.37	83.56
297.601	84.56
297.831	93.56
298.062	95.56
298.292	91.56
298.523	93.56
298.753	98.56
298.984	93.56
299.214	89.56
299.445	94.56
299.675	80.56
299.905	96.56
300.136	106.56
300.366	96.56
300.597	96.56
300.827	94.56
301.057	116.56
301.288	96.56
301.518	95.56
301.748	86.56
301.979	100.56
302.209	97.56
302.439	87.56
302.669	95.56
302.9	97.56
303.13	94.56
303.36	109.56
303.59	125.56
303.82	101.56
304.051	102.56
304.281	91.56
304.511	82.56
304.741	94.56
304.971	82.56
305.201	79.56
305.431	91.56
305.661	101.56
305.891	88.56
306.121	96.56
306.352	110.56
306.582	100.56
306.812	85.56
307.042	110.56
307.272	134.56
307.502	110.56
307.731	128.56
307.961	104.56
308.191	106.56
308.421	100.56
308.651	103.56
308.881	95.56
309.111	107.56
309.341	83.56
309.571	94.56
309.8	108.56
310.03	99.56
310.26	107.56
310.49	100.56
310.72	95.56
310.949	108.56
311.179	85.56
311.409	108.56
311.639	97.56
311.868	86.56
312.098	89.56
312.328	101.56
312.557	106.56
312.787	111.56
313.017	116.56
313.246	97.56
313.476	90.56
313.706	98.56
313.935	96.56
314.165	87.56
314.394	113.56
314.624	95.56
314.853	108.56
315.083	103.56
315.312	98.56
315.542	83.56
315.771	91.56
316.001	86.56
316.23	97.56
316.46	96.56
316.689	109.56
316.919	93.56
317.148	99.56
317.377	92.56
317.607	101.56
317.836	99.56
318.065	107.56
318.295	103.56
318.524	99.56
318.753	93.56
318.983	83.56
319.212	88.56
319.441	111.56
319.67	109.56
319.9	94.56
320.129	93.56
320.358	89.56
320.587	94.56
320.816	106.56
321.046	101.56
321.275	98.56
321.504	99.56
321.733	95.56
321.962	102.56
322.191	118.56
322.42	109.56
322.649	108.56
322.878	116.56
323.108	126.56
323.337	154.56
323.566	137.56
323.795	183.56
324.024	227.56
324.253	464.56
324.482	983.56
324.71	2105.56
324.939	2821.56
325.168	1001.56
325.397	296.56
325.626	167.56
325.855	121.56
326.084	144.56
326.313	144.56
326.542	159.56
326.77	256.56
326.999	514.56
327.228	1099.56
327.457	2013.56
327.686	1665.56
327.914	484.56
328.143	338.56
328.372	405.56
328.6	248.56
328.829	151.56
329.058	161.56
329.287	178.56
329.515	136.56
329.744	175.56
329.972	292.56
330.201	503.56
330.43	746.56
330.658	357.56
330.887	220.56
331.115	161.56
331.344	125.56
331.572	118.56
331.801	121.56
332.03	108.56
332.258	113.56
332.486	111.56
332.715	102.56
332.943	89.56
333.172	110.56
333.4	117.56
333.629	127.56
333.857	159.56
334.085	246.56
334.314	487.56
334.542	932.56
334.771	870.56
334.999	273.56
335.227	129.56
335.455	107.56
335.684	114.56
335.912	95.56
336.14	101.56
336.369	108.56
336.597	109.56
336.825	100.56
337.053	111.56
337.281	100.56
337.51	97.56
337.738	98.56
337.966	102.56
338.194	117.56
338.422	100.56
338.65	91.56
338.878	84.56
339.106	92.56
339.334	87.56
339.562	97.56
339.79	101.56
340.018	88.56
340.246	104.56
340.474	111.56
340.702	88.56
340.93	85.56
341.158	93.56
341.386	110.56
341.614	115.56
341.842	93.56
342.07	94.56
342.298	97.56
342.526	91.56
342.754	102.56
342.981	88.56
343.209	79.56
343.437	102.56
343.665	92.56
343.893	89.56
344.12	82.56
344.348	94.56
344.576	99.56
344.804	105.56
345.031	108.56
345.259	95.56
345.487	93.56
345.714	86.56
345.942	98.56
346.17	79.56
346.397	105.56
346.625	107.56
346.853	97.56
347.08	98.56
347.308	94.56
347.535	106.56
347.763	114.56
347.99	87.56
348.218	124.56
348.445	105.56
348.673	118.56
348.9	97.56
349.128	109.56
349.355	94.56
349.583	87.56
349.81	82.56
350.037	101.56
350.265	110.56
350.492	100.56
350.72	96.56
350.947	104.56
351.174	116.56
351.402	99.56
351.629	116.56
351.856	97.56
352.083	113.56
352.311	121.56
352.538	129.56
352.765	110.56
352.992	113.56
353.22	125.56
353.447	108.56
353.674	101.56
353.901	108.56
354.128	97.56
354.355	103.56
354.583	105.56
354.81	82.56
355.037	92.56
355.264	85.56
355.491	97.56
355.718	92.56
355.945	82.56
356.172	92.56
356.399	87.56
356.626	86.56
356.853	88.56
357.08	87.56
357.307	83.56
357.534	91.56
357.761	84.56
357.988	99.56
358.215	89.56
358.441	87.56
358.668	103.56
358.895	94.56
359.122	94.56
359.349	89.56
359.576	101.56
359.802	112.56
360.029	133.56
360.256	116.56
360.483	106.56
360.709	93.56
360.936	93.56
361.163	90.56
361.39	97.56
361.616	97.56
361.843	95.56
362.07	67.56
362.296	98.56
362.523	104.56
362.749	87.56
362.976	95.56
363.203	100.56
363.429	106.56
363.656	87.56
363.882	87.56
364.109	95.56
364.335	92.56
364.562	93.56
364.788	94.56
365.015	106.56
365.241	105.56
365.468	112.56
365.694	121.56
365.92	108.56
366.147	82.56
366.373	93.56
366.599	93.56
366.826	98.56
367.052	86.56
367.278	90.56
367.505	86.56
367.731	95.56
367.957	89.56
368.184	93.56
368.41	103.56
368.636	124.56
368.862	116.56
369.089	115.56
369.315	98.56
369.541	98.56
369.767	84.56
369.993	84.56
370.219	90.56
370.445	100.56
370.672	90.56
370.898	84.56
371.124	85.56
371.35	81.56
371.576	95.56
371.802	107.56
372.028	80.56
372.254	87.56
372.48	96.56
372.706	90.56
372.932	78.56
373.158	96.56
373.384	87.56
373.61	96.56
373.835	96.56
374.061	82.56
374.287	96.56
374.513	79.56
374.739	100.56
374.965	80.56
375.191	90.56
375.416	99.56
375.642	99.56
375.868	93.56
376.094	103.56
376.319	78.56
376.545	96.56
376.771	91.56
376.997	97.56
377.222	82.56
377.448	94.56
377.674	90.56
377.899	84.56
378.125	87.56
378.35	105.56
378.576	92.56
378.802	75.56
379.027	99.56
379.253	87.56
379.478	100.56
379.704	99.56
379.929	105.56
380.155	105.56
380.38	89.56
380.606	83.56
380.831	92.56
381.057	103.56
381.282	97.56
381.507	97.56
381.733	113.56
381.958	97.56
382.184	107.56
382.409	121.56
382.634	107.56
382.86	106.56
383.085	104.56
383.31	100.56
383.535	97.56
383.761	102.56
383.986	103.56
384.211	116.56
384.436	109.56
384.662	117.56
384.887	116.56
385.112	118.56
385.337	105.56
385.562	115.56
385.787	115.56
386.013	124.56
386.238	134.56
386.463	115.56
386.688	125.56
386.913	106.56
387.138	137.56
387.363	119.56
387.588	116.56
387.813	98.56
388.038	135.56
388.263	116.56
388.488	125.56
388.713	111.56
388.938	90.56
389.163	85.56
389.387	83.56
389.612	97.56
389.837	84.56
390.062	102.56
390.287	108.56
390.512	108.56
390.736	77.56
390.961	79.56
391.186	88.56
391.411	101.56
391.636	106.56
391.86	93.56
392.085	78.56
392.31	96.56
392.534	90.56
392.759	83.56
392.984	81.56
393.208	84.56
393.433	87.56
393.658	87.56
393.882	91.56
394.107	83.56
394.331	93.56
394.556	84.56
394.78	86.56
395.005	89.56
395.229	87.56
395.454	90.56
395.678	77.56
395.903	83.56
396.127	93.56
396.352	84.56
396.576	87.56
396.801	80.56
397.025	77.56
397.249	88.56
397.474	85.56
397.698	103.56
397.922	102.56
398.147	83.56
398.371	83.56
398.595	90.56
398.82	85.56
399.044	92.56
399.268	77.56
399.492	95.56
399.717	95.56
399.941	88.56
400.165	97.56
400.389	97.56
400.613	75.56
400.837	92.56
401.062	96.56
401.286	82.56
401.51	91.56
401.734	100.56
401.958	93.56
402.182	139.56
402.406	171.56
402.63	124.56
402.854	91.56
403.078	95.56
403.302	98.56
403.526	87.56
403.75	91.56
403.974	94.56
404.198	87.56
404.422	76.56
404.645	91.56
404.869	99.56
405.093	107.56
405.317	121.56
405.541	124.56
405.765	109.56
405.988	111.56
406.212	182.56
406.436	269.56
406.66	187.56
406.883	109.56
407.107	92.56
407.331	111.56
407.555	107.56
407.778	102.56
408.002	95.56
408.226	91.56
408.449	78.56
408.673	93.56
408.896	96.56
409.12	111.56
409.344	90.56
409.567	94.56
409.791	99.56
410.014	101.56
410.238	97.56
410.461	109.56
410.685	88.56
410.908	90.56
411.132	117.56
411.355	103.56
411.578	95.56
411.802	82.56
412.025	108.56
412.249	103.56
412.472	105.56
412.695	99.56
412.919	114.56
413.142	85.56
413.365	85.56
413.589	78.56
413.812	91.56
414.035	83.56
414.258	90.56
414.482	95.56
414.705	95.56
414.928	90.56
415.151	102.56
415.374	109.56
415.597	84.56
415.821	93.56
416.044	97.56
416.267	95.56
416.49	87.56
416.713	84.56
416.936	89.56
417.159	105.56
417.382	90.56
417.605	94.56
417.828	97.56
418.051	100.56
418.274	93.56
418.497	88.56
418.72	84.56
418.943	83.56
419.166	89.56
419.389	87.56
419.611	97.56
419.834	82.56
420.057	89.56
420.28	96.56
420.503	91.56
420.726	91.56
420.948	106.56
421.171	114.56
421.394	104.56
421.617	90.56
421.839	82.56
422.062	87.56
422.285	97.56
422.507	109.56
422.73	114.56
422.953	100.56
423.175	97.56
423.398	81.56
423.621	83.56
423.843	85.56
424.066	91.56
424.288	80.56
424.511	108.56
424.733	100.56
424.956	106.56
425.178	110.56
425.401	101.56
425.623	105.56
425.846	93.56
426.068	103.56
426.291	94.56
426.513	90.56
426.735	95.56
426.958	104.56
427.18	122.56
427.402	150.56
427.625	244.56
427.847	194.56
428.069	175.56
428.292	120.56
428.514	91.56
428.736	73.56
428.958	91.56
429.181	81.56
429.403	88.56
429.625	93.56
429.847	91.56
430.069	113.56
430.292	93.56
430.514	91.56
430.736	89.56
430.958	95.56
431.18	88.56
431.402	93.56
431.624	88.56
431.846	85.56
432.068	92.56
432.29	76.56
432.512	97.56
432.734	96.56
432.956	98.56
433.178	107.56
433.4	91.56
433.622	76.56
433.844	102.56
434.066	93.56
434.287	94.56
434.509	99.56
434.731	86.56
434.953	103.56
435.175	95.56
435.397	102.56
435.618	101.56
435.84	108.56
436.062	132.56
436.284	140.56
436.505	113.56
436.727	99.56
436.949	82.56
437.17	77.56
437.392	90.56
437.614	84.56
437.835	120.56
438.057	130.56
438.278	116.56
438.5	114.56
438.721	139.56
438.943	118.56
439.165	85.56
439.386	81.56
439.608	80.56
439.829	116.56
440.05	145.56
440.272	179.56
440.493	117.56
440.715	92.56
440.936	85.56
441.158	102.56
441.379	75.56
441.6	98.56
441.822	96.56
442.043	102.56
442.264	118.56
442.486	97.56
442.707	88.56
442.928	125.56
443.149	177.56
443.371	167.56
443.592	122.56
443.813	142.56
444.034	119.56
444.255	91.56
444.476	97.56
444.698	84.56
444.919	100.56
445.14	132.56
445.361	133.56
445.582	129.56
445.803	174.56
446.024	159.56
446.245	156.56
446.466	127.56
446.687	82.56
446.908	81.56
447.129	101.56
447.35	71.56
447.571	89.56
447.792	97.56
448.013	86.56
448.234	99.56
448.455	111.56
448.675	116.56
448.896	138.56
449.117	111.56
449.338	116.56
449.559	135.56
449.779	150.56
450	107.56
450.221	69.56
450.442	81.56
450.662	107.56
450.883	126.56
451.104	125.56
451.324	94.56
451.545	89.56
451.766	87.56
451.986	99.56
452.207	93.56
452.428	100.56
452.648	109.56
452.869	116.56
453.089	111.56
453.31	111.56
453.53	100.56
453.751	106.56
453.971	114.56
454.192	128.56
454.412	84.56
454.633	91.56
454.853	99.56
455.073	85.56
455.294	95.56
455.514	116.56
455.734	96.56
455.955	79.56
456.175	95.56
456.395	90.56
456.616	73.56
456.836	93.56
457.056	86.56
457.276	92.56
457.497	93.56
457.717	97.56
457.937	82.56
458.157	92.56
458.377	90.56
458.598	137.56
458.818	194.56
459.038	202.56
459.258	129.56
459.478	95.56
459.698	95.56
459.918	84.56
460.138	90.56
460.358	85.56
460.578	93.56
460.798	91.56
461.018	102.56
461.238	93.56
461.458	77.56
461.678	90.56
461.898	81.56
462.118	93.56
462.338	87.56
462.558	77.56
462.777	95.56
462.997	84.56
463.217	106.56
463.437	94.56
463.657	96.56
463.876	78.56
464.096	89.56
464.316	99.56
464.536	90.56
464.755	108.56
464.975	112.56
465.195	200.56
465.414	205.56
465.634	118.56
465.854	98.56
466.073	89.56
466.293	86.56
466.512	84.56
466.732	84.56
466.951	77.56
467.171	99.56
467.391	100.56
467.61	127.56
467.829	142.56
468.049	304.56
468.268	434.56
468.488	146.56
468.707	97.56
468.927	92.56
469.146	90.56
469.365	94.56
469.585	100.56
469.804	105.56
470.023	106.56
470.243	106.56
470.462	104.56
470.681	132.56
470.901	108.56
471.12	98.56
471.339	103.56
471.558	102.56
471.777	131.56
471.997	176.56
472.216	561.56
472.435	1201.56
472.654	314.56
472.873	113.56
473.092	94.56
473.311	95.56
473.53	91.56
473.749	101.56
473.968	86.56
474.187	122.56
474.406	91.56
474.625	92.56
474.844	82.56
475.063	98.56
475.282	101.56
475.501	92.56
475.72	86.56
475.939	103.56
476.158	97.56
476.377	87.56
476.596	91.56
476.814	96.56
477.033	112.56
477.252	92.56
477.471	98.56
477.69	94.56
477.908	104.56
478.127	92.56
478.346	95.56
478.564	110.56
478.783	102.56
479.002	99.56
479.22	103.56
479.439	110.56
479.658	101.56
479.876	114.56
480.095	113.56
480.313	111.56
480.532	122.56
480.751	203.56
480.969	512.56
481.188	2134.56
481.406	1307.56
481.624	223.56
481.843	113.56
482.061	93.56
482.28	94.56
482.498	94.56
482.717	101.56
482.935	95.56
483.153	90.56
483.372	89.56
483.59	92.56
483.808	92.56
484.027	85.56
484.245	111.56
484.463	99.56
484.681	101.56
484.9	91.56
485.118	93.56
485.336	95.56
485.554	117.56
485.772	103.56
485.99	104.56
486.209	104.56
486.427	95.56
486.645	133.56
486.863	119.56
487.081	109.56
487.299	107.56
487.517	114.56
487.735	100.56
487.953	93.56
488.171	91.56
488.389	105.56
488.607	107.56
488.825	82.56
489.043	76.56
489.261	85.56
489.479	90.56
489.696	80.56
489.914	91.56
490.132	103.56
490.35	83.56
490.568	77.56
490.786	79.56
491.003	78.56
491.221	90.56
491.439	73.56
491.657	93.56
491.874	97.56
492.092	105.56
492.31	100.56
492.527	103.56
492.745	97.56
492.963	89.56
493.18	101.56
493.398	89.56
493.615	93.56
493.833	99.56
494.05	95.56
494.268	87.56
494.485	90.56
494.703	89.56
494.92	85.56
495.138	77.56
495.355	77.56
495.573	83.56
495.79	90.56
496.008	102.56
496.225	93.56
496.442	91.56
496.66	84.56
496.877	95.56
497.094	77.56
497.312	89.56
497.529	91.56
497.746	100.56
497.963	79.56
498.181	94.56
498.398	103.56
498.615	120.56
498.832	108.56
499.049	91.56
499.267	102.56
499.484	87.56
499.701	82.56
499.918	92.56
500.135	107.56
500.352	93.56
500.569	112.56
500.786	91.56
501.003	82.56
501.22	54.56
501.437	70.56
501.654	90.56
501.871	104.56
502.088	93.56
502.305	83.56
502.522	85.56
502.739	91.56
502.956	91.56
503.172	100.56
503.389	102.56
503.606	114.56
503.823	101.56
504.04	101.56
504.256	93.56
504.473	82.56
504.69	104.56
504.907	89.56
505.123	96.56
505.34	86.56
505.557	84.56
505.773	86.56
505.99	86.56
506.207	107.56
506.423	85.56
506.64	94.56
506.856	87.56
507.073	95.56
507.289	99.56
507.506	90.56
507.722	132.56
507.939	127.56
508.155	95.56
508.372	93.56
508.588	96.56
508.805	100.56
509.021	102.56
509.238	110.56
509.454	108.56
509.67	101.56
509.887	97.56
510.103	138.56
510.319	227.56
510.536	809.56
510.752	2792.56
510.968	744.56
511.184	172.56
511.401	110.56
511.617	109.56
511.833	98.56
512.049	103.56
512.265	85.56
512.481	89.56
512.698	95.56
512.914	78.56
513.13	106.56
513.346	78.56
513.562	91.56
