Data from Circ_1992_H10_HRD10591_00070.txt Node
Date: Wed Jan 03 11:47:58 EST 2024
User: Yrep
Spectrometer: HR+D1059
Trigger mode: 1
Integration Time (sec): 1.000000E-1
Scans to average: 1
Electric dark correction enabled: true
Nonlinearity correction enabled: false
Boxcar width: 0
XAxis mode: Wavelengths
Number of Pixels in Spectrum: 2048
>>>>>Begin Spectral Data<<<<<
223.165	-17.19
223.4	-17.19
223.635	-17.19
223.869	-4.19
224.104	-16.19
224.338	-1.19
224.573	-13.19
224.808	-7.19
225.042	-9.19
225.277	-11.19
225.511	-16.19
225.746	-11.19
225.98	4.81
226.215	10.81
226.449	15.81
226.683	20.81
226.918	20.81
227.152	33.81
227.387	29.81
227.621	39.81
227.856	42.81
228.09	55.81
228.324	44.81
228.559	48.81
228.793	75.81
229.027	69.81
229.262	68.81
229.496	62.81
229.73	87.81
229.964	94.81
230.199	82.81
230.433	86.81
230.667	80.81
230.901	81.81
231.136	81.81
231.37	82.81
231.604	70.81
231.838	75.81
232.072	103.81
232.306	86.81
232.541	75.81
232.775	77.81
233.009	88.81
233.243	79.81
233.477	78.81
233.711	86.81
233.945	69.81
234.179	84.81
234.413	85.81
234.647	87.81
234.881	81.81
235.115	89.81
235.349	75.81
235.583	82.81
235.817	89.81
236.051	75.81
236.285	85.81
236.519	69.81
236.753	68.81
236.987	86.81
237.221	77.81
237.455	76.81
237.689	97.81
237.922	85.81
238.156	67.81
238.39	76.81
238.624	77.81
238.858	87.81
239.091	81.81
239.325	78.81
239.559	79.81
239.793	82.81
240.027	84.81
240.26	78.81
240.494	82.81
240.728	90.81
240.961	94.81
241.195	86.81
241.429	71.81
241.662	68.81
241.896	74.81
242.13	69.81
242.363	80.81
242.597	81.81
242.83	74.81
243.064	79.81
243.298	70.81
243.531	82.81
243.765	78.81
243.998	77.81
244.232	79.81
244.465	74.81
244.699	68.81
244.932	67.81
245.166	74.81
245.399	75.81
245.633	100.81
245.866	72.81
246.099	78.81
246.333	76.81
246.566	92.81
246.8	67.81
247.033	73.81
247.266	67.81
247.5	76.81
247.733	61.81
247.966	76.81
248.2	90.81
248.433	78.81
248.666	86.81
248.899	75.81
249.133	82.81
249.366	85.81
249.599	97.81
249.832	81.81
250.066	81.81
250.299	84.81
250.532	91.81
250.765	73.81
250.998	80.81
251.231	66.81
251.465	78.81
251.698	82.81
251.931	77.81
252.164	91.81
252.397	86.81
252.63	75.81
252.863	90.81
253.096	90.81
253.329	71.81
253.562	84.81
253.795	66.81
254.028	92.81
254.261	85.81
254.494	84.81
254.727	76.81
254.96	77.81
255.193	73.81
255.426	89.81
255.659	77.81
255.892	74.81
256.124	82.81
256.357	100.81
256.59	98.81
256.823	94.81
257.056	85.81
257.289	75.81
257.521	78.81
257.754	85.81
257.987	88.81
258.22	83.81
258.452	111.81
258.685	85.81
258.918	69.81
259.151	93.81
259.383	89.81
259.616	82.81
259.849	84.81
260.081	82.81
260.314	90.81
260.547	87.81
260.779	93.81
261.012	100.81
261.244	99.81
261.477	99.81
261.71	88.81
261.942	108.81
262.175	116.81
262.407	85.81
262.64	77.81
262.872	85.81
263.105	87.81
263.337	84.81
263.57	85.81
263.802	77.81
264.035	92.81
264.267	81.81
264.499	76.81
264.732	73.81
264.964	73.81
265.197	78.81
265.429	77.81
265.661	73.81
265.894	76.81
266.126	79.81
266.358	81.81
266.591	82.81
266.823	73.81
267.055	83.81
267.287	78.81
267.52	84.81
267.752	80.81
267.984	85.81
268.216	77.81
268.448	79.81
268.681	90.81
268.913	79.81
269.145	75.81
269.377	88.81
269.609	81.81
269.841	93.81
270.073	81.81
270.306	70.81
270.538	72.81
270.77	83.81
271.002	85.81
271.234	93.81
271.466	92.81
271.698	82.81
271.93	89.81
272.162	94.81
272.394	87.81
272.626	86.81
272.858	81.81
273.09	95.81
273.322	94.81
273.553	86.81
273.785	79.81
274.017	85.81
274.249	70.81
274.481	62.81
274.713	66.81
274.945	85.81
275.176	89.81
275.408	85.81
275.64	103.81
275.872	94.81
276.104	93.81
276.335	103.81
276.567	105.81
276.799	120.81
277.031	123.81
277.262	124.81
277.494	106.81
277.726	93.81
277.957	83.81
278.189	95.81
278.421	94.81
278.652	89.81
278.884	86.81
279.115	104.81
279.347	87.81
279.579	89.81
279.81	97.81
280.042	138.81
280.273	153.81
280.505	121.81
280.736	95.81
280.968	81.81
281.199	92.81
281.431	98.81
281.662	96.81
281.894	94.81
282.125	88.81
282.356	121.81
282.588	131.81
282.819	115.81
283.051	100.81
283.282	81.81
283.513	89.81
283.745	89.81
283.976	96.81
284.207	79.81
284.439	84.81
284.67	91.81
284.901	86.81
285.132	82.81
285.364	88.81
285.595	81.81
285.826	76.81
286.057	88.81
286.288	95.81
286.52	77.81
286.751	86.81
286.982	85.81
287.213	80.81
287.444	89.81
287.675	84.81
287.906	69.81
288.138	82.81
288.369	93.81
288.6	94.81
288.831	73.81
289.062	87.81
289.293	83.81
289.524	92.81
289.755	79.81
289.986	87.81
290.217	85.81
290.448	85.81
290.679	96.81
290.91	98.81
291.141	85.81
291.371	94.81
291.602	91.81
291.833	107.81
292.064	90.81
292.295	89.81
292.526	82.81
292.757	91.81
292.987	83.81
293.218	88.81
293.449	83.81
293.68	98.81
293.91	74.81
294.141	88.81
294.372	100.81
294.603	92.81
294.833	80.81
295.064	87.81
295.295	87.81
295.525	89.81
295.756	102.81
295.987	116.81
296.217	144.81
296.448	125.81
296.679	88.81
296.909	95.81
297.14	89.81
297.37	97.81
297.601	87.81
297.831	95.81
298.062	92.81
298.292	84.81
298.523	94.81
298.753	91.81
298.984	90.81
299.214	80.81
299.445	90.81
299.675	83.81
299.905	101.81
300.136	110.81
300.366	93.81
300.597	91.81
300.827	97.81
301.057	105.81
301.288	87.81
301.518	102.81
301.748	96.81
301.979	109.81
302.209	102.81
302.439	94.81
302.669	97.81
302.9	76.81
303.13	94.81
303.36	110.81
303.59	119.81
303.82	122.81
304.051	96.81
304.281	87.81
304.511	84.81
304.741	75.81
304.971	92.81
305.201	103.81
305.431	84.81
305.661	100.81
305.891	94.81
306.121	87.81
306.352	106.81
306.582	93.81
306.812	98.81
307.042	113.81
307.272	117.81
307.502	141.81
307.731	131.81
307.961	111.81
308.191	81.81
308.421	99.81
308.651	83.81
308.881	102.81
309.111	82.81
309.341	97.81
309.571	105.81
309.8	109.81
310.03	100.81
310.26	89.81
310.49	92.81
310.72	116.81
310.949	100.81
311.179	110.81
311.409	95.81
311.639	98.81
311.868	112.81
312.098	109.81
312.328	107.81
312.557	106.81
312.787	97.81
313.017	109.81
313.246	78.81
313.476	96.81
313.706	101.81
313.935	109.81
314.165	110.81
314.394	94.81
314.624	105.81
314.853	101.81
315.083	95.81
315.312	95.81
315.542	90.81
315.771	106.81
316.001	96.81
316.23	109.81
316.46	86.81
316.689	82.81
316.919	76.81
317.148	85.81
317.377	110.81
317.607	105.81
317.836	94.81
318.065	98.81
318.295	102.81
318.524	94.81
318.753	84.81
318.983	98.81
319.212	93.81
319.441	113.81
319.67	102.81
319.9	93.81
320.129	102.81
320.358	93.81
320.587	99.81
320.816	93.81
321.046	95.81
321.275	86.81
321.504	97.81
321.733	98.81
321.962	95.81
322.191	99.81
322.42	111.81
322.649	107.81
322.878	104.81
323.108	114.81
323.337	115.81
323.566	131.81
323.795	155.81
324.024	227.81
324.253	447.81
324.482	984.81
324.71	2105.81
324.939	2876.81
325.168	996.81
325.397	282.81
325.626	171.81
325.855	149.81
326.084	139.81
326.313	139.81
326.542	161.81
326.77	260.81
326.999	544.81
327.228	1131.81
327.457	2142.81
327.686	1711.81
327.914	486.81
328.143	333.81
328.372	384.81
328.6	227.81
328.829	138.81
329.058	151.81
329.287	146.81
329.515	139.81
329.744	169.81
329.972	283.81
330.201	538.81
330.43	718.81
330.658	353.81
330.887	211.81
331.115	141.81
331.344	123.81
331.572	109.81
331.801	117.81
332.03	96.81
332.258	99.81
332.486	98.81
332.715	105.81
332.943	103.81
333.172	119.81
333.4	117.81
333.629	130.81
333.857	173.81
334.085	277.81
334.314	529.81
334.542	922.81
334.771	860.81
334.999	245.81
335.227	118.81
335.455	99.81
335.684	115.81
335.912	103.81
336.14	102.81
336.369	90.81
336.597	104.81
336.825	104.81
337.053	89.81
337.281	97.81
337.51	106.81
337.738	89.81
337.966	109.81
338.194	110.81
338.422	105.81
338.65	86.81
338.878	93.81
339.106	75.81
339.334	87.81
339.562	98.81
339.79	107.81
340.018	98.81
340.246	94.81
340.474	104.81
340.702	91.81
340.93	94.81
341.158	84.81
341.386	101.81
341.614	105.81
341.842	95.81
342.07	96.81
342.298	83.81
342.526	90.81
342.754	97.81
342.981	97.81
343.209	85.81
343.437	96.81
343.665	98.81
343.893	97.81
344.12	95.81
344.348	93.81
344.576	103.81
344.804	106.81
345.031	96.81
345.259	107.81
345.487	90.81
345.714	99.81
345.942	91.81
346.17	98.81
346.397	92.81
346.625	84.81
346.853	96.81
347.08	81.81
347.308	103.81
347.535	108.81
347.763	101.81
347.99	92.81
348.218	108.81
348.445	93.81
348.673	88.81
348.9	95.81
349.128	91.81
349.355	103.81
349.583	107.81
349.81	87.81
350.037	82.81
350.265	103.81
350.492	101.81
350.72	86.81
350.947	109.81
351.174	111.81
351.402	116.81
351.629	118.81
351.856	114.81
352.083	103.81
352.311	116.81
352.538	101.81
352.765	111.81
352.992	117.81
353.22	107.81
353.447	102.81
353.674	94.81
353.901	90.81
354.128	98.81
354.355	79.81
354.583	95.81
354.81	103.81
355.037	98.81
355.264	91.81
355.491	82.81
355.718	100.81
355.945	98.81
356.172	100.81
356.399	98.81
356.626	97.81
356.853	106.81
357.08	95.81
357.307	96.81
357.534	93.81
357.761	87.81
357.988	83.81
358.215	100.81
358.441	83.81
358.668	98.81
358.895	84.81
359.122	79.81
359.349	95.81
359.576	94.81
359.802	98.81
360.029	117.81
360.256	121.81
360.483	96.81
360.709	93.81
360.936	105.81
361.163	95.81
361.39	91.81
361.616	98.81
361.843	87.81
362.07	100.81
362.296	100.81
362.523	87.81
362.749	92.81
362.976	96.81
363.203	100.81
363.429	90.81
363.656	84.81
363.882	94.81
364.109	92.81
364.335	96.81
364.562	90.81
364.788	100.81
365.015	91.81
365.241	93.81
365.468	121.81
365.694	114.81
365.92	98.81
366.147	83.81
366.373	79.81
366.599	77.81
366.826	80.81
367.052	78.81
367.278	93.81
367.505	81.81
367.731	96.81
367.957	77.81
368.184	91.81
368.41	94.81
368.636	105.81
368.862	109.81
369.089	109.81
369.315	107.81
369.541	98.81
369.767	89.81
369.993	97.81
370.219	85.81
370.445	91.81
370.672	78.81
370.898	93.81
371.124	83.81
371.35	103.81
371.576	86.81
371.802	103.81
372.028	94.81
372.254	87.81
372.48	87.81
372.706	97.81
372.932	88.81
373.158	97.81
373.384	91.81
373.61	73.81
373.835	90.81
374.061	84.81
374.287	95.81
374.513	99.81
374.739	99.81
374.965	96.81
375.191	85.81
375.416	90.81
375.642	89.81
375.868	97.81
376.094	92.81
376.319	89.81
376.545	93.81
376.771	100.81
376.997	101.81
377.222	91.81
377.448	89.81
377.674	75.81
377.899	82.81
378.125	91.81
378.35	83.81
378.576	102.81
378.802	88.81
379.027	95.81
379.253	91.81
379.478	89.81
379.704	76.81
379.929	87.81
380.155	97.81
380.38	83.81
380.606	106.81
380.831	82.81
381.057	82.81
381.282	107.81
381.507	98.81
381.733	97.81
381.958	102.81
382.184	94.81
382.409	96.81
382.634	106.81
382.86	103.81
383.085	90.81
383.31	103.81
383.535	93.81
383.761	97.81
383.986	98.81
384.211	89.81
384.436	86.81
384.662	108.81
384.887	103.81
385.112	114.81
385.337	93.81
385.562	101.81
385.787	103.81
386.013	116.81
386.238	122.81
386.463	102.81
386.688	105.81
386.913	113.81
387.138	99.81
387.363	98.81
387.588	98.81
387.813	101.81
388.038	104.81
388.263	100.81
388.488	86.81
388.713	97.81
388.938	67.81
389.163	96.81
389.387	91.81
389.612	97.81
389.837	80.81
390.062	93.81
390.287	90.81
390.512	98.81
390.736	87.81
390.961	87.81
391.186	94.81
391.411	80.81
391.636	90.81
391.86	90.81
392.085	74.81
392.31	73.81
392.534	87.81
392.759	74.81
392.984	93.81
393.208	98.81
393.433	90.81
393.658	110.81
393.882	74.81
394.107	75.81
394.331	89.81
394.556	85.81
394.78	92.81
395.005	89.81
395.229	97.81
395.454	106.81
395.678	85.81
395.903	87.81
396.127	95.81
396.352	97.81
396.576	65.81
396.801	101.81
397.025	82.81
397.249	87.81
397.474	91.81
397.698	77.81
397.922	86.81
398.147	76.81
398.371	87.81
398.595	97.81
398.82	91.81
399.044	82.81
399.268	92.81
399.492	74.81
399.717	91.81
399.941	96.81
400.165	90.81
400.389	97.81
400.613	92.81
400.837	88.81
401.062	83.81
401.286	94.81
401.51	80.81
401.734	91.81
401.958	107.81
402.182	108.81
402.406	161.81
402.63	110.81
402.854	88.81
403.078	99.81
403.302	91.81
403.526	95.81
403.75	87.81
403.974	97.81
404.198	90.81
404.422	89.81
404.645	77.81
404.869	83.81
405.093	97.81
405.317	119.81
405.541	114.81
405.765	118.81
405.988	112.81
406.212	168.81
406.436	216.81
406.66	153.81
406.883	94.81
407.107	99.81
407.331	102.81
407.555	95.81
407.778	97.81
408.002	91.81
408.226	88.81
408.449	90.81
408.673	87.81
408.896	82.81
409.12	80.81
409.344	83.81
409.567	85.81
409.791	90.81
410.014	86.81
410.238	84.81
410.461	72.81
410.685	89.81
410.908	93.81
411.132	100.81
411.355	93.81
411.578	94.81
411.802	82.81
412.025	70.81
412.249	87.81
412.472	114.81
412.695	119.81
412.919	108.81
413.142	103.81
413.365	80.81
413.589	85.81
413.812	78.81
414.035	94.81
414.258	81.81
414.482	77.81
414.705	76.81
414.928	105.81
415.151	89.81
415.374	101.81
415.597	84.81
415.821	83.81
416.044	98.81
416.267	92.81
416.49	81.81
416.713	84.81
416.936	73.81
417.159	85.81
417.382	87.81
417.605	91.81
417.828	93.81
418.051	86.81
418.274	79.81
418.497	84.81
418.72	69.81
418.943	95.81
419.166	89.81
419.389	84.81
419.611	85.81
419.834	86.81
420.057	97.81
420.28	85.81
420.503	88.81
420.726	78.81
420.948	91.81
421.171	97.81
421.394	95.81
421.617	84.81
421.839	93.81
422.062	98.81
422.285	98.81
422.507	105.81
422.73	112.81
422.953	92.81
423.175	93.81
423.398	91.81
423.621	86.81
423.843	85.81
424.066	83.81
424.288	72.81
424.511	82.81
424.733	97.81
424.956	94.81
425.178	103.81
425.401	97.81
425.623	92.81
425.846	93.81
426.068	85.81
426.291	101.81
426.513	88.81
426.735	101.81
426.958	97.81
427.18	105.81
427.402	153.81
427.625	177.81
427.847	191.81
428.069	180.81
428.292	116.81
428.514	99.81
428.736	84.81
428.958	86.81
429.181	76.81
429.403	83.81
429.625	79.81
429.847	89.81
430.069	107.81
430.292	90.81
430.514	80.81
430.736	80.81
430.958	78.81
431.18	97.81
431.402	83.81
431.624	87.81
431.846	67.81
432.068	73.81
432.29	74.81
432.512	88.81
432.734	98.81
432.956	87.81
433.178	95.81
433.4	87.81
433.622	105.81
433.844	95.81
434.066	98.81
434.287	94.81
434.509	92.81
434.731	74.81
434.953	90.81
435.175	84.81
435.397	76.81
435.618	101.81
435.84	108.81
436.062	127.81
436.284	131.81
436.505	119.81
436.727	114.81
436.949	98.81
437.17	86.81
437.392	89.81
437.614	80.81
437.835	107.81
438.057	126.81
438.278	116.81
438.5	112.81
438.721	120.81
438.943	95.81
439.165	84.81
439.386	77.81
439.608	100.81
439.829	118.81
440.05	130.81
440.272	157.81
440.493	104.81
440.715	92.81
440.936	87.81
441.158	86.81
441.379	93.81
441.6	81.81
441.822	103.81
442.043	96.81
442.264	92.81
442.486	111.81
442.707	85.81
442.928	105.81
443.149	128.81
443.371	129.81
443.592	98.81
443.813	118.81
444.034	101.81
444.255	81.81
444.476	89.81
444.698	105.81
444.919	85.81
445.14	138.81
445.361	123.81
445.582	114.81
445.803	158.81
446.024	152.81
446.245	142.81
446.466	112.81
446.687	111.81
446.908	98.81
447.129	94.81
447.35	83.81
447.571	86.81
447.792	96.81
448.013	97.81
448.234	102.81
448.455	107.81
448.675	116.81
448.896	126.81
449.117	98.81
449.338	106.81
449.559	130.81
449.779	148.81
450	97.81
450.221	81.81
450.442	76.81
450.662	89.81
450.883	83.81
451.104	100.81
451.324	105.81
451.545	89.81
451.766	89.81
451.986	91.81
452.207	78.81
452.428	88.81
452.648	96.81
452.869	112.81
453.089	111.81
453.31	106.81
453.53	96.81
453.751	87.81
453.971	107.81
454.192	119.81
454.412	95.81
454.633	82.81
454.853	75.81
455.073	85.81
455.294	85.81
455.514	98.81
455.734	86.81
455.955	94.81
456.175	81.81
456.395	73.81
456.616	75.81
456.836	78.81
457.056	80.81
457.276	92.81
457.497	77.81
457.717	82.81
457.937	93.81
458.157	84.81
458.377	82.81
458.598	118.81
458.818	149.81
459.038	176.81
459.258	105.81
459.478	81.81
459.698	97.81
459.918	91.81
460.138	94.81
460.358	71.81
460.578	76.81
460.798	96.81
461.018	80.81
461.238	81.81
461.458	84.81
461.678	101.81
461.898	77.81
462.118	77.81
462.338	85.81
462.558	93.81
462.777	88.81
462.997	70.81
463.217	91.81
463.437	90.81
463.657	85.81
463.876	90.81
464.096	87.81
464.316	90.81
464.536	100.81
464.755	89.81
464.975	109.81
465.195	162.81
465.414	165.81
465.634	89.81
465.854	102.81
466.073	86.81
466.293	79.81
466.512	84.81
466.732	78.81
466.951	79.81
467.171	85.81
467.391	105.81
467.61	127.81
467.829	130.81
468.049	312.81
468.268	432.81
468.488	150.81
468.707	93.81
468.927	87.81
469.146	83.81
469.365	83.81
469.585	92.81
469.804	106.81
470.023	113.81
470.243	99.81
470.462	88.81
470.681	121.81
470.901	94.81
471.12	92.81
471.339	85.81
471.558	103.81
471.777	112.81
471.997	199.81
472.216	609.81
472.435	1271.81
472.654	331.81
472.873	109.81
473.092	106.81
473.311	90.81
473.53	99.81
473.749	86.81
473.968	91.81
474.187	89.81
474.406	102.81
474.625	87.81
474.844	78.81
475.063	83.81
475.282	92.81
475.501	100.81
475.72	93.81
475.939	98.81
476.158	77.81
476.377	84.81
476.596	92.81
476.814	101.81
477.033	83.81
477.252	93.81
477.471	86.81
477.69	99.81
477.908	93.81
478.127	94.81
478.346	87.81
478.564	81.81
478.783	107.81
479.002	106.81
479.22	96.81
479.439	112.81
479.658	103.81
479.876	108.81
480.095	107.81
480.313	114.81
480.532	133.81
480.751	188.81
480.969	571.81
481.188	2249.81
481.406	1313.81
481.624	226.81
481.843	112.81
482.061	99.81
482.28	93.81
482.498	87.81
482.717	78.81
482.935	88.81
483.153	84.81
483.372	93.81
483.59	75.81
483.808	84.81
484.027	90.81
484.245	95.81
484.463	108.81
484.681	95.81
484.9	78.81
485.118	96.81
485.336	90.81
485.554	90.81
485.772	93.81
485.99	109.81
486.209	108.81
486.427	110.81
486.645	99.81
486.863	98.81
487.081	112.81
487.299	83.81
487.517	83.81
487.735	89.81
487.953	80.81
488.171	102.81
488.389	92.81
488.607	89.81
488.825	77.81
489.043	87.81
489.261	82.81
489.479	95.81
489.696	93.81
489.914	92.81
490.132	86.81
490.35	86.81
490.568	82.81
490.786	84.81
491.003	82.81
491.221	95.81
491.439	107.81
491.657	101.81
491.874	92.81
492.092	87.81
492.31	77.81
492.527	95.81
492.745	79.81
492.963	80.81
493.18	101.81
493.398	83.81
493.615	90.81
493.833	92.81
494.05	86.81
494.268	101.81
494.485	85.81
494.703	94.81
494.92	82.81
495.138	70.81
495.355	75.81
495.573	97.81
495.79	85.81
496.008	89.81
496.225	103.81
496.442	89.81
496.66	97.81
496.877	94.81
497.094	86.81
497.312	98.81
497.529	86.81
497.746	90.81
497.963	93.81
498.181	87.81
498.398	83.81
498.615	103.81
498.832	112.81
499.049	88.81
499.267	84.81
499.484	102.81
499.701	89.81
499.918	84.81
500.135	89.81
500.352	97.81
500.569	101.81
500.786	94.81
501.003	89.81
501.22	97.81
501.437	84.81
501.654	101.81
501.871	119.81
502.088	89.81
502.305	80.81
502.522	93.81
502.739	77.81
502.956	89.81
503.172	82.81
503.389	93.81
503.606	109.81
503.823	107.81
504.04	82.81
504.256	93.81
504.473	94.81
504.69	99.81
504.907	100.81
505.123	98.81
505.34	86.81
505.557	86.81
505.773	93.81
505.99	95.81
506.207	80.81
506.423	95.81
506.64	93.81
506.856	102.81
507.073	70.81
507.289	102.81
507.506	99.81
507.722	111.81
507.939	109.81
508.155	93.81
508.372	90.81
508.588	110.81
508.805	91.81
509.021	88.81
509.238	108.81
509.454	94.81
509.67	104.81
509.887	99.81
510.103	133.81
510.319	212.81
510.536	738.81
510.752	2231.81
510.968	615.81
511.184	151.81
511.401	121.81
511.617	99.81
511.833	97.81
512.049	106.81
512.265	100.81
512.481	87.81
512.698	82.81
512.914	102.81
513.13	94.81
513.346	94.81
513.562	101.81
513.778	108.81
513.994	81.81
514.21	110.81
514.426	118.81
514.642	149.81
