Data from Circ_1992_H10_HRD10591_00082.txt Node
Date: Wed Jan 03 11:48:01 EST 2024
User: Yrep
Spectrometer: HR+D1059
Trigger mode: 1
Integration Time (sec): 1.000000E-1
Scans to average: 1
Electric dark correction enabled: true
Nonlinearity correction enabled: false
Boxcar width: 0
XAxis mode: Wavelengths
Number of Pixels in Spectrum: 2048
>>>>>Begin Spectral Data<<<<<
223.165	-16.81
223.4	-16.81
223.635	-16.81
223.869	-17.81
224.104	-20.81
224.338	-14.81
224.573	-30.81
224.808	-10.81
225.042	-8.81
225.277	-8.81
225.511	0.19
225.746	10.19
225.98	3.19
226.215	3.19
226.449	17.19
226.683	24.19
226.918	30.19
227.152	41.19
227.387	36.19
227.621	27.19
227.856	51.19
228.09	39.19
228.324	32.19
228.559	69.19
228.793	67.19
229.027	60.19
229.262	77.19
229.496	92.19
229.73	85.19
229.964	87.19
230.199	73.19
230.433	79.19
230.667	86.19
230.901	91.19
231.136	78.19
231.37	98.19
231.604	69.19
231.838	74.19
232.072	95.19
232.306	81.19
232.541	83.19
232.775	66.19
233.009	95.19
233.243	87.19
233.477	87.19
233.711	97.19
233.945	78.19
234.179	85.19
234.413	71.19
234.647	88.19
234.881	89.19
235.115	87.19
235.349	80.19
235.583	80.19
235.817	90.19
236.051	94.19
236.285	83.19
236.519	78.19
236.753	89.19
236.987	85.19
237.221	88.19
237.455	94.19
237.689	84.19
237.922	91.19
238.156	73.19
238.39	89.19
238.624	84.19
238.858	80.19
239.091	77.19
239.325	69.19
239.559	89.19
239.793	82.19
240.027	90.19
240.26	76.19
240.494	88.19
240.728	86.19
240.961	79.19
241.195	71.19
241.429	87.19
241.662	82.19
241.896	87.19
242.13	76.19
242.363	74.19
242.597	72.19
242.83	94.19
243.064	88.19
243.298	77.19
243.531	79.19
243.765	73.19
243.998	77.19
244.232	93.19
244.465	100.19
244.699	91.19
244.932	86.19
245.166	88.19
245.399	71.19
245.633	78.19
245.866	84.19
246.099	93.19
246.333	82.19
246.566	81.19
246.8	91.19
247.033	75.19
247.266	84.19
247.5	79.19
247.733	78.19
247.966	75.19
248.2	92.19
248.433	87.19
248.666	84.19
248.899	83.19
249.133	84.19
249.366	96.19
249.599	108.19
249.832	84.19
250.066	80.19
250.299	77.19
250.532	94.19
250.765	76.19
250.998	75.19
251.231	78.19
251.465	89.19
251.698	85.19
251.931	99.19
252.164	87.19
252.397	83.19
252.63	98.19
252.863	92.19
253.096	84.19
253.329	79.19
253.562	88.19
253.795	89.19
254.028	64.19
254.261	86.19
254.494	76.19
254.727	96.19
254.96	84.19
255.193	80.19
255.426	74.19
255.659	85.19
255.892	92.19
256.124	98.19
256.357	102.19
256.59	84.19
256.823	86.19
257.056	84.19
257.289	94.19
257.521	76.19
257.754	95.19
257.987	87.19
258.22	97.19
258.452	93.19
258.685	92.19
258.918	89.19
259.151	98.19
259.383	97.19
259.616	93.19
259.849	91.19
260.081	91.19
260.314	80.19
260.547	89.19
260.779	99.19
261.012	98.19
261.244	103.19
261.477	99.19
261.71	111.19
261.942	133.19
262.175	156.19
262.407	94.19
262.64	83.19
262.872	96.19
263.105	95.19
263.337	87.19
263.57	85.19
263.802	91.19
264.035	82.19
264.267	79.19
264.499	86.19
264.732	88.19
264.964	70.19
265.197	61.19
265.429	90.19
265.661	89.19
265.894	98.19
266.126	82.19
266.358	81.19
266.591	77.19
266.823	84.19
267.055	79.19
267.287	81.19
267.52	96.19
267.752	88.19
267.984	87.19
268.216	84.19
268.448	91.19
268.681	90.19
268.913	87.19
269.145	72.19
269.377	93.19
269.609	74.19
269.841	89.19
270.073	82.19
270.306	85.19
270.538	76.19
270.77	71.19
271.002	76.19
271.234	83.19
271.466	81.19
271.698	83.19
271.93	90.19
272.162	94.19
272.394	89.19
272.626	99.19
272.858	85.19
273.09	90.19
273.322	84.19
273.553	84.19
273.785	77.19
274.017	96.19
274.249	91.19
274.481	83.19
274.713	88.19
274.945	92.19
275.176	80.19
275.408	101.19
275.64	100.19
275.872	129.19
276.104	103.19
276.335	104.19
276.567	113.19
276.799	148.19
277.031	154.19
277.262	182.19
277.494	152.19
277.726	103.19
277.957	95.19
278.189	78.19
278.421	99.19
278.652	98.19
278.884	84.19
279.115	77.19
279.347	82.19
279.579	109.19
279.81	117.19
280.042	172.19
280.273	253.19
280.505	169.19
280.736	92.19
280.968	90.19
281.199	90.19
281.431	89.19
281.662	93.19
281.894	101.19
282.125	105.19
282.356	123.19
282.588	167.19
282.819	130.19
283.051	96.19
283.282	82.19
283.513	98.19
283.745	75.19
283.976	97.19
284.207	96.19
284.439	78.19
284.67	96.19
284.901	85.19
285.132	85.19
285.364	81.19
285.595	77.19
285.826	81.19
286.057	109.19
286.288	88.19
286.52	78.19
286.751	77.19
286.982	99.19
287.213	77.19
287.444	86.19
287.675	85.19
287.906	96.19
288.138	88.19
288.369	95.19
288.6	96.19
288.831	84.19
289.062	101.19
289.293	85.19
289.524	82.19
289.755	80.19
289.986	101.19
290.217	90.19
290.448	99.19
290.679	86.19
290.91	98.19
291.141	92.19
291.371	101.19
291.602	95.19
291.833	82.19
292.064	79.19
292.295	88.19
292.526	100.19
292.757	101.19
292.987	104.19
293.218	97.19
293.449	71.19
293.68	91.19
293.91	94.19
294.141	91.19
294.372	103.19
294.603	96.19
294.833	93.19
295.064	83.19
295.295	106.19
295.525	103.19
295.756	94.19
295.987	141.19
296.217	165.19
296.448	163.19
296.679	108.19
296.909	108.19
297.14	95.19
297.37	88.19
297.601	72.19
297.831	88.19
298.062	84.19
298.292	101.19
298.523	102.19
298.753	82.19
298.984	95.19
299.214	88.19
299.445	92.19
299.675	92.19
299.905	94.19
300.136	92.19
300.366	85.19
300.597	97.19
300.827	94.19
301.057	101.19
301.288	122.19
301.518	104.19
301.748	98.19
301.979	108.19
302.209	103.19
302.439	106.19
302.669	96.19
302.9	94.19
303.13	93.19
303.36	101.19
303.59	123.19
303.82	142.19
304.051	121.19
304.281	87.19
304.511	94.19
304.741	78.19
304.971	100.19
305.201	87.19
305.431	102.19
305.661	91.19
305.891	91.19
306.121	101.19
306.352	100.19
306.582	116.19
306.812	100.19
307.042	110.19
307.272	150.19
307.502	173.19
307.731	163.19
307.961	130.19
308.191	100.19
308.421	96.19
308.651	96.19
308.881	104.19
309.111	93.19
309.341	99.19
309.571	95.19
309.8	108.19
310.03	91.19
310.26	107.19
310.49	103.19
310.72	106.19
310.949	116.19
311.179	108.19
311.409	100.19
311.639	95.19
311.868	94.19
312.098	92.19
312.328	90.19
312.557	131.19
312.787	140.19
313.017	99.19
313.246	114.19
313.476	89.19
313.706	87.19
313.935	103.19
314.165	125.19
314.394	112.19
314.624	126.19
314.853	108.19
315.083	108.19
315.312	95.19
315.542	102.19
315.771	94.19
316.001	95.19
316.23	100.19
316.46	95.19
316.689	99.19
316.919	104.19
317.148	95.19
317.377	84.19
317.607	101.19
317.836	104.19
318.065	91.19
318.295	101.19
318.524	103.19
318.753	94.19
318.983	99.19
319.212	115.19
319.441	104.19
319.67	117.19
319.9	104.19
320.129	86.19
320.358	102.19
320.587	104.19
320.816	111.19
321.046	124.19
321.275	117.19
321.504	107.19
321.733	100.19
321.962	110.19
322.191	106.19
322.42	112.19
322.649	138.19
322.878	122.19
323.108	128.19
323.337	158.19
323.566	172.19
323.795	202.19
324.024	263.19
324.253	557.19
324.482	1238.19
324.71	2590.19
324.939	3560.19
325.168	1224.19
325.397	354.19
325.626	176.19
325.855	160.19
326.084	144.19
326.313	171.19
326.542	202.19
326.77	319.19
326.999	652.19
327.228	1372.19
327.457	2590.19
327.686	2060.19
327.914	619.19
328.143	509.19
328.372	605.19
328.6	349.19
328.829	181.19
329.058	179.19
329.287	199.19
329.515	183.19
329.744	231.19
329.972	431.19
330.201	885.19
330.43	1315.19
330.658	584.19
330.887	291.19
331.115	193.19
331.344	123.19
331.572	113.19
331.801	128.19
332.03	128.19
332.258	125.19
332.486	101.19
332.715	107.19
332.943	125.19
333.172	126.19
333.4	140.19
333.629	160.19
333.857	218.19
334.085	394.19
334.314	808.19
334.542	1624.19
334.771	1518.19
334.999	414.19
335.227	176.19
335.455	120.19
335.684	130.19
335.912	114.19
336.14	103.19
336.369	122.19
336.597	116.19
336.825	103.19
337.053	96.19
337.281	98.19
337.51	92.19
337.738	112.19
337.966	99.19
338.194	113.19
338.422	106.19
338.65	94.19
338.878	106.19
339.106	103.19
339.334	102.19
339.562	87.19
339.79	94.19
340.018	106.19
340.246	104.19
340.474	108.19
340.702	99.19
340.93	99.19
341.158	102.19
341.386	110.19
341.614	99.19
341.842	92.19
342.07	80.19
342.298	102.19
342.526	102.19
342.754	94.19
342.981	103.19
343.209	100.19
343.437	108.19
343.665	98.19
343.893	103.19
344.12	96.19
344.348	99.19
344.576	96.19
344.804	112.19
345.031	107.19
345.259	111.19
345.487	100.19
345.714	113.19
345.942	107.19
346.17	95.19
346.397	87.19
346.625	98.19
346.853	91.19
347.08	98.19
347.308	101.19
347.535	109.19
347.763	97.19
347.99	110.19
348.218	107.19
348.445	126.19
348.673	107.19
348.9	112.19
349.128	102.19
349.355	92.19
349.583	97.19
349.81	97.19
350.037	106.19
350.265	104.19
350.492	99.19
350.72	103.19
350.947	119.19
351.174	122.19
351.402	130.19
351.629	106.19
351.856	112.19
352.083	107.19
352.311	120.19
352.538	126.19
352.765	122.19
352.992	128.19
353.22	110.19
353.447	116.19
353.674	109.19
353.901	102.19
354.128	107.19
354.355	88.19
354.583	98.19
354.81	103.19
355.037	95.19
355.264	107.19
355.491	104.19
355.718	93.19
355.945	90.19
356.172	95.19
356.399	105.19
356.626	91.19
356.853	88.19
357.08	97.19
357.307	87.19
357.534	94.19
357.761	97.19
357.988	88.19
358.215	93.19
358.441	95.19
358.668	97.19
358.895	94.19
359.122	103.19
359.349	101.19
359.576	114.19
359.802	118.19
360.029	165.19
360.256	141.19
360.483	117.19
360.709	106.19
360.936	104.19
361.163	106.19
361.39	98.19
361.616	90.19
361.843	96.19
362.07	108.19
362.296	111.19
362.523	107.19
362.749	99.19
362.976	96.19
363.203	99.19
363.429	99.19
363.656	109.19
363.882	103.19
364.109	106.19
364.335	99.19
364.562	98.19
364.788	107.19
365.015	118.19
365.241	119.19
365.468	120.19
365.694	119.19
365.92	112.19
366.147	104.19
366.373	95.19
366.599	103.19
366.826	99.19
367.052	102.19
367.278	94.19
367.505	86.19
367.731	86.19
367.957	114.19
368.184	95.19
368.41	113.19
368.636	118.19
368.862	136.19
369.089	124.19
369.315	92.19
369.541	96.19
369.767	100.19
369.993	108.19
370.219	92.19
370.445	104.19
370.672	96.19
370.898	100.19
371.124	92.19
371.35	85.19
371.576	95.19
371.802	105.19
372.028	88.19
372.254	76.19
372.48	87.19
372.706	78.19
372.932	86.19
373.158	98.19
373.384	95.19
373.61	101.19
373.835	103.19
374.061	78.19
374.287	99.19
374.513	90.19
374.739	92.19
374.965	91.19
375.191	94.19
375.416	86.19
375.642	95.19
375.868	79.19
376.094	95.19
376.319	98.19
376.545	87.19
376.771	97.19
376.997	102.19
377.222	108.19
377.448	95.19
377.674	90.19
377.899	77.19
378.125	92.19
378.35	99.19
378.576	93.19
378.802	98.19
379.027	98.19
379.253	86.19
379.478	78.19
379.704	97.19
379.929	82.19
380.155	96.19
380.38	89.19
380.606	110.19
380.831	100.19
381.057	90.19
381.282	100.19
381.507	90.19
381.733	88.19
381.958	97.19
382.184	108.19
382.409	110.19
382.634	122.19
382.86	76.19
383.085	110.19
383.31	103.19
383.535	101.19
383.761	111.19
383.986	102.19
384.211	103.19
384.436	95.19
384.662	104.19
384.887	114.19
385.112	112.19
385.337	114.19
385.562	103.19
385.787	118.19
386.013	110.19
386.238	119.19
386.463	118.19
386.688	95.19
386.913	100.19
387.138	114.19
387.363	107.19
387.588	99.19
387.813	105.19
388.038	110.19
388.263	111.19
388.488	126.19
388.713	108.19
388.938	93.19
389.163	99.19
389.387	93.19
389.612	100.19
389.837	106.19
390.062	101.19
390.287	99.19
390.512	98.19
390.736	97.19
390.961	88.19
391.186	95.19
391.411	93.19
391.636	90.19
391.86	90.19
392.085	93.19
392.31	92.19
392.534	85.19
392.759	91.19
392.984	92.19
393.208	80.19
393.433	95.19
393.658	100.19
393.882	84.19
394.107	88.19
394.331	100.19
394.556	85.19
394.78	98.19
395.005	94.19
395.229	92.19
395.454	87.19
395.678	99.19
395.903	78.19
396.127	99.19
396.352	82.19
396.576	104.19
396.801	99.19
397.025	90.19
397.249	93.19
397.474	98.19
397.698	85.19
397.922	89.19
398.147	98.19
398.371	101.19
398.595	90.19
398.82	90.19
399.044	97.19
399.268	84.19
399.492	92.19
399.717	107.19
399.941	100.19
400.165	104.19
400.389	115.19
400.613	82.19
400.837	78.19
401.062	84.19
401.286	85.19
401.51	82.19
401.734	107.19
401.958	103.19
402.182	151.19
402.406	188.19
402.63	156.19
402.854	111.19
403.078	91.19
403.302	89.19
403.526	102.19
403.75	95.19
403.974	87.19
404.198	96.19
404.422	85.19
404.645	83.19
404.869	86.19
405.093	128.19
405.317	156.19
405.541	142.19
405.765	125.19
405.988	149.19
406.212	224.19
406.436	298.19
406.66	202.19
406.883	128.19
407.107	111.19
407.331	131.19
407.555	112.19
407.778	126.19
408.002	103.19
408.226	102.19
408.449	101.19
408.673	94.19
408.896	107.19
409.12	106.19
409.344	99.19
409.567	86.19
409.791	90.19
410.014	93.19
410.238	98.19
410.461	96.19
410.685	110.19
410.908	88.19
411.132	122.19
411.355	103.19
411.578	83.19
411.802	102.19
412.025	93.19
412.249	101.19
412.472	120.19
412.695	133.19
412.919	100.19
413.142	107.19
413.365	95.19
413.589	91.19
413.812	95.19
414.035	92.19
414.258	93.19
414.482	94.19
414.705	90.19
414.928	100.19
415.151	104.19
415.374	87.19
415.597	94.19
415.821	91.19
416.044	102.19
416.267	102.19
416.49	96.19
416.713	100.19
416.936	80.19
417.159	97.19
417.382	98.19
417.605	105.19
417.828	119.19
418.051	100.19
418.274	93.19
418.497	90.19
418.72	99.19
418.943	101.19
419.166	94.19
419.389	78.19
419.611	98.19
419.834	94.19
420.057	98.19
420.28	93.19
420.503	81.19
420.726	102.19
420.948	87.19
421.171	116.19
421.394	108.19
421.617	99.19
421.839	97.19
422.062	104.19
422.285	93.19
422.507	103.19
422.73	122.19
422.953	91.19
423.175	94.19
423.398	92.19
423.621	100.19
423.843	91.19
424.066	97.19
424.288	83.19
424.511	110.19
424.733	103.19
424.956	122.19
425.178	125.19
425.401	125.19
425.623	123.19
425.846	98.19
426.068	106.19
426.291	99.19
426.513	98.19
426.735	92.19
426.958	108.19
427.18	133.19
427.402	200.19
427.625	261.19
427.847	271.19
428.069	253.19
428.292	154.19
428.514	93.19
428.736	101.19
428.958	95.19
429.181	90.19
429.403	99.19
429.625	97.19
429.847	86.19
430.069	112.19
430.292	95.19
430.514	79.19
430.736	97.19
430.958	94.19
431.18	93.19
431.402	86.19
431.624	90.19
431.846	91.19
432.068	86.19
432.29	85.19
432.512	90.19
432.734	105.19
432.956	94.19
433.178	104.19
433.4	120.19
433.622	111.19
433.844	110.19
434.066	98.19
434.287	85.19
434.509	87.19
434.731	98.19
434.953	107.19
435.175	80.19
435.397	106.19
435.618	112.19
435.84	119.19
436.062	156.19
436.284	136.19
436.505	114.19
436.727	122.19
436.949	103.19
437.17	82.19
437.392	90.19
437.614	90.19
437.835	126.19
438.057	143.19
438.278	141.19
438.5	123.19
438.721	164.19
438.943	126.19
439.165	94.19
439.386	87.19
439.608	92.19
439.829	122.19
440.05	173.19
440.272	202.19
440.493	115.19
440.715	103.19
440.936	106.19
441.158	101.19
441.379	94.19
441.6	99.19
441.822	111.19
442.043	102.19
442.264	131.19
442.486	118.19
442.707	100.19
442.928	143.19
443.149	200.19
443.371	187.19
443.592	147.19
443.813	138.19
444.034	129.19
444.255	109.19
444.476	85.19
444.698	86.19
444.919	78.19
445.14	140.19
445.361	154.19
445.582	156.19
445.803	217.19
446.024	185.19
446.245	194.19
446.466	145.19
446.687	99.19
446.908	99.19
447.129	88.19
447.35	85.19
447.571	102.19
447.792	93.19
448.013	113.19
448.234	124.19
448.455	118.19
448.675	151.19
448.896	152.19
449.117	114.19
449.338	119.19
449.559	150.19
449.779	171.19
450	92.19
450.221	91.19
450.442	85.19
450.662	111.19
450.883	129.19
451.104	146.19
451.324	112.19
451.545	102.19
451.766	101.19
451.986	84.19
452.207	98.19
452.428	95.19
452.648	122.19
452.869	125.19
453.089	143.19
453.31	146.19
453.53	103.19
453.751	96.19
453.971	119.19
454.192	134.19
454.412	106.19
454.633	90.19
454.853	96.19
455.073	81.19
455.294	113.19
455.514	113.19
455.734	96.19
455.955	88.19
456.175	89.19
456.395	99.19
456.616	83.19
456.836	86.19
457.056	94.19
457.276	82.19
457.497	79.19
457.717	87.19
457.937	89.19
458.157	99.19
458.377	104.19
458.598	120.19
458.818	219.19
459.038	253.19
459.258	163.19
459.478	93.19
459.698	96.19
459.918	99.19
460.138	86.19
460.358	86.19
460.578	90.19
460.798	79.19
461.018	92.19
461.238	98.19
461.458	71.19
461.678	94.19
461.898	84.19
462.118	88.19
462.338	90.19
462.558	88.19
462.777	92.19
462.997	107.19
463.217	95.19
463.437	100.19
463.657	88.19
463.876	99.19
464.096	102.19
464.316	101.19
464.536	104.19
464.755	96.19
464.975	119.19
465.195	230.19
465.414	230.19
465.634	114.19
465.854	97.19
466.073	100.19
466.293	91.19
466.512	95.19
466.732	95.19
466.951	101.19
467.171	116.19
467.391	113.19
467.61	148.19
467.829	201.19
468.049	467.19
468.268	727.19
468.488	188.19
468.707	102.19
468.927	91.19
469.146	93.19
469.365	92.19
469.585	86.19
469.804	111.19
470.023	119.19
470.243	103.19
470.462	108.19
470.681	147.19
470.901	116.19
471.12	108.19
471.339	94.19
471.558	108.19
471.777	154.19
471.997	279.19
472.216	951.19
472.435	2195.19
472.654	533.19
472.873	173.19
473.092	97.19
473.311	114.19
473.53	103.19
473.749	104.19
473.968	122.19
474.187	127.19
474.406	108.19
474.625	88.19
474.844	85.19
475.063	98.19
475.282	86.19
475.501	94.19
475.72	94.19
475.939	100.19
476.158	92.19
476.377	86.19
476.596	86.19
476.814	90.19
477.033	107.19
477.252	98.19
477.471	99.19
477.69	98.19
477.908	100.19
478.127	88.19
478.346	99.19
478.564	100.19
478.783	100.19
479.002	94.19
479.22	119.19
479.439	122.19
479.658	135.19
479.876	119.19
480.095	124.19
480.313	132.19
480.532	142.19
480.751	268.19
480.969	897.19
481.188	3786.19
481.406	2208.19
481.624	340.19
481.843	137.19
482.061	102.19
482.28	87.19
482.498	97.19
482.717	104.19
482.935	89.19
483.153	85.19
483.372	90.19
483.59	100.19
483.808	95.19
484.027	94.19
484.245	91.19
484.463	99.19
484.681	102.19
484.9	97.19
485.118	90.19
485.336	97.19
485.554	101.19
485.772	110.19
485.99	123.19
486.209	112.19
486.427	128.19
486.645	118.19
486.863	123.19
487.081	117.19
487.299	97.19
487.517	104.19
487.735	109.19
487.953	96.19
488.171	101.19
488.389	106.19
488.607	109.19
488.825	103.19
489.043	89.19
489.261	88.19
489.479	95.19
489.696	89.19
489.914	86.19
490.132	87.19
490.35	87.19
490.568	98.19
490.786	91.19
491.003	102.19
491.221	102.19
491.439	108.19
491.657	106.19
491.874	84.19
492.092	94.19
492.31	101.19
492.527	99.19
492.745	107.19
492.963	102.19
493.18	87.19
493.398	95.19
493.615	100.19
493.833	103.19
494.05	101.19
494.268	101.19
494.485	84.19
494.703	96.19
494.92	98.19
495.138	91.19
495.355	87.19
495.573	99.19
495.79	97.19
496.008	85.19
496.225	92.19
496.442	89.19
496.66	88.19
496.877	84.19
497.094	93.19
497.312	103.19
497.529	98.19
497.746	98.19
497.963	93.19
498.181	95.19
498.398	107.19
498.615	120.19
498.832	118.19
499.049	103.19
499.267	100.19
499.484	100.19
499.701	83.19
499.918	78.19
500.135	88.19
500.352	85.19
500.569	88.19
500.786	102.19
501.003	92.19
501.22	98.19
501.437	91.19
501.654	109.19
501.871	108.19
502.088	108.19
502.305	99.19
502.522	90.19
502.739	84.19
502.956	97.19
503.172	97.19
503.389	110.19
503.606	119.19
503.823	96.19
504.04	102.19
504.256	84.19
504.473	99.19
504.69	93.19
504.907	92.19
505.123	85.19
505.34	80.19
505.557	85.19
505.773	99.19
505.99	76.19
506.207	95.19
506.423	95.19
506.64	107.19
506.856	93.19
507.073	87.19
507.289	95.19
507.506	95.19
507.722	135.19
507.939	120.19
508.155	116.19
508.372	100.19
508.588	94.19
508.805	114.19
509.021	88.19
509.238	103.19
509.454	95.19
509.67	115.19
509.887	118.19
510.103	152.19
510.319	244.19
510.536	909.19
510.752	3052.19
510.968	828.19
511.184	184.19
511.401	117.19
511.617	112.19
511.833	122.19
