Data from TenMicroDelayPb_HRD10591_00020.txt Node
Date: Mon Nov 24 14:34:29 EST 2025
User: Yrep
Spectrometer: HR+D1059
Trigger mode: 0
Integration Time (sec): 1.000000E-2
Scans to average: 5
Electric dark correction enabled: true
Nonlinearity correction enabled: false
Boxcar width: 0
XAxis mode: Wavelengths
Number of Pixels in Spectrum: 2048
>>>>>Begin Spectral Data<<<<<
223.165	-18.61
223.4	-18.61
223.635	-18.61
223.869	-18.81
224.104	-10.41
224.338	-14.21
224.573	-12.41
224.808	-17.21
225.042	-4.61
225.277	-6.41
225.511	-1.21
225.746	4.59
225.98	3.79
226.215	9.59
226.449	11.19
226.683	15.99
226.918	28.79
227.152	29.99
227.387	31.39
227.621	41.19
227.856	40.19
228.09	45.19
228.324	55.59
228.559	57.19
228.793	60.39
229.027	60.19
229.262	65.59
229.496	64.39
229.73	70.59
229.964	71.59
230.199	72.39
230.433	71.59
230.667	70.19
230.901	67.19
231.136	75.99
231.37	79.99
231.604	76.79
231.838	79.19
232.072	77.99
232.306	79.99
232.541	79.99
232.775	82.39
233.009	78.59
233.243	82.39
233.477	83.99
233.711	81.99
233.945	78.19
234.179	80.19
234.413	79.99
234.647	78.19
234.881	80.99
235.115	80.39
235.349	79.39
235.583	77.99
235.817	76.79
236.051	74.19
236.285	79.39
236.519	77.39
236.753	77.99
236.987	79.79
237.221	70.39
237.455	78.19
237.689	74.79
237.922	74.79
238.156	78.59
238.39	75.19
238.624	70.19
238.858	72.19
239.091	73.39
239.325	80.39
239.559	80.39
239.793	76.59
240.027	68.59
240.26	74.99
240.494	71.39
240.728	73.99
240.961	74.99
241.195	76.99
241.429	71.99
241.662	74.79
241.896	68.99
242.13	72.39
242.363	75.19
242.597	77.19
242.83	78.59
243.064	71.39
243.298	73.39
243.531	67.99
243.765	78.39
243.998	75.99
244.232	78.19
244.465	80.99
244.699	75.79
244.932	82.39
245.166	78.59
245.399	81.19
245.633	81.79
245.866	74.59
246.099	73.79
246.333	68.99
246.566	78.39
246.8	75.79
247.033	78.59
247.266	80.39
247.5	77.79
247.733	79.39
247.966	75.19
248.2	77.59
248.433	77.39
248.666	79.59
248.899	74.59
249.133	83.59
249.366	81.19
249.599	74.19
249.832	76.39
250.066	81.99
250.299	79.19
250.532	80.79
250.765	78.39
250.998	85.39
251.231	78.19
251.465	75.59
251.698	81.79
251.931	78.19
252.164	77.99
252.397	79.19
252.63	80.99
252.863	79.19
253.096	75.39
253.329	73.19
253.562	76.99
253.795	78.19
254.028	76.39
254.261	82.59
254.494	81.19
254.727	79.99
254.96	74.59
255.193	78.39
255.426	74.79
255.659	73.79
255.892	74.19
256.124	85.39
256.357	80.79
256.59	79.79
256.823	80.39
257.056	80.39
257.289	77.59
257.521	84.39
257.754	83.19
257.987	83.39
258.22	84.79
258.452	75.79
258.685	81.59
258.918	84.99
259.151	88.19
259.383	76.59
259.616	82.79
259.849	83.79
260.081	81.99
260.314	80.99
260.547	76.39
260.779	75.99
261.012	79.39
261.244	69.59
261.477	84.59
261.71	77.39
261.942	83.39
262.175	83.59
262.407	77.79
262.64	79.39
262.872	84.99
263.105	80.19
263.337	80.39
263.57	86.99
263.802	76.99
264.035	78.99
264.267	79.79
264.499	76.19
264.732	79.79
264.964	79.19
265.197	82.99
265.429	80.79
265.661	79.79
265.894	73.39
266.126	82.39
266.358	84.99
266.591	78.79
266.823	79.59
267.055	84.79
267.287	82.79
267.52	79.79
267.752	81.79
267.984	82.79
268.216	81.39
268.448	83.99
268.681	77.79
268.913	76.59
269.145	79.99
269.377	83.79
269.609	81.39
269.841	79.39
270.073	82.99
270.306	81.39
270.538	74.79
270.77	88.79
271.002	77.79
271.234	78.79
271.466	76.99
271.698	83.39
271.93	77.39
272.162	80.99
272.394	81.39
272.626	79.39
272.858	79.99
273.09	83.59
273.322	83.99
273.553	81.59
273.785	82.39
274.017	75.99
274.249	77.19
274.481	79.19
274.713	79.79
274.945	77.59
275.176	81.39
275.408	74.59
275.64	81.39
275.872	78.39
276.104	80.79
276.335	75.99
276.567	83.19
276.799	82.59
277.031	84.19
277.262	92.39
277.494	80.79
277.726	77.79
277.957	79.39
278.189	74.99
278.421	80.79
278.652	83.39
278.884	82.79
279.115	79.79
279.347	76.59
279.579	77.39
279.81	83.79
280.042	85.79
280.273	81.79
280.505	80.19
280.736	83.99
280.968	80.79
281.199	76.99
281.431	83.19
281.662	75.99
281.894	79.39
282.125	85.39
282.356	82.19
282.588	77.79
282.819	76.79
283.051	86.59
283.282	80.19
283.513	79.79
283.745	80.59
283.976	81.19
284.207	83.99
284.439	86.79
284.67	83.79
284.901	74.39
285.132	81.59
285.364	81.19
285.595	83.39
285.826	81.99
286.057	84.39
286.288	80.39
286.52	81.59
286.751	81.99
286.982	85.39
287.213	82.19
287.444	78.99
287.675	78.99
287.906	80.99
288.138	75.99
288.369	81.99
288.6	83.39
288.831	84.39
289.062	83.39
289.293	83.99
289.524	83.19
289.755	86.19
289.986	86.39
290.217	82.59
290.448	89.99
290.679	77.99
290.91	87.19
291.141	87.19
291.371	88.19
291.602	83.19
291.833	82.99
292.064	88.79
292.295	82.99
292.526	78.99
292.757	79.19
292.987	81.39
293.218	79.79
293.449	81.99
293.68	88.39
293.91	80.39
294.141	79.99
294.372	83.19
294.603	86.39
294.833	80.19
295.064	80.99
295.295	80.39
295.525	73.99
295.756	80.99
295.987	80.19
296.217	85.99
296.448	79.79
296.679	82.79
296.909	84.19
297.14	84.39
297.37	81.59
297.601	84.19
297.831	80.39
298.062	82.79
298.292	81.99
298.523	83.39
298.753	82.79
298.984	79.99
299.214	80.79
299.445	84.39
299.675	76.59
299.905	83.79
300.136	84.99
300.366	80.19
300.597	84.79
300.827	83.39
301.057	87.99
301.288	80.59
301.518	88.99
301.748	84.59
301.979	85.59
302.209	83.39
302.439	84.99
302.669	77.19
302.9	81.19
303.13	81.59
303.36	81.59
303.59	77.59
303.82	76.99
304.051	85.59
304.281	87.19
304.511	76.79
304.741	85.39
304.971	81.19
305.201	83.19
305.431	86.39
305.661	82.79
305.891	82.39
306.121	84.19
306.352	84.59
306.582	82.79
306.812	84.79
307.042	79.99
307.272	84.99
307.502	79.99
307.731	80.99
307.961	82.59
308.191	81.79
308.421	86.19
308.651	82.79
308.881	88.99
309.111	82.19
309.341	81.19
309.571	78.79
309.8	82.79
310.03	84.19
310.26	77.19
310.49	81.39
310.72	82.59
310.949	83.59
311.179	83.99
311.409	86.19
311.639	78.59
311.868	84.99
312.098	87.79
312.328	81.99
312.557	78.59
312.787	81.19
313.017	76.79
313.246	83.59
313.476	80.39
313.706	77.79
313.935	82.39
314.165	78.39
314.394	83.99
314.624	82.19
314.853	83.79
315.083	81.99
315.312	83.79
315.542	85.59
315.771	82.99
316.001	76.99
316.23	81.79
316.46	82.79
316.689	82.39
316.919	85.19
317.148	86.99
317.377	83.99
317.607	80.19
317.836	83.39
318.065	81.79
318.295	83.39
318.524	86.19
318.753	82.39
318.983	83.99
319.212	80.99
319.441	83.79
319.67	86.79
319.9	78.99
320.129	81.39
320.358	82.59
320.587	83.39
320.816	85.39
321.046	79.99
321.275	80.59
321.504	76.79
321.733	88.59
321.962	79.79
322.191	88.99
322.42	78.19
322.649	83.39
322.878	84.19
323.108	80.19
323.337	79.19
323.566	85.59
323.795	86.19
324.024	84.79
324.253	84.19
324.482	79.59
324.71	85.39
324.939	84.59
325.168	84.19
325.397	84.59
325.626	84.19
325.855	90.59
326.084	80.19
326.313	84.39
326.542	82.39
326.77	84.99
326.999	81.79
327.228	83.39
327.457	86.39
327.686	85.79
327.914	80.39
328.143	81.99
328.372	82.99
328.6	80.39
328.829	75.99
329.058	79.79
329.287	87.99
329.515	84.79
329.744	83.19
329.972	81.99
330.201	81.79
330.43	87.39
330.658	85.39
330.887	79.19
331.115	74.79
331.344	73.79
331.572	80.19
331.801	83.99
332.03	81.79
332.258	80.79
332.486	79.19
332.715	85.19
332.943	81.39
333.172	83.79
333.4	85.59
333.629	85.19
333.857	84.19
334.085	87.39
334.314	85.19
334.542	84.59
334.771	82.79
334.999	82.39
335.227	85.59
335.455	80.59
335.684	80.99
335.912	73.39
336.14	76.39
336.369	84.99
336.597	86.39
336.825	78.79
337.053	80.79
337.281	78.99
337.51	91.79
337.738	79.59
337.966	77.39
338.194	82.19
338.422	84.99
338.65	78.39
338.878	86.59
339.106	81.79
339.334	88.79
339.562	79.39
339.79	86.79
340.018	84.19
340.246	76.79
340.474	82.59
340.702	84.39
340.93	86.59
341.158	81.79
341.386	84.19
341.614	77.19
341.842	89.19
342.07	86.99
342.298	81.59
342.526	82.39
342.754	77.39
342.981	82.79
343.209	77.39
343.437	83.39
343.665	85.99
343.893	81.19
344.12	83.79
344.348	85.59
344.576	82.39
344.804	79.99
345.031	76.79
345.259	86.79
345.487	80.19
345.714	80.99
345.942	79.19
346.17	83.79
346.397	80.99
346.625	78.99
346.853	83.99
347.08	82.99
347.308	80.99
347.535	85.39
347.763	76.59
347.99	83.39
348.218	74.99
348.445	76.59
348.673	80.59
348.9	75.79
349.128	75.19
349.355	77.79
349.583	82.79
349.81	77.79
350.037	86.99
350.265	81.59
350.492	79.59
350.72	83.99
350.947	79.19
351.174	80.79
351.402	80.39
351.629	79.99
351.856	79.79
352.083	75.59
352.311	81.19
352.538	83.99
352.765	89.19
352.992	86.39
353.22	80.19
353.447	79.19
353.674	81.19
353.901	78.19
354.128	80.39
354.355	81.19
354.583	77.79
354.81	83.79
355.037	87.19
355.264	82.99
355.491	83.39
355.718	83.19
355.945	88.79
356.172	78.99
356.399	79.59
356.626	79.59
356.853	82.59
357.08	77.59
357.307	75.79
357.534	81.99
357.761	80.19
357.988	79.59
358.215	85.79
358.441	82.19
358.668	83.99
358.895	79.99
359.122	78.99
359.349	82.39
359.576	76.99
359.802	77.59
360.029	70.39
360.256	82.99
360.483	78.59
360.709	78.59
360.936	78.39
361.163	81.79
361.39	75.39
361.616	86.39
361.843	76.39
362.07	84.19
362.296	83.59
362.523	76.59
362.749	81.79
362.976	81.59
363.203	82.79
363.429	82.19
363.656	77.79
363.882	80.59
364.109	76.99
364.335	84.39
364.562	80.99
364.788	69.39
365.015	78.99
365.241	82.39
365.468	78.99
365.694	82.59
365.92	82.59
366.147	86.19
366.373	83.79
366.599	73.59
366.826	80.59
367.052	83.19
367.278	85.59
367.505	81.39
367.731	84.79
367.957	79.99
368.184	77.99
368.41	78.99
368.636	78.79
368.862	87.79
369.089	78.59
369.315	80.39
369.541	76.59
369.767	77.59
369.993	82.59
370.219	79.59
370.445	77.39
370.672	78.79
370.898	83.99
371.124	82.59
371.35	81.19
371.576	81.19
371.802	84.99
372.028	74.59
372.254	76.99
372.48	80.99
372.706	77.99
372.932	86.19
373.158	83.59
373.384	81.99
373.61	78.79
373.835	86.79
374.061	82.59
374.287	78.59
374.513	84.19
374.739	80.19
374.965	85.59
375.191	75.59
375.416	82.39
375.642	82.59
375.868	85.59
376.094	83.39
376.319	81.39
376.545	78.19
376.771	78.19
376.997	78.59
377.222	83.79
377.448	79.59
377.674	85.39
377.899	82.19
378.125	85.59
378.35	77.79
378.576	80.79
378.802	77.19
379.027	80.99
379.253	81.79
379.478	79.99
379.704	79.39
379.929	78.59
380.155	74.19
380.38	80.99
380.606	74.79
380.831	79.79
381.057	78.99
381.282	79.19
381.507	85.19
381.733	78.79
381.958	85.79
382.184	79.79
382.409	85.79
382.634	80.59
382.86	82.79
383.085	83.39
383.31	76.99
383.535	87.99
383.761	85.79
383.986	75.19
384.211	81.99
384.436	83.99
384.662	82.79
384.887	79.19
385.112	77.39
385.337	78.39
385.562	76.59
385.787	79.19
386.013	78.19
386.238	76.19
386.463	79.99
386.688	82.59
386.913	83.79
387.138	77.99
387.363	80.39
387.588	77.99
387.813	76.59
388.038	82.59
388.263	82.59
388.488	72.79
388.713	80.39
388.938	83.79
389.163	81.19
389.387	78.19
389.612	79.59
389.837	76.19
390.062	78.39
390.287	79.39
390.512	77.59
390.736	77.39
390.961	78.79
391.186	73.19
391.411	82.59
391.636	73.79
391.86	79.59
392.085	78.39
392.31	81.99
392.534	78.99
392.759	79.99
392.984	73.79
393.208	83.39
393.433	77.59
393.658	81.79
393.882	78.79
394.107	77.39
394.331	80.99
394.556	80.99
394.78	78.79
395.005	77.99
395.229	86.39
395.454	77.19
395.678	79.99
395.903	85.39
396.127	78.59
396.352	85.19
396.576	80.19
396.801	78.99
397.025	76.79
397.249	78.39
397.474	85.19
397.698	78.99
397.922	80.79
398.147	85.79
398.371	83.19
398.595	78.39
398.82	73.99
399.044	78.19
399.268	80.79
399.492	79.59
399.717	82.59
399.941	82.99
400.165	73.79
400.389	83.39
400.613	79.99
400.837	81.19
401.062	74.39
401.286	79.59
401.51	81.79
401.734	82.59
401.958	82.79
402.182	75.79
402.406	80.39
402.63	76.39
402.854	77.79
403.078	84.79
403.302	78.79
403.526	75.19
403.75	82.39
403.974	83.39
404.198	76.79
404.422	82.99
404.645	77.79
404.869	79.59
405.093	75.99
405.317	80.19
405.541	80.39
405.765	78.79
405.988	75.99
406.212	82.19
406.436	76.79
406.66	82.79
406.883	83.39
407.107	83.59
407.331	75.19
407.555	76.99
407.778	83.19
408.002	78.39
408.226	77.39
408.449	90.59
408.673	74.99
408.896	73.79
409.12	83.19
409.344	80.99
409.567	81.19
409.791	77.39
410.014	75.19
410.238	80.19
410.461	79.59
410.685	74.59
410.908	77.99
411.132	78.79
411.355	80.79
411.578	79.79
411.802	81.99
412.025	83.19
412.249	72.19
412.472	76.99
412.695	77.79
412.919	74.99
413.142	78.59
413.365	77.99
413.589	81.19
413.812	79.99
414.035	74.99
414.258	76.59
414.482	74.79
414.705	77.39
414.928	78.59
415.151	77.99
415.374	76.39
415.597	79.19
415.821	82.99
416.044	84.79
416.267	77.59
416.49	83.59
416.713	76.99
416.936	74.39
417.159	82.59
417.382	76.59
417.605	75.99
417.828	79.79
418.051	81.39
418.274	78.99
418.497	80.39
418.72	73.39
418.943	80.79
419.166	78.39
419.389	75.19
419.611	77.19
419.834	84.19
420.057	75.79
420.28	78.59
420.503	82.39
420.726	80.39
420.948	83.99
421.171	74.59
421.394	77.39
421.617	74.99
421.839	78.59
422.062	79.59
422.285	80.79
422.507	81.39
422.73	82.19
422.953	76.99
423.175	76.79
423.398	76.79
423.621	80.59
423.843	84.59
424.066	72.79
424.288	77.59
424.511	77.79
424.733	79.19
424.956	89.79
425.178	85.19
425.401	78.79
425.623	79.99
425.846	78.99
426.068	81.79
426.291	80.59
426.513	79.79
426.735	72.39
426.958	78.19
427.18	77.19
427.402	74.39
427.625	84.59
427.847	79.99
428.069	78.79
428.292	82.79
428.514	74.19
428.736	82.39
428.958	83.59
429.181	83.59
429.403	82.79
429.625	76.59
429.847	86.39
430.069	75.99
430.292	72.99
430.514	77.39
430.736	74.79
430.958	76.99
431.18	79.59
431.402	78.79
431.624	78.79
431.846	72.39
432.068	74.99
432.29	80.39
432.512	82.19
432.734	77.19
432.956	81.19
433.178	82.39
433.4	80.99
433.622	83.79
433.844	79.19
434.066	76.79
434.287	79.99
434.509	77.59
434.731	75.99
434.953	78.39
435.175	80.99
435.397	85.59
435.618	79.99
435.84	76.99
436.062	72.99
436.284	75.39
436.505	76.99
436.727	77.39
436.949	81.39
437.17	81.79
437.392	72.99
437.614	83.19
437.835	75.59
438.057	74.99
438.278	77.79
438.5	79.59
438.721	76.59
438.943	78.39
439.165	77.59
439.386	74.99
439.608	79.79
439.829	80.19
440.05	83.19
440.272	78.19
440.493	85.39
440.715	77.79
440.936	78.39
441.158	75.39
441.379	86.99
441.6	81.99
441.822	77.19
442.043	78.99
442.264	75.59
442.486	78.19
442.707	77.59
442.928	81.79
443.149	80.19
443.371	79.19
443.592	75.39
443.813	73.79
444.034	79.19
444.255	77.59
444.476	82.79
444.698	84.19
444.919	76.99
445.14	90.99
445.361	83.39
445.582	78.79
445.803	78.39
446.024	73.39
446.245	82.99
446.466	83.39
446.687	86.19
446.908	82.19
447.129	84.59
447.35	81.39
447.571	77.19
447.792	85.99
448.013	77.99
448.234	81.59
448.455	80.79
448.675	79.79
448.896	82.19
449.117	84.59
449.338	81.59
449.559	80.59
449.779	79.79
450	81.19
450.221	72.79
450.442	71.39
450.662	72.99
450.883	81.79
451.104	83.59
451.324	76.19
451.545	84.99
451.766	78.99
451.986	82.59
452.207	78.59
452.428	76.19
452.648	76.79
452.869	76.19
453.089	81.39
453.31	75.19
453.53	78.19
453.751	76.39
453.971	75.59
454.192	81.19
454.412	82.79
454.633	78.59
454.853	84.59
455.073	78.79
455.294	84.19
455.514	78.59
455.734	81.79
455.955	79.39
456.175	80.79
456.395	81.79
456.616	77.39
456.836	80.39
457.056	73.59
457.276	79.39
457.497	81.19
457.717	79.79
457.937	75.19
458.157	80.59
458.377	84.79
458.598	76.19
458.818	80.59
459.038	79.39
459.258	78.39
459.478	84.99
459.698	77.39
459.918	81.79
460.138	77.39
460.358	76.39
460.578	78.39
460.798	75.59
461.018	76.79
461.238	74.39
461.458	78.99
461.678	81.99
461.898	77.19
462.118	85.19
462.338	77.59
462.558	77.39
462.777	82.19
462.997	83.79
463.217	83.79
463.437	74.39
463.657	71.19
463.876	79.19
464.096	77.39
464.316	77.19
464.536	78.79
464.755	72.99
464.975	81.99
465.195	85.59
465.414	76.79
465.634	79.39
465.854	81.59
466.073	82.39
466.293	81.59
466.512	81.59
466.732	74.79
466.951	77.19
467.171	78.19
467.391	78.59
467.61	77.99
467.829	74.79
468.049	83.39
468.268	76.19
468.488	77.59
468.707	72.39
468.927	83.59
469.146	75.99
469.365	78.19
469.585	80.79
469.804	77.39
470.023	77.39
470.243	82.59
470.462	82.79
470.681	77.59
470.901	83.79
471.12	80.19
471.339	75.99
471.558	82.99
471.777	79.79
471.997	86.99
472.216	80.99
472.435	77.19
472.654	82.79
472.873	79.59
473.092	75.59
473.311	76.19
473.53	78.39
473.749	85.39
473.968	78.19
474.187	75.99
474.406	79.39
474.625	78.59
474.844	81.39
475.063	82.99
475.282	79.99
475.501	76.59
475.72	76.59
475.939	75.19
476.158	80.79
476.377	81.39
476.596	80.79
476.814	85.79
477.033	75.39
477.252	79.39
477.471	79.39
477.69	78.99
477.908	79.79
478.127	82.59
478.346	77.99
478.564	83.39
478.783	82.99
479.002	72.39
479.22	74.79
479.439	83.39
479.658	78.79
479.876	77.59
480.095	82.19
480.313	77.99
480.532	70.19
480.751	85.19
480.969	86.79
481.188	83.99
481.406	75.79
481.624	78.99
481.843	83.19
482.061	81.19
482.28	77.99
482.498	80.19
482.717	81.99
482.935	84.99
483.153	81.79
483.372	82.79
483.59	80.39
483.808	76.19
484.027	71.99
484.245	79.19
484.463	79.59
484.681	77.39
484.9	73.39
485.118	87.39
485.336	87.79
485.554	77.19
485.772	85.79
485.99	85.59
486.209	78.99
486.427	86.39
486.645	85.79
486.863	81.99
487.081	78.79
487.299	76.19
487.517	79.39
487.735	76.99
487.953	80.99
488.171	78.99
488.389	82.59
488.607	78.19
488.825	83.59
489.043	80.19
489.261	83.99
489.479	78.19
489.696	83.39
489.914	78.39
490.132	81.79
490.35	79.79
490.568	79.99
490.786	81.79
491.003	78.59
491.221	79.19
491.439	82.19
491.657	84.19
491.874	83.19
492.092	83.19
492.31	83.59
492.527	79.39
492.745	74.39
492.963	82.59
493.18	79.19
493.398	82.19
493.615	76.19
493.833	79.19
494.05	77.99
494.268	75.59
494.485	82.59
494.703	80.99
494.92	82.19
495.138	78.19
495.355	87.79
495.573	84.59
495.79	81.19
496.008	81.79
496.225	78.99
496.442	80.39
496.66	77.59
496.877	84.59
497.094	83.19
497.312	82.99
497.529	79.59
497.746	79.59
497.963	83.59
498.181	76.59
498.398	78.39
498.615	76.19
498.832	78.39
499.049	82.59
499.267	78.39
499.484	82.79
499.701	81.99
499.918	79.79
500.135	81.59
500.352	81.99
500.569	74.19
500.786	79.59
501.003	82.59
501.22	81.39
501.437	81.79
501.654	78.19
501.871	79.39
502.088	76.59
502.305	82.19
502.522	77.99
502.739	91.19
502.956	80.99
503.172	87.79
503.389	76.79
503.606	81.99
503.823	83.59
504.04	81.79
504.256	77.79
504.473	84.59
504.69	84.39
504.907	83.19
505.123	77.19
505.34	84.59
505.557	79.99
505.773	78.19
505.99	83.39
506.207	82.79
506.423	76.59
506.64	85.99
506.856	83.79
507.073	76.79
507.289	78.59
507.506	80.59
507.722	84.39
507.939	81.19
508.155	84.39
508.372	79.19
508.588	74.59
508.805	80.79
509.021	74.19
509.238	82.99
509.454	78.79
509.67	72.59
509.887	87.39
510.103	76.99
510.319	84.19
510.536	87.99
510.752	87.99
510.968	80.59
511.184	81.99
511.401	74.59
511.617	85.19
511.833	84.59
512.049	90.39
512.265	85.59
512.481	75.99
512.698	80.59
512.914	83.19
513.13	83.59
513.346	79.79
513.562	81.39
513.778	80.79
513.994	79.19
514.21	86.99
514.426	88.19
514.642	77.39
514.858	72.79
515.074	83.59
515.29	80.39
515.506	81.19
515.721	83.79
515.937	80.39
516.153	79.39
516.369	79.39
516.585	82.59
516.801	86.19
517.016	87.79
517.232	82.19
517.448	76.39
517.664	84.99
517.879	84.99
518.095	78.19
518.311	81.99
518.527	80.39
518.742	81.19
518.958	78.99
519.173	80.39
519.389	81.79
519.605	88.79
519.82	85.19
520.036	75.39
520.251	87.59
