Data from TenMicroDelayPb_HRD10591_00033.txt Node
Date: Mon Nov 24 14:36:56 EST 2025
User: Yrep
Spectrometer: HR+D1059
Trigger mode: 1
Integration Time (sec): 1.000000E-2
Scans to average: 5
Electric dark correction enabled: true
Nonlinearity correction enabled: false
Boxcar width: 0
XAxis mode: Wavelengths
Number of Pixels in Spectrum: 2048
>>>>>Begin Spectral Data<<<<<
223.165	-11.75
223.4	-11.75
223.635	-11.75
223.869	-17.55
224.104	-21.75
224.338	-14.75
224.573	-16.55
224.808	-16.75
225.042	-13.35
225.277	-5.15
225.511	-0.35
225.746	0.45
225.98	6.25
226.215	16.25
226.449	16.05
226.683	18.25
226.918	29.85
227.152	30.85
227.387	38.45
227.621	39.85
227.856	42.85
228.09	45.85
228.324	49.45
228.559	57.65
228.793	62.45
229.027	56.25
229.262	65.45
229.496	72.65
229.73	73.05
229.964	71.05
230.199	71.65
230.433	72.65
230.667	73.85
230.901	71.25
231.136	77.85
231.37	75.85
231.604	86.25
231.838	79.65
232.072	79.25
232.306	77.85
232.541	83.05
232.775	84.05
233.009	81.45
233.243	83.65
233.477	79.25
233.711	85.85
233.945	82.45
234.179	83.85
234.413	81.25
234.647	78.25
234.881	84.85
235.115	83.85
235.349	81.05
235.583	86.05
235.817	83.65
236.051	77.85
236.285	85.05
236.519	77.85
236.753	80.65
236.987	78.25
237.221	84.05
237.455	76.05
237.689	82.85
237.922	76.65
238.156	80.45
238.39	80.25
238.624	82.45
238.858	80.25
239.091	81.25
239.325	73.85
239.559	79.45
239.793	75.85
240.027	76.65
240.26	80.45
240.494	75.65
240.728	74.05
240.961	76.25
241.195	72.45
241.429	81.45
241.662	72.25
241.896	75.05
242.13	68.45
242.363	79.45
242.597	76.25
242.83	82.45
243.064	76.05
243.298	85.25
243.531	79.45
243.765	76.85
243.998	75.45
244.232	80.25
244.465	77.85
244.699	80.05
244.932	80.65
245.166	80.65
245.399	79.85
245.633	82.45
245.866	76.25
246.099	76.05
246.333	76.05
246.566	78.25
246.8	79.25
247.033	84.45
247.266	80.65
247.5	71.05
247.733	81.05
247.966	86.65
248.2	79.25
248.433	79.25
248.666	79.25
248.899	77.05
249.133	78.05
249.366	80.85
249.599	76.05
249.832	76.85
250.066	76.85
250.299	71.05
250.532	88.45
250.765	72.25
250.998	79.85
251.231	81.45
251.465	82.05
251.698	80.65
251.931	82.65
252.164	82.05
252.397	82.65
252.63	85.05
252.863	78.25
253.096	81.45
253.329	86.45
253.562	83.45
253.795	80.65
254.028	79.05
254.261	80.05
254.494	82.25
254.727	83.45
254.96	79.65
255.193	82.65
255.426	83.05
255.659	85.05
255.892	80.25
256.124	81.65
256.357	80.65
256.59	81.45
256.823	83.05
257.056	83.05
257.289	81.65
257.521	79.25
257.754	85.85
257.987	87.65
258.22	84.65
258.452	84.05
258.685	78.45
258.918	78.25
259.151	77.45
259.383	79.85
259.616	78.05
259.849	86.85
260.081	81.65
260.314	83.65
260.547	79.65
260.779	82.25
261.012	78.05
261.244	86.65
261.477	90.65
261.71	89.85
261.942	80.25
262.175	85.65
262.407	77.25
262.64	83.65
262.872	81.25
263.105	88.45
263.337	82.25
263.57	82.05
263.802	82.25
264.035	86.85
264.267	81.45
264.499	81.05
264.732	85.25
264.964	86.45
265.197	83.05
265.429	84.65
265.661	80.25
265.894	88.45
266.126	84.25
266.358	89.65
266.591	89.45
266.823	84.85
267.055	80.85
267.287	87.45
267.52	88.25
267.752	90.45
267.984	80.25
268.216	82.25
268.448	82.05
268.681	79.05
268.913	84.25
269.145	80.45
269.377	86.25
269.609	86.25
269.841	82.85
270.073	81.05
270.306	83.05
270.538	83.05
270.77	80.25
271.002	82.05
271.234	81.65
271.466	83.85
271.698	83.45
271.93	89.25
272.162	82.85
272.394	83.45
272.626	79.65
272.858	81.65
273.09	80.65
273.322	85.85
273.553	82.25
273.785	85.45
274.017	83.25
274.249	78.45
274.481	80.05
274.713	83.45
274.945	82.65
275.176	89.85
275.408	79.45
275.64	81.05
275.872	83.65
276.104	89.45
276.335	88.65
276.567	83.05
276.799	81.85
277.031	85.65
277.262	80.05
277.494	85.45
277.726	83.65
277.957	81.65
278.189	80.85
278.421	85.25
278.652	81.65
278.884	84.25
279.115	85.65
279.347	88.25
279.579	82.45
279.81	85.05
280.042	94.05
280.273	101.45
280.505	97.85
280.736	88.05
280.968	89.05
281.199	85.45
281.431	91.65
281.662	81.45
281.894	83.25
282.125	90.45
282.356	91.25
282.588	96.25
282.819	89.45
283.051	83.45
283.282	91.05
283.513	101.85
283.745	86.65
283.976	87.45
284.207	90.45
284.439	80.85
284.67	89.85
284.901	89.25
285.132	83.25
285.364	86.85
285.595	81.05
285.826	92.45
286.057	82.45
286.288	86.65
286.52	87.25
286.751	85.45
286.982	88.05
287.213	95.45
287.444	90.85
287.675	91.65
287.906	90.45
288.138	86.05
288.369	82.65
288.6	82.65
288.831	83.85
289.062	88.25
289.293	82.85
289.524	83.05
289.755	86.65
289.986	81.25
290.217	88.05
290.448	87.85
290.679	79.85
290.91	88.65
291.141	82.65
291.371	88.05
291.602	87.45
291.833	86.45
292.064	88.05
292.295	83.45
292.526	83.45
292.757	85.45
292.987	85.65
293.218	82.65
293.449	81.05
293.68	84.25
293.91	84.85
294.141	85.85
294.372	86.05
294.603	85.05
294.833	84.25
295.064	86.85
295.295	86.05
295.525	87.45
295.756	84.65
295.987	85.25
296.217	84.85
296.448	82.65
296.679	89.25
296.909	91.05
297.14	86.65
297.37	85.25
297.601	85.05
297.831	82.45
298.062	81.45
298.292	81.05
298.523	81.65
298.753	86.65
298.984	87.25
299.214	89.65
299.445	88.05
299.675	86.45
299.905	80.65
300.136	86.25
300.366	84.25
300.597	89.45
300.827	87.25
301.057	87.65
301.288	84.45
301.518	84.05
301.748	86.25
301.979	89.45
302.209	87.65
302.439	83.85
302.669	86.85
302.9	85.05
303.13	82.45
303.36	84.65
303.59	87.25
303.82	85.05
304.051	85.45
304.281	86.85
304.511	89.25
304.741	90.05
304.971	89.25
305.201	85.85
305.431	88.45
305.661	82.25
305.891	89.25
306.121	88.45
306.352	83.65
306.582	84.45
306.812	81.25
307.042	93.85
307.272	94.25
307.502	84.45
307.731	87.85
307.961	85.85
308.191	87.25
308.421	84.25
308.651	86.65
308.881	85.85
309.111	80.85
309.341	83.65
309.571	82.25
309.8	91.25
310.03	82.85
310.26	81.45
310.49	85.65
310.72	88.65
310.949	82.25
311.179	85.85
311.409	90.85
311.639	89.65
311.868	91.45
312.098	85.85
312.328	93.05
312.557	84.45
312.787	86.25
313.017	88.05
313.246	85.65
313.476	87.05
313.706	83.65
313.935	80.25
314.165	84.65
314.394	87.65
314.624	89.45
314.853	83.45
315.083	92.45
315.312	86.05
315.542	88.85
315.771	87.05
316.001	85.65
316.23	86.65
316.46	89.65
316.689	86.25
316.919	87.85
317.148	86.85
317.377	90.65
317.607	89.65
317.836	84.65
318.065	87.85
318.295	90.45
318.524	87.25
318.753	91.65
318.983	89.05
319.212	88.45
319.441	85.45
319.67	83.85
319.9	82.45
320.129	82.85
320.358	89.65
320.587	87.85
320.816	88.45
321.046	85.05
321.275	84.65
321.504	83.45
321.733	85.45
321.962	86.25
322.191	87.85
322.42	84.25
322.649	89.25
322.878	89.05
323.108	84.05
323.337	88.05
323.566	84.85
323.795	86.85
324.024	85.45
324.253	81.45
324.482	92.45
324.71	91.25
324.939	82.65
325.168	82.05
325.397	84.85
325.626	91.05
325.855	92.85
326.084	81.65
326.313	83.85
326.542	82.85
326.77	88.05
326.999	86.65
327.228	89.05
327.457	91.25
327.686	88.65
327.914	84.85
328.143	81.05
328.372	84.85
328.6	89.85
328.829	87.85
329.058	86.25
329.287	87.65
329.515	89.45
329.744	82.85
329.972	85.65
330.201	88.45
330.43	86.85
330.658	86.85
330.887	87.25
331.115	84.65
331.344	83.05
331.572	78.45
331.801	86.05
332.03	87.05
332.258	84.45
332.486	85.05
332.715	92.45
332.943	83.65
333.172	83.05
333.4	85.65
333.629	83.45
333.857	86.05
334.085	78.05
334.314	87.65
334.542	92.65
334.771	88.25
334.999	86.65
335.227	81.45
335.455	90.85
335.684	83.85
335.912	79.25
336.14	88.05
336.369	84.65
336.597	83.05
336.825	78.85
337.053	86.85
337.281	92.45
337.51	87.05
337.738	85.25
337.966	85.45
338.194	91.65
338.422	82.05
338.65	89.25
338.878	77.85
339.106	85.05
339.334	86.05
339.562	83.25
339.79	84.85
340.018	89.45
340.246	86.05
340.474	86.25
340.702	87.25
340.93	83.05
341.158	85.45
341.386	79.65
341.614	80.65
341.842	84.45
342.07	86.05
342.298	80.05
342.526	83.25
342.754	88.25
342.981	87.65
343.209	82.85
343.437	86.05
343.665	80.45
343.893	82.65
344.12	92.85
344.348	88.05
344.576	86.65
344.804	85.65
345.031	84.85
345.259	86.25
345.487	87.65
345.714	84.85
345.942	87.85
346.17	84.25
346.397	86.45
346.625	91.65
346.853	82.85
347.08	83.85
347.308	86.85
347.535	86.25
347.763	82.45
347.99	87.05
348.218	87.65
348.445	87.65
348.673	90.25
348.9	86.65
349.128	85.85
349.355	84.85
349.583	79.05
349.81	87.45
350.037	82.05
350.265	86.25
350.492	86.05
350.72	90.45
350.947	87.65
351.174	82.85
351.402	83.45
351.629	86.05
351.856	82.05
352.083	90.65
352.311	84.85
352.538	86.45
352.765	87.65
352.992	83.05
353.22	92.65
353.447	87.85
353.674	86.05
353.901	86.65
354.128	81.45
354.355	84.45
354.583	87.25
354.81	84.05
355.037	82.85
355.264	84.85
355.491	86.05
355.718	83.05
355.945	85.45
356.172	87.65
356.399	92.05
356.626	86.45
356.853	97.05
357.08	97.05
357.307	118.85
357.534	110.45
357.761	90.05
357.988	89.85
358.215	83.65
358.441	83.25
358.668	86.85
358.895	89.65
359.122	84.65
359.349	89.85
359.576	82.85
359.802	85.45
360.029	91.65
360.256	82.65
360.483	84.05
360.709	83.85
360.936	80.65
361.163	86.85
361.39	88.45
361.616	85.45
361.843	85.85
362.07	85.45
362.296	85.65
362.523	86.85
362.749	90.05
362.976	87.85
363.203	94.65
363.429	97.65
363.656	102.05
363.882	129.85
364.109	129.05
364.335	102.65
364.562	93.45
364.788	85.65
365.015	82.85
365.241	84.05
365.468	88.45
365.694	87.25
365.92	88.85
366.147	86.45
366.373	86.65
366.599	90.45
366.826	98.45
367.052	95.85
367.278	102.25
367.505	89.45
367.731	88.85
367.957	107.05
368.184	136.05
368.41	158.65
368.636	133.05
368.862	94.05
369.089	93.85
369.315	82.05
369.541	89.05
369.767	95.45
369.993	87.45
370.219	85.85
370.445	81.05
370.672	85.45
370.898	87.65
371.124	80.25
371.35	76.45
371.576	81.85
371.802	76.45
372.028	82.05
372.254	88.45
372.48	84.45
372.706	82.25
372.932	84.25
373.158	80.65
373.384	78.65
373.61	91.25
373.835	106.25
374.061	115.65
374.287	101.85
374.513	84.45
374.739	80.85
374.965	84.05
375.191	83.85
375.416	89.05
375.642	82.25
375.868	84.65
376.094	82.45
376.319	92.85
376.545	83.25
376.771	83.65
376.997	79.45
377.222	81.25
377.448	81.65
377.674	88.05
377.899	75.25
378.125	84.85
378.35	83.05
378.576	89.05
378.802	86.25
379.027	85.05
379.253	84.25
379.478	85.65
379.704	87.65
379.929	88.85
380.155	84.45
380.38	83.05
380.606	87.05
380.831	78.45
381.057	88.25
381.282	90.05
381.507	89.85
381.733	83.25
381.958	82.85
382.184	78.85
382.409	82.25
382.634	81.85
382.86	86.05
383.085	81.45
383.31	79.25
383.535	84.45
383.761	85.65
383.986	80.45
384.211	84.45
384.436	80.85
384.662	82.65
384.887	81.45
385.112	87.65
385.337	87.65
385.562	84.65
385.787	84.45
386.013	84.85
386.238	89.25
386.463	84.25
386.688	80.85
386.913	78.65
387.138	83.85
387.363	85.05
387.588	86.05
387.813	88.45
388.038	82.45
388.263	82.25
388.488	89.05
388.713	84.85
388.938	80.85
389.163	83.65
389.387	81.85
389.612	88.65
389.837	82.85
390.062	89.65
390.287	80.85
390.512	90.05
390.736	82.25
390.961	74.85
391.186	71.05
391.411	87.65
391.636	87.65
391.86	89.05
392.085	89.85
392.31	83.85
392.534	82.05
392.759	81.85
392.984	84.45
393.208	85.05
393.433	84.85
393.658	88.25
393.882	83.85
394.107	88.25
394.331	86.25
394.556	81.25
394.78	83.05
395.005	79.65
395.229	88.65
395.454	93.05
395.678	84.05
395.903	82.85
396.127	84.05
396.352	85.45
396.576	83.85
396.801	81.05
397.025	88.05
397.249	85.65
397.474	87.25
397.698	81.05
397.922	89.45
398.147	87.45
398.371	86.25
398.595	85.05
398.82	79.85
399.044	84.45
399.268	84.25
399.492	86.45
399.717	87.05
399.941	80.85
400.165	83.65
400.389	84.45
400.613	83.85
400.837	83.25
401.062	83.05
401.286	86.25
401.51	84.65
401.734	83.05
401.958	95.25
402.182	94.85
402.406	86.45
402.63	85.45
402.854	84.05
403.078	85.85
403.302	84.85
403.526	82.65
403.75	82.85
403.974	91.85
404.198	96.05
404.422	86.45
404.645	85.45
404.869	98.25
405.093	88.05
405.317	110.65
405.541	154.85
405.765	233.65
405.988	233.45
406.212	147.25
406.436	113.05
406.66	96.65
406.883	90.05
407.107	87.45
407.331	86.45
407.555	86.05
407.778	89.05
408.002	89.25
408.226	83.25
408.449	83.85
408.673	88.05
408.896	86.65
409.12	84.25
409.344	81.05
409.567	81.05
409.791	81.25
410.014	84.05
410.238	83.45
410.461	86.25
410.685	83.85
410.908	86.25
411.132	84.45
411.355	79.65
411.578	81.05
411.802	80.45
412.025	87.25
412.249	81.65
412.472	77.85
412.695	87.65
412.919	86.05
413.142	87.25
413.365	86.25
413.589	87.85
413.812	83.25
414.035	84.05
414.258	84.45
414.482	78.65
414.705	87.25
414.928	81.65
415.151	84.45
415.374	89.65
415.597	88.05
415.821	84.05
416.044	81.25
416.267	78.05
416.49	80.65
416.713	83.85
416.936	92.65
417.159	83.05
417.382	81.85
417.605	81.65
417.828	85.05
418.051	85.25
418.274	83.05
418.497	79.25
418.72	81.25
418.943	82.65
419.166	83.65
419.389	82.05
419.611	81.65
419.834	91.05
420.057	85.65
420.28	85.45
420.503	78.25
420.726	81.25
420.948	84.65
421.171	83.65
421.394	84.05
421.617	87.65
421.839	81.85
422.062	82.45
422.285	85.85
422.507	78.05
422.73	83.05
422.953	82.25
423.175	88.05
423.398	80.45
423.621	81.65
423.843	86.25
424.066	85.45
424.288	83.45
424.511	87.45
424.733	85.85
424.956	83.45
425.178	81.65
425.401	82.85
425.623	87.25
425.846	88.25
426.068	82.65
426.291	80.45
426.513	74.45
426.735	80.85
426.958	80.65
427.18	80.05
427.402	83.85
427.625	88.45
427.847	87.25
428.069	84.85
428.292	76.25
428.514	79.65
428.736	80.45
428.958	86.85
429.181	87.05
429.403	87.45
429.625	82.25
429.847	78.45
430.069	77.25
430.292	85.05
430.514	83.85
430.736	79.65
430.958	83.85
431.18	84.45
431.402	81.45
431.624	80.05
431.846	86.05
432.068	81.85
432.29	81.25
432.512	82.45
432.734	86.65
432.956	79.25
433.178	81.45
433.4	82.85
433.622	86.85
433.844	79.25
434.066	86.85
434.287	80.45
434.509	85.45
434.731	81.25
434.953	85.65
435.175	83.05
435.397	83.05
435.618	84.05
435.84	89.85
436.062	80.05
436.284	82.45
436.505	81.85
436.727	84.65
436.949	85.05
437.17	85.05
437.392	85.45
437.614	86.85
437.835	78.85
438.057	77.05
438.278	81.25
438.5	82.05
438.721	83.85
438.943	82.45
439.165	81.45
439.386	85.05
439.608	76.45
439.829	88.45
440.05	81.25
440.272	83.05
440.493	83.85
440.715	83.25
440.936	83.85
441.158	81.05
441.379	84.45
441.6	86.45
441.822	85.05
442.043	81.05
442.264	87.05
442.486	85.85
442.707	78.85
442.928	85.45
443.149	80.85
443.371	79.65
443.592	85.85
443.813	80.05
444.034	80.05
444.255	79.45
444.476	80.45
444.698	83.65
444.919	86.05
445.14	97.05
445.361	85.45
445.582	82.85
445.803	81.85
446.024	86.85
446.245	88.45
446.466	80.25
446.687	82.25
446.908	84.65
447.129	85.45
447.35	81.45
447.571	86.45
447.792	85.25
448.013	81.45
448.234	83.25
448.455	85.05
448.675	87.25
448.896	82.25
449.117	82.25
449.338	89.65
449.559	87.65
449.779	88.65
450	84.65
450.221	87.25
450.442	89.45
450.662	87.45
450.883	88.25
451.104	86.65
451.324	80.65
451.545	83.85
451.766	92.05
451.986	84.65
452.207	88.65
452.428	86.25
452.648	83.45
452.869	85.25
453.089	85.05
453.31	89.25
453.53	82.05
453.751	75.25
453.971	79.65
454.192	85.25
454.412	76.45
454.633	83.05
454.853	84.05
455.073	91.65
455.294	86.45
455.514	87.85
455.734	89.45
455.955	87.85
456.175	83.45
456.395	85.65
456.616	84.65
456.836	84.25
457.056	82.25
457.276	85.45
457.497	88.05
457.717	86.85
457.937	79.85
458.157	85.05
458.377	88.05
458.598	78.85
458.818	90.65
459.038	85.25
459.258	82.45
459.478	80.05
459.698	84.25
459.918	82.85
460.138	91.85
460.358	86.85
460.578	82.45
460.798	83.25
461.018	86.25
461.238	74.85
461.458	84.65
461.678	84.05
461.898	84.85
462.118	82.05
462.338	84.45
462.558	88.85
462.777	84.65
462.997	80.85
463.217	84.05
463.437	87.25
463.657	87.45
463.876	83.25
464.096	84.25
464.316	78.65
464.536	81.65
464.755	82.45
464.975	86.45
465.195	83.05
465.414	82.85
465.634	85.65
465.854	82.45
466.073	86.45
466.293	87.05
466.512	78.85
466.732	87.05
466.951	84.85
467.171	89.25
467.391	83.65
467.61	85.05
467.829	83.05
468.049	84.45
468.268	91.45
468.488	81.85
468.707	81.65
468.927	89.45
469.146	86.25
469.365	84.85
469.585	81.65
469.804	89.25
470.023	84.25
470.243	86.85
470.462	82.45
470.681	82.05
470.901	78.65
471.12	81.65
471.339	79.25
471.558	91.45
471.777	77.25
471.997	87.05
472.216	86.45
472.435	81.65
472.654	80.25
472.873	84.05
473.092	85.05
473.311	85.65
473.53	80.65
473.749	86.05
473.968	83.85
474.187	88.05
474.406	84.65
474.625	83.25
474.844	84.45
475.063	84.05
475.282	77.25
475.501	84.65
475.72	81.45
475.939	85.25
476.158	79.85
476.377	80.25
476.596	85.65
476.814	82.25
477.033	76.45
477.252	87.45
477.471	80.05
477.69	84.85
477.908	84.45
478.127	82.25
478.346	83.65
478.564	84.65
478.783	86.85
479.002	83.25
479.22	83.85
479.439	81.45
479.658	81.65
479.876	78.05
480.095	90.85
480.313	88.05
480.532	83.65
480.751	88.05
480.969	82.45
481.188	87.65
481.406	85.45
481.624	79.05
481.843	85.25
482.061	87.05
482.28	81.85
482.498	82.85
482.717	83.65
482.935	89.05
483.153	88.25
483.372	75.85
483.59	78.05
483.808	80.25
484.027	86.05
484.245	84.85
484.463	81.45
484.681	83.45
484.9	81.05
485.118	85.45
485.336	87.85
485.554	81.05
485.772	77.25
485.99	83.45
486.209	83.65
486.427	86.65
486.645	85.65
486.863	84.65
487.081	86.05
487.299	83.05
487.517	80.45
487.735	81.25
487.953	82.65
488.171	89.65
488.389	80.25
488.607	88.25
488.825	87.25
489.043	90.45
489.261	86.85
489.479	90.65
489.696	87.65
489.914	88.85
490.132	90.25
490.35	81.85
490.568	86.45
490.786	89.65
491.003	87.65
491.221	90.65
491.439	85.05
491.657	85.85
491.874	92.25
492.092	89.25
492.31	80.05
492.527	89.65
492.745	82.05
492.963	85.85
493.18	89.25
493.398	90.85
493.615	90.65
493.833	85.45
494.05	80.65
494.268	84.85
494.485	84.25
494.703	80.85
494.92	84.85
495.138	84.85
495.355	85.85
495.573	87.05
495.79	89.25
496.008	84.65
496.225	91.45
496.442	79.45
496.66	84.05
496.877	81.45
497.094	86.65
497.312	80.65
497.529	89.65
497.746	84.85
497.963	89.05
498.181	86.65
498.398	88.65
498.615	88.25
498.832	86.25
499.049	88.65
499.267	84.25
499.484	85.45
499.701	90.05
499.918	87.05
500.135	88.65
500.352	86.05
500.569	100.45
500.786	106.45
501.003	92.65
501.22	88.05
501.437	80.25
501.654	81.45
501.871	88.85
502.088	85.85
502.305	81.65
502.522	82.65
502.739	84.85
502.956	87.45
503.172	88.65
503.389	86.25
503.606	88.05
503.823	93.85
504.04	86.45
504.256	89.65
504.473	82.65
504.69	87.65
504.907	83.25
505.123	85.25
505.34	90.65
505.557	80.65
505.773	85.05
505.99	81.65
506.207	85.85
506.423	83.05
506.64	85.25
506.856	82.85
507.073	85.65
507.289	80.25
507.506	87.25
507.722	83.25
507.939	83.65
508.155	84.85
508.372	80.05
508.588	81.85
508.805	82.45
509.021	83.05
509.238	88.45
509.454	88.45
509.67	81.05
509.887	84.85
510.103	77.65
510.319	87.25
510.536	86.65
510.752	79.45
510.968	85.85
511.184	87.25
511.401	86.05
511.617	89.65
511.833	87.45
512.049	82.25
512.265	87.25
512.481	85.45
512.698	84.85
512.914	92.45
513.13	84.85
513.346	82.85
513.562	90.65
513.778	87.05
513.994	82.65
514.21	87.65
514.426	93.05
514.642	84.65
514.858	83.65
515.074	86.85
515.29	84.25
515.506	90.65
515.721	84.85
515.937	84.45
516.153	87.65
516.369	86.45
516.585	84.85
516.801	86.85
517.016	86.65
517.232	85.85
517.448	86.65
517.664	87.65
517.879	84.45
518.095	81.45
518.311	86.65
518.527	84.65
518.742	77.45
518.958	82.85
519.173	83.45
519.389	81.65
519.605	83.85
519.82	85.45
