Data from TenMicroDelayPb_HRD10591_00009.txt Node
Date: Mon Nov 24 14:34:24 EST 2025
User: Yrep
Spectrometer: HR+D1059
Trigger mode: 0
Integration Time (sec): 1.000000E-2
Scans to average: 5
Electric dark correction enabled: true
Nonlinearity correction enabled: false
Boxcar width: 0
XAxis mode: Wavelengths
Number of Pixels in Spectrum: 2048
>>>>>Begin Spectral Data<<<<<
223.165	-13.76
223.4	-13.76
223.635	-13.76
223.869	-18.56
224.104	-16.56
224.338	-14.36
224.573	-11.16
224.808	-13.36
225.042	-9.56
225.277	-9.56
225.511	3.24
225.746	-0.16
225.98	2.84
226.215	11.64
226.449	12.64
226.683	18.04
226.918	27.24
227.152	31.44
227.387	30.84
227.621	36.04
227.856	36.44
228.09	49.84
228.324	55.24
228.559	54.84
228.793	62.64
229.027	57.04
229.262	65.04
229.496	65.04
229.73	70.44
229.964	74.04
230.199	72.64
230.433	73.64
230.667	75.64
230.901	78.44
231.136	81.44
231.37	72.64
231.604	84.84
231.838	78.04
232.072	76.04
232.306	85.64
232.541	82.64
232.775	86.44
233.009	79.04
233.243	78.64
233.477	79.24
233.711	87.04
233.945	80.04
234.179	81.44
234.413	81.84
234.647	80.84
234.881	80.04
235.115	73.24
235.349	78.64
235.583	79.04
235.817	73.84
236.051	79.44
236.285	82.24
236.519	77.84
236.753	74.64
236.987	73.04
237.221	71.64
237.455	77.84
237.689	82.84
237.922	84.24
238.156	75.44
238.39	74.04
238.624	70.84
238.858	76.04
239.091	80.04
239.325	76.24
239.559	72.64
239.793	76.04
240.027	77.24
240.26	74.44
240.494	76.44
240.728	72.84
240.961	78.24
241.195	79.24
241.429	79.84
241.662	79.84
241.896	76.44
242.13	81.04
242.363	71.04
242.597	75.84
242.83	84.24
243.064	77.84
243.298	79.64
243.531	74.84
243.765	80.44
243.998	77.24
244.232	79.84
244.465	74.44
244.699	77.24
244.932	82.44
245.166	74.64
245.399	76.04
245.633	78.84
245.866	80.64
246.099	78.64
246.333	82.84
246.566	78.24
246.8	81.04
247.033	78.04
247.266	74.44
247.5	77.84
247.733	77.84
247.966	78.84
248.2	81.24
248.433	78.44
248.666	78.24
248.899	80.24
249.133	78.84
249.366	85.04
249.599	77.04
249.832	83.04
250.066	83.04
250.299	79.64
250.532	78.84
250.765	83.64
250.998	77.84
251.231	78.64
251.465	80.24
251.698	78.84
251.931	82.04
252.164	86.84
252.397	86.64
252.63	81.44
252.863	78.84
253.096	77.24
253.329	86.24
253.562	79.44
253.795	78.24
254.028	75.24
254.261	86.04
254.494	80.44
254.727	78.44
254.96	81.64
255.193	76.04
255.426	80.64
255.659	80.84
255.892	85.64
256.124	73.84
256.357	78.84
256.59	83.04
256.823	82.64
257.056	80.24
257.289	83.24
257.521	87.04
257.754	80.04
257.987	83.64
258.22	85.64
258.452	80.84
258.685	75.24
258.918	75.84
259.151	80.44
259.383	83.64
259.616	79.64
259.849	82.64
260.081	80.84
260.314	76.24
260.547	82.04
260.779	73.44
261.012	81.04
261.244	81.24
261.477	82.84
261.71	79.44
261.942	83.04
262.175	79.84
262.407	80.04
262.64	79.84
262.872	85.64
263.105	86.24
263.337	80.84
263.57	83.64
263.802	83.04
264.035	77.04
264.267	82.84
264.499	80.24
264.732	76.04
264.964	85.64
265.197	79.04
265.429	85.64
265.661	79.84
265.894	85.04
266.126	80.64
266.358	76.24
266.591	80.04
266.823	82.24
267.055	83.24
267.287	84.04
267.52	84.24
267.752	80.64
267.984	78.44
268.216	80.24
268.448	81.44
268.681	86.64
268.913	78.84
269.145	80.64
269.377	76.44
269.609	84.44
269.841	87.44
270.073	83.24
270.306	77.84
270.538	82.64
270.77	84.84
271.002	87.64
271.234	87.84
271.466	82.44
271.698	82.24
271.93	80.84
272.162	83.84
272.394	82.04
272.626	82.24
272.858	87.64
273.09	88.24
273.322	84.04
273.553	82.44
273.785	79.84
274.017	86.84
274.249	79.24
274.481	84.04
274.713	72.44
274.945	78.64
275.176	81.64
275.408	78.44
275.64	82.44
275.872	81.84
276.104	83.84
276.335	85.64
276.567	88.04
276.799	76.84
277.031	78.24
277.262	80.24
277.494	91.44
277.726	85.84
277.957	83.04
278.189	78.84
278.421	81.84
278.652	81.84
278.884	86.44
279.115	83.44
279.347	87.24
279.579	86.04
279.81	85.84
280.042	92.24
280.273	88.64
280.505	84.24
280.736	84.24
280.968	86.04
281.199	78.84
281.431	76.04
281.662	82.64
281.894	90.24
282.125	86.84
282.356	82.44
282.588	84.24
282.819	76.64
283.051	82.84
283.282	84.84
283.513	85.24
283.745	79.44
283.976	81.64
284.207	86.44
284.439	90.64
284.67	86.24
284.901	83.84
285.132	83.64
285.364	86.84
285.595	91.24
285.826	84.44
286.057	81.24
286.288	75.84
286.52	82.24
286.751	83.64
286.982	80.24
287.213	89.44
287.444	87.24
287.675	84.44
287.906	84.64
288.138	84.04
288.369	82.84
288.6	84.24
288.831	85.04
289.062	79.84
289.293	84.24
289.524	86.44
289.755	87.24
289.986	80.84
290.217	87.44
290.448	87.04
290.679	78.84
290.91	88.24
291.141	79.84
291.371	84.24
291.602	83.24
291.833	88.44
292.064	85.24
292.295	88.04
292.526	85.24
292.757	80.64
292.987	87.64
293.218	86.84
293.449	90.84
293.68	85.04
293.91	86.44
294.141	86.44
294.372	86.84
294.603	83.64
294.833	84.44
295.064	89.24
295.295	89.84
295.525	86.24
295.756	83.24
295.987	83.24
296.217	82.04
296.448	82.24
296.679	80.44
296.909	87.24
297.14	85.24
297.37	82.44
297.601	87.64
297.831	86.44
298.062	82.64
298.292	89.64
298.523	83.24
298.753	83.04
298.984	84.44
299.214	78.44
299.445	83.84
299.675	83.64
299.905	84.44
300.136	88.24
300.366	85.84
300.597	84.84
300.827	80.44
301.057	81.84
301.288	77.04
301.518	90.04
301.748	81.44
301.979	88.04
302.209	84.24
302.439	91.84
302.669	88.64
302.9	83.64
303.13	81.84
303.36	86.44
303.59	81.24
303.82	91.44
304.051	86.84
304.281	83.84
304.511	87.84
304.741	85.04
304.971	85.64
305.201	83.64
305.431	78.44
305.661	83.64
305.891	81.44
306.121	86.44
306.352	78.24
306.582	77.04
306.812	88.44
307.042	84.44
307.272	86.84
307.502	88.84
307.731	83.44
307.961	83.64
308.191	89.24
308.421	79.04
308.651	81.64
308.881	83.04
309.111	81.24
309.341	81.64
309.571	84.04
309.8	90.84
310.03	88.04
310.26	80.24
310.49	89.04
310.72	87.24
310.949	88.64
311.179	88.84
311.409	83.24
311.639	87.44
311.868	88.84
312.098	87.04
312.328	90.84
312.557	87.44
312.787	80.84
313.017	84.44
313.246	90.04
313.476	85.44
313.706	86.64
313.935	86.84
314.165	85.84
314.394	78.84
314.624	78.84
314.853	86.04
315.083	79.24
315.312	81.04
315.542	78.44
315.771	82.44
316.001	80.04
316.23	88.04
316.46	78.24
316.689	83.24
316.919	89.64
317.148	85.24
317.377	81.64
317.607	87.84
317.836	83.64
318.065	85.44
318.295	87.04
318.524	84.04
318.753	88.04
318.983	83.84
319.212	91.44
319.441	84.64
319.67	87.64
319.9	86.44
320.129	80.24
320.358	88.24
320.587	88.64
320.816	84.44
321.046	83.84
321.275	85.44
321.504	80.84
321.733	82.44
321.962	88.04
322.191	82.44
322.42	83.44
322.649	93.64
322.878	83.44
323.108	83.44
323.337	85.24
323.566	86.84
323.795	86.04
324.024	83.24
324.253	85.24
324.482	84.44
324.71	82.04
324.939	88.04
325.168	84.84
325.397	83.24
325.626	87.24
325.855	88.24
326.084	89.64
326.313	86.04
326.542	89.64
326.77	80.44
326.999	84.04
327.228	85.04
327.457	83.84
327.686	88.44
327.914	82.44
328.143	82.24
328.372	86.44
328.6	82.04
328.829	87.04
329.058	80.44
329.287	77.84
329.515	82.44
329.744	87.24
329.972	78.44
330.201	79.84
330.43	82.44
330.658	81.64
330.887	84.64
331.115	84.24
331.344	83.84
331.572	95.04
331.801	83.64
332.03	81.44
332.258	81.44
332.486	86.24
332.715	87.84
332.943	88.44
333.172	82.04
333.4	86.24
333.629	87.24
333.857	84.24
334.085	83.44
334.314	85.24
334.542	80.44
334.771	84.04
334.999	88.24
335.227	88.64
335.455	86.44
335.684	81.64
335.912	81.84
336.14	81.24
336.369	78.64
336.597	86.64
336.825	86.64
337.053	86.04
337.281	88.24
337.51	86.44
337.738	77.24
337.966	79.24
338.194	80.64
338.422	88.04
338.65	88.44
338.878	84.84
339.106	77.84
339.334	82.44
339.562	83.64
339.79	84.04
340.018	87.44
340.246	85.24
340.474	88.24
340.702	81.44
340.93	81.24
341.158	83.24
341.386	86.44
341.614	87.64
341.842	82.44
342.07	78.84
342.298	85.24
342.526	81.04
342.754	85.44
342.981	91.64
343.209	82.84
343.437	84.04
343.665	84.44
343.893	86.44
344.12	80.64
344.348	80.24
344.576	78.04
344.804	82.44
345.031	80.24
345.259	81.24
345.487	84.44
345.714	83.04
345.942	83.64
346.17	82.44
346.397	78.64
346.625	90.04
346.853	86.24
347.08	89.04
347.308	82.64
347.535	90.64
347.763	83.84
347.99	81.64
348.218	82.84
348.445	77.44
348.673	84.24
348.9	85.04
349.128	73.04
349.355	88.04
349.583	85.04
349.81	86.24
350.037	79.84
350.265	73.44
350.492	77.84
350.72	89.04
350.947	81.84
351.174	90.84
351.402	83.24
351.629	86.24
351.856	86.84
352.083	84.04
352.311	76.44
352.538	80.24
352.765	76.64
352.992	83.84
353.22	81.64
353.447	85.24
353.674	83.44
353.901	85.24
354.128	86.64
354.355	78.04
354.583	79.44
354.81	77.24
355.037	85.64
355.264	83.64
355.491	81.64
355.718	86.24
355.945	83.04
356.172	81.44
356.399	84.44
356.626	87.44
356.853	80.04
357.08	81.44
357.307	83.24
357.534	85.84
357.761	84.24
357.988	81.64
358.215	76.04
358.441	85.64
358.668	86.24
358.895	84.24
359.122	85.04
359.349	78.24
359.576	85.44
359.802	86.24
360.029	83.44
360.256	84.44
360.483	86.44
360.709	86.64
360.936	80.84
361.163	92.04
361.39	86.64
361.616	75.24
361.843	77.64
362.07	82.24
362.296	79.64
362.523	83.64
362.749	84.64
362.976	84.04
363.203	87.44
363.429	87.64
363.656	87.84
363.882	85.04
364.109	85.64
364.335	84.24
364.562	90.04
364.788	86.44
365.015	81.64
365.241	77.64
365.468	78.04
365.694	83.84
365.92	84.84
366.147	84.44
366.373	83.04
366.599	82.44
366.826	86.04
367.052	80.24
367.278	82.24
367.505	85.24
367.731	84.04
367.957	84.84
368.184	80.44
368.41	80.44
368.636	74.24
368.862	83.84
369.089	82.44
369.315	86.44
369.541	82.24
369.767	86.64
369.993	87.24
370.219	83.64
370.445	79.24
370.672	77.44
370.898	85.84
371.124	83.44
371.35	76.64
371.576	85.84
371.802	80.84
372.028	82.64
372.254	86.84
372.48	82.64
372.706	81.84
372.932	84.84
373.158	83.24
373.384	85.04
373.61	84.04
373.835	82.64
374.061	87.24
374.287	90.44
374.513	84.04
374.739	80.64
374.965	82.04
375.191	81.64
375.416	82.64
375.642	80.64
375.868	85.04
376.094	81.44
376.319	78.44
376.545	77.64
376.771	84.84
376.997	82.44
377.222	83.64
377.448	83.24
377.674	83.04
377.899	84.44
378.125	82.04
378.35	83.24
378.576	80.24
378.802	84.24
379.027	83.04
379.253	84.84
379.478	86.04
379.704	84.44
379.929	80.44
380.155	84.04
380.38	80.64
380.606	84.04
380.831	85.44
381.057	81.64
381.282	79.84
381.507	87.24
381.733	89.64
381.958	79.24
382.184	88.44
382.409	77.64
382.634	85.04
382.86	83.04
383.085	80.64
383.31	81.64
383.535	83.64
383.761	79.84
383.986	87.24
384.211	84.04
384.436	84.84
384.662	82.84
384.887	81.44
385.112	81.44
385.337	84.64
385.562	83.24
385.787	82.04
386.013	79.84
386.238	80.84
386.463	80.84
386.688	88.84
386.913	80.24
387.138	80.44
387.363	79.84
387.588	78.04
387.813	84.64
388.038	85.64
388.263	80.04
388.488	88.04
388.713	82.64
388.938	76.64
389.163	82.84
389.387	81.64
389.612	83.44
389.837	75.84
390.062	87.44
390.287	75.64
390.512	81.84
390.736	83.04
390.961	82.64
391.186	84.64
391.411	83.24
391.636	81.24
391.86	80.84
392.085	80.04
392.31	80.24
392.534	77.64
392.759	75.24
392.984	85.44
393.208	80.44
393.433	84.84
393.658	85.24
393.882	85.04
394.107	80.44
394.331	83.64
394.556	81.44
394.78	84.24
395.005	80.84
395.229	81.84
395.454	79.64
395.678	79.44
395.903	88.64
396.127	80.64
396.352	88.84
396.576	82.24
396.801	82.84
397.025	84.44
397.249	80.84
397.474	81.44
397.698	88.64
397.922	88.44
398.147	88.64
398.371	77.04
398.595	83.64
398.82	84.04
399.044	83.24
399.268	85.44
399.492	84.24
399.717	84.64
399.941	84.44
400.165	89.64
400.389	83.24
400.613	78.64
400.837	80.04
401.062	81.84
401.286	83.24
401.51	88.24
401.734	81.84
401.958	81.24
402.182	79.64
402.406	76.04
402.63	80.04
402.854	81.04
403.078	88.64
403.302	81.44
403.526	77.24
403.75	80.64
403.974	86.44
404.198	83.24
404.422	83.24
404.645	79.04
404.869	84.44
405.093	82.84
405.317	82.24
405.541	74.84
405.765	84.84
405.988	78.64
406.212	80.44
406.436	85.44
406.66	79.64
406.883	80.64
407.107	81.24
407.331	79.64
407.555	82.44
407.778	77.64
408.002	90.64
408.226	81.04
408.449	81.04
408.673	78.44
408.896	80.44
409.12	82.44
409.344	78.44
409.567	77.44
409.791	80.64
410.014	77.24
410.238	85.24
410.461	84.84
410.685	81.84
410.908	80.64
411.132	84.44
411.355	84.44
411.578	84.44
411.802	83.04
412.025	83.04
412.249	87.44
412.472	83.44
412.695	79.44
412.919	82.84
413.142	77.24
413.365	81.24
413.589	74.44
413.812	86.84
414.035	85.84
414.258	82.64
414.482	79.24
414.705	82.04
414.928	79.24
415.151	79.04
415.374	76.64
415.597	81.04
415.821	81.84
416.044	79.64
416.267	76.84
416.49	83.84
416.713	78.24
416.936	77.24
417.159	81.24
417.382	83.24
417.605	84.04
417.828	80.44
418.051	80.04
418.274	82.24
418.497	85.04
418.72	78.24
418.943	80.84
419.166	84.84
419.389	78.04
419.611	80.64
419.834	85.44
420.057	83.64
420.28	82.64
420.503	79.04
420.726	78.44
420.948	83.64
421.171	90.24
421.394	77.44
421.617	82.84
421.839	78.24
422.062	82.24
422.285	80.84
422.507	79.44
422.73	77.84
422.953	86.04
423.175	79.84
423.398	83.24
423.621	82.84
423.843	79.84
424.066	81.84
424.288	80.44
424.511	79.84
424.733	87.44
424.956	83.64
425.178	83.84
425.401	84.44
425.623	80.64
425.846	80.24
426.068	77.64
426.291	80.04
426.513	79.64
426.735	77.84
426.958	82.24
427.18	75.04
427.402	87.84
427.625	78.24
427.847	82.64
428.069	82.84
428.292	81.04
428.514	81.84
428.736	81.04
428.958	78.04
429.181	77.64
429.403	81.24
429.625	83.24
429.847	84.84
430.069	77.04
430.292	84.24
430.514	73.44
430.736	79.04
430.958	82.04
431.18	85.04
431.402	80.44
431.624	83.44
431.846	84.04
432.068	80.24
432.29	80.24
432.512	77.04
432.734	81.84
432.956	75.84
433.178	80.04
433.4	85.24
433.622	77.44
433.844	80.24
434.066	78.64
434.287	88.24
434.509	84.04
434.731	84.44
434.953	75.04
435.175	73.84
435.397	84.04
435.618	79.44
435.84	81.64
436.062	82.24
436.284	83.04
436.505	85.04
436.727	75.84
436.949	78.64
437.17	82.04
437.392	77.44
437.614	82.04
437.835	85.44
438.057	85.64
438.278	79.84
438.5	79.64
438.721	79.84
438.943	84.84
439.165	83.04
439.386	83.64
439.608	78.84
439.829	80.84
440.05	82.44
440.272	83.04
440.493	80.44
440.715	81.24
440.936	85.84
441.158	85.64
441.379	88.44
441.6	83.24
441.822	76.04
442.043	84.84
442.264	81.04
442.486	81.84
442.707	77.44
442.928	85.64
443.149	83.44
443.371	77.44
443.592	85.04
443.813	84.44
444.034	80.84
444.255	76.64
444.476	78.24
444.698	77.24
444.919	79.84
445.14	87.44
445.361	83.24
445.582	81.64
445.803	85.44
446.024	80.44
446.245	83.04
446.466	75.04
446.687	81.84
446.908	79.04
447.129	79.64
447.35	76.44
447.571	77.04
447.792	84.64
448.013	83.44
448.234	86.24
448.455	82.44
448.675	81.24
448.896	85.24
449.117	73.24
449.338	84.84
449.559	85.24
449.779	75.44
450	79.24
450.221	71.44
450.442	79.24
450.662	82.04
450.883	81.44
451.104	77.44
451.324	78.64
451.545	84.24
451.766	85.84
451.986	85.04
452.207	85.04
452.428	80.84
452.648	78.04
452.869	80.64
453.089	76.64
453.31	81.24
453.53	85.84
453.751	85.44
453.971	83.44
454.192	86.04
454.412	83.04
454.633	85.24
454.853	81.04
455.073	81.04
455.294	85.24
455.514	84.24
455.734	81.04
455.955	80.44
456.175	74.04
456.395	75.04
456.616	77.44
456.836	80.84
457.056	77.24
457.276	81.84
457.497	78.84
457.717	84.04
457.937	82.04
458.157	82.44
458.377	81.24
458.598	80.64
458.818	77.44
459.038	74.04
459.258	83.24
459.478	85.24
459.698	87.04
459.918	82.64
460.138	81.64
460.358	78.64
460.578	79.84
460.798	80.84
461.018	80.04
461.238	81.04
461.458	77.84
461.678	83.24
461.898	82.84
462.118	84.24
462.338	75.44
462.558	87.84
462.777	84.44
462.997	78.84
463.217	84.44
463.437	82.44
463.657	78.04
463.876	79.84
464.096	77.44
464.316	78.24
464.536	81.64
464.755	83.04
464.975	77.84
465.195	79.44
465.414	77.04
465.634	79.44
465.854	78.64
466.073	77.44
466.293	82.44
466.512	88.44
466.732	82.64
466.951	84.84
467.171	79.84
467.391	81.44
467.61	78.24
467.829	83.24
468.049	73.84
468.268	77.44
468.488	82.44
468.707	79.84
468.927	78.44
469.146	81.64
469.365	78.04
469.585	86.84
469.804	81.64
470.023	83.04
470.243	83.44
470.462	77.84
470.681	78.84
470.901	85.64
471.12	82.84
471.339	84.24
471.558	85.44
471.777	83.44
471.997	81.04
472.216	80.64
472.435	85.04
472.654	83.24
472.873	80.64
473.092	80.24
473.311	83.24
473.53	85.44
473.749	78.44
473.968	81.84
474.187	83.84
474.406	86.64
474.625	81.64
474.844	76.64
475.063	82.04
475.282	76.44
475.501	89.44
475.72	84.84
475.939	85.64
476.158	85.24
476.377	80.04
476.596	83.24
476.814	78.84
477.033	81.44
477.252	86.04
477.471	86.64
477.69	77.44
477.908	84.84
478.127	81.44
478.346	80.24
478.564	75.64
478.783	81.04
479.002	82.04
479.22	81.04
479.439	87.04
479.658	81.44
479.876	83.04
480.095	86.04
480.313	77.04
480.532	79.04
480.751	80.84
480.969	82.04
481.188	82.04
481.406	83.64
481.624	85.04
481.843	81.84
482.061	76.84
482.28	81.84
482.498	84.04
482.717	78.24
482.935	81.44
483.153	79.64
483.372	85.64
483.59	79.64
483.808	80.64
484.027	76.84
484.245	80.04
484.463	78.44
484.681	82.44
484.9	81.84
485.118	78.24
485.336	82.64
485.554	84.64
485.772	78.84
485.99	82.84
486.209	77.84
486.427	83.64
486.645	76.24
486.863	83.24
487.081	81.44
487.299	79.44
487.517	80.84
487.735	78.64
487.953	79.04
488.171	81.04
488.389	87.44
488.607	88.04
488.825	79.84
489.043	85.04
489.261	86.84
489.479	88.04
489.696	84.84
489.914	86.24
490.132	85.24
490.35	78.44
490.568	75.84
490.786	81.24
491.003	83.24
491.221	80.04
491.439	79.04
491.657	83.84
491.874	82.44
492.092	85.84
492.31	83.84
492.527	86.04
492.745	79.44
492.963	84.04
493.18	90.24
493.398	83.84
493.615	79.64
493.833	78.84
494.05	80.44
494.268	80.44
494.485	89.04
494.703	80.44
494.92	81.84
495.138	82.04
495.355	77.44
495.573	80.24
495.79	83.44
496.008	73.44
496.225	78.04
496.442	82.04
496.66	83.64
496.877	83.84
497.094	86.84
497.312	91.04
497.529	84.84
497.746	80.04
497.963	84.84
498.181	82.64
498.398	83.04
498.615	88.84
498.832	80.44
499.049	78.44
499.267	78.04
499.484	85.44
499.701	85.64
499.918	87.24
500.135	90.44
500.352	77.84
500.569	86.44
500.786	84.44
501.003	81.44
501.22	84.04
501.437	79.84
501.654	86.04
501.871	81.04
502.088	84.84
502.305	89.04
502.522	89.64
502.739	84.44
502.956	82.04
503.172	79.64
503.389	86.24
503.606	83.64
503.823	83.64
504.04	82.84
504.256	85.04
504.473	84.44
504.69	81.44
504.907	80.04
505.123	79.64
505.34	75.64
505.557	82.84
505.773	80.84
505.99	80.84
506.207	81.44
506.423	84.44
506.64	82.04
506.856	84.44
507.073	82.64
507.289	80.64
507.506	79.24
507.722	82.04
507.939	80.44
508.155	81.24
508.372	85.04
508.588	86.44
508.805	85.04
509.021	83.04
509.238	73.84
509.454	84.04
509.67	81.04
509.887	73.04
510.103	80.04
510.319	76.84
510.536	83.84
510.752	83.84
510.968	80.44
511.184	83.84
511.401	81.84
511.617	84.64
511.833	87.24
512.049	81.44
512.265	79.44
512.481	85.64
512.698	81.64
512.914	86.84
513.13	88.24
513.346	85.64
513.562	80.24
513.778	87.24
513.994	85.24
514.21	83.64
514.426	78.84
514.642	81.04
514.858	84.44
515.074	84.64
515.29	83.04
515.506	86.44
515.721	84.24
515.937	88.84
516.153	82.44
516.369	84.44
516.585	85.44
516.801	81.04
517.016	84.84
517.232	80.64
517.448	79.04
517.664	78.64
517.879	85.64
518.095	83.44
518.311	85.44
518.527	82.04
518.742	79.24
518.958	79.64
519.173	94.24
519.389	88.84
519.605	84.24
519.82	81.84
520.036	91.04
520.251	75.24
