Data from TenMicroDelayPb_HRD10591_00006.txt Node
Date: Mon Nov 24 14:34:24 EST 2025
User: Yrep
Spectrometer: HR+D1059
Trigger mode: 0
Integration Time (sec): 1.000000E-2
Scans to average: 5
Electric dark correction enabled: true
Nonlinearity correction enabled: false
Boxcar width: 0
XAxis mode: Wavelengths
Number of Pixels in Spectrum: 2048
>>>>>Begin Spectral Data<<<<<
223.165	-11.89
223.4	-11.89
223.635	-11.89
223.869	-13.69
224.104	-16.49
224.338	-19.09
224.573	-17.69
224.808	-19.09
225.042	-7.89
225.277	-2.49
225.511	-6.49
225.746	2.91
225.98	9.31
226.215	6.11
226.449	12.51
226.683	22.91
226.918	28.91
227.152	32.11
227.387	31.51
227.621	37.31
227.856	36.11
228.09	52.11
228.324	52.91
228.559	53.71
228.793	56.51
229.027	58.11
229.262	62.11
229.496	66.71
229.73	71.31
229.964	71.91
230.199	78.91
230.433	75.31
230.667	75.71
230.901	79.31
231.136	86.31
231.37	76.11
231.604	79.51
231.838	84.91
232.072	73.11
232.306	84.51
232.541	79.91
232.775	78.51
233.009	85.71
233.243	77.51
233.477	83.51
233.711	80.91
233.945	83.91
234.179	83.91
234.413	82.31
234.647	76.31
234.881	78.11
235.115	74.71
235.349	77.91
235.583	75.71
235.817	76.31
236.051	78.31
236.285	80.31
236.519	76.71
236.753	78.51
236.987	80.31
237.221	75.31
237.455	75.91
237.689	77.31
237.922	78.71
238.156	77.11
238.39	76.91
238.624	70.51
238.858	73.31
239.091	76.11
239.325	75.71
239.559	77.31
239.793	74.71
240.027	80.51
240.26	72.51
240.494	74.51
240.728	76.51
240.961	77.71
241.195	82.71
241.429	75.31
241.662	75.11
241.896	74.71
242.13	72.91
242.363	81.31
242.597	76.71
242.83	76.11
243.064	75.11
243.298	72.11
243.531	80.11
243.765	79.71
243.998	85.71
244.232	81.31
244.465	82.11
244.699	79.91
244.932	73.51
245.166	73.51
245.399	72.31
245.633	71.51
245.866	73.11
246.099	80.11
246.333	76.71
246.566	80.71
246.8	83.71
247.033	72.91
247.266	73.51
247.5	76.51
247.733	78.51
247.966	82.11
248.2	79.11
248.433	73.51
248.666	81.11
248.899	82.71
249.133	81.51
249.366	72.11
249.599	74.71
249.832	76.31
250.066	78.51
250.299	79.71
250.532	79.91
250.765	77.11
250.998	76.51
251.231	79.11
251.465	80.91
251.698	81.51
251.931	79.51
252.164	78.91
252.397	79.11
252.63	73.51
252.863	83.91
253.096	80.31
253.329	75.91
253.562	75.91
253.795	84.91
254.028	76.31
254.261	84.31
254.494	72.11
254.727	78.11
254.96	81.31
255.193	76.91
255.426	77.11
255.659	78.91
255.892	78.91
256.124	79.91
256.357	82.71
256.59	77.91
256.823	78.31
257.056	80.11
257.289	82.71
257.521	83.31
257.754	83.11
257.987	83.31
258.22	79.91
258.452	73.71
258.685	82.51
258.918	76.11
259.151	75.51
259.383	74.91
259.616	82.91
259.849	78.31
260.081	73.11
260.314	82.51
260.547	84.31
260.779	82.71
261.012	82.51
261.244	81.91
261.477	80.11
261.71	81.11
261.942	85.31
262.175	77.51
262.407	82.11
262.64	83.31
262.872	83.31
263.105	84.91
263.337	82.11
263.57	81.91
263.802	83.31
264.035	81.51
264.267	82.31
264.499	77.71
264.732	81.31
264.964	80.31
265.197	75.71
265.429	82.71
265.661	81.11
265.894	80.71
266.126	82.71
266.358	84.31
266.591	82.91
266.823	87.11
267.055	84.71
267.287	85.91
267.52	82.31
267.752	75.71
267.984	75.71
268.216	81.51
268.448	73.11
268.681	83.11
268.913	87.11
269.145	85.71
269.377	81.51
269.609	85.71
269.841	83.11
270.073	79.71
270.306	76.71
270.538	84.51
270.77	85.31
271.002	79.31
271.234	85.11
271.466	81.71
271.698	83.31
271.93	86.51
272.162	80.51
272.394	86.71
272.626	80.31
272.858	79.71
273.09	74.91
273.322	81.11
273.553	76.11
273.785	82.51
274.017	85.11
274.249	73.51
274.481	82.71
274.713	86.51
274.945	84.71
275.176	81.91
275.408	81.11
275.64	81.31
275.872	80.71
276.104	80.71
276.335	90.11
276.567	86.51
276.799	79.51
277.031	86.31
277.262	82.11
277.494	82.51
277.726	81.31
277.957	83.31
278.189	82.11
278.421	86.11
278.652	81.51
278.884	83.71
279.115	86.31
279.347	87.91
279.579	83.71
279.81	83.91
280.042	78.91
280.273	88.91
280.505	87.91
280.736	78.91
280.968	84.31
281.199	86.31
281.431	86.71
281.662	85.71
281.894	83.91
282.125	85.91
282.356	83.31
282.588	89.11
282.819	86.11
283.051	81.11
283.282	84.31
283.513	85.31
283.745	84.31
283.976	81.91
284.207	90.71
284.439	77.11
284.67	78.11
284.901	84.91
285.132	80.51
285.364	84.71
285.595	86.31
285.826	81.91
286.057	76.31
286.288	82.31
286.52	86.91
286.751	85.51
286.982	89.11
287.213	79.31
287.444	89.11
287.675	82.51
287.906	82.71
288.138	82.11
288.369	84.91
288.6	84.71
288.831	86.91
289.062	76.91
289.293	89.91
289.524	79.31
289.755	86.91
289.986	84.31
290.217	84.91
290.448	85.91
290.679	80.71
290.91	82.31
291.141	88.31
291.371	88.31
291.602	89.51
291.833	85.91
292.064	84.71
292.295	77.31
292.526	85.91
292.757	81.31
292.987	87.11
293.218	73.91
293.449	84.91
293.68	84.71
293.91	85.11
294.141	90.31
294.372	88.31
294.603	87.51
294.833	90.11
295.064	83.91
295.295	86.51
295.525	83.11
295.756	82.11
295.987	82.91
296.217	84.11
296.448	86.11
296.679	79.71
296.909	83.31
297.14	82.71
297.37	80.31
297.601	85.71
297.831	84.91
298.062	88.31
298.292	84.71
298.523	90.31
298.753	87.51
298.984	77.31
299.214	82.71
299.445	84.51
299.675	87.71
299.905	83.51
300.136	88.11
300.366	77.31
300.597	80.31
300.827	90.51
301.057	85.51
301.288	85.51
301.518	80.71
301.748	86.11
301.979	83.11
302.209	84.91
302.439	80.71
302.669	88.31
302.9	84.11
303.13	86.51
303.36	91.71
303.59	87.31
303.82	74.51
304.051	88.71
304.281	84.51
304.511	82.51
304.741	86.31
304.971	79.91
305.201	88.91
305.431	81.51
305.661	86.51
305.891	82.11
306.121	85.71
306.352	84.51
306.582	87.31
306.812	80.31
307.042	86.71
307.272	87.11
307.502	82.91
307.731	85.51
307.961	84.91
308.191	86.71
308.421	79.51
308.651	79.11
308.881	81.91
309.111	83.71
309.341	83.91
309.571	82.11
309.8	86.31
310.03	87.91
310.26	87.51
310.49	82.31
310.72	89.11
310.949	80.11
311.179	81.11
311.409	84.51
311.639	84.31
311.868	87.11
312.098	85.91
312.328	82.91
312.557	85.11
312.787	88.91
313.017	88.91
313.246	79.51
313.476	80.31
313.706	83.31
313.935	80.91
314.165	86.91
314.394	82.51
314.624	87.51
314.853	85.91
315.083	80.51
315.312	81.71
315.542	89.11
315.771	85.11
316.001	81.11
316.23	85.91
316.46	87.71
316.689	83.11
316.919	83.91
317.148	81.91
317.377	75.31
317.607	85.51
317.836	78.11
318.065	85.11
318.295	85.31
318.524	84.11
318.753	87.71
318.983	92.31
319.212	81.31
319.441	84.71
319.67	88.51
319.9	78.71
320.129	83.91
320.358	89.51
320.587	86.71
320.816	80.31
321.046	77.51
321.275	83.91
321.504	82.91
321.733	84.91
321.962	80.91
322.191	83.71
322.42	91.71
322.649	86.31
322.878	79.91
323.108	76.51
323.337	79.51
323.566	89.51
323.795	82.11
324.024	80.31
324.253	82.31
324.482	92.91
324.71	78.51
324.939	84.31
325.168	78.31
325.397	81.11
325.626	87.51
325.855	85.51
326.084	91.31
326.313	82.51
326.542	82.71
326.77	81.51
326.999	89.91
327.228	81.51
327.457	82.31
327.686	81.31
327.914	76.31
328.143	87.51
328.372	83.31
328.6	81.91
328.829	81.71
329.058	81.71
329.287	86.31
329.515	84.91
329.744	77.31
329.972	79.91
330.201	85.11
330.43	82.91
330.658	87.11
330.887	83.11
331.115	80.91
331.344	80.91
331.572	83.51
331.801	84.31
332.03	83.11
332.258	84.91
332.486	85.11
332.715	84.11
332.943	83.71
333.172	86.71
333.4	79.31
333.629	85.11
333.857	85.51
334.085	81.11
334.314	83.51
334.542	89.31
334.771	80.91
334.999	83.71
335.227	79.71
335.455	80.31
335.684	81.31
335.912	86.51
336.14	88.51
336.369	85.31
336.597	86.31
336.825	83.91
337.053	89.31
337.281	85.11
337.51	81.51
337.738	82.71
337.966	80.51
338.194	93.91
338.422	83.91
338.65	83.71
338.878	86.71
339.106	79.31
339.334	88.71
339.562	85.71
339.79	79.51
340.018	82.11
340.246	84.11
340.474	88.51
340.702	83.51
340.93	82.31
341.158	76.71
341.386	88.91
341.614	82.51
341.842	82.11
342.07	80.31
342.298	80.91
342.526	79.51
342.754	87.31
342.981	83.11
343.209	79.11
343.437	80.31
343.665	78.71
343.893	83.51
344.12	80.31
344.348	92.71
344.576	84.31
344.804	85.91
345.031	90.71
345.259	85.31
345.487	84.11
345.714	82.51
345.942	87.31
346.17	79.71
346.397	84.11
346.625	85.51
346.853	84.71
347.08	83.11
347.308	82.11
347.535	75.91
347.763	83.31
347.99	80.91
348.218	78.71
348.445	85.31
348.673	79.51
348.9	79.51
349.128	84.71
349.355	79.51
349.583	81.71
349.81	82.31
350.037	81.91
350.265	86.11
350.492	82.51
350.72	89.31
350.947	81.71
351.174	78.51
351.402	75.31
351.629	84.31
351.856	80.11
352.083	83.91
352.311	80.71
352.538	81.91
352.765	83.71
352.992	89.51
353.22	86.71
353.447	82.11
353.674	88.71
353.901	75.71
354.128	81.51
354.355	86.11
354.583	86.51
354.81	84.91
355.037	91.51
355.264	80.91
355.491	79.11
355.718	83.91
355.945	77.11
356.172	83.31
356.399	86.51
356.626	81.71
356.853	84.31
357.08	82.91
357.307	90.31
357.534	80.11
357.761	84.91
357.988	81.71
358.215	80.31
358.441	82.91
358.668	80.51
358.895	85.71
359.122	90.51
359.349	81.31
359.576	87.71
359.802	81.71
360.029	80.11
360.256	76.31
360.483	87.51
360.709	88.51
360.936	82.11
361.163	89.11
361.39	84.31
361.616	82.91
361.843	81.11
362.07	76.91
362.296	77.91
362.523	84.71
362.749	85.31
362.976	76.91
363.203	83.91
363.429	80.71
363.656	74.71
363.882	85.31
364.109	81.31
364.335	85.11
364.562	86.71
364.788	81.51
365.015	83.11
365.241	86.31
365.468	92.51
365.694	84.31
365.92	81.91
366.147	83.91
366.373	83.31
366.599	87.51
366.826	85.31
367.052	88.31
367.278	86.91
367.505	80.11
367.731	84.11
367.957	84.91
368.184	76.31
368.41	79.71
368.636	84.31
368.862	77.71
369.089	79.51
369.315	79.31
369.541	79.91
369.767	88.31
369.993	87.91
370.219	78.91
370.445	84.91
370.672	82.11
370.898	75.11
371.124	79.31
371.35	84.11
371.576	83.11
371.802	76.11
372.028	80.31
372.254	77.31
372.48	79.51
372.706	78.51
372.932	85.71
373.158	83.91
373.384	79.91
373.61	82.31
373.835	83.51
374.061	85.31
374.287	79.91
374.513	86.31
374.739	81.11
374.965	82.11
375.191	83.31
375.416	83.71
375.642	82.71
375.868	82.71
376.094	90.51
376.319	81.31
376.545	86.11
376.771	80.91
376.997	82.91
377.222	81.51
377.448	84.31
377.674	81.31
377.899	86.51
378.125	84.71
378.35	77.71
378.576	77.91
378.802	80.91
379.027	86.71
379.253	83.11
379.478	82.91
379.704	81.11
379.929	85.91
380.155	84.11
380.38	74.11
380.606	84.71
380.831	81.11
381.057	79.51
381.282	86.71
381.507	83.11
381.733	87.51
381.958	80.31
382.184	83.91
382.409	80.71
382.634	80.11
382.86	80.31
383.085	83.11
383.31	81.51
383.535	80.31
383.761	77.71
383.986	82.91
384.211	82.11
384.436	79.11
384.662	79.11
384.887	82.51
385.112	83.91
385.337	83.91
385.562	87.31
385.787	78.51
386.013	81.51
386.238	78.11
386.463	78.31
386.688	80.11
386.913	91.11
387.138	81.91
387.363	82.31
387.588	88.91
387.813	79.71
388.038	83.91
388.263	80.71
388.488	81.51
388.713	78.51
388.938	76.91
389.163	80.71
389.387	87.91
389.612	76.11
389.837	85.91
390.062	85.31
390.287	80.11
390.512	82.11
390.736	79.51
390.961	81.31
391.186	84.91
391.411	85.31
391.636	81.31
391.86	83.51
392.085	78.11
392.31	82.11
392.534	77.51
392.759	83.51
392.984	81.31
393.208	82.31
393.433	80.91
393.658	76.91
393.882	85.31
394.107	82.71
394.331	78.51
394.556	78.91
394.78	87.11
395.005	88.71
395.229	82.11
395.454	79.91
395.678	75.11
395.903	85.51
396.127	77.11
396.352	80.51
396.576	76.31
396.801	81.91
397.025	83.51
397.249	85.51
397.474	81.51
397.698	79.91
397.922	82.71
398.147	79.71
398.371	77.91
398.595	78.71
398.82	74.91
399.044	81.71
399.268	82.51
399.492	83.31
399.717	81.31
399.941	83.51
400.165	84.11
400.389	82.11
400.613	85.71
400.837	80.91
401.062	78.71
401.286	80.31
401.51	86.11
401.734	80.71
401.958	84.71
402.182	80.71
402.406	81.71
402.63	80.51
402.854	81.71
403.078	82.11
403.302	78.91
403.526	80.11
403.75	77.71
403.974	78.31
404.198	79.91
404.422	82.11
404.645	80.91
404.869	75.71
405.093	82.31
405.317	79.31
405.541	80.31
405.765	80.71
405.988	81.91
406.212	79.31
406.436	87.71
406.66	76.91
406.883	84.31
407.107	82.91
407.331	80.91
407.555	81.71
407.778	82.51
408.002	81.31
408.226	81.31
408.449	84.11
408.673	83.51
408.896	82.31
409.12	82.51
409.344	79.11
409.567	81.91
409.791	81.91
410.014	90.51
410.238	83.31
410.461	80.71
410.685	82.11
410.908	74.71
411.132	80.51
411.355	81.11
411.578	80.11
411.802	79.51
412.025	82.11
412.249	78.31
412.472	78.11
412.695	82.91
412.919	81.91
413.142	82.51
413.365	82.51
413.589	77.11
413.812	88.51
414.035	82.71
414.258	75.51
414.482	76.71
414.705	77.51
414.928	79.71
415.151	78.51
415.374	82.51
415.597	82.71
415.821	80.11
416.044	81.91
416.267	79.31
416.49	84.11
416.713	76.11
416.936	88.11
417.159	86.71
417.382	79.31
417.605	79.91
417.828	74.71
418.051	81.51
418.274	75.71
418.497	80.71
418.72	81.31
418.943	83.91
419.166	87.11
419.389	82.11
419.611	82.91
419.834	78.11
420.057	78.31
420.28	73.51
420.503	76.71
420.726	77.51
420.948	82.91
421.171	84.11
421.394	83.91
421.617	83.31
421.839	78.71
422.062	81.11
422.285	84.91
422.507	75.11
422.73	84.31
422.953	81.91
423.175	79.51
423.398	81.31
423.621	82.51
423.843	78.31
424.066	84.71
424.288	77.51
424.511	91.71
424.733	86.71
424.956	79.31
425.178	76.31
425.401	80.71
425.623	84.11
425.846	77.91
426.068	81.51
426.291	84.91
426.513	80.71
426.735	78.91
426.958	88.91
427.18	78.91
427.402	80.11
427.625	79.71
427.847	85.71
428.069	84.71
428.292	82.31
428.514	80.91
428.736	86.11
428.958	85.71
429.181	80.51
429.403	83.51
429.625	86.31
429.847	82.11
430.069	85.11
430.292	82.11
430.514	81.91
430.736	79.11
430.958	81.51
431.18	87.31
431.402	78.71
431.624	82.71
431.846	90.51
432.068	87.71
432.29	83.91
432.512	82.31
432.734	77.71
432.956	82.91
433.178	78.11
433.4	77.51
433.622	80.71
433.844	81.51
434.066	76.31
434.287	81.31
434.509	75.11
434.731	76.31
434.953	78.51
435.175	79.71
435.397	80.71
435.618	81.31
435.84	78.71
436.062	86.71
436.284	79.11
436.505	85.71
436.727	81.11
436.949	75.71
437.17	80.11
437.392	79.51
437.614	81.11
437.835	84.11
438.057	78.31
438.278	82.71
438.5	81.51
438.721	78.71
438.943	83.91
439.165	77.91
439.386	81.11
439.608	79.51
439.829	80.91
440.05	81.31
440.272	75.71
440.493	81.91
440.715	82.51
440.936	87.51
441.158	80.71
441.379	79.51
441.6	75.51
441.822	84.51
442.043	79.91
442.264	80.51
442.486	81.11
442.707	76.91
442.928	79.71
443.149	86.31
443.371	76.91
443.592	79.31
443.813	80.51
444.034	83.71
444.255	81.71
444.476	79.11
444.698	78.11
444.919	80.51
445.14	89.91
445.361	81.11
445.582	83.51
445.803	81.51
446.024	85.11
446.245	76.11
446.466	89.91
446.687	78.91
446.908	83.91
447.129	84.91
447.35	80.51
447.571	81.11
447.792	84.31
448.013	82.11
448.234	85.11
448.455	85.51
448.675	80.11
448.896	81.71
449.117	86.71
449.338	82.31
449.559	79.11
449.779	79.31
450	82.11
450.221	81.11
450.442	79.11
450.662	82.51
450.883	78.51
451.104	88.71
451.324	91.51
451.545	84.91
451.766	83.71
451.986	85.11
452.207	81.71
452.428	82.31
452.648	76.91
452.869	81.11
453.089	76.51
453.31	83.11
453.53	82.31
453.751	83.31
453.971	85.51
454.192	75.91
454.412	78.51
454.633	80.11
454.853	80.51
455.073	87.51
455.294	81.11
455.514	84.71
455.734	85.91
455.955	86.91
456.175	75.91
456.395	82.91
456.616	83.11
456.836	85.31
457.056	78.91
457.276	88.31
457.497	83.11
457.717	77.91
457.937	76.51
458.157	80.11
458.377	85.31
458.598	85.51
458.818	80.51
459.038	82.91
459.258	87.71
459.478	76.11
459.698	83.11
459.918	83.71
460.138	82.91
460.358	85.91
460.578	81.11
460.798	83.31
461.018	78.91
461.238	79.71
461.458	82.91
461.678	81.51
461.898	82.51
462.118	84.71
462.338	87.11
462.558	85.91
462.777	85.11
462.997	75.91
463.217	81.11
463.437	78.71
463.657	78.11
463.876	83.91
464.096	77.91
464.316	80.51
464.536	80.31
464.755	76.71
464.975	82.71
465.195	84.91
465.414	78.11
465.634	84.71
465.854	87.71
466.073	81.51
466.293	79.11
466.512	73.31
466.732	84.51
466.951	86.51
467.171	81.11
467.391	84.11
467.61	82.71
467.829	85.11
468.049	87.71
468.268	78.11
468.488	81.51
468.707	81.91
468.927	78.71
469.146	83.71
469.365	86.31
469.585	73.91
469.804	78.71
470.023	79.71
470.243	80.71
470.462	85.71
470.681	82.11
470.901	79.31
471.12	78.11
471.339	80.71
471.558	83.31
471.777	85.71
471.997	79.51
472.216	82.51
472.435	82.71
472.654	76.71
472.873	87.51
473.092	83.91
473.311	85.71
473.53	81.51
473.749	87.71
473.968	82.71
474.187	79.91
474.406	78.71
474.625	89.71
474.844	84.51
475.063	78.11
475.282	79.31
475.501	80.71
475.72	80.71
475.939	78.91
476.158	86.91
476.377	88.71
476.596	83.11
476.814	81.51
477.033	84.11
477.252	82.31
477.471	86.31
477.69	84.31
477.908	81.71
478.127	88.51
478.346	80.11
478.564	76.51
478.783	82.51
479.002	82.71
479.22	83.91
479.439	82.31
479.658	76.91
479.876	79.31
480.095	79.71
480.313	83.31
480.532	82.51
480.751	85.31
480.969	83.51
481.188	78.51
481.406	81.31
481.624	84.51
481.843	81.71
482.061	79.31
482.28	79.31
482.498	81.91
482.717	78.31
482.935	79.91
483.153	76.71
483.372	75.51
483.59	75.11
483.808	84.91
484.027	87.71
484.245	78.11
484.463	84.71
484.681	83.31
484.9	81.71
485.118	75.91
485.336	75.31
485.554	82.51
485.772	82.71
485.99	88.51
486.209	71.71
486.427	83.51
486.645	86.51
486.863	84.71
487.081	82.71
487.299	84.91
487.517	78.51
487.735	81.71
487.953	81.91
488.171	84.31
488.389	81.11
488.607	80.71
488.825	76.11
489.043	79.11
489.261	77.91
489.479	84.31
489.696	81.91
489.914	80.31
490.132	84.71
490.35	93.91
490.568	86.91
490.786	82.71
491.003	80.91
491.221	88.11
491.439	79.51
491.657	78.91
491.874	86.91
492.092	79.71
492.31	83.51
492.527	79.91
492.745	76.11
492.963	82.31
493.18	81.31
493.398	83.11
493.615	81.71
493.833	78.11
494.05	77.71
494.268	85.51
494.485	80.71
494.703	82.71
494.92	83.91
495.138	78.91
495.355	81.71
495.573	82.11
495.79	86.11
496.008	81.71
496.225	81.71
496.442	85.31
496.66	79.31
496.877	86.71
497.094	83.71
497.312	77.51
497.529	78.51
497.746	80.31
497.963	84.31
498.181	77.11
498.398	79.31
498.615	81.51
498.832	86.71
499.049	82.51
499.267	78.11
499.484	84.31
499.701	86.51
499.918	83.51
500.135	83.91
500.352	79.51
500.569	81.91
500.786	80.71
501.003	86.71
501.22	78.71
501.437	81.91
501.654	83.71
501.871	87.51
502.088	82.11
502.305	83.31
502.522	83.71
502.739	84.91
502.956	88.31
503.172	80.91
503.389	82.31
503.606	87.71
503.823	83.31
504.04	82.31
504.256	85.51
504.473	79.91
504.69	87.11
504.907	90.71
505.123	87.71
505.34	80.91
505.557	80.11
505.773	79.71
505.99	86.71
506.207	86.11
506.423	79.11
506.64	76.51
506.856	86.51
507.073	80.71
507.289	78.31
507.506	82.91
507.722	85.11
507.939	82.11
508.155	81.11
508.372	88.51
508.588	78.91
508.805	80.11
509.021	86.71
509.238	84.91
509.454	87.51
509.67	84.51
509.887	83.51
510.103	81.31
510.319	80.51
510.536	77.51
510.752	80.71
510.968	86.31
511.184	84.91
511.401	87.71
511.617	84.11
511.833	85.51
512.049	80.91
512.265	84.51
512.481	85.11
512.698	81.91
512.914	89.51
513.13	75.71
513.346	83.31
513.562	82.51
513.778	84.31
513.994	80.91
514.21	83.31
514.426	88.71
514.642	81.51
514.858	87.71
515.074	84.11
515.29	86.71
515.506	80.91
515.721	77.51
515.937	81.51
516.153	87.31
516.369	84.51
516.585	85.51
516.801	85.71
517.016	83.91
517.232	86.51
517.448	83.91
517.664	82.51
517.879	82.71
518.095	75.71
518.311	82.31
518.527	80.91
518.742	85.91
518.958	84.91
519.173	83.11
519.389	80.91
519.605	80.91
519.82	77.11
520.036	81.91
520.251	81.91
