Data from TenMicroDelayPb_HRD10591_00026.txt Node
Date: Mon Nov 24 14:34:29 EST 2025
User: Yrep
Spectrometer: HR+D1059
Trigger mode: 0
Integration Time (sec): 1.000000E-2
Scans to average: 5
Electric dark correction enabled: true
Nonlinearity correction enabled: false
Boxcar width: 0
XAxis mode: Wavelengths
Number of Pixels in Spectrum: 2048
>>>>>Begin Spectral Data<<<<<
223.165	-16.62
223.4	-16.62
223.635	-16.62
223.869	-23.23
224.104	-24.02
224.338	-14.02
224.573	-19.42
224.808	-11.42
225.042	-11.23
225.277	-8.42
225.511	0.77
225.746	5.98
225.98	8.18
226.215	10.38
226.449	20.38
226.683	21.77
226.918	29.98
227.152	30.98
227.387	29.58
227.621	35.98
227.856	43.18
228.09	40.58
228.324	57.38
228.559	49.98
228.793	54.77
229.027	60.18
229.262	60.58
229.496	63.58
229.73	68.58
229.964	71.38
230.199	70.58
230.433	69.98
230.667	75.98
230.901	76.38
231.136	80.77
231.37	75.58
231.604	77.98
231.838	78.77
232.072	74.77
232.306	78.98
232.541	84.98
232.775	85.38
233.009	83.77
233.243	81.18
233.477	78.77
233.711	81.18
233.945	79.58
234.179	81.38
234.413	80.38
234.647	83.77
234.881	79.58
235.115	78.98
235.349	72.58
235.583	84.77
235.817	75.58
236.051	75.77
236.285	76.77
236.519	72.18
236.753	63.18
236.987	75.77
237.221	70.98
237.455	74.38
237.689	75.38
237.922	75.38
238.156	73.58
238.39	74.58
238.624	76.77
238.858	73.58
239.091	75.58
239.325	74.18
239.559	75.18
239.793	73.77
240.027	69.38
240.26	73.38
240.494	76.77
240.728	78.18
240.961	74.38
241.195	78.38
241.429	70.38
241.662	68.18
241.896	74.18
242.13	75.38
242.363	79.58
242.597	79.98
242.83	72.98
243.064	74.98
243.298	69.77
243.531	73.58
243.765	74.18
243.998	77.77
244.232	75.18
244.465	76.38
244.699	78.77
244.932	72.98
245.166	72.98
245.399	74.38
245.633	74.77
245.866	79.18
246.099	82.18
246.333	75.38
246.566	78.38
246.8	76.58
247.033	76.38
247.266	74.18
247.5	76.77
247.733	78.38
247.966	75.98
248.2	72.38
248.433	66.18
248.666	74.98
248.899	78.18
249.133	80.18
249.366	72.58
249.599	77.38
249.832	70.77
250.066	81.18
250.299	77.58
250.532	74.38
250.765	76.58
250.998	77.18
251.231	72.77
251.465	73.98
251.698	84.18
251.931	76.58
252.164	80.38
252.397	80.77
252.63	79.98
252.863	83.18
253.096	77.38
253.329	85.77
253.562	76.58
253.795	71.98
254.028	74.77
254.261	75.77
254.494	74.98
254.727	79.98
254.96	79.77
255.193	79.18
255.426	81.98
255.659	79.77
255.892	78.77
256.124	80.58
256.357	81.38
256.59	71.98
256.823	76.38
257.056	81.38
257.289	77.58
257.521	82.18
257.754	78.38
257.987	86.77
258.22	79.38
258.452	78.18
258.685	76.77
258.918	78.38
259.151	85.58
259.383	81.77
259.616	84.58
259.849	79.98
260.081	77.18
260.314	79.77
260.547	81.38
260.779	79.38
261.012	81.77
261.244	78.98
261.477	84.77
261.71	83.38
261.942	75.18
262.175	84.77
262.407	80.98
262.64	79.98
262.872	76.38
263.105	81.98
263.337	79.58
263.57	76.98
263.802	83.77
264.035	78.58
264.267	88.77
264.499	84.77
264.732	77.98
264.964	76.98
265.197	75.38
265.429	84.98
265.661	86.58
265.894	84.18
266.126	79.77
266.358	81.18
266.591	84.98
266.823	80.98
267.055	81.18
267.287	85.77
267.52	85.77
267.752	77.58
267.984	87.38
268.216	79.38
268.448	83.98
268.681	81.98
268.913	75.18
269.145	83.58
269.377	86.77
269.609	76.98
269.841	83.18
270.073	81.77
270.306	76.58
270.538	78.38
270.77	78.38
271.002	80.58
271.234	82.98
271.466	85.38
271.698	81.58
271.93	86.77
272.162	81.98
272.394	79.38
272.626	78.38
272.858	81.98
273.09	78.38
273.322	78.98
273.553	83.38
273.785	79.98
274.017	84.18
274.249	82.58
274.481	81.77
274.713	82.18
274.945	77.98
275.176	79.18
275.408	83.77
275.64	84.77
275.872	76.38
276.104	82.98
276.335	81.77
276.567	80.77
276.799	79.58
277.031	80.38
277.262	78.98
277.494	78.77
277.726	79.98
277.957	78.98
278.189	83.98
278.421	83.98
278.652	82.77
278.884	84.58
279.115	82.18
279.347	85.98
279.579	83.58
279.81	81.77
280.042	86.77
280.273	78.98
280.505	84.58
280.736	79.77
280.968	85.98
281.199	82.77
281.431	88.18
281.662	82.18
281.894	79.98
282.125	83.18
282.356	85.58
282.588	84.18
282.819	85.77
283.051	83.18
283.282	86.38
283.513	78.58
283.745	82.77
283.976	84.38
284.207	84.98
284.439	84.38
284.67	82.98
284.901	79.77
285.132	83.77
285.364	80.77
285.595	76.77
285.826	85.38
286.057	84.98
286.288	78.38
286.52	87.38
286.751	85.38
286.982	83.18
287.213	79.98
287.444	81.98
287.675	79.58
287.906	83.58
288.138	86.18
288.369	83.58
288.6	86.77
288.831	81.98
289.062	80.38
289.293	79.98
289.524	80.58
289.755	87.18
289.986	87.58
290.217	87.18
290.448	93.38
290.679	89.58
290.91	82.18
291.141	84.98
291.371	85.58
291.602	88.38
291.833	76.77
292.064	83.77
292.295	81.58
292.526	83.58
292.757	86.38
292.987	90.18
293.218	79.58
293.449	80.98
293.68	85.38
293.91	82.38
294.141	86.58
294.372	83.98
294.603	86.38
294.833	81.38
295.064	81.18
295.295	82.98
295.525	86.77
295.756	82.98
295.987	82.58
296.217	76.98
296.448	80.38
296.679	86.98
296.909	90.58
297.14	84.77
297.37	85.38
297.601	89.77
297.831	82.38
298.062	81.18
298.292	80.98
298.523	87.18
298.753	75.77
298.984	83.18
299.214	80.38
299.445	93.58
299.675	82.77
299.905	85.58
300.136	86.98
300.366	82.77
300.597	85.98
300.827	86.18
301.057	82.18
301.288	84.38
301.518	87.58
301.748	82.18
301.979	84.18
302.209	83.18
302.439	80.98
302.669	84.18
302.9	79.77
303.13	78.38
303.36	85.58
303.59	88.58
303.82	81.98
304.051	83.38
304.281	87.77
304.511	86.98
304.741	85.58
304.971	81.98
305.201	84.77
305.431	80.18
305.661	86.98
305.891	77.77
306.121	87.77
306.352	79.77
306.582	82.77
306.812	88.18
307.042	80.58
307.272	83.18
307.502	88.18
307.731	89.77
307.961	83.98
308.191	84.98
308.421	88.18
308.651	75.98
308.881	89.77
309.111	85.77
309.341	84.98
309.571	85.58
309.8	86.77
310.03	87.98
310.26	86.58
310.49	78.77
310.72	79.38
310.949	82.38
311.179	88.58
311.409	84.98
311.639	84.18
311.868	86.98
312.098	83.58
312.328	82.18
312.557	86.58
312.787	84.58
313.017	89.38
313.246	83.38
313.476	80.98
313.706	85.98
313.935	88.38
314.165	84.18
314.394	82.77
314.624	84.58
314.853	79.98
315.083	87.18
315.312	86.58
315.542	81.18
315.771	86.98
316.001	79.58
316.23	79.18
316.46	87.18
316.689	85.58
316.919	83.77
317.148	88.58
317.377	86.77
317.607	84.98
317.836	86.58
318.065	77.58
318.295	82.38
318.524	83.77
318.753	83.38
318.983	80.18
319.212	85.18
319.441	84.18
319.67	85.77
319.9	81.58
320.129	85.38
320.358	82.58
320.587	84.38
320.816	85.38
321.046	82.77
321.275	85.18
321.504	81.18
321.733	78.58
321.962	80.77
322.191	83.58
322.42	80.77
322.649	83.58
322.878	77.38
323.108	82.77
323.337	85.58
323.566	90.38
323.795	81.58
324.024	82.58
324.253	82.58
324.482	86.38
324.71	82.77
324.939	85.98
325.168	81.58
325.397	88.58
325.626	82.98
325.855	79.98
326.084	78.38
326.313	84.77
326.542	83.38
326.77	88.77
326.999	83.58
327.228	82.18
327.457	80.98
327.686	82.77
327.914	84.98
328.143	79.18
328.372	86.77
328.6	80.98
328.829	85.58
329.058	85.77
329.287	87.58
329.515	87.38
329.744	83.77
329.972	86.38
330.201	79.38
330.43	79.58
330.658	78.38
330.887	92.58
331.115	86.98
331.344	80.98
331.572	84.38
331.801	85.77
332.03	89.38
332.258	81.58
332.486	83.98
332.715	89.38
332.943	82.18
333.172	84.77
333.4	76.58
333.629	84.18
333.857	83.58
334.085	81.18
334.314	80.58
334.542	84.77
334.771	79.98
334.999	82.77
335.227	84.58
335.455	80.58
335.684	85.58
335.912	83.18
336.14	83.38
336.369	82.98
336.597	88.58
336.825	78.98
337.053	82.58
337.281	82.58
337.51	88.38
337.738	79.98
337.966	80.38
338.194	87.18
338.422	83.58
338.65	84.38
338.878	83.38
339.106	88.77
339.334	81.38
339.562	80.98
339.79	88.98
340.018	82.77
340.246	78.18
340.474	79.58
340.702	81.58
340.93	88.58
341.158	80.18
341.386	83.77
341.614	85.38
341.842	88.58
342.07	81.77
342.298	85.58
342.526	87.58
342.754	80.58
342.981	86.58
343.209	78.38
343.437	79.77
343.665	87.38
343.893	85.77
344.12	86.18
344.348	85.18
344.576	80.58
344.804	79.18
345.031	78.58
345.259	80.18
345.487	87.38
345.714	84.98
345.942	80.58
346.17	85.98
346.397	82.98
346.625	86.38
346.853	86.38
347.08	82.38
347.308	84.77
347.535	91.58
347.763	84.98
347.99	81.58
348.218	82.77
348.445	89.58
348.673	81.77
348.9	83.98
349.128	81.58
349.355	81.98
349.583	78.18
349.81	83.77
350.037	85.18
350.265	85.38
350.492	85.77
350.72	83.38
350.947	84.58
351.174	80.77
351.402	89.38
351.629	77.77
351.856	84.98
352.083	81.58
352.311	85.58
352.538	81.98
352.765	81.18
352.992	83.38
353.22	88.18
353.447	80.38
353.674	79.58
353.901	89.18
354.128	85.18
354.355	82.38
354.583	86.18
354.81	78.18
355.037	81.58
355.264	83.18
355.491	83.38
355.718	82.77
355.945	82.77
356.172	85.38
356.399	87.98
356.626	86.38
356.853	85.18
357.08	80.77
357.307	86.18
357.534	79.18
357.761	85.18
357.988	83.18
358.215	83.38
358.441	85.18
358.668	81.98
358.895	83.58
359.122	81.18
359.349	87.98
359.576	85.58
359.802	91.77
360.029	79.77
360.256	87.58
360.483	84.38
360.709	85.98
360.936	80.18
361.163	81.58
361.39	79.98
361.616	78.77
361.843	88.98
362.07	84.58
362.296	86.18
362.523	80.98
362.749	81.98
362.976	86.58
363.203	81.58
363.429	84.77
363.656	85.18
363.882	82.18
364.109	83.18
364.335	83.18
364.562	79.98
364.788	85.18
365.015	87.18
365.241	83.18
365.468	83.18
365.694	82.38
365.92	88.77
366.147	88.18
366.373	83.18
366.599	82.98
366.826	80.38
367.052	81.58
367.278	74.77
367.505	81.38
367.731	84.98
367.957	84.58
368.184	88.18
368.41	83.98
368.636	79.58
368.862	86.77
369.089	82.98
369.315	86.98
369.541	79.18
369.767	83.98
369.993	87.38
370.219	88.38
370.445	83.38
370.672	82.38
370.898	84.38
371.124	84.58
371.35	86.38
371.576	80.38
371.802	80.98
372.028	79.38
372.254	83.58
372.48	82.38
372.706	76.98
372.932	77.98
373.158	70.58
373.384	76.58
373.61	83.38
373.835	82.18
374.061	83.98
374.287	84.58
374.513	80.98
374.739	88.38
374.965	88.98
375.191	81.58
375.416	82.98
375.642	84.58
375.868	85.98
376.094	86.77
376.319	83.77
376.545	83.18
376.771	86.18
376.997	83.77
377.222	77.38
377.448	86.58
377.674	82.98
377.899	80.77
378.125	83.77
378.35	89.58
378.576	85.38
378.802	84.58
379.027	84.38
379.253	79.98
379.478	83.98
379.704	85.38
379.929	79.98
380.155	85.77
380.38	88.58
380.606	84.18
380.831	75.98
381.057	85.18
381.282	79.98
381.507	85.58
381.733	76.77
381.958	82.58
382.184	82.98
382.409	80.18
382.634	78.38
382.86	87.98
383.085	82.98
383.31	80.98
383.535	85.18
383.761	82.58
383.986	83.18
384.211	81.77
384.436	85.38
384.662	81.98
384.887	85.38
385.112	85.77
385.337	76.77
385.562	78.38
385.787	81.38
386.013	79.18
386.238	76.98
386.463	80.77
386.688	80.38
386.913	80.18
387.138	83.98
387.363	80.98
387.588	82.98
387.813	78.58
388.038	71.77
388.263	79.58
388.488	80.58
388.713	87.18
388.938	79.77
389.163	85.18
389.387	76.77
389.612	80.98
389.837	84.98
390.062	81.38
390.287	75.58
390.512	85.38
390.736	84.18
390.961	80.77
391.186	82.18
391.411	85.18
391.636	79.58
391.86	82.38
392.085	87.38
392.31	83.98
392.534	80.18
392.759	80.58
392.984	80.77
393.208	82.18
393.433	85.98
393.658	83.18
393.882	80.58
394.107	79.77
394.331	83.98
394.556	78.98
394.78	77.77
395.005	92.58
395.229	89.18
395.454	85.58
395.678	82.77
395.903	76.98
396.127	82.98
396.352	82.77
396.576	86.18
396.801	79.38
397.025	82.38
397.249	81.98
397.474	78.58
397.698	78.58
397.922	76.38
398.147	79.98
398.371	79.58
398.595	75.38
398.82	79.58
399.044	74.58
399.268	75.98
399.492	78.98
399.717	78.18
399.941	82.18
400.165	79.98
400.389	78.98
400.613	80.77
400.837	75.77
401.062	79.58
401.286	84.18
401.51	82.77
401.734	75.58
401.958	83.98
402.182	79.58
402.406	81.98
402.63	84.18
402.854	80.98
403.078	83.98
403.302	76.58
403.526	75.77
403.75	81.38
403.974	83.98
404.198	83.18
404.422	75.58
404.645	87.18
404.869	79.38
405.093	82.58
405.317	80.77
405.541	80.18
405.765	77.98
405.988	84.58
406.212	85.98
406.436	84.98
406.66	82.38
406.883	78.77
407.107	76.18
407.331	76.77
407.555	79.77
407.778	76.38
408.002	79.77
408.226	80.77
408.449	77.58
408.673	79.38
408.896	73.18
409.12	73.18
409.344	82.77
409.567	83.77
409.791	85.38
410.014	83.58
410.238	90.58
410.461	83.38
410.685	76.58
410.908	79.98
411.132	72.77
411.355	88.98
411.578	80.18
411.802	83.77
412.025	78.18
412.249	78.38
412.472	85.98
412.695	76.58
412.919	84.58
413.142	84.38
413.365	76.98
413.589	85.77
413.812	81.58
414.035	79.18
414.258	81.98
414.482	78.38
414.705	85.18
414.928	81.18
415.151	84.98
415.374	83.77
415.597	80.38
415.821	85.18
416.044	86.18
416.267	80.38
416.49	81.77
416.713	82.38
416.936	80.38
417.159	80.58
417.382	81.77
417.605	81.77
417.828	80.58
418.051	77.58
418.274	85.77
418.497	79.77
418.72	75.58
418.943	82.18
419.166	74.58
419.389	81.18
419.611	79.38
419.834	76.77
420.057	76.58
420.28	81.58
420.503	80.77
420.726	86.77
420.948	84.38
421.171	79.98
421.394	78.18
421.617	81.18
421.839	75.38
422.062	82.18
422.285	83.77
422.507	81.18
422.73	80.18
422.953	76.77
423.175	79.98
423.398	76.77
423.621	75.38
423.843	77.18
424.066	75.98
424.288	84.77
424.511	75.58
424.733	76.98
424.956	85.38
425.178	78.98
425.401	76.77
425.623	85.58
425.846	76.98
426.068	83.98
426.291	81.77
426.513	85.98
426.735	80.38
426.958	78.77
427.18	75.77
427.402	82.38
427.625	83.98
427.847	83.77
428.069	78.18
428.292	78.58
428.514	79.98
428.736	74.58
428.958	85.77
429.181	78.77
429.403	75.98
429.625	83.18
429.847	76.98
430.069	77.38
430.292	76.58
430.514	82.38
430.736	80.77
430.958	82.77
431.18	74.38
431.402	76.98
431.624	84.38
431.846	82.58
432.068	85.18
432.29	82.58
432.512	78.38
432.734	79.58
432.956	84.38
433.178	81.58
433.4	81.38
433.622	80.38
433.844	79.77
434.066	81.58
434.287	81.58
434.509	82.38
434.731	86.18
434.953	78.38
435.175	77.18
435.397	78.18
435.618	78.58
435.84	82.38
436.062	79.18
436.284	80.58
436.505	85.18
436.727	76.58
436.949	83.98
437.17	82.58
437.392	85.98
437.614	87.58
437.835	86.98
438.057	71.38
438.278	77.38
438.5	79.38
438.721	80.18
438.943	80.38
439.165	74.18
439.386	79.38
439.608	83.38
439.829	83.98
440.05	79.38
440.272	80.77
440.493	72.98
440.715	76.77
440.936	78.18
441.158	79.38
441.379	80.58
441.6	84.38
441.822	79.98
442.043	81.98
442.264	82.38
442.486	73.58
442.707	75.98
442.928	78.38
443.149	79.98
443.371	80.18
443.592	76.98
443.813	84.58
444.034	83.98
444.255	82.98
444.476	77.38
444.698	83.77
444.919	80.18
445.14	84.98
445.361	79.77
445.582	79.98
445.803	82.18
446.024	79.38
446.245	82.77
446.466	74.18
446.687	80.18
446.908	78.98
447.129	87.98
447.35	79.98
447.571	79.38
447.792	78.98
448.013	81.77
448.234	79.98
448.455	75.38
448.675	81.77
448.896	81.38
449.117	83.18
449.338	78.38
449.559	76.38
449.779	81.98
450	76.77
450.221	77.18
450.442	88.98
450.662	79.58
450.883	77.77
451.104	79.38
451.324	84.98
451.545	85.18
451.766	75.58
451.986	82.98
452.207	77.18
452.428	72.18
452.648	84.58
452.869	83.98
453.089	86.98
453.31	82.18
453.53	84.77
453.751	88.18
453.971	74.77
454.192	84.38
454.412	77.38
454.633	79.38
454.853	80.98
455.073	83.38
455.294	78.98
455.514	78.58
455.734	86.58
455.955	78.38
456.175	80.77
456.395	82.98
456.616	93.38
456.836	81.98
457.056	79.58
457.276	83.38
457.497	81.98
457.717	81.38
457.937	75.18
458.157	82.38
458.377	83.18
458.598	74.98
458.818	84.38
459.038	86.18
459.258	79.77
459.478	87.58
459.698	81.38
459.918	83.18
460.138	82.77
460.358	81.98
460.578	74.58
460.798	83.18
461.018	78.38
461.238	81.38
461.458	84.58
461.678	83.18
461.898	71.18
462.118	77.18
462.338	79.98
462.558	74.18
462.777	77.18
462.997	80.58
463.217	78.38
463.437	80.18
463.657	78.98
463.876	77.18
464.096	82.98
464.316	83.38
464.536	79.18
464.755	81.38
464.975	85.38
465.195	85.58
465.414	75.38
465.634	80.77
465.854	77.18
466.073	78.77
466.293	85.38
466.512	77.77
466.732	80.98
466.951	83.18
467.171	77.98
467.391	83.58
467.61	76.98
467.829	78.18
468.049	83.58
468.268	77.38
468.488	79.18
468.707	79.18
468.927	81.18
469.146	83.38
469.365	79.58
469.585	79.98
469.804	81.77
470.023	86.18
470.243	79.98
470.462	85.98
470.681	81.18
470.901	81.38
471.12	80.77
471.339	83.98
471.558	79.98
471.777	79.77
471.997	78.18
472.216	85.18
472.435	78.18
472.654	87.18
472.873	82.18
473.092	77.38
473.311	80.77
473.53	78.98
473.749	79.18
473.968	76.77
474.187	83.98
474.406	77.98
474.625	83.58
474.844	75.77
475.063	76.98
475.282	82.77
475.501	80.58
475.72	76.38
475.939	82.98
476.158	81.98
476.377	74.77
476.596	76.58
476.814	77.77
477.033	82.58
477.252	81.18
477.471	73.77
477.69	80.58
477.908	82.18
478.127	81.38
478.346	73.18
478.564	79.18
478.783	80.98
479.002	80.98
479.22	84.18
479.439	87.18
479.658	77.58
479.876	80.38
480.095	84.38
480.313	85.38
480.532	78.58
480.751	80.58
480.969	79.77
481.188	79.98
481.406	80.58
481.624	74.98
481.843	78.58
482.061	81.58
482.28	76.98
482.498	76.38
482.717	81.38
482.935	85.38
483.153	79.98
483.372	84.38
483.59	81.98
483.808	81.98
484.027	84.18
484.245	81.77
484.463	73.18
484.681	86.38
484.9	79.38
485.118	75.77
485.336	76.98
485.554	77.77
485.772	90.58
485.99	85.38
486.209	76.38
486.427	83.58
486.645	81.77
486.863	78.38
487.081	80.18
487.299	78.98
487.517	79.38
487.735	84.38
487.953	83.38
488.171	82.77
488.389	88.18
488.607	84.18
488.825	84.77
489.043	82.98
489.261	81.98
489.479	84.98
489.696	81.38
489.914	84.18
490.132	81.18
490.35	81.38
490.568	78.58
490.786	77.18
491.003	78.18
491.221	80.58
491.439	73.77
491.657	76.98
491.874	88.18
492.092	80.98
492.31	76.18
492.527	87.98
492.745	81.77
492.963	83.58
493.18	77.38
493.398	82.18
493.615	79.18
493.833	83.98
494.05	78.38
494.268	79.77
494.485	86.38
494.703	85.18
494.92	82.77
495.138	77.18
495.355	85.98
495.573	85.58
495.79	80.18
496.008	82.18
496.225	92.98
496.442	86.58
496.66	85.58
496.877	86.38
497.094	90.58
497.312	86.77
497.529	80.18
497.746	77.18
497.963	80.98
498.181	81.58
498.398	84.77
498.615	84.77
498.832	84.18
499.049	82.18
499.267	75.58
499.484	77.58
499.701	78.98
499.918	80.98
500.135	83.98
500.352	85.98
500.569	82.58
500.786	81.98
501.003	83.98
501.22	86.58
501.437	80.58
501.654	81.38
501.871	85.38
502.088	81.58
502.305	84.58
502.522	80.38
502.739	79.77
502.956	82.98
503.172	82.77
503.389	78.18
503.606	77.98
503.823	77.38
504.04	75.58
504.256	79.38
504.473	86.38
504.69	80.58
504.907	77.38
505.123	81.18
505.34	76.18
505.557	81.77
505.773	77.18
505.99	77.77
506.207	79.58
506.423	82.38
506.64	83.18
506.856	79.98
507.073	87.77
507.289	83.58
507.506	84.98
507.722	84.58
507.939	84.98
508.155	78.18
508.372	91.18
508.588	80.18
508.805	80.18
509.021	86.98
509.238	73.98
509.454	83.98
509.67	82.38
509.887	80.77
510.103	83.77
510.319	87.18
510.536	79.77
510.752	80.77
510.968	76.58
511.184	83.77
511.401	83.77
511.617	85.77
511.833	76.18
512.049	84.77
512.265	80.98
512.481	88.98
512.698	81.38
512.914	83.18
513.13	79.77
513.346	85.18
513.562	75.58
513.778	79.98
513.994	83.18
514.21	75.18
514.426	85.77
514.642	81.18
514.858	78.58
515.074	85.77
515.29	83.98
515.506	85.18
515.721	74.58
515.937	82.38
516.153	86.98
516.369	82.77
516.585	80.77
516.801	86.77
517.016	75.98
517.232	87.38
517.448	81.98
517.664	79.58
517.879	78.58
518.095	83.98
518.311	82.18
518.527	80.77
518.742	75.77
518.958	84.98
519.173	78.38
519.389	92.18
519.605	82.98
519.82	85.58
520.036	82.98
520.251	83.77
