Data from TenMicroDelayPb_HRD10591_00044.txt Node
Date: Mon Nov 24 14:37:24 EST 2025
User: Yrep
Spectrometer: HR+D1059
Trigger mode: 1
Integration Time (sec): 1.000000E-2
Scans to average: 5
Electric dark correction enabled: true
Nonlinearity correction enabled: false
Boxcar width: 0
XAxis mode: Wavelengths
Number of Pixels in Spectrum: 2048
>>>>>Begin Spectral Data<<<<<
223.165	-15.01
223.4	-15.01
223.635	-15.01
223.869	-16.81
224.104	-12.41
224.338	-11.81
224.573	-19.81
224.808	-15.01
225.042	-8.01
225.277	-6.61
225.511	0.39
225.746	5.59
225.98	2.39
226.215	12.39
226.449	14.59
226.683	15.79
226.918	25.39
227.152	28.99
227.387	34.59
227.621	41.59
227.856	45.59
228.09	46.19
228.324	50.99
228.559	52.59
228.793	60.39
229.027	62.79
229.262	67.59
229.496	64.19
229.73	71.79
229.964	76.79
230.199	74.19
230.433	70.59
230.667	83.59
230.901	77.79
231.136	79.19
231.37	77.59
231.604	77.99
231.838	86.19
232.072	78.79
232.306	78.39
232.541	94.99
232.775	86.59
233.009	76.79
233.243	78.99
233.477	82.99
233.711	78.39
233.945	77.19
234.179	81.59
234.413	87.19
234.647	83.99
234.881	83.99
235.115	83.19
235.349	78.19
235.583	87.39
235.817	77.79
236.051	82.79
236.285	81.19
236.519	77.19
236.753	77.39
236.987	77.39
237.221	79.79
237.455	77.99
237.689	68.99
237.922	76.79
238.156	76.19
238.39	74.79
238.624	78.19
238.858	79.39
239.091	76.59
239.325	70.19
239.559	70.99
239.793	83.79
240.027	80.19
240.26	71.19
240.494	87.39
240.728	75.59
240.961	75.19
241.195	77.79
241.429	79.99
241.662	73.79
241.896	75.79
242.13	77.99
242.363	76.39
242.597	78.59
242.83	75.99
243.064	79.19
243.298	79.59
243.531	79.19
243.765	73.19
243.998	78.99
244.232	78.39
244.465	76.39
244.699	81.39
244.932	74.79
245.166	80.59
245.399	73.99
245.633	76.59
245.866	81.99
246.099	81.59
246.333	79.19
246.566	81.19
246.8	77.39
247.033	74.79
247.266	81.59
247.5	78.99
247.733	76.19
247.966	81.39
248.2	73.99
248.433	79.59
248.666	81.19
248.899	81.19
249.133	75.99
249.366	79.79
249.599	82.59
249.832	83.59
250.066	81.59
250.299	86.59
250.532	78.39
250.765	74.99
250.998	84.59
251.231	80.39
251.465	86.79
251.698	84.19
251.931	77.79
252.164	82.39
252.397	82.59
252.63	81.99
252.863	87.59
253.096	84.99
253.329	82.79
253.562	78.59
253.795	80.99
254.028	78.79
254.261	79.59
254.494	78.19
254.727	80.39
254.96	80.99
255.193	83.79
255.426	81.99
255.659	84.39
255.892	86.79
256.124	83.19
256.357	69.19
256.59	77.39
256.823	80.59
257.056	77.79
257.289	88.59
257.521	77.59
257.754	83.59
257.987	80.19
258.22	83.19
258.452	84.19
258.685	85.99
258.918	82.59
259.151	81.39
259.383	83.19
259.616	83.79
259.849	79.99
260.081	77.79
260.314	80.79
260.547	83.59
260.779	79.59
261.012	84.39
261.244	90.79
261.477	89.79
261.71	89.19
261.942	78.19
262.175	77.99
262.407	85.59
262.64	77.59
262.872	86.39
263.105	81.19
263.337	76.79
263.57	83.99
263.802	79.59
264.035	80.59
264.267	86.79
264.499	84.39
264.732	88.19
264.964	87.39
265.197	74.79
265.429	82.79
265.661	83.99
265.894	82.99
266.126	84.19
266.358	81.59
266.591	80.99
266.823	85.79
267.055	82.39
267.287	77.99
267.52	75.99
267.752	84.19
267.984	81.19
268.216	87.59
268.448	84.59
268.681	82.39
268.913	83.99
269.145	82.79
269.377	84.99
269.609	87.59
269.841	83.59
270.073	85.39
270.306	83.19
270.538	85.19
270.77	83.39
271.002	87.79
271.234	84.59
271.466	83.19
271.698	83.19
271.93	80.19
272.162	81.99
272.394	82.99
272.626	83.19
272.858	82.39
273.09	74.19
273.322	88.19
273.553	77.59
273.785	81.39
274.017	89.79
274.249	84.59
274.481	77.99
274.713	79.19
274.945	81.59
275.176	84.19
275.408	85.99
275.64	91.39
275.872	85.79
276.104	85.79
276.335	87.39
276.567	88.19
276.799	86.79
277.031	87.99
277.262	77.39
277.494	85.79
277.726	85.19
277.957	89.39
278.189	81.19
278.421	87.19
278.652	79.59
278.884	80.99
279.115	86.99
279.347	82.59
279.579	83.99
279.81	86.79
280.042	93.19
280.273	98.59
280.505	92.19
280.736	90.79
280.968	84.39
281.199	83.19
281.431	83.39
281.662	86.19
281.894	89.79
282.125	88.19
282.356	89.19
282.588	86.59
282.819	90.39
283.051	88.99
283.282	100.79
283.513	97.99
283.745	90.79
283.976	85.99
284.207	80.99
284.439	90.79
284.67	87.19
284.901	80.79
285.132	91.19
285.364	85.99
285.595	88.19
285.826	84.39
286.057	86.99
286.288	80.19
286.52	90.39
286.751	83.79
286.982	89.59
287.213	92.39
287.444	93.99
287.675	90.99
287.906	91.79
288.138	84.39
288.369	83.19
288.6	86.19
288.831	80.99
289.062	78.59
289.293	83.79
289.524	85.79
289.755	85.79
289.986	87.19
290.217	91.79
290.448	89.19
290.679	83.79
290.91	82.19
291.141	87.39
291.371	88.19
291.602	84.99
291.833	87.79
292.064	91.19
292.295	84.79
292.526	85.39
292.757	85.39
292.987	87.99
293.218	90.39
293.449	86.79
293.68	82.19
293.91	89.79
294.141	83.59
294.372	94.59
294.603	88.79
294.833	90.79
295.064	90.19
295.295	83.39
295.525	85.19
295.756	84.99
295.987	91.59
296.217	85.99
296.448	88.59
296.679	83.59
296.909	77.59
297.14	82.79
297.37	87.79
297.601	86.99
297.831	87.59
298.062	82.99
298.292	85.39
298.523	81.39
298.753	80.59
298.984	88.99
299.214	92.99
299.445	85.59
299.675	86.79
299.905	83.39
300.136	91.39
300.366	87.59
300.597	91.19
300.827	83.99
301.057	83.79
301.288	90.59
301.518	81.19
301.748	93.19
301.979	93.79
302.209	85.39
302.439	79.39
302.669	84.59
302.9	84.39
303.13	88.39
303.36	78.19
303.59	82.79
303.82	82.79
304.051	88.19
304.281	87.99
304.511	87.79
304.741	89.79
304.971	82.39
305.201	83.79
305.431	91.79
305.661	91.39
305.891	89.39
306.121	88.59
306.352	86.79
306.582	76.39
306.812	84.59
307.042	82.99
307.272	84.39
307.502	83.59
307.731	85.99
307.961	89.39
308.191	89.59
308.421	88.59
308.651	83.19
308.881	87.59
309.111	80.99
309.341	84.99
309.571	89.99
309.8	89.59
310.03	85.39
310.26	87.39
310.49	86.59
310.72	84.19
310.949	87.19
311.179	82.39
311.409	81.79
311.639	81.99
311.868	85.99
312.098	86.39
312.328	84.79
312.557	84.99
312.787	86.19
313.017	86.79
313.246	88.99
313.476	81.99
313.706	83.79
313.935	86.39
314.165	84.59
314.394	84.19
314.624	92.79
314.853	91.79
315.083	90.39
315.312	79.79
315.542	88.99
315.771	83.59
316.001	85.59
316.23	82.99
316.46	90.59
316.689	91.39
316.919	89.99
317.148	87.59
317.377	87.99
317.607	79.39
317.836	87.99
318.065	89.59
318.295	83.59
318.524	89.19
318.753	83.59
318.983	80.59
319.212	85.19
319.441	84.39
319.67	86.39
319.9	89.59
320.129	83.59
320.358	86.99
320.587	88.59
320.816	86.39
321.046	87.59
321.275	91.59
321.504	92.39
321.733	81.19
321.962	86.39
322.191	95.19
322.42	86.59
322.649	80.19
322.878	83.59
323.108	81.39
323.337	91.19
323.566	87.59
323.795	88.79
324.024	83.99
324.253	85.39
324.482	89.59
324.71	86.79
324.939	88.59
325.168	86.79
325.397	89.19
325.626	89.19
325.855	88.19
326.084	87.59
326.313	80.39
326.542	84.79
326.77	86.99
326.999	90.39
327.228	83.19
327.457	83.59
327.686	85.59
327.914	81.39
328.143	84.39
328.372	87.79
328.6	86.39
328.829	90.19
329.058	81.99
329.287	82.99
329.515	81.79
329.744	80.19
329.972	90.39
330.201	86.99
330.43	86.99
330.658	91.19
330.887	82.39
331.115	89.59
331.344	78.59
331.572	81.19
331.801	79.79
332.03	91.39
332.258	83.79
332.486	83.19
332.715	84.39
332.943	77.39
333.172	81.79
333.4	87.39
333.629	83.19
333.857	87.39
334.085	80.99
334.314	88.99
334.542	93.39
334.771	88.59
334.999	85.39
335.227	87.19
335.455	83.59
335.684	80.79
335.912	86.59
336.14	85.59
336.369	88.39
336.597	88.19
336.825	79.39
337.053	87.39
337.281	87.19
337.51	82.59
337.738	79.59
337.966	80.39
338.194	82.99
338.422	83.59
338.65	81.19
338.878	88.99
339.106	83.99
339.334	83.99
339.562	81.39
339.79	85.39
340.018	85.19
340.246	79.99
340.474	85.39
340.702	87.79
340.93	83.99
341.158	84.19
341.386	85.59
341.614	87.59
341.842	87.39
342.07	88.79
342.298	78.79
342.526	85.59
342.754	84.79
342.981	81.19
343.209	84.59
343.437	87.39
343.665	85.19
343.893	78.19
344.12	83.79
344.348	79.99
344.576	83.99
344.804	82.79
345.031	90.79
345.259	85.19
345.487	84.59
345.714	81.19
345.942	89.39
346.17	89.59
346.397	83.79
346.625	79.59
346.853	84.79
347.08	84.19
347.308	88.39
347.535	87.39
347.763	83.99
347.99	87.19
348.218	83.39
348.445	81.99
348.673	79.79
348.9	83.59
349.128	83.39
349.355	86.79
349.583	84.59
349.81	81.39
350.037	87.79
350.265	76.79
350.492	86.39
350.72	79.99
350.947	84.99
351.174	86.99
351.402	84.79
351.629	82.19
351.856	87.39
352.083	78.19
352.311	80.19
352.538	87.59
352.765	86.59
352.992	84.19
353.22	88.79
353.447	83.39
353.674	82.99
353.901	81.19
354.128	78.79
354.355	87.39
354.583	82.39
354.81	83.59
355.037	88.19
355.264	82.99
355.491	90.39
355.718	86.99
355.945	84.19
356.172	87.19
356.399	90.79
356.626	84.99
356.853	92.19
357.08	108.19
357.307	112.79
357.534	107.39
357.761	86.99
357.988	84.99
358.215	86.79
358.441	93.79
358.668	79.99
358.895	84.59
359.122	86.59
359.349	84.99
359.576	81.59
359.802	91.79
360.029	87.59
360.256	84.19
360.483	85.59
360.709	83.39
360.936	80.59
361.163	85.79
361.39	87.79
361.616	84.99
361.843	84.79
362.07	88.39
362.296	83.19
362.523	88.39
362.749	84.59
362.976	83.79
363.203	84.59
363.429	95.39
363.656	111.39
363.882	131.79
364.109	141.39
364.335	108.39
364.562	88.19
364.788	89.39
365.015	81.19
365.241	87.79
365.468	88.79
365.694	89.39
365.92	84.39
366.147	88.19
366.373	86.79
366.599	88.79
366.826	93.39
367.052	99.79
367.278	107.39
367.505	87.39
367.731	94.19
367.957	110.19
368.184	133.99
368.41	158.79
368.636	134.59
368.862	100.19
369.089	86.79
369.315	84.19
369.541	87.79
369.767	83.99
369.993	82.79
370.219	81.99
370.445	81.79
370.672	77.39
370.898	79.99
371.124	80.79
371.35	89.79
371.576	86.39
371.802	78.39
372.028	81.39
372.254	86.79
372.48	80.79
372.706	82.39
372.932	81.59
373.158	83.79
373.384	93.59
373.61	92.99
373.835	91.99
374.061	109.79
374.287	99.79
374.513	85.99
374.739	82.79
374.965	79.59
375.191	85.39
375.416	85.59
375.642	82.19
375.868	87.59
376.094	84.79
376.319	83.99
376.545	82.19
376.771	88.79
376.997	84.99
377.222	86.39
377.448	82.39
377.674	78.99
377.899	83.79
378.125	86.19
378.35	87.19
378.576	87.59
378.802	83.59
379.027	80.59
379.253	75.79
379.478	86.79
379.704	85.79
379.929	84.39
380.155	80.19
380.38	84.99
380.606	83.79
380.831	84.19
381.057	79.99
381.282	88.59
381.507	89.19
381.733	83.19
381.958	82.59
382.184	81.19
382.409	78.59
382.634	85.19
382.86	83.99
383.085	88.79
383.31	85.99
383.535	76.79
383.761	76.19
383.986	86.79
384.211	85.59
384.436	86.59
384.662	86.99
384.887	82.79
385.112	79.19
385.337	82.59
385.562	82.99
385.787	94.19
386.013	78.59
386.238	86.99
386.463	84.99
386.688	81.99
386.913	82.59
387.138	80.59
387.363	82.59
387.588	83.79
387.813	81.79
388.038	83.39
388.263	82.19
388.488	85.39
388.713	79.59
388.938	83.99
389.163	89.39
389.387	87.59
389.612	81.99
389.837	92.19
390.062	80.79
390.287	80.79
390.512	81.79
390.736	81.79
390.961	85.79
391.186	86.19
391.411	83.39
391.636	85.19
391.86	81.19
392.085	84.79
392.31	85.19
392.534	85.99
392.759	79.19
392.984	83.19
393.208	77.59
393.433	88.79
393.658	86.79
393.882	83.39
394.107	80.79
394.331	85.59
394.556	80.19
394.78	82.39
395.005	89.99
395.229	85.99
395.454	80.99
395.678	83.99
395.903	82.19
396.127	82.99
396.352	75.59
396.576	82.19
396.801	93.79
397.025	79.39
397.249	89.59
397.474	92.19
397.698	77.19
397.922	85.19
398.147	91.99
398.371	84.39
398.595	81.99
398.82	84.19
399.044	83.79
399.268	87.79
399.492	78.39
399.717	80.39
399.941	81.59
400.165	81.19
400.389	83.39
400.613	81.99
400.837	85.79
401.062	83.59
401.286	84.79
401.51	84.59
401.734	87.99
401.958	94.19
402.182	88.19
402.406	89.19
402.63	88.59
402.854	83.79
403.078	86.79
403.302	87.19
403.526	82.39
403.75	82.19
403.974	83.39
404.198	83.99
404.422	81.19
404.645	85.39
404.869	88.99
405.093	95.39
405.317	100.19
405.541	149.99
405.765	231.19
405.988	242.19
406.212	152.79
406.436	109.79
406.66	97.39
406.883	86.39
407.107	84.19
407.331	86.79
407.555	82.99
407.778	82.19
408.002	79.79
408.226	83.39
408.449	86.39
408.673	90.19
408.896	86.59
409.12	83.59
409.344	89.59
409.567	86.59
409.791	77.19
410.014	79.99
410.238	79.59
410.461	81.99
410.685	82.79
410.908	80.59
411.132	81.59
411.355	79.79
411.578	81.19
411.802	83.19
412.025	86.79
412.249	78.39
412.472	79.79
412.695	90.59
412.919	84.39
413.142	83.99
413.365	83.39
413.589	80.19
413.812	82.59
414.035	79.39
414.258	82.79
414.482	83.39
414.705	77.99
414.928	77.99
415.151	78.19
415.374	87.99
415.597	82.79
415.821	84.59
416.044	80.79
416.267	83.39
416.49	75.79
416.713	92.99
416.936	93.59
417.159	88.79
417.382	80.79
417.605	82.79
417.828	85.39
418.051	82.39
418.274	83.59
418.497	83.19
418.72	86.99
418.943	80.39
419.166	80.39
419.389	88.39
419.611	81.99
419.834	82.99
420.057	91.19
420.28	90.79
420.503	81.99
420.726	89.59
420.948	83.79
421.171	81.59
421.394	80.79
421.617	88.19
421.839	80.39
422.062	83.19
422.285	78.99
422.507	82.79
422.73	81.19
422.953	87.99
423.175	79.79
423.398	82.79
423.621	84.19
423.843	82.39
424.066	87.59
424.288	80.39
424.511	86.39
424.733	79.39
424.956	86.79
425.178	85.19
425.401	82.79
425.623	86.39
425.846	82.19
426.068	81.19
426.291	89.79
426.513	81.99
426.735	77.59
426.958	79.79
427.18	84.59
427.402	83.79
427.625	82.39
427.847	83.39
428.069	84.39
428.292	85.59
428.514	82.19
428.736	79.79
428.958	78.79
429.181	72.59
429.403	83.39
429.625	88.79
429.847	81.59
430.069	85.59
430.292	91.19
430.514	82.99
430.736	83.99
430.958	82.79
431.18	83.79
431.402	87.19
431.624	83.19
431.846	81.59
432.068	84.99
432.29	78.99
432.512	83.79
432.734	78.39
432.956	83.79
433.178	84.19
433.4	81.19
433.622	88.79
433.844	89.39
434.066	85.99
434.287	88.99
434.509	82.39
434.731	79.19
434.953	84.59
435.175	85.79
435.397	82.99
435.618	83.19
435.84	73.99
436.062	83.59
436.284	89.39
436.505	86.19
436.727	85.19
436.949	87.59
437.17	80.79
437.392	85.99
437.614	82.59
437.835	86.59
438.057	85.19
438.278	87.19
438.5	84.19
438.721	81.99
438.943	85.19
439.165	80.79
439.386	89.79
439.608	80.79
439.829	76.19
440.05	83.59
440.272	82.79
440.493	81.39
440.715	83.39
440.936	89.59
441.158	87.59
441.379	79.79
441.6	83.79
441.822	82.59
442.043	89.19
442.264	83.59
442.486	85.59
442.707	76.99
442.928	86.19
443.149	88.39
443.371	91.19
443.592	83.39
443.813	85.39
444.034	82.19
444.255	80.79
444.476	81.19
444.698	87.79
444.919	84.99
445.14	91.59
445.361	90.79
445.582	87.79
445.803	80.39
446.024	79.99
446.245	88.59
446.466	84.79
446.687	89.19
446.908	83.19
447.129	86.19
447.35	79.99
447.571	78.59
447.792	86.19
448.013	87.59
448.234	81.79
448.455	82.39
448.675	79.99
448.896	86.59
449.117	85.99
449.338	87.59
449.559	90.79
449.779	87.39
450	77.99
450.221	88.79
450.442	85.79
450.662	85.39
450.883	81.39
451.104	83.19
451.324	81.19
451.545	80.39
451.766	84.39
451.986	75.39
452.207	81.99
452.428	88.19
452.648	78.79
452.869	80.99
453.089	82.19
453.31	86.79
453.53	81.99
453.751	81.19
453.971	78.99
454.192	86.79
454.412	85.59
454.633	84.39
454.853	87.99
455.073	85.59
455.294	93.39
455.514	87.79
455.734	86.19
455.955	86.39
456.175	78.59
456.395	82.79
456.616	89.59
456.836	80.79
457.056	85.19
457.276	88.79
457.497	85.19
457.717	81.79
457.937	86.59
458.157	81.39
458.377	82.39
458.598	76.59
458.818	88.79
459.038	84.39
459.258	85.19
459.478	84.59
459.698	82.19
459.918	79.99
460.138	84.19
460.358	84.39
460.578	77.59
460.798	85.59
461.018	78.59
461.238	75.59
461.458	86.99
461.678	83.59
461.898	82.39
462.118	86.79
462.338	82.39
462.558	77.59
462.777	79.19
462.997	86.79
463.217	85.19
463.437	84.59
463.657	73.79
463.876	77.59
464.096	88.99
464.316	80.39
464.536	90.19
464.755	84.59
464.975	78.99
465.195	75.99
465.414	84.59
465.634	85.39
465.854	82.59
466.073	81.99
466.293	78.79
466.512	80.39
466.732	83.99
466.951	86.19
467.171	81.19
467.391	85.39
467.61	83.79
467.829	80.19
468.049	88.19
468.268	83.39
468.488	82.59
468.707	85.19
468.927	84.99
469.146	82.59
469.365	86.79
469.585	80.99
469.804	89.59
470.023	76.79
470.243	84.99
470.462	87.19
470.681	78.79
470.901	84.99
471.12	86.39
471.339	88.39
471.558	84.99
471.777	83.79
471.997	79.19
472.216	83.79
472.435	78.39
472.654	80.79
472.873	83.59
473.092	86.39
473.311	83.99
473.53	83.39
473.749	88.79
473.968	85.99
474.187	81.79
474.406	74.59
474.625	79.39
474.844	84.79
475.063	83.19
475.282	84.39
475.501	90.59
475.72	85.79
475.939	83.19
476.158	85.39
476.377	92.19
476.596	84.39
476.814	85.39
477.033	83.19
477.252	82.19
477.471	85.99
477.69	84.19
477.908	85.19
478.127	78.59
478.346	91.19
478.564	84.99
478.783	84.79
479.002	83.99
479.22	84.39
479.439	82.99
479.658	82.19
479.876	87.39
480.095	82.59
480.313	83.99
480.532	81.79
480.751	88.79
480.969	77.99
481.188	77.79
481.406	81.99
481.624	76.39
481.843	85.99
482.061	84.99
482.28	82.79
482.498	86.59
482.717	83.59
482.935	84.19
483.153	84.19
483.372	86.59
483.59	83.59
483.808	81.99
484.027	81.79
484.245	81.39
484.463	85.79
484.681	82.19
484.9	82.39
485.118	81.59
485.336	84.59
485.554	82.99
485.772	83.19
485.99	94.39
486.209	82.19
486.427	77.19
486.645	86.99
486.863	85.39
487.081	83.79
487.299	77.99
487.517	82.59
487.735	85.59
487.953	86.99
488.171	84.79
488.389	87.59
488.607	86.39
488.825	76.39
489.043	88.99
489.261	84.99
489.479	89.99
489.696	85.59
489.914	87.59
490.132	86.99
490.35	78.19
490.568	85.39
490.786	84.99
491.003	85.79
491.221	85.39
491.439	86.99
491.657	91.79
491.874	87.79
492.092	89.19
492.31	90.39
492.527	88.39
492.745	92.39
492.963	83.59
493.18	83.79
493.398	88.19
493.615	86.99
493.833	85.79
494.05	81.79
494.268	91.19
494.485	86.19
494.703	88.99
494.92	90.99
495.138	92.19
495.355	87.19
495.573	88.99
495.79	85.79
496.008	86.79
496.225	87.59
496.442	92.59
496.66	78.79
496.877	86.19
497.094	83.59
497.312	81.79
497.529	85.79
497.746	87.39
497.963	90.59
498.181	85.59
498.398	76.79
498.615	82.99
498.832	84.19
499.049	85.19
499.267	82.99
499.484	87.19
499.701	91.39
499.918	81.39
500.135	86.19
500.352	87.19
500.569	91.79
500.786	110.39
501.003	90.99
501.22	82.19
501.437	92.59
501.654	90.79
501.871	88.59
502.088	86.99
502.305	79.39
502.522	85.19
502.739	86.59
502.956	85.59
503.172	86.79
503.389	87.19
503.606	84.59
503.823	84.19
504.04	87.99
504.256	84.79
504.473	85.59
504.69	84.79
504.907	85.39
505.123	80.99
505.34	83.59
505.557	84.59
505.773	76.99
505.99	84.19
506.207	83.19
506.423	86.39
506.64	86.99
506.856	88.79
507.073	81.79
507.289	81.19
507.506	88.19
507.722	83.99
507.939	86.99
508.155	78.99
508.372	83.19
508.588	82.79
508.805	78.79
509.021	90.59
509.238	84.99
509.454	83.19
509.67	84.19
509.887	87.79
510.103	81.59
510.319	85.19
510.536	82.79
510.752	85.39
510.968	81.39
511.184	76.39
511.401	86.39
511.617	84.19
511.833	85.79
512.049	88.59
512.265	84.99
512.481	81.99
512.698	87.39
512.914	85.99
513.13	88.99
513.346	89.59
513.562	85.39
513.778	86.79
513.994	93.19
514.21	85.59
514.426	85.59
514.642	82.19
514.858	84.39
515.074	83.39
515.29	93.19
515.506	86.19
515.721	97.99
515.937	83.19
516.153	70.99
516.369	78.59
516.585	88.99
516.801	77.39
517.016	82.39
517.232	78.99
517.448	87.99
517.664	86.39
517.879	85.59
518.095	88.59
518.311	88.19
518.527	87.39
518.742	84.59
518.958	84.19
519.173	86.59
519.389	83.99
519.605	85.39
519.82	92.39
