Data from TenMicroDelayPb_HRD10591_00041.txt Node
Date: Mon Nov 24 14:37:16 EST 2025
User: Yrep
Spectrometer: HR+D1059
Trigger mode: 1
Integration Time (sec): 1.000000E-2
Scans to average: 5
Electric dark correction enabled: true
Nonlinearity correction enabled: false
Boxcar width: 0
XAxis mode: Wavelengths
Number of Pixels in Spectrum: 2048
>>>>>Begin Spectral Data<<<<<
223.165	-12.4
223.4	-12.4
223.635	-12.4
223.869	-17.4
224.104	-21
224.338	-15.6
224.573	-17.6
224.808	-11.6
225.042	-6.6
225.277	-10.4
225.511	-4.8
225.746	5
225.98	11
226.215	8.8
226.449	13.4
226.683	21.4
226.918	25.8
227.152	32
227.387	34.8
227.621	38.2
227.856	37.4
228.09	45.2
228.324	49.4
228.559	50.8
228.793	59
229.027	61.4
229.262	62
229.496	66.8
229.73	68.2
229.964	67.6
230.199	76.6
230.433	74.2
230.667	74
230.901	71.8
231.136	81.8
231.37	83.4
231.604	77.2
231.838	82
232.072	84.2
232.306	80.2
232.541	77
232.775	81.4
233.009	83.4
233.243	71.2
233.477	83
233.711	83.4
233.945	78.6
234.179	78.8
234.413	78.6
234.647	78.4
234.881	75.4
235.115	73
235.349	82
235.583	79.8
235.817	72.8
236.051	79.2
236.285	77.4
236.519	77.2
236.753	78.6
236.987	71.6
237.221	75.2
237.455	81.8
237.689	77
237.922	76.6
238.156	76.8
238.39	78
238.624	80.4
238.858	82.8
239.091	76.4
239.325	78.2
239.559	77.8
239.793	79
240.027	75
240.26	71.6
240.494	76.4
240.728	77.6
240.961	75
241.195	71.6
241.429	73.4
241.662	76.2
241.896	73.2
242.13	73.8
242.363	76.2
242.597	75.6
242.83	77.4
243.064	82
243.298	76.4
243.531	79.6
243.765	81.2
243.998	76.2
244.232	69
244.465	72.8
244.699	78.8
244.932	85.6
245.166	77.2
245.399	75
245.633	68.8
245.866	72
246.099	73.4
246.333	74.4
246.566	81
246.8	73.2
247.033	75
247.266	77.4
247.5	73
247.733	80
247.966	77.4
248.2	75.6
248.433	73.2
248.666	81
248.899	82.2
249.133	81.6
249.366	82
249.599	80.6
249.832	86
250.066	74.8
250.299	80.6
250.532	82.6
250.765	83
250.998	83
251.231	74.8
251.465	76.6
251.698	83.2
251.931	83
252.164	80.4
252.397	79.8
252.63	78
252.863	80.2
253.096	84.6
253.329	78.6
253.562	78.6
253.795	84.2
254.028	87.8
254.261	76
254.494	78.8
254.727	84.4
254.96	77.8
255.193	81.8
255.426	84.2
255.659	83
255.892	80.4
256.124	79.8
256.357	81.6
256.59	80
256.823	75
257.056	78
257.289	76.4
257.521	79.2
257.754	81
257.987	81
258.22	83.4
258.452	76.4
258.685	81
258.918	75.2
259.151	74.4
259.383	76.8
259.616	76.2
259.849	84.2
260.081	82.8
260.314	81.2
260.547	80.8
260.779	80.4
261.012	78
261.244	84.8
261.477	82.8
261.71	92.2
261.942	77.2
262.175	84.4
262.407	77
262.64	82.4
262.872	81.4
263.105	76.2
263.337	82.2
263.57	79.6
263.802	83.4
264.035	91.8
264.267	79
264.499	88.4
264.732	79
264.964	85.2
265.197	86.2
265.429	82.2
265.661	76.4
265.894	79
266.126	88.8
266.358	86.6
266.591	77.4
266.823	81.2
267.055	80.4
267.287	84
267.52	81.6
267.752	80.6
267.984	82.8
268.216	83.2
268.448	82.2
268.681	84.6
268.913	87.6
269.145	84.4
269.377	80.8
269.609	84.2
269.841	85
270.073	80.6
270.306	81.6
270.538	82.4
270.77	76
271.002	83
271.234	83
271.466	82.2
271.698	81.2
271.93	85.4
272.162	84.4
272.394	82.6
272.626	84.4
272.858	80.8
273.09	86.4
273.322	77
273.553	84.6
273.785	86
274.017	78.4
274.249	78.8
274.481	79.2
274.713	82.4
274.945	82.2
275.176	79.8
275.408	84.8
275.64	89
275.872	87
276.104	84.4
276.335	81.6
276.567	82.6
276.799	80.4
277.031	84.2
277.262	85.2
277.494	85.2
277.726	85.2
277.957	84.6
278.189	75.4
278.421	88.2
278.652	84.2
278.884	83
279.115	83.8
279.347	83
279.579	82.6
279.81	88.4
280.042	94.8
280.273	97.6
280.505	91.4
280.736	88.8
280.968	82.4
281.199	78.2
281.431	86.4
281.662	87.4
281.894	82.4
282.125	93.8
282.356	91
282.588	90.4
282.819	90.8
283.051	87.6
283.282	96.4
283.513	99.2
283.745	87.2
283.976	83.8
284.207	84.2
284.439	79.8
284.67	87.4
284.901	83.6
285.132	82.8
285.364	85.8
285.595	86.8
285.826	86.8
286.057	84.4
286.288	82.8
286.52	82.6
286.751	87
286.982	97.4
287.213	88.4
287.444	92.6
287.675	84.4
287.906	91
288.138	86.2
288.369	84.2
288.6	88
288.831	85.2
289.062	87.6
289.293	87.2
289.524	90.4
289.755	81.8
289.986	84.2
290.217	83.8
290.448	89.2
290.679	81.6
290.91	92
291.141	83.2
291.371	86.6
291.602	86.6
291.833	84.2
292.064	79
292.295	86
292.526	81.8
292.757	81
292.987	82.6
293.218	82
293.449	83.8
293.68	82.4
293.91	87.4
294.141	88.2
294.372	86
294.603	85.2
294.833	79.6
295.064	84.8
295.295	85
295.525	82
295.756	84.8
295.987	85.6
296.217	86.8
296.448	85.4
296.679	90
296.909	83.4
297.14	82.2
297.37	86.2
297.601	85.8
297.831	86.6
298.062	85.8
298.292	84.4
298.523	86.2
298.753	84
298.984	85.4
299.214	78.6
299.445	88
299.675	84.6
299.905	84.8
300.136	81.8
300.366	83
300.597	84.8
300.827	85.6
301.057	81.4
301.288	75.2
301.518	78.8
301.748	88.4
301.979	84.8
302.209	88.2
302.439	86.6
302.669	79.6
302.9	81.6
303.13	84.6
303.36	87.6
303.59	84
303.82	86.4
304.051	89.6
304.281	80.2
304.511	84.8
304.741	87.8
304.971	86.6
305.201	90.6
305.431	89.2
305.661	76.2
305.891	80
306.121	81.2
306.352	83.6
306.582	85.2
306.812	88.2
307.042	84.4
307.272	93.8
307.502	87.6
307.731	81.6
307.961	83.2
308.191	83.8
308.421	82.2
308.651	79.6
308.881	79.6
309.111	86.2
309.341	82
309.571	82.4
309.8	82.6
310.03	90
310.26	86.6
310.49	87.2
310.72	82.6
310.949	80.2
311.179	88.4
311.409	86.8
311.639	83.2
311.868	81.2
312.098	83
312.328	88.4
312.557	82.6
312.787	88.4
313.017	77
313.246	88.6
313.476	86.4
313.706	88.8
313.935	87.2
314.165	82.8
314.394	82.6
314.624	85
314.853	84.4
315.083	87.8
315.312	89.8
315.542	84.6
315.771	85
316.001	78.4
316.23	88.6
316.46	88.2
316.689	89.4
316.919	89.6
317.148	86.6
317.377	86
317.607	88.4
317.836	86.8
318.065	83.6
318.295	86
318.524	85.6
318.753	93.6
318.983	87.4
319.212	84.6
319.441	81.8
319.67	81.8
319.9	84.6
320.129	81.8
320.358	84.4
320.587	84.2
320.816	84.6
321.046	88.8
321.275	87.2
321.504	85
321.733	89.2
321.962	88.8
322.191	80.6
322.42	88.8
322.649	86.4
322.878	88.4
323.108	86.8
323.337	92.4
323.566	81.4
323.795	87.6
324.024	80.8
324.253	86
324.482	89
324.71	87
324.939	80.2
325.168	86.8
325.397	85
325.626	85.8
325.855	85.6
326.084	87
326.313	87.2
326.542	83.6
326.77	83.4
326.999	88.8
327.228	83
327.457	80.2
327.686	79.6
327.914	73.4
328.143	85.6
328.372	87.8
328.6	82.4
328.829	89.8
329.058	82.6
329.287	81.6
329.515	86.6
329.744	84.6
329.972	84.8
330.201	88.4
330.43	82.6
330.658	79.2
330.887	85.2
331.115	85.8
331.344	81.4
331.572	82.4
331.801	82.6
332.03	85.4
332.258	84.8
332.486	82.8
332.715	83.8
332.943	87.8
333.172	80.6
333.4	85.6
333.629	89.2
333.857	87
334.085	87
334.314	82.8
334.542	84.8
334.771	86
334.999	86.8
335.227	85.2
335.455	79.6
335.684	87.6
335.912	73
336.14	89.6
336.369	87.6
336.597	82.8
336.825	87
337.053	90
337.281	82.6
337.51	85
337.738	87.2
337.966	77.6
338.194	87.2
338.422	82.4
338.65	86
338.878	89.4
339.106	88
339.334	88
339.562	82.2
339.79	91.8
340.018	79
340.246	88.6
340.474	84.8
340.702	90.6
340.93	84.8
341.158	83.8
341.386	84.6
341.614	92
341.842	89.6
342.07	76.8
342.298	88.2
342.526	87.2
342.754	79.4
342.981	81.8
343.209	82.2
343.437	84.2
343.665	81
343.893	87
344.12	83.8
344.348	81
344.576	88.6
344.804	81.6
345.031	86.4
345.259	87.2
345.487	84.4
345.714	83.4
345.942	80
346.17	83.6
346.397	85
346.625	86
346.853	86.6
347.08	85.4
347.308	86
347.535	85
347.763	80
347.99	83.6
348.218	81.6
348.445	84.8
348.673	83.4
348.9	85.4
349.128	86.6
349.355	83.8
349.583	87
349.81	83.8
350.037	85.6
350.265	85.4
350.492	86.2
350.72	88.6
350.947	82.6
351.174	84.6
351.402	86.4
351.629	84.4
351.856	84.4
352.083	83.6
352.311	85.6
352.538	83.4
352.765	83.8
352.992	88.6
353.22	86.4
353.447	86
353.674	81
353.901	83.2
354.128	83.8
354.355	84.6
354.583	87
354.81	89
355.037	85.4
355.264	82.2
355.491	86
355.718	85.8
355.945	85.2
356.172	90.6
356.399	82.2
356.626	88.6
356.853	91.8
357.08	104
357.307	114.6
357.534	108.2
357.761	80.4
357.988	83.4
358.215	85.2
358.441	87.8
358.668	88
358.895	87
359.122	85.6
359.349	86.6
359.576	87.4
359.802	81.4
360.029	87
360.256	82.6
360.483	74.6
360.709	74.8
360.936	86.8
361.163	85.6
361.39	81.2
361.616	87.2
361.843	82
362.07	82.8
362.296	88.2
362.523	83.4
362.749	82.6
362.976	86
363.203	92
363.429	98.6
363.656	101.2
363.882	131
364.109	142
364.335	104.6
364.562	88.8
364.788	91.2
365.015	86.6
365.241	89.2
365.468	81.2
365.694	84.4
365.92	86.8
366.147	80.8
366.373	85.2
366.599	88
366.826	91.2
367.052	98.6
367.278	96.6
367.505	90.4
367.731	96.8
367.957	97.4
368.184	127.8
368.41	165.2
368.636	133.2
368.862	93.6
369.089	93
369.315	85.4
369.541	86
369.767	86.6
369.993	86
370.219	79.8
370.445	85.2
370.672	86.2
370.898	82.8
371.124	84
371.35	84
371.576	84
371.802	83
372.028	89
372.254	85.6
372.48	82.4
372.706	79.2
372.932	82.8
373.158	81.8
373.384	90.6
373.61	91
373.835	101
374.061	109.2
374.287	88
374.513	81
374.739	80.6
374.965	84.2
375.191	84.4
375.416	85
375.642	81.8
375.868	85.8
376.094	76.8
376.319	78.6
376.545	88.8
376.771	81.6
376.997	86
377.222	87.6
377.448	85.4
377.674	82.8
377.899	86.4
378.125	85.2
378.35	78.6
378.576	81.2
378.802	79
379.027	77.2
379.253	89.6
379.478	80.6
379.704	80
379.929	84
380.155	78.4
380.38	82.8
380.606	87.4
380.831	82.8
381.057	79
381.282	87.6
381.507	79.8
381.733	83.4
381.958	78.4
382.184	82
382.409	74.6
382.634	86.6
382.86	89.6
383.085	82.8
383.31	83.8
383.535	88.6
383.761	84
383.986	84.6
384.211	82.8
384.436	81.4
384.662	83.6
384.887	88.6
385.112	83.8
385.337	82.4
385.562	89.2
385.787	84.8
386.013	83.4
386.238	86
386.463	79.8
386.688	83
386.913	86
387.138	82.4
387.363	81.4
387.588	82.6
387.813	82.8
388.038	83.8
388.263	84.8
388.488	84.4
388.713	85
388.938	83.2
389.163	75.8
389.387	80.4
389.612	82.8
389.837	80.6
390.062	83.6
390.287	79
390.512	78.8
390.736	81.2
390.961	81.4
391.186	77.2
391.411	87.6
391.636	80.4
391.86	81.4
392.085	80.4
392.31	82.4
392.534	87.6
392.759	86.6
392.984	84.4
393.208	82.4
393.433	85.2
393.658	81
393.882	87.8
394.107	81.6
394.331	78.6
394.556	80.4
394.78	85
395.005	80.2
395.229	78.8
395.454	80.6
395.678	91
395.903	81.8
396.127	79
396.352	79.4
396.576	79.4
396.801	78.8
397.025	81.8
397.249	78.2
397.474	83.2
397.698	86.8
397.922	83.4
398.147	79.8
398.371	82.2
398.595	79.8
398.82	81.8
399.044	84
399.268	86.8
399.492	82.2
399.717	81
399.941	86.6
400.165	84.4
400.389	84
400.613	81
400.837	80.2
401.062	86.4
401.286	83
401.51	86.2
401.734	88.2
401.958	92
402.182	95.4
402.406	88.2
402.63	79.6
402.854	85.2
403.078	80.6
403.302	88.8
403.526	89
403.75	81.8
403.974	83
404.198	86.8
404.422	83.4
404.645	77
404.869	84.8
405.093	96.4
405.317	105.8
405.541	153.4
405.765	222.4
405.988	231.4
406.212	142
406.436	117
406.66	86.8
406.883	84.2
407.107	84.2
407.331	94.2
407.555	75.4
407.778	81.2
408.002	80
408.226	77.8
408.449	81.6
408.673	77.8
408.896	84.6
409.12	89.6
409.344	80.2
409.567	83.8
409.791	84.4
410.014	83.2
410.238	80
410.461	81.6
410.685	77.8
410.908	75.2
411.132	83.8
411.355	81.4
411.578	85.4
411.802	82.4
412.025	85.4
412.249	83.6
412.472	81.4
412.695	84.4
412.919	80.4
413.142	78.8
413.365	73.8
413.589	80.4
413.812	82.2
414.035	76.6
414.258	79.2
414.482	89.2
414.705	82.2
414.928	79.8
415.151	78
415.374	86.2
415.597	85.8
415.821	81.6
416.044	82.6
416.267	82.8
416.49	88.2
416.713	80.8
416.936	84.8
417.159	84.2
417.382	85.6
417.605	74.2
417.828	78.4
418.051	81.4
418.274	80.4
418.497	81.6
418.72	80
418.943	82.4
419.166	82.2
419.389	81.4
419.611	79.4
419.834	82
420.057	84.6
420.28	76.6
420.503	91.8
420.726	82.6
420.948	79.8
421.171	83.8
421.394	81.8
421.617	85.4
421.839	77
422.062	81.2
422.285	81.8
422.507	80.8
422.73	84.6
422.953	88.2
423.175	92
423.398	82.4
423.621	86.8
423.843	82
424.066	83.8
424.288	79
424.511	82.6
424.733	90.2
424.956	76.8
425.178	83.4
425.401	82.2
425.623	74
425.846	83.2
426.068	79.6
426.291	78.2
426.513	84.6
426.735	81.2
426.958	84.2
427.18	82
427.402	86.8
427.625	80
427.847	78.8
428.069	86.6
428.292	80.2
428.514	79.8
428.736	84.8
428.958	81.4
429.181	88.2
429.403	85.6
429.625	79
429.847	85.8
430.069	81.6
430.292	80.6
430.514	78.8
430.736	78.8
430.958	79.8
431.18	86
431.402	87.4
431.624	78
431.846	82.4
432.068	85.4
432.29	82.6
432.512	80.4
432.734	81
432.956	78.4
433.178	83.6
433.4	84.2
433.622	83.8
433.844	84.2
434.066	77.4
434.287	85.8
434.509	75.6
434.731	80.4
434.953	77
435.175	83
435.397	86.6
435.618	76
435.84	77.6
436.062	84
436.284	82.4
436.505	84.4
436.727	82.2
436.949	83.2
437.17	86.2
437.392	87
437.614	79.8
437.835	80.4
438.057	75.8
438.278	83.4
438.5	84.6
438.721	89.4
438.943	81.2
439.165	83.2
439.386	79.6
439.608	81.4
439.829	83.2
440.05	85.8
440.272	83.4
440.493	80.2
440.715	91.4
440.936	83.8
441.158	81.4
441.379	81.2
441.6	79.4
441.822	82.8
442.043	83
442.264	89
442.486	83
442.707	85.6
442.928	81
443.149	82
443.371	80
443.592	79.8
443.813	80.6
444.034	79.4
444.255	86.2
444.476	75.4
444.698	77.2
444.919	86.8
445.14	92.2
445.361	84.8
445.582	83
445.803	81.4
446.024	82
446.245	81.6
446.466	82.8
446.687	83
446.908	77.2
447.129	84
447.35	83
447.571	86.8
447.792	85
448.013	81.6
448.234	81
448.455	81.8
448.675	82.6
448.896	81.8
449.117	82.8
449.338	87.4
449.559	85.8
449.779	86.2
450	86.6
450.221	84.6
450.442	81.2
450.662	80.8
450.883	85.8
451.104	75.4
451.324	81.2
451.545	84.2
451.766	78.6
451.986	87.4
452.207	80.8
452.428	79
452.648	89
452.869	79.4
453.089	84.6
453.31	82.8
453.53	84.8
453.751	79.4
453.971	75.4
454.192	82.2
454.412	79.8
454.633	87
454.853	86.8
455.073	78.2
455.294	83
455.514	83.4
455.734	82.8
455.955	85.8
456.175	81.6
456.395	87.2
456.616	82.4
456.836	77.6
457.056	80
457.276	90.8
457.497	83
457.717	81.8
457.937	82.8
458.157	82.8
458.377	77.4
458.598	77.4
458.818	80.8
459.038	72.8
459.258	85.2
459.478	81.2
459.698	81.8
459.918	86.2
460.138	81.4
460.358	85.4
460.578	82.4
460.798	89.6
461.018	85.2
461.238	84.2
461.458	79
461.678	78.6
461.898	78.6
462.118	78.6
462.338	81.2
462.558	83.8
462.777	78.6
462.997	75.6
463.217	83.4
463.437	82.8
463.657	79.6
463.876	86.4
464.096	84.8
464.316	86.2
464.536	83.6
464.755	84.4
464.975	86.6
465.195	78.8
465.414	88.4
465.634	86.4
465.854	79
466.073	84.4
466.293	87.6
466.512	79.4
466.732	88.6
466.951	78
467.171	75.6
467.391	88.6
467.61	89.8
467.829	82.6
468.049	86.8
468.268	84.2
468.488	84
468.707	84.8
468.927	83.6
469.146	84
469.365	82.6
469.585	80.6
469.804	83.4
470.023	91.8
470.243	87
470.462	82
470.681	82.2
470.901	86.4
471.12	87
471.339	83.6
471.558	86.8
471.777	86.8
471.997	81.6
472.216	84.6
472.435	77.8
472.654	82.2
472.873	83.2
473.092	84
473.311	88.6
473.53	84
473.749	82.8
473.968	82.6
474.187	87.6
474.406	84.8
474.625	88.6
474.844	88
475.063	82.2
475.282	78.4
475.501	79.6
475.72	78.8
475.939	84.2
476.158	85
476.377	81.4
476.596	81.8
476.814	90
477.033	85.6
477.252	88.4
477.471	80.8
477.69	82.4
477.908	83
478.127	83.8
478.346	79.4
478.564	84.2
478.783	85
479.002	87.2
479.22	81.2
479.439	83.2
479.658	89.4
479.876	81.8
480.095	75.2
480.313	81.2
480.532	78.6
480.751	78.6
480.969	83.6
481.188	78.6
481.406	76
481.624	82
481.843	80.6
482.061	84.4
482.28	77
482.498	87.4
482.717	88.2
482.935	83
483.153	81.4
483.372	85.4
483.59	80.2
483.808	86.2
484.027	73.8
484.245	78
484.463	79.2
484.681	75
484.9	87.6
485.118	85.8
485.336	81.4
485.554	82
485.772	89
485.99	85.6
486.209	80
486.427	78.2
486.645	84.8
486.863	78
487.081	87.8
487.299	85.2
487.517	83.2
487.735	84.8
487.953	81.2
488.171	80.4
488.389	78.4
488.607	91
488.825	85.4
489.043	82.4
489.261	81.2
489.479	82.4
489.696	85.8
489.914	79.6
490.132	82.6
490.35	82.6
490.568	83.6
490.786	91.2
491.003	85.2
491.221	84.4
491.439	86.8
491.657	89.6
491.874	83
492.092	88.8
492.31	87.8
492.527	86.6
492.745	85.2
492.963	82.4
493.18	83
493.398	90.2
493.615	78.8
493.833	84
494.05	82
494.268	83
494.485	83.6
494.703	83
494.92	87
495.138	82.2
495.355	84.8
495.573	85.6
495.79	79.6
496.008	87
496.225	86.2
496.442	82.8
496.66	83.2
496.877	83
497.094	86.2
497.312	79.6
497.529	82.8
497.746	82.8
497.963	86.4
498.181	87
498.398	83.4
498.615	86.6
498.832	87.2
499.049	83
499.267	84.8
499.484	83.6
499.701	89.8
499.918	87.8
500.135	84.4
500.352	86.6
500.569	102.8
500.786	109.6
501.003	83.4
501.22	84.2
501.437	89.4
501.654	85
501.871	82.8
502.088	86.2
502.305	86.8
502.522	81.2
502.739	91.4
502.956	78.6
503.172	89.6
503.389	86.8
503.606	85.4
503.823	79
504.04	84.2
504.256	80.8
504.473	82.2
504.69	83.6
504.907	84.4
505.123	82
505.34	86
505.557	79.8
505.773	79.8
505.99	86.4
506.207	85.6
506.423	88.6
506.64	79.4
506.856	87.8
507.073	88.2
507.289	89.2
507.506	83.2
507.722	78.4
507.939	82.8
508.155	85.2
508.372	86.4
508.588	90.4
508.805	88.2
509.021	82.2
509.238	83.8
509.454	80
509.67	89.8
509.887	87.4
510.103	82
510.319	76.6
510.536	82.2
510.752	84.6
510.968	79.8
511.184	85
511.401	84.8
511.617	86
511.833	81.2
512.049	84.4
512.265	88
512.481	87.2
512.698	83.2
512.914	83.8
513.13	90.6
513.346	80.4
513.562	76.4
513.778	84.4
513.994	85.4
514.21	81.4
514.426	84.6
514.642	86.2
514.858	81
515.074	81.2
515.29	82.8
515.506	83
515.721	85.2
515.937	88.8
516.153	84.6
516.369	80.6
516.585	79
516.801	86.6
517.016	89.2
517.232	82.4
517.448	84.4
517.664	86.2
517.879	82.4
518.095	78.6
518.311	88.2
518.527	87.2
518.742	90.2
518.958	75.8
519.173	85
519.389	80.6
519.605	86.2
519.82	91.2
520.036	83
520.251	91.2
520.467	89.4
520.682	81.4
520.898	84.4
521.113	76
521.329	81
521.544	85.8
521.76	83.4
521.975	77.6
522.19	80
522.406	81.8
522.621	85.6
522.836	88.8
523.052	91.6
523.267	84.8
523.482	88.6
523.698	84
523.913	85.4
524.128	86
524.343	86.2
524.559	84.6
524.774	91
524.989	79.4
525.204	82.2
525.419	81.6
525.634	75.2
525.849	78.8
526.064	82
526.28	86.6
526.495	88.6
526.71	81.8
526.925	82
527.14	82.8
527.355	86.2
527.57	86.6
527.785	84.6
527.999	78.4
528.214	86.8
528.429	76
528.644	77
528.859	82.4
529.074	87.4
529.289	82.4
529.503	88
529.718	80.8
529.933	81
530.148	83.2
530.363	79.2
530.577	90.8
530.792	86.4
531.007	82.6
531.221	90.6
531.436	86.8
531.651	86.2
531.865	84.4
532.08	86
532.295	80.4
532.509	82.4
532.724	76.2
532.938	76.4
533.153	77.8
533.367	81.2
533.582	88.6
533.796	84.6
534.011	82
534.225	82.6
534.44	83.4
534.654	81.8
534.868	75.2
535.083	80.2
535.297	80.4
535.511	81.4
535.726	76.4
535.94	87.6
536.154	86.2
536.369	78.2
536.583	85.8
536.797	84
537.011	86
537.225	88.4
537.44	78.4
537.654	80.8
537.868	85.8
538.082	85.4
538.296	86.8
538.51	85.6
538.724	90
538.938	83.4
539.153	80.4
539.367	81.8
539.581	85
539.795	84.2
540.009	80
540.222	83.8
540.436	86
540.65	81.4
540.864	83
541.078	86
541.292	80.6
541.506	86
541.72	89.2
541.934	85.4
542.147	91.6
542.361	86.2
542.575	83.2
542.789	87.4
543.002	84.6
543.216	87.8
543.43	90.4
543.644	85.6
543.857	80.2
544.071	83
544.285	78.4
544.498	88
544.712	81
544.925	85.8
545.139	83.4
545.352	86.6
545.566	85
545.779	83.2
545.993	85.6
546.206	88
546.42	83.2
546.633	85.8
546.847	83.2
547.06	88.8
547.274	82.6
547.487	89.8
547.7	81.8
547.914	89.6
548.127	88.6
548.34	88.2
548.554	85.4
548.767	92.4
548.98	84.2
549.193	85.2
