Data from TenMicroDelayPb_HRD10591_00012.txt Node
Date: Mon Nov 24 14:34:24 EST 2025
User: Yrep
Spectrometer: HR+D1059
Trigger mode: 0
Integration Time (sec): 1.000000E-2
Scans to average: 5
Electric dark correction enabled: true
Nonlinearity correction enabled: false
Boxcar width: 0
XAxis mode: Wavelengths
Number of Pixels in Spectrum: 2048
>>>>>Begin Spectral Data<<<<<
223.165	-17.23
223.4	-17.23
223.635	-17.23
223.869	-19.03
224.104	-18.23
224.338	-16.83
224.573	-21.83
224.808	-13.43
225.042	-6.43
225.277	-5.62
225.511	-4.03
225.746	0.97
225.98	6.97
226.215	15.38
226.449	17.57
226.683	23.38
226.918	27.17
227.152	31.17
227.387	31.77
227.621	39.17
227.856	44.17
228.09	58.17
228.324	51.97
228.559	57.57
228.793	61.17
229.027	61.97
229.262	62.17
229.496	61.97
229.73	65.77
229.964	71.38
230.199	64.57
230.433	71.77
230.667	72.77
230.901	79.57
231.136	73.57
231.37	80.38
231.604	84.77
231.838	77.97
232.072	79.77
232.306	77.17
232.541	74.77
232.775	81.38
233.009	86.17
233.243	81.17
233.477	79.77
233.711	79.38
233.945	82.38
234.179	83.77
234.413	82.17
234.647	75.77
234.881	73.57
235.115	79.17
235.349	80.77
235.583	89.17
235.817	75.38
236.051	81.38
236.285	79.77
236.519	79.77
236.753	77.57
236.987	75.97
237.221	79.77
237.455	73.57
237.689	76.97
237.922	76.97
238.156	71.77
238.39	72.38
238.624	71.77
238.858	77.17
239.091	76.38
239.325	76.17
239.559	75.38
239.793	73.17
240.027	73.17
240.26	68.17
240.494	72.57
240.728	76.77
240.961	78.97
241.195	75.38
241.429	71.97
241.662	76.57
241.896	83.38
242.13	78.57
242.363	72.77
242.597	77.38
242.83	74.38
243.064	82.57
243.298	75.38
243.531	78.97
243.765	80.57
243.998	76.77
244.232	79.57
244.465	75.77
244.699	82.97
244.932	81.38
245.166	82.57
245.399	75.17
245.633	73.38
245.866	76.77
246.099	82.97
246.333	78.38
246.566	79.77
246.8	83.38
247.033	78.77
247.266	71.17
247.5	77.57
247.733	80.38
247.966	74.77
248.2	78.57
248.433	75.57
248.666	82.17
248.899	84.17
249.133	80.97
249.366	76.38
249.599	80.57
249.832	74.77
250.066	80.97
250.299	73.17
250.532	76.77
250.765	80.77
250.998	81.17
251.231	76.97
251.465	79.57
251.698	77.17
251.931	78.38
252.164	77.97
252.397	84.77
252.63	79.77
252.863	75.77
253.096	79.77
253.329	83.77
253.562	81.57
253.795	81.77
254.028	81.57
254.261	80.57
254.494	72.38
254.727	79.38
254.96	77.17
255.193	89.57
255.426	80.57
255.659	77.77
255.892	90.17
256.124	76.97
256.357	81.97
256.59	78.97
256.823	80.17
257.056	85.57
257.289	80.38
257.521	77.77
257.754	87.17
257.987	80.77
258.22	79.17
258.452	79.57
258.685	80.38
258.918	84.77
259.151	75.17
259.383	79.17
259.616	74.77
259.849	80.38
260.081	78.97
260.314	77.38
260.547	85.97
260.779	76.57
261.012	79.57
261.244	88.97
261.477	78.38
261.71	78.17
261.942	78.57
262.175	82.77
262.407	79.57
262.64	81.38
262.872	76.17
263.105	82.17
263.337	82.97
263.57	88.38
263.802	84.38
264.035	78.57
264.267	77.57
264.499	80.38
264.732	82.57
264.964	82.17
265.197	83.77
265.429	80.57
265.661	83.97
265.894	81.97
266.126	76.77
266.358	78.97
266.591	81.97
266.823	81.77
267.055	76.77
267.287	87.77
267.52	84.57
267.752	84.17
267.984	86.38
268.216	85.38
268.448	84.97
268.681	84.77
268.913	80.57
269.145	85.38
269.377	76.77
269.609	80.57
269.841	86.17
270.073	93.38
270.306	73.77
270.538	84.77
270.77	88.17
271.002	81.77
271.234	79.77
271.466	84.17
271.698	86.17
271.93	86.17
272.162	84.77
272.394	85.57
272.626	80.97
272.858	80.38
273.09	81.97
273.322	76.97
273.553	83.38
273.785	83.38
274.017	82.57
274.249	82.38
274.481	86.57
274.713	87.97
274.945	87.38
275.176	83.97
275.408	80.57
275.64	84.57
275.872	81.57
276.104	82.57
276.335	85.77
276.567	76.17
276.799	82.17
277.031	79.17
277.262	84.77
277.494	84.38
277.726	80.17
277.957	85.97
278.189	89.38
278.421	85.57
278.652	86.38
278.884	89.77
279.115	81.17
279.347	83.97
279.579	78.97
279.81	79.97
280.042	79.17
280.273	86.97
280.505	80.17
280.736	86.97
280.968	84.57
281.199	73.38
281.431	79.77
281.662	79.77
281.894	76.38
282.125	84.17
282.356	85.57
282.588	85.17
282.819	86.97
283.051	76.57
283.282	85.77
283.513	78.97
283.745	76.77
283.976	75.77
284.207	80.17
284.439	85.38
284.67	78.77
284.901	81.57
285.132	77.57
285.364	81.77
285.595	84.17
285.826	84.77
286.057	87.77
286.288	87.77
286.52	87.97
286.751	89.97
286.982	86.77
287.213	80.97
287.444	81.77
287.675	79.38
287.906	79.97
288.138	84.77
288.369	87.57
288.6	84.17
288.831	87.38
289.062	75.97
289.293	83.38
289.524	85.97
289.755	83.38
289.986	86.77
290.217	84.77
290.448	89.97
290.679	88.38
290.91	86.17
291.141	83.17
291.371	81.38
291.602	82.17
291.833	80.97
292.064	84.77
292.295	89.57
292.526	80.57
292.757	80.97
292.987	85.57
293.218	85.97
293.449	81.97
293.68	83.97
293.91	90.57
294.141	85.38
294.372	86.38
294.603	86.57
294.833	79.17
295.064	79.38
295.295	87.97
295.525	88.38
295.756	91.57
295.987	88.38
296.217	84.97
296.448	81.97
296.679	82.38
296.909	83.97
297.14	83.57
297.37	88.38
297.601	83.77
297.831	89.77
298.062	82.97
298.292	86.38
298.523	77.77
298.753	85.38
298.984	81.97
299.214	87.38
299.445	85.57
299.675	84.17
299.905	82.77
300.136	84.57
300.366	86.77
300.597	91.57
300.827	80.97
301.057	85.17
301.288	86.38
301.518	87.17
301.748	78.38
301.979	86.57
302.209	88.77
302.439	83.97
302.669	87.17
302.9	80.57
303.13	83.38
303.36	88.38
303.59	89.97
303.82	84.97
304.051	81.57
304.281	82.97
304.511	85.97
304.741	81.77
304.971	89.77
305.201	83.17
305.431	89.57
305.661	84.57
305.891	79.38
306.121	84.77
306.352	81.17
306.582	87.77
306.812	86.57
307.042	82.38
307.272	87.17
307.502	84.17
307.731	81.77
307.961	81.17
308.191	85.17
308.421	80.97
308.651	82.38
308.881	89.17
309.111	81.97
309.341	84.97
309.571	85.77
309.8	84.97
310.03	89.57
310.26	83.57
310.49	89.17
310.72	93.77
310.949	77.77
311.179	80.77
311.409	79.38
311.639	88.97
311.868	84.97
312.098	82.38
312.328	76.77
312.557	92.57
312.787	81.77
313.017	83.38
313.246	84.77
313.476	82.77
313.706	88.57
313.935	83.77
314.165	78.97
314.394	86.38
314.624	85.17
314.853	79.38
315.083	91.38
315.312	92.17
315.542	89.38
315.771	79.38
316.001	85.97
316.23	85.97
316.46	85.38
316.689	81.77
316.919	88.17
317.148	82.97
317.377	81.38
317.607	86.57
317.836	88.17
318.065	87.17
318.295	91.38
318.524	88.38
318.753	88.57
318.983	89.57
319.212	87.77
319.441	82.38
319.67	80.17
319.9	81.38
320.129	88.17
320.358	79.38
320.587	81.57
320.816	84.77
321.046	84.97
321.275	84.97
321.504	84.97
321.733	87.57
321.962	85.17
322.191	89.17
322.42	84.77
322.649	88.77
322.878	85.57
323.108	87.57
323.337	81.57
323.566	89.77
323.795	85.57
324.024	86.38
324.253	83.77
324.482	82.57
324.71	85.38
324.939	88.17
325.168	83.97
325.397	88.77
325.626	89.38
325.855	87.38
326.084	85.97
326.313	88.17
326.542	78.38
326.77	86.57
326.999	86.38
327.228	80.97
327.457	83.57
327.686	74.38
327.914	82.57
328.143	83.57
328.372	87.17
328.6	84.77
328.829	80.97
329.058	81.38
329.287	85.38
329.515	77.77
329.744	84.38
329.972	85.17
330.201	90.17
330.43	87.77
330.658	80.77
330.887	84.57
331.115	90.97
331.344	87.38
331.572	84.17
331.801	78.97
332.03	82.77
332.258	85.17
332.486	85.17
332.715	84.57
332.943	81.57
333.172	81.77
333.4	84.77
333.629	83.97
333.857	83.57
334.085	87.38
334.314	87.97
334.542	80.57
334.771	85.57
334.999	87.57
335.227	88.97
335.455	83.17
335.684	83.77
335.912	82.97
336.14	76.17
336.369	84.38
336.597	89.57
336.825	85.57
337.053	85.97
337.281	85.97
337.51	80.17
337.738	84.57
337.966	87.38
338.194	81.97
338.422	91.77
338.65	76.38
338.878	82.97
339.106	85.17
339.334	92.57
339.562	81.57
339.79	82.97
340.018	91.57
340.246	85.77
340.474	82.97
340.702	82.97
340.93	83.97
341.158	80.77
341.386	82.38
341.614	83.38
341.842	85.17
342.07	87.38
342.298	85.38
342.526	83.77
342.754	73.77
342.981	80.97
343.209	75.77
343.437	87.38
343.665	85.97
343.893	82.97
344.12	81.38
344.348	83.17
344.576	87.17
344.804	82.77
345.031	81.17
345.259	84.97
345.487	90.38
345.714	85.77
345.942	87.97
346.17	86.38
346.397	85.57
346.625	82.57
346.853	83.17
347.08	85.97
347.308	81.57
347.535	74.97
347.763	88.77
347.99	88.17
348.218	82.17
348.445	84.17
348.673	78.17
348.9	80.77
349.128	87.17
349.355	88.38
349.583	84.97
349.81	84.57
350.037	75.97
350.265	83.38
350.492	79.38
350.72	77.17
350.947	84.38
351.174	88.97
351.402	81.77
351.629	78.97
351.856	85.38
352.083	84.57
352.311	84.17
352.538	85.57
352.765	87.97
352.992	86.97
353.22	90.17
353.447	80.77
353.674	82.97
353.901	82.17
354.128	84.77
354.355	86.57
354.583	85.17
354.81	79.38
355.037	86.17
355.264	81.77
355.491	84.17
355.718	84.17
355.945	83.97
356.172	85.17
356.399	83.38
356.626	88.17
356.853	77.38
357.08	79.57
357.307	80.57
357.534	83.57
357.761	81.17
357.988	85.97
358.215	80.17
358.441	83.97
358.668	88.38
358.895	86.17
359.122	85.38
359.349	82.57
359.576	82.38
359.802	79.38
360.029	86.97
360.256	79.17
360.483	79.17
360.709	90.97
360.936	86.97
361.163	74.57
361.39	82.17
361.616	84.77
361.843	85.57
362.07	85.97
362.296	82.77
362.523	87.17
362.749	84.77
362.976	84.97
363.203	83.57
363.429	85.57
363.656	79.38
363.882	85.17
364.109	81.57
364.335	83.77
364.562	82.77
364.788	82.97
365.015	80.57
365.241	86.57
365.468	77.97
365.694	83.57
365.92	81.57
366.147	83.77
366.373	82.38
366.599	82.17
366.826	84.17
367.052	89.57
367.278	82.77
367.505	83.17
367.731	81.17
367.957	85.57
368.184	85.77
368.41	81.77
368.636	87.97
368.862	81.38
369.089	83.38
369.315	76.38
369.541	77.97
369.767	92.38
369.993	80.17
370.219	86.38
370.445	80.38
370.672	85.57
370.898	84.38
371.124	79.77
371.35	86.77
371.576	82.17
371.802	87.17
372.028	84.77
372.254	84.38
372.48	89.38
372.706	76.97
372.932	81.77
373.158	78.38
373.384	81.38
373.61	78.77
373.835	83.38
374.061	78.97
374.287	82.97
374.513	80.77
374.739	78.77
374.965	80.17
375.191	86.97
375.416	86.97
375.642	78.57
375.868	83.38
376.094	82.57
376.319	85.97
376.545	86.77
376.771	84.77
376.997	80.17
377.222	80.97
377.448	79.38
377.674	86.38
377.899	79.77
378.125	88.57
378.35	82.97
378.576	76.77
378.802	82.17
379.027	81.77
379.253	86.77
379.478	81.97
379.704	81.97
379.929	81.38
380.155	87.77
380.38	83.97
380.606	81.97
380.831	84.38
381.057	82.97
381.282	79.57
381.507	79.17
381.733	78.77
381.958	79.17
382.184	87.57
382.409	77.77
382.634	82.38
382.86	76.57
383.085	83.38
383.31	79.38
383.535	77.57
383.761	81.97
383.986	77.38
384.211	80.38
384.436	86.17
384.662	87.57
384.887	74.97
385.112	90.38
385.337	83.38
385.562	81.38
385.787	81.17
386.013	79.17
386.238	75.57
386.463	82.38
386.688	85.97
386.913	86.77
387.138	80.57
387.363	79.38
387.588	81.77
387.813	86.57
388.038	83.38
388.263	83.17
388.488	83.97
388.713	82.57
388.938	78.77
389.163	76.97
389.387	82.17
389.612	79.77
389.837	77.77
390.062	80.77
390.287	87.57
390.512	85.97
390.736	77.57
390.961	83.97
391.186	87.38
391.411	80.77
391.636	77.57
391.86	81.77
392.085	80.38
392.31	85.57
392.534	85.57
392.759	82.97
392.984	80.77
393.208	88.38
393.433	77.57
393.658	82.97
393.882	80.38
394.107	81.57
394.331	87.97
394.556	82.57
394.78	83.38
395.005	76.97
395.229	79.17
395.454	82.17
395.678	77.77
395.903	81.17
396.127	79.38
396.352	79.97
396.576	86.38
396.801	83.17
397.025	80.97
397.249	84.97
397.474	78.77
397.698	72.57
397.922	84.17
398.147	81.57
398.371	85.17
398.595	78.77
398.82	83.17
399.044	80.17
399.268	81.57
399.492	77.17
399.717	81.97
399.941	83.97
400.165	81.57
400.389	77.97
400.613	80.38
400.837	81.97
401.062	76.38
401.286	76.97
401.51	82.57
401.734	75.97
401.958	78.97
402.182	75.17
402.406	82.77
402.63	77.57
402.854	84.57
403.078	73.57
403.302	81.97
403.526	81.38
403.75	84.17
403.974	92.38
404.198	84.38
404.422	83.57
404.645	82.17
404.869	79.77
405.093	78.38
405.317	78.57
405.541	79.77
405.765	80.17
405.988	80.77
406.212	81.77
406.436	84.77
406.66	79.38
406.883	78.17
407.107	81.38
407.331	76.17
407.555	80.17
407.778	79.77
408.002	87.57
408.226	82.97
408.449	78.38
408.673	81.17
408.896	83.77
409.12	83.57
409.344	79.57
409.567	81.38
409.791	76.17
410.014	84.77
410.238	79.57
410.461	79.38
410.685	81.57
410.908	79.38
411.132	88.97
411.355	85.17
411.578	80.77
411.802	80.57
412.025	81.97
412.249	75.38
412.472	78.17
412.695	82.77
412.919	82.38
413.142	80.17
413.365	80.57
413.589	80.17
413.812	81.97
414.035	76.97
414.258	87.38
414.482	86.57
414.705	77.57
414.928	81.57
415.151	76.77
415.374	78.97
415.597	81.57
415.821	84.38
416.044	85.77
416.267	86.77
416.49	80.97
416.713	80.77
416.936	83.97
417.159	77.17
417.382	86.77
417.605	76.57
417.828	80.57
418.051	79.38
418.274	80.77
418.497	76.97
418.72	77.97
418.943	72.97
419.166	86.17
419.389	81.97
419.611	82.57
419.834	79.77
420.057	82.17
420.28	80.38
420.503	75.17
420.726	77.17
420.948	82.77
421.171	79.97
421.394	77.57
421.617	81.57
421.839	84.38
422.062	85.97
422.285	84.97
422.507	81.38
422.73	80.17
422.953	81.57
423.175	77.38
423.398	84.17
423.621	75.97
423.843	78.97
424.066	87.57
424.288	86.57
424.511	86.57
424.733	79.97
424.956	85.57
425.178	84.97
425.401	79.97
425.623	81.97
425.846	75.97
426.068	78.57
426.291	86.77
426.513	83.57
426.735	77.17
426.958	83.97
427.18	74.38
427.402	75.57
427.625	78.57
427.847	85.97
428.069	74.77
428.292	80.38
428.514	75.97
428.736	78.38
428.958	81.17
429.181	81.57
429.403	81.38
429.625	76.97
429.847	77.77
430.069	82.57
430.292	75.38
430.514	76.17
430.736	78.97
430.958	84.77
431.18	81.17
431.402	81.77
431.624	79.57
431.846	82.17
432.068	77.77
432.29	76.17
432.512	83.57
432.734	79.97
432.956	84.57
433.178	82.17
433.4	79.38
433.622	85.97
433.844	84.38
434.066	81.17
434.287	75.17
434.509	80.38
434.731	79.77
434.953	82.77
435.175	81.17
435.397	79.57
435.618	80.77
435.84	85.77
436.062	78.57
436.284	83.97
436.505	77.38
436.727	72.77
436.949	81.57
437.17	78.97
437.392	73.77
437.614	82.77
437.835	77.97
438.057	77.97
438.278	82.17
438.5	78.38
438.721	78.17
438.943	80.17
439.165	80.38
439.386	83.17
439.608	83.38
439.829	78.17
440.05	82.17
440.272	81.17
440.493	77.97
440.715	79.97
440.936	81.17
441.158	81.17
441.379	86.77
441.6	77.38
441.822	74.17
442.043	78.17
442.264	81.38
442.486	76.38
442.707	77.38
442.928	81.17
443.149	80.97
443.371	81.97
443.592	74.77
443.813	79.97
444.034	81.57
444.255	76.97
444.476	80.17
444.698	78.17
444.919	81.77
445.14	89.17
445.361	85.38
445.582	77.97
445.803	77.97
446.024	82.97
446.245	75.97
446.466	79.38
446.687	78.57
446.908	77.38
447.129	75.38
447.35	75.77
447.571	78.77
447.792	86.77
448.013	84.57
448.234	87.57
448.455	81.97
448.675	76.38
448.896	80.97
449.117	78.77
449.338	84.38
449.559	76.38
449.779	74.57
450	79.77
450.221	73.77
450.442	82.57
450.662	77.77
450.883	79.38
451.104	80.38
451.324	81.77
451.545	80.97
451.766	80.97
451.986	81.97
452.207	74.38
452.428	78.38
452.648	79.97
452.869	78.77
453.089	80.77
453.31	81.57
453.53	81.38
453.751	82.77
453.971	81.77
454.192	80.57
454.412	82.77
454.633	79.17
454.853	77.38
455.073	81.38
455.294	85.38
455.514	80.17
455.734	79.57
455.955	79.38
456.175	83.17
456.395	79.77
456.616	78.38
456.836	80.38
457.056	87.17
457.276	76.57
457.497	86.17
457.717	80.57
457.937	81.57
458.157	82.57
458.377	81.77
458.598	79.57
458.818	77.97
459.038	84.77
459.258	83.57
459.478	86.38
459.698	83.77
459.918	82.97
460.138	80.38
460.358	78.97
460.578	77.57
460.798	84.17
461.018	82.97
461.238	85.38
461.458	73.17
461.678	79.77
461.898	81.38
462.118	81.17
462.338	80.38
462.558	84.38
462.777	79.57
462.997	83.38
463.217	80.57
463.437	83.97
463.657	80.17
463.876	84.77
464.096	83.97
464.316	81.17
464.536	83.97
464.755	82.97
464.975	76.57
465.195	78.77
465.414	81.77
465.634	78.97
465.854	76.17
466.073	75.97
466.293	76.97
466.512	74.77
466.732	76.38
466.951	85.17
467.171	83.97
467.391	85.17
467.61	79.38
467.829	76.17
468.049	82.57
468.268	82.57
468.488	79.77
468.707	73.38
468.927	76.38
469.146	84.77
469.365	84.77
469.585	82.57
469.804	86.57
470.023	84.57
470.243	85.77
470.462	86.17
470.681	79.97
470.901	84.38
471.12	77.17
471.339	84.97
471.558	90.57
471.777	80.77
471.997	77.57
472.216	82.38
472.435	80.57
472.654	75.57
472.873	77.57
473.092	81.97
473.311	81.17
473.53	84.97
473.749	83.57
473.968	86.17
474.187	84.97
474.406	87.97
474.625	78.77
474.844	85.17
475.063	80.57
475.282	74.77
475.501	81.77
475.72	72.17
475.939	81.97
476.158	78.97
476.377	83.57
476.596	82.38
476.814	84.77
477.033	84.77
477.252	85.38
477.471	82.77
477.69	81.38
477.908	82.77
478.127	78.38
478.346	82.57
478.564	76.77
478.783	81.77
479.002	81.97
479.22	79.97
479.439	79.57
479.658	82.77
479.876	83.17
480.095	82.77
480.313	83.38
480.532	82.17
480.751	78.57
480.969	86.57
481.188	79.17
481.406	83.57
481.624	89.17
481.843	83.57
482.061	81.38
482.28	78.77
482.498	84.97
482.717	77.17
482.935	77.17
483.153	79.97
483.372	80.97
483.59	80.57
483.808	80.97
484.027	80.17
484.245	81.77
484.463	79.38
484.681	85.97
484.9	84.38
485.118	82.97
485.336	82.97
485.554	83.38
485.772	85.38
485.99	79.77
486.209	77.17
486.427	76.17
486.645	86.38
486.863	82.17
487.081	81.77
487.299	81.38
487.517	80.38
487.735	78.77
487.953	82.17
488.171	85.57
488.389	80.97
488.607	79.17
488.825	80.38
489.043	80.57
489.261	80.77
489.479	79.17
489.696	77.57
489.914	71.17
490.132	82.38
490.35	77.97
490.568	75.77
490.786	83.38
491.003	85.77
491.221	84.57
491.439	76.97
491.657	80.57
491.874	81.17
492.092	83.97
492.31	83.17
492.527	83.38
492.745	85.57
492.963	83.17
493.18	80.38
493.398	81.38
493.615	76.97
493.833	83.57
494.05	83.77
494.268	80.57
494.485	87.38
494.703	86.17
494.92	87.57
495.138	83.17
495.355	88.77
495.573	84.77
495.79	76.57
496.008	82.97
496.225	82.97
496.442	83.17
496.66	78.77
496.877	81.38
497.094	84.77
497.312	81.38
497.529	74.17
497.746	81.57
497.963	78.38
498.181	83.38
498.398	78.97
498.615	81.38
498.832	82.57
499.049	81.38
499.267	78.17
499.484	82.38
499.701	87.38
499.918	84.97
500.135	85.38
500.352	86.77
500.569	84.38
500.786	80.97
501.003	87.57
501.22	83.97
501.437	85.57
501.654	84.57
501.871	84.38
502.088	81.77
502.305	82.17
502.522	85.38
502.739	87.38
502.956	78.97
503.172	77.97
503.389	78.97
503.606	78.77
503.823	80.97
504.04	78.77
504.256	82.17
504.473	73.57
504.69	83.77
504.907	82.77
505.123	81.97
505.34	77.77
505.557	80.38
505.773	86.97
505.99	83.77
506.207	83.77
506.423	84.77
506.64	87.57
506.856	80.97
507.073	84.77
507.289	82.17
507.506	82.57
507.722	80.97
507.939	82.57
508.155	85.97
508.372	82.17
508.588	89.97
508.805	82.77
509.021	76.97
509.238	83.17
509.454	81.97
509.67	84.97
509.887	85.57
510.103	90.97
510.319	85.97
510.536	80.17
510.752	83.17
510.968	87.97
511.184	82.38
511.401	82.77
511.617	79.57
511.833	83.57
512.049	84.17
512.265	90.77
512.481	80.77
512.698	86.38
512.914	82.57
513.13	86.17
513.346	83.97
513.562	80.57
513.778	84.17
513.994	84.77
514.21	83.38
514.426	77.77
514.642	85.38
514.858	82.38
515.074	78.17
515.29	79.77
515.506	83.57
515.721	86.17
515.937	88.38
516.153	75.38
516.369	82.77
516.585	82.38
516.801	75.77
517.016	86.97
517.232	81.17
517.448	82.38
517.664	80.17
517.879	78.38
518.095	84.77
518.311	77.97
518.527	82.57
518.742	84.97
518.958	75.57
519.173	81.77
519.389	83.17
519.605	78.97
519.82	93.17
520.036	81.38
520.251	83.57
