Data from TenMicroDelayPb_HRD10591_00024.txt Node
Date: Mon Nov 24 14:34:29 EST 2025
User: Yrep
Spectrometer: HR+D1059
Trigger mode: 0
Integration Time (sec): 1.000000E-2
Scans to average: 5
Electric dark correction enabled: true
Nonlinearity correction enabled: false
Boxcar width: 0
XAxis mode: Wavelengths
Number of Pixels in Spectrum: 2048
>>>>>Begin Spectral Data<<<<<
223.165	-13.1
223.4	-13.1
223.635	-13.1
223.869	-15.3
224.104	-15.5
224.338	-16.5
224.573	-23.3
224.808	-14.5
225.042	-11.9
225.277	-11.3
225.511	-0.3
225.746	7.5
225.98	10.7
226.215	12.3
226.449	17.1
226.683	18.1
226.918	25.9
227.152	30.1
227.387	34.3
227.621	46.1
227.856	45.1
228.09	53.9
228.324	54.1
228.559	52.9
228.793	58.5
229.027	65.1
229.262	65.1
229.496	71.5
229.73	68.3
229.964	74.9
230.199	72.9
230.433	73.3
230.667	77.5
230.901	76.9
231.136	79.7
231.37	76.9
231.604	80.1
231.838	81.3
232.072	85.9
232.306	75.9
232.541	81.5
232.775	80.5
233.009	79.5
233.243	85.5
233.477	86.1
233.711	84.7
233.945	91.3
234.179	80.5
234.413	79.5
234.647	83.3
234.881	82.1
235.115	83.9
235.349	80.9
235.583	76.5
235.817	82.5
236.051	83.3
236.285	80.9
236.519	78.3
236.753	77.1
236.987	75.5
237.221	77.5
237.455	80.7
237.689	77.3
237.922	78.1
238.156	78.5
238.39	81.5
238.624	80.7
238.858	80.7
239.091	78.7
239.325	86.7
239.559	78.3
239.793	81.7
240.027	84.9
240.26	80.1
240.494	87.1
240.728	81.7
240.961	79.5
241.195	82.5
241.429	84.1
241.662	76.5
241.896	82.3
242.13	80.9
242.363	74.1
242.597	72.7
242.83	81.7
243.064	85.3
243.298	78.3
243.531	79.7
243.765	85.1
243.998	79.5
244.232	80.9
244.465	79.5
244.699	87.5
244.932	81.1
245.166	83.9
245.399	87.1
245.633	81.5
245.866	76.1
246.099	80.1
246.333	83.3
246.566	87.7
246.8	83.5
247.033	74.3
247.266	87.9
247.5	82.1
247.733	83.9
247.966	83.3
248.2	93.1
248.433	83.9
248.666	89.1
248.899	85.1
249.133	78.7
249.366	83.1
249.599	84.7
249.832	77.7
250.066	83.5
250.299	79.1
250.532	84.1
250.765	87.7
250.998	85.7
251.231	87.3
251.465	92.9
251.698	86.9
251.931	82.7
252.164	83.9
252.397	83.9
252.63	87.3
252.863	92.3
253.096	90.7
253.329	84.1
253.562	88.5
253.795	88.3
254.028	85.9
254.261	89.1
254.494	87.1
254.727	89.9
254.96	94.5
255.193	97.1
255.426	85.3
255.659	93.7
255.892	87.1
256.124	89.7
256.357	83.3
256.59	90.1
256.823	94.1
257.056	92.1
257.289	88.1
257.521	88.7
257.754	89.1
257.987	93.7
258.22	88.7
258.452	94.3
258.685	93.1
258.918	86.9
259.151	86.9
259.383	87.3
259.616	92.5
259.849	92.9
260.081	86.1
260.314	84.3
260.547	88.3
260.779	93.9
261.012	102.7
261.244	104.5
261.477	109.5
261.71	104.5
261.942	101.3
262.175	90.3
262.407	93.9
262.64	98.3
262.872	89.5
263.105	94.1
263.337	92.9
263.57	88.9
263.802	89.3
264.035	90.7
264.267	93.7
264.499	91.9
264.732	93.1
264.964	102.5
265.197	99.3
265.429	100.7
265.661	97.5
265.894	94.7
266.126	92.3
266.358	96.1
266.591	101.9
266.823	96.3
267.055	96.1
267.287	92.5
267.52	93.1
267.752	95.1
267.984	98.5
268.216	85.7
268.448	95.5
268.681	91.7
268.913	85.9
269.145	87.9
269.377	94.9
269.609	96.9
269.841	95.9
270.073	92.7
270.306	92.3
270.538	89.3
270.77	90.1
271.002	94.9
271.234	92.9
271.466	93.5
271.698	79.1
271.93	92.1
272.162	88.7
272.394	86.7
272.626	87.5
272.858	89.1
273.09	92.7
273.322	89.5
273.553	88.7
273.785	98.7
274.017	98.5
274.249	95.9
274.481	87.1
274.713	90.3
274.945	89.1
275.176	98.3
275.408	95.3
275.64	87.7
275.872	87.1
276.104	92.3
276.335	94.5
276.567	90.5
276.799	97.7
277.031	90.7
277.262	89.5
277.494	92.9
277.726	95.9
277.957	100.7
278.189	97.9
278.421	99.1
278.652	99.9
278.884	93.7
279.115	96.3
279.347	106.5
279.579	102.7
279.81	111.5
280.042	122.3
280.273	122.9
280.505	121.3
280.736	110.1
280.968	99.3
281.199	100.5
281.431	97.5
281.662	99.9
281.894	102.3
282.125	104.1
282.356	108.1
282.588	109.3
282.819	103.3
283.051	101.9
283.282	115.5
283.513	117.1
283.745	114.9
283.976	111.3
284.207	103.9
284.439	99.5
284.67	103.1
284.901	102.9
285.132	94.5
285.364	91.1
285.595	96.9
285.826	95.5
286.057	99.7
286.288	100.1
286.52	107.9
286.751	94.9
286.982	101.3
287.213	112.9
287.444	107.1
287.675	108.9
287.906	99.5
288.138	102.7
288.369	99.7
288.6	93.9
288.831	97.3
289.062	97.9
289.293	100.5
289.524	99.3
289.755	98.5
289.986	99.5
290.217	97.3
290.448	98.3
290.679	101.7
290.91	101.3
291.141	95.9
291.371	93.7
291.602	98.1
291.833	93.3
292.064	101.3
292.295	99.3
292.526	97.7
292.757	96.9
292.987	102.3
293.218	94.9
293.449	90.7
293.68	94.3
293.91	99.3
294.141	103.5
294.372	96.9
294.603	92.9
294.833	96.5
295.064	101.1
295.295	98.5
295.525	99.9
295.756	101.3
295.987	100.5
296.217	97.5
296.448	89.7
296.679	95.5
296.909	105.7
297.14	98.9
297.37	96.7
297.601	92.7
297.831	90.9
298.062	96.7
298.292	92.9
298.523	97.7
298.753	97.1
298.984	95.5
299.214	96.9
299.445	97.3
299.675	96.1
299.905	100.7
300.136	97.3
300.366	102.7
300.597	95.7
300.827	99.5
301.057	101.7
301.288	97.3
301.518	96.5
301.748	94.9
301.979	103.9
302.209	100.5
302.439	94.7
302.669	97.1
302.9	96.7
303.13	105.9
303.36	100.3
303.59	101.1
303.82	99.1
304.051	99.9
304.281	102.3
304.511	103.5
304.741	105.3
304.971	101.7
305.201	98.7
305.431	100.7
305.661	102.9
305.891	96.5
306.121	107.5
306.352	100.9
306.582	94.1
306.812	98.3
307.042	93.7
307.272	93.3
307.502	104.3
307.731	95.3
307.961	98.7
308.191	95.3
308.421	97.3
308.651	99.7
308.881	102.9
309.111	101.1
309.341	102.5
309.571	91.1
309.8	94.9
310.03	97.1
310.26	97.5
310.49	96.5
310.72	100.5
310.949	103.3
311.179	103.1
311.409	101.1
311.639	99.1
311.868	96.9
312.098	99.1
312.328	105.9
312.557	102.9
312.787	97.1
313.017	101.9
313.246	102.5
313.476	95.5
313.706	100.9
313.935	98.1
314.165	103.5
314.394	106.1
314.624	104.9
314.853	100.9
315.083	104.5
315.312	109.1
315.542	102.9
315.771	105.7
316.001	101.3
316.23	98.7
316.46	101.7
316.689	98.9
316.919	101.5
317.148	104.5
317.377	105.1
317.607	104.5
317.836	101.9
318.065	105.1
318.295	101.1
318.524	103.3
318.753	97.7
318.983	106.7
319.212	101.5
319.441	107.9
319.67	102.3
319.9	100.1
320.129	98.7
320.358	94.7
320.587	105.9
320.816	98.9
321.046	97.9
321.275	99.1
321.504	96.9
321.733	95.7
321.962	98.1
322.191	97.1
322.42	92.5
322.649	104.9
322.878	99.7
323.108	95.1
323.337	95.7
323.566	104.7
323.795	94.9
324.024	101.3
324.253	98.9
324.482	101.5
324.71	98.5
324.939	102.7
325.168	99.3
325.397	100.1
325.626	98.5
325.855	103.5
326.084	98.7
326.313	93.1
326.542	100.9
326.77	102.3
326.999	102.9
327.228	98.5
327.457	105.3
327.686	103.3
327.914	98.3
328.143	101.7
328.372	100.5
328.6	92.5
328.829	93.9
329.058	98.5
329.287	103.5
329.515	101.5
329.744	104.1
329.972	97.9
330.201	102.5
330.43	94.5
330.658	95.7
330.887	104.1
331.115	108.7
331.344	99.7
331.572	101.5
331.801	100.9
332.03	94.9
332.258	104.9
332.486	101.5
332.715	99.5
332.943	103.5
333.172	100.7
333.4	100.5
333.629	104.7
333.857	95.1
334.085	102.5
334.314	98.3
334.542	98.5
334.771	105.5
334.999	99.3
335.227	106.3
335.455	100.3
335.684	98.9
335.912	102.5
336.14	92.5
336.369	103.3
336.597	93.9
336.825	100.1
337.053	95.3
337.281	103.5
337.51	97.9
337.738	104.9
337.966	105.9
338.194	103.5
338.422	100.7
338.65	103.3
338.878	98.3
339.106	100.5
339.334	97.7
339.562	101.9
339.79	101.3
340.018	95.1
340.246	98.7
340.474	91.3
340.702	103.3
340.93	97.3
341.158	97.9
341.386	94.7
341.614	100.5
341.842	96.1
342.07	95.7
342.298	98.7
342.526	100.7
342.754	95.5
342.981	93.3
343.209	97.9
343.437	100.1
343.665	91.1
343.893	97.7
344.12	97.1
344.348	98.5
344.576	96.7
344.804	96.7
345.031	92.3
345.259	92.7
345.487	104.7
345.714	99.3
345.942	102.3
346.17	99.9
346.397	98.3
346.625	98.1
346.853	94.5
347.08	99.3
347.308	99.5
347.535	93.7
347.763	98.9
347.99	98.3
348.218	100.1
348.445	94.5
348.673	98.5
348.9	97.3
349.128	106.1
349.355	105.3
349.583	106.1
349.81	101.9
350.037	105.5
350.265	97.3
350.492	93.5
350.72	92.3
350.947	101.3
351.174	102.5
351.402	101.1
351.629	100.3
351.856	99.5
352.083	98.1
352.311	96.5
352.538	98.5
352.765	96.9
352.992	99.9
353.22	100.1
353.447	104.7
353.674	101.9
353.901	101.9
354.128	93.9
354.355	100.9
354.583	104.1
354.81	97.3
355.037	98.5
355.264	96.5
355.491	103.7
355.718	107.3
355.945	100.7
356.172	100.1
356.399	102.7
356.626	103.9
356.853	109.9
357.08	120.9
357.307	140.1
357.534	139.7
357.761	126.3
357.988	118.1
358.215	115.5
358.441	112.5
358.668	104.9
358.895	107.1
359.122	97.1
359.349	113.7
359.576	113.9
359.802	109.5
360.029	98.3
360.256	92.3
360.483	101.5
360.709	99.7
360.936	102.5
361.163	98.9
361.39	97.5
361.616	104.9
361.843	100.1
362.07	94.7
362.296	96.1
362.523	102.1
362.749	97.1
362.976	100.3
363.203	111.3
363.429	113.9
363.656	132.3
363.882	149.3
364.109	161.1
364.335	132.9
364.562	120.7
364.788	106.9
365.015	115.1
365.241	107.1
365.468	105.5
365.694	104.5
365.92	105.1
366.147	111.7
366.373	100.3
366.599	108.7
366.826	118.5
367.052	110.7
367.278	117.5
367.505	118.3
367.731	128.1
367.957	124.5
368.184	154.9
368.41	174.9
368.636	170.7
368.862	138.3
369.089	124.5
369.315	117.9
369.541	117.3
369.767	103.3
369.993	108.5
370.219	102.7
370.445	103.5
370.672	104.1
370.898	105.7
371.124	108.9
371.35	101.3
371.576	101.1
371.802	107.1
372.028	106.1
372.254	100.1
372.48	101.9
372.706	97.1
372.932	104.7
373.158	105.1
373.384	103.7
373.61	116.5
373.835	125.7
374.061	154.9
374.287	144.5
374.513	130.7
374.739	116.3
374.965	105.5
375.191	98.5
375.416	101.5
375.642	104.9
375.868	103.1
376.094	103.9
376.319	104.3
376.545	105.3
376.771	100.5
376.997	98.1
377.222	97.7
377.448	98.3
377.674	101.5
377.899	98.7
378.125	102.9
378.35	100.5
378.576	94.3
378.802	102.5
379.027	103.7
379.253	100.3
379.478	104.5
379.704	99.7
379.929	98.5
380.155	102.5
380.38	93.5
380.606	105.7
380.831	96.7
381.057	99.5
381.282	93.1
381.507	109.5
381.733	101.7
381.958	96.9
382.184	98.5
382.409	105.1
382.634	97.1
382.86	99.9
383.085	98.1
383.31	98.1
383.535	97.5
383.761	90.9
383.986	107.5
384.211	100.3
384.436	98.5
384.662	101.1
384.887	102.3
385.112	96.7
385.337	102.3
385.562	99.5
385.787	103.1
386.013	101.7
386.238	98.9
386.463	105.3
386.688	102.9
386.913	103.3
387.138	101.5
387.363	106.9
387.588	98.9
387.813	98.3
388.038	105.7
388.263	104.9
388.488	102.1
388.713	106.1
388.938	104.1
389.163	97.1
389.387	99.3
389.612	101.9
389.837	102.3
390.062	102.3
390.287	102.5
390.512	100.9
390.736	108.1
390.961	98.1
391.186	104.9
391.411	104.5
391.636	99.9
391.86	102.1
392.085	105.7
392.31	106.5
392.534	102.1
392.759	105.7
392.984	99.7
393.208	100.5
393.433	99.9
393.658	95.9
393.882	100.5
394.107	96.9
394.331	99.9
394.556	99.3
394.78	99.9
395.005	104.7
395.229	100.9
395.454	98.9
395.678	101.5
395.903	100.9
396.127	102.7
396.352	102.5
396.576	103.1
396.801	105.5
397.025	102.5
397.249	100.3
397.474	104.3
397.698	108.1
397.922	103.3
398.147	102.3
398.371	98.7
398.595	107.7
398.82	98.9
399.044	103.9
399.268	105.7
399.492	104.1
399.717	110.7
399.941	111.9
400.165	109.7
400.389	104.5
400.613	102.9
400.837	106.3
401.062	102.7
401.286	107.1
401.51	111.7
401.734	110.7
401.958	112.5
402.182	115.9
402.406	114.1
402.63	106.3
402.854	110.1
403.078	111.3
403.302	104.3
403.526	108.1
403.75	104.7
403.974	112.7
404.198	108.9
404.422	110.5
404.645	112.7
404.869	120.1
405.093	122.9
405.317	135.7
405.541	168.3
405.765	219.1
405.988	235.5
406.212	190.3
406.436	155.3
406.66	140.1
406.883	122.1
407.107	123.7
407.331	124.1
407.555	119.3
407.778	116.1
408.002	119.9
408.226	107.3
408.449	115.5
408.673	117.3
408.896	104.5
409.12	109.3
409.344	106.5
409.567	104.9
409.791	111.3
410.014	107.9
410.238	110.5
410.461	103.3
410.685	104.3
410.908	101.7
411.132	106.1
411.355	111.7
411.578	108.1
411.802	106.1
412.025	115.7
412.249	107.5
412.472	105.7
412.695	111.9
412.919	103.7
413.142	105.9
413.365	102.5
413.589	107.9
413.812	106.7
414.035	104.9
414.258	100.9
414.482	101.3
414.705	106.1
414.928	107.3
415.151	106.7
415.374	107.9
415.597	108.5
415.821	98.5
416.044	110.5
416.267	105.7
416.49	102.5
416.713	103.7
416.936	109.5
417.159	106.9
417.382	101.3
417.605	100.3
417.828	103.5
418.051	103.7
418.274	103.5
418.497	100.3
418.72	109.5
418.943	108.5
419.166	104.7
419.389	104.9
419.611	103.1
419.834	109.1
420.057	100.9
420.28	113.5
420.503	107.5
420.726	108.7
420.948	104.9
421.171	107.9
421.394	114.7
421.617	109.7
421.839	102.7
422.062	109.9
422.285	116.1
422.507	109.3
422.73	111.1
422.953	106.3
423.175	116.5
423.398	115.7
423.621	119.5
423.843	121.1
424.066	131.3
424.288	130.9
424.511	151.1
424.733	148.3
424.956	139.5
425.178	131.1
425.401	130.5
425.623	123.5
425.846	126.3
426.068	122.3
426.291	122.7
426.513	117.7
426.735	117.3
426.958	106.3
427.18	106.9
427.402	118.7
427.625	109.3
427.847	116.5
428.069	112.7
428.292	111.5
428.514	110.3
428.736	110.5
428.958	112.9
429.181	111.1
429.403	112.9
429.625	111.5
429.847	113.1
430.069	114.3
430.292	107.9
430.514	106.1
430.736	100.1
430.958	102.9
431.18	106.7
431.402	111.5
431.624	109.5
431.846	104.7
432.068	106.7
432.29	103.7
432.512	105.7
432.734	112.9
432.956	110.9
433.178	108.3
433.4	107.7
433.622	106.1
433.844	104.9
434.066	111.1
434.287	112.1
434.509	101.9
434.731	104.3
434.953	103.9
435.175	106.1
435.397	105.9
435.618	106.3
435.84	106.3
436.062	108.1
436.284	110.3
436.505	110.5
436.727	114.5
436.949	109.9
437.17	117.7
437.392	111.5
437.614	110.1
437.835	111.5
438.057	123.9
438.278	131.9
438.5	125.7
438.721	141.1
438.943	146.1
439.165	141.9
439.386	131.5
439.608	128.9
439.829	129.1
440.05	127.1
440.272	125.7
440.493	114.7
440.715	124.9
440.936	130.3
441.158	127.7
441.379	130.1
441.6	120.7
441.822	123.7
442.043	117.5
442.264	113.7
442.486	117.9
442.707	116.7
442.928	115.7
443.149	111.1
443.371	108.7
443.592	114.5
443.813	115.5
444.034	110.1
444.255	111.3
444.476	113.9
444.698	113.5
444.919	115.7
445.14	117.1
445.361	117.9
445.582	111.3
445.803	111.7
446.024	112.5
446.245	116.7
446.466	108.5
446.687	111.5
446.908	109.1
447.129	110.9
447.35	111.9
447.571	113.9
447.792	104.1
448.013	106.7
448.234	107.1
448.455	103.3
448.675	108.7
448.896	107.9
449.117	107.7
449.338	112.3
449.559	103.5
449.779	110.1
450	102.9
450.221	101.1
450.442	112.9
450.662	108.1
450.883	102.7
451.104	103.7
451.324	106.3
451.545	108.5
451.766	104.7
451.986	110.9
452.207	101.5
452.428	102.1
452.648	100.1
452.869	106.7
453.089	104.3
453.31	105.9
453.53	96.3
453.751	98.1
453.971	101.5
454.192	104.5
454.412	103.9
454.633	99.3
454.853	101.9
455.073	104.7
455.294	98.7
455.514	104.9
455.734	98.7
455.955	99.5
456.175	99.5
456.395	100.9
456.616	99.5
456.836	98.1
457.056	98.1
457.276	96.3
457.497	95.9
457.717	96.1
457.937	110.9
458.157	104.3
458.377	103.7
458.598	102.9
458.818	99.9
459.038	99.1
459.258	98.5
459.478	105.3
459.698	98.7
459.918	105.1
460.138	104.7
460.358	102.9
460.578	107.5
460.798	104.5
461.018	111.9
461.238	102.9
461.458	104.5
461.678	104.5
461.898	104.1
462.118	105.9
462.338	102.3
462.558	108.9
462.777	106.5
462.997	101.5
463.217	112.7
463.437	111.1
463.657	107.9
463.876	109.1
464.096	103.1
464.316	103.9
464.536	110.1
464.755	109.9
464.975	101.3
465.195	102.3
465.414	109.5
465.634	105.1
465.854	105.7
466.073	108.9
466.293	105.5
466.512	100.3
466.732	105.5
466.951	107.3
467.171	104.1
467.391	102.7
467.61	109.1
467.829	104.9
468.049	108.5
468.268	104.9
468.488	102.3
468.707	102.3
468.927	103.7
469.146	99.7
469.365	108.9
469.585	100.5
469.804	109.9
470.023	107.3
470.243	107.5
470.462	107.7
470.681	100.5
470.901	109.3
471.12	108.9
471.339	112.9
471.558	106.5
471.777	101.3
471.997	105.3
472.216	108.9
472.435	100.3
472.654	98.3
472.873	104.7
473.092	100.1
473.311	104.3
473.53	102.3
473.749	104.3
473.968	102.9
474.187	98.3
474.406	103.7
474.625	100.7
474.844	101.1
475.063	106.9
475.282	110.3
475.501	104.5
475.72	97.7
475.939	107.5
476.158	107.7
476.377	104.5
476.596	110.7
476.814	101.9
477.033	105.9
477.252	121.3
477.471	105.9
477.69	104.7
477.908	100.9
478.127	114.9
478.346	105.5
478.564	111.1
478.783	116.1
479.002	111.3
479.22	114.3
479.439	113.1
479.658	107.7
479.876	111.9
480.095	106.7
480.313	107.5
480.532	114.5
480.751	106.3
480.969	114.7
481.188	113.3
481.406	107.3
481.624	107.1
481.843	103.5
482.061	102.9
482.28	107.7
482.498	111.1
482.717	106.9
482.935	112.1
483.153	112.3
483.372	112.3
483.59	110.1
483.808	111.1
484.027	107.9
484.245	111.1
484.463	111.1
484.681	119.9
484.9	110.5
485.118	107.7
485.336	107.7
485.554	104.7
485.772	108.7
485.99	106.1
486.209	114.5
486.427	110.3
486.645	116.1
486.863	111.7
487.081	107.1
487.299	116.9
487.517	110.5
487.735	109.5
487.953	109.3
488.171	109.9
488.389	111.1
488.607	113.3
488.825	109.5
489.043	114.3
489.261	106.1
489.479	116.5
489.696	117.1
489.914	107.9
490.132	109.7
490.35	104.3
490.568	108.3
490.786	109.3
491.003	110.7
491.221	113.1
491.439	113.5
491.657	116.3
491.874	113.1
492.092	115.1
492.31	121.9
492.527	112.3
492.745	121.1
492.963	114.7
493.18	114.9
493.398	108.5
493.615	112.1
493.833	113.5
494.05	117.3
494.268	111.5
494.485	121.7
494.703	118.7
494.92	114.9
495.138	110.7
495.355	115.3
495.573	112.7
495.79	117.9
496.008	123.7
496.225	108.7
496.442	118.3
496.66	113.1
496.877	120.5
497.094	117.3
497.312	111.5
497.529	113.1
497.746	120.7
497.963	120.3
498.181	114.1
498.398	118.1
498.615	121.1
498.832	121.5
499.049	116.5
499.267	117.3
499.484	117.9
499.701	121.9
499.918	124.5
500.135	128.5
500.352	133.5
500.569	134.1
500.786	141.1
501.003	138.7
501.22	128.1
501.437	129.7
501.654	117.9
501.871	120.9
502.088	114.9
502.305	128.5
502.522	116.9
502.739	118.3
502.956	121.5
503.172	116.3
503.389	117.9
503.606	111.7
503.823	119.9
504.04	120.5
504.256	119.5
504.473	121.1
504.69	117.9
504.907	124.7
505.123	115.9
505.34	123.7
505.557	120.3
505.773	112.9
505.99	116.1
506.207	117.5
506.423	114.1
506.64	121.5
506.856	120.5
507.073	115.5
507.289	107.9
507.506	114.1
507.722	111.9
507.939	110.3
508.155	106.5
508.372	107.3
508.588	104.3
508.805	102.9
509.021	108.9
509.238	111.7
509.454	103.7
509.67	107.3
509.887	104.3
510.103	105.5
510.319	106.9
510.536	107.3
510.752	105.5
510.968	108.9
511.184	111.3
511.401	107.5
511.617	109.9
511.833	107.3
512.049	107.7
512.265	108.3
512.481	104.5
512.698	105.1
512.914	101.7
513.13	104.1
513.346	95.9
513.562	104.5
513.778	107.7
513.994	109.7
514.21	112.9
514.426	106.3
514.642	109.1
514.858	112.1
515.074	104.9
515.29	109.1
515.506	108.1
515.721	107.5
515.937	113.5
516.153	106.9
516.369	110.3
516.585	111.7
516.801	100.9
517.016	113.9
517.232	105.7
517.448	104.1
517.664	114.3
517.879	108.1
518.095	106.7
518.311	105.3
518.527	110.3
518.742	107.5
518.958	98.5
519.173	107.5
519.389	97.3
519.605	109.1
519.82	112.1
520.036	105.3
520.251	112.9
520.467	112.7
520.682	104.5
520.898	113.5
521.113	103.5
521.329	106.1
521.544	105.7
521.76	110.9
521.975	109.5
522.19	106.1
522.406	102.7
522.621	109.7
522.836	113.1
523.052	112.9
523.267	115.9
523.482	112.5
523.698	104.3
523.913	106.5
524.128	107.5
524.343	109.7
524.559	105.1
524.774	100.7
524.989	106.5
525.204	111.5
525.419	102.3
525.634	112.1
525.849	103.5
526.064	107.5
526.28	108.3
526.495	99.7
526.71	105.3
526.925	103.9
527.14	104.1
