Data from TenMicroDelayPb_HRD10591_00035.txt Node
Date: Mon Nov 24 14:37:01 EST 2025
User: Yrep
Spectrometer: HR+D1059
Trigger mode: 1
Integration Time (sec): 1.000000E-2
Scans to average: 5
Electric dark correction enabled: true
Nonlinearity correction enabled: false
Boxcar width: 0
XAxis mode: Wavelengths
Number of Pixels in Spectrum: 2048
>>>>>Begin Spectral Data<<<<<
223.165	-15.74
223.4	-15.74
223.635	-15.74
223.869	-20.74
224.104	-18.94
224.338	-16.54
224.573	-10.94
224.808	-16.94
225.042	-12.34
225.277	-5.94
225.511	3.46
225.746	1.06
225.98	6.86
226.215	11.06
226.449	19.46
226.683	17.66
226.918	30.86
227.152	27.66
227.387	31.46
227.621	39.26
227.856	36.86
228.09	44.26
228.324	48.66
228.559	61.26
228.793	62.66
229.027	61.46
229.262	61.46
229.496	68.26
229.73	66.86
229.964	67.46
230.199	71.06
230.433	72.06
230.667	74.86
230.901	76.86
231.136	76.66
231.37	71.46
231.604	68.46
231.838	88.46
232.072	80.86
232.306	81.66
232.541	83.66
232.775	84.06
233.009	80.26
233.243	80.46
233.477	81.06
233.711	74.66
233.945	76.66
234.179	79.66
234.413	83.66
234.647	79.46
234.881	84.46
235.115	76.06
235.349	75.06
235.583	73.86
235.817	81.26
236.051	79.06
236.285	85.46
236.519	76.26
236.753	79.06
236.987	79.86
237.221	83.66
237.455	74.26
237.689	79.46
237.922	74.66
238.156	76.06
238.39	73.26
238.624	76.06
238.858	79.46
239.091	70.46
239.325	68.46
239.559	73.46
239.793	82.66
240.027	75.46
240.26	73.06
240.494	71.46
240.728	73.26
240.961	77.46
241.195	79.86
241.429	72.46
241.662	67.46
241.896	77.86
242.13	69.46
242.363	79.66
242.597	76.66
242.83	71.46
243.064	79.86
243.298	78.86
243.531	76.86
243.765	71.86
243.998	76.06
244.232	78.06
244.465	71.86
244.699	76.46
244.932	78.86
245.166	72.06
245.399	78.06
245.633	83.86
245.866	78.46
246.099	81.26
246.333	80.46
246.566	75.06
246.8	73.86
247.033	77.26
247.266	76.46
247.5	74.86
247.733	78.46
247.966	75.46
248.2	75.46
248.433	75.86
248.666	76.86
248.899	74.46
249.133	75.86
249.366	78.46
249.599	79.66
249.832	78.06
250.066	76.46
250.299	80.06
250.532	79.86
250.765	73.86
250.998	81.06
251.231	80.46
251.465	86.86
251.698	80.06
251.931	79.66
252.164	81.46
252.397	73.06
252.63	78.26
252.863	81.66
253.096	74.06
253.329	77.66
253.562	75.86
253.795	72.86
254.028	79.66
254.261	87.06
254.494	80.26
254.727	82.06
254.96	82.66
255.193	77.06
255.426	79.66
255.659	80.86
255.892	78.66
256.124	83.86
256.357	75.66
256.59	81.06
256.823	83.86
257.056	81.66
257.289	82.86
257.521	74.86
257.754	83.86
257.987	78.06
258.22	83.46
258.452	82.26
258.685	86.26
258.918	86.66
259.151	82.86
259.383	81.46
259.616	83.46
259.849	81.46
260.081	79.06
260.314	76.66
260.547	77.66
260.779	79.06
261.012	82.66
261.244	92.66
261.477	87.26
261.71	90.66
261.942	80.86
262.175	83.26
262.407	78.86
262.64	77.26
262.872	75.26
263.105	83.06
263.337	79.66
263.57	83.86
263.802	79.66
264.035	81.86
264.267	83.06
264.499	76.66
264.732	83.46
264.964	87.06
265.197	87.06
265.429	88.46
265.661	80.26
265.894	87.86
266.126	82.06
266.358	85.06
266.591	84.86
266.823	89.86
267.055	83.26
267.287	86.26
267.52	82.66
267.752	81.86
267.984	80.86
268.216	84.06
268.448	77.86
268.681	80.46
268.913	76.86
269.145	81.26
269.377	83.66
269.609	71.86
269.841	85.26
270.073	88.46
270.306	77.06
270.538	85.06
270.77	85.26
271.002	85.06
271.234	80.06
271.466	85.86
271.698	74.46
271.93	87.06
272.162	80.06
272.394	81.86
272.626	78.26
272.858	78.06
273.09	72.86
273.322	78.46
273.553	83.06
273.785	90.06
274.017	84.26
274.249	83.66
274.481	86.46
274.713	82.46
274.945	83.06
275.176	88.26
275.408	85.46
275.64	84.06
275.872	82.46
276.104	83.66
276.335	88.26
276.567	81.46
276.799	81.66
277.031	87.66
277.262	87.06
277.494	81.86
277.726	88.86
277.957	73.66
278.189	86.26
278.421	82.66
278.652	82.86
278.884	85.06
279.115	81.86
279.347	88.86
279.579	84.46
279.81	87.46
280.042	91.26
280.273	106.86
280.505	94.06
280.736	91.46
280.968	93.26
281.199	89.06
281.431	81.86
281.662	81.86
281.894	84.26
282.125	87.06
282.356	97.66
282.588	93.06
282.819	85.46
283.051	89.86
283.282	93.86
283.513	105.26
283.745	88.26
283.976	84.26
284.207	84.86
284.439	83.26
284.67	86.26
284.901	86.26
285.132	85.46
285.364	84.26
285.595	90.66
285.826	82.66
286.057	93.26
286.288	87.26
286.52	83.86
286.751	79.06
286.982	87.46
287.213	92.46
287.444	94.06
287.675	87.46
287.906	87.26
288.138	84.26
288.369	81.66
288.6	78.86
288.831	84.66
289.062	77.86
289.293	75.06
289.524	74.46
289.755	76.86
289.986	83.26
290.217	85.66
290.448	80.46
290.679	89.06
290.91	82.06
291.141	81.06
291.371	85.06
291.602	91.46
291.833	78.66
292.064	75.26
292.295	77.66
292.526	82.86
292.757	82.06
292.987	83.66
293.218	87.06
293.449	84.06
293.68	86.26
293.91	87.46
294.141	89.06
294.372	80.06
294.603	84.26
294.833	82.46
295.064	85.66
295.295	80.26
295.525	77.86
295.756	80.26
295.987	83.26
296.217	80.86
296.448	82.66
296.679	90.66
296.909	89.86
297.14	80.46
297.37	84.26
297.601	84.46
297.831	83.06
298.062	87.06
298.292	90.06
298.523	79.06
298.753	80.46
298.984	85.46
299.214	86.66
299.445	87.86
299.675	82.46
299.905	89.26
300.136	82.86
300.366	80.66
300.597	78.66
300.827	81.66
301.057	84.66
301.288	85.26
301.518	86.06
301.748	91.66
301.979	87.06
302.209	87.26
302.439	86.26
302.669	86.26
302.9	78.06
303.13	84.86
303.36	87.46
303.59	82.86
303.82	85.66
304.051	89.46
304.281	86.46
304.511	88.26
304.741	83.46
304.971	77.66
305.201	87.86
305.431	81.26
305.661	88.06
305.891	88.66
306.121	83.06
306.352	87.46
306.582	91.46
306.812	80.26
307.042	85.86
307.272	85.46
307.502	88.06
307.731	84.46
307.961	79.86
308.191	88.26
308.421	90.06
308.651	88.06
308.881	88.46
309.111	87.26
309.341	84.86
309.571	82.06
309.8	82.86
310.03	84.26
310.26	88.86
310.49	83.06
310.72	82.66
310.949	86.66
311.179	79.66
311.409	83.06
311.639	82.06
311.868	86.06
312.098	88.46
312.328	91.66
312.557	90.26
312.787	82.26
313.017	87.26
313.246	84.26
313.476	82.06
313.706	89.86
313.935	91.46
314.165	86.06
314.394	89.66
314.624	88.46
314.853	88.46
315.083	88.06
315.312	85.26
315.542	88.06
315.771	90.86
316.001	81.26
316.23	80.66
316.46	87.06
316.689	85.46
316.919	86.86
317.148	87.46
317.377	80.06
317.607	86.86
317.836	88.66
318.065	86.06
318.295	83.46
318.524	83.26
318.753	87.26
318.983	79.06
319.212	83.86
319.441	83.66
319.67	87.26
319.9	86.86
320.129	82.46
320.358	84.46
320.587	85.66
320.816	84.86
321.046	86.46
321.275	92.26
321.504	82.66
321.733	87.06
321.962	85.26
322.191	81.66
322.42	87.26
322.649	86.66
322.878	87.66
323.108	89.66
323.337	86.46
323.566	85.66
323.795	83.46
324.024	88.66
324.253	83.86
324.482	82.46
324.71	93.26
324.939	87.26
325.168	86.46
325.397	84.46
325.626	84.06
325.855	87.46
326.084	85.26
326.313	84.46
326.542	83.66
326.77	86.26
326.999	81.66
327.228	79.26
327.457	85.86
327.686	83.46
327.914	88.86
328.143	83.86
328.372	84.46
328.6	80.06
328.829	82.46
329.058	89.26
329.287	85.66
329.515	85.46
329.744	86.86
329.972	88.26
330.201	83.06
330.43	83.86
330.658	86.46
330.887	81.66
331.115	85.06
331.344	86.06
331.572	88.06
331.801	86.26
332.03	86.46
332.258	84.06
332.486	85.06
332.715	85.26
332.943	82.06
333.172	86.66
333.4	86.86
333.629	83.86
333.857	84.06
334.085	81.06
334.314	84.26
334.542	81.46
334.771	86.46
334.999	91.66
335.227	86.06
335.455	86.46
335.684	86.26
335.912	88.66
336.14	85.66
336.369	81.06
336.597	83.06
336.825	85.66
337.053	82.26
337.281	83.66
337.51	86.66
337.738	82.86
337.966	85.46
338.194	85.06
338.422	88.86
338.65	86.46
338.878	89.86
339.106	87.26
339.334	89.06
339.562	83.06
339.79	82.26
340.018	88.26
340.246	83.46
340.474	87.26
340.702	83.26
340.93	90.46
341.158	84.26
341.386	84.26
341.614	78.46
341.842	91.46
342.07	89.26
342.298	90.46
342.526	85.26
342.754	82.06
342.981	83.46
343.209	85.26
343.437	85.26
343.665	88.26
343.893	84.46
344.12	81.46
344.348	86.66
344.576	80.66
344.804	84.06
345.031	87.86
345.259	83.86
345.487	82.26
345.714	83.66
345.942	84.86
346.17	82.26
346.397	82.66
346.625	84.46
346.853	85.46
347.08	87.06
347.308	84.06
347.535	83.06
347.763	79.86
347.99	85.66
348.218	85.66
348.445	83.66
348.673	90.06
348.9	81.26
349.128	84.86
349.355	94.26
349.583	81.66
349.81	86.66
350.037	85.66
350.265	84.66
350.492	85.06
350.72	87.26
350.947	84.06
351.174	81.46
351.402	84.86
351.629	83.66
351.856	91.86
352.083	84.86
352.311	89.26
352.538	87.66
352.765	85.86
352.992	83.46
353.22	88.66
353.447	79.66
353.674	83.26
353.901	79.26
354.128	85.26
354.355	85.46
354.583	84.66
354.81	77.06
355.037	86.06
355.264	92.66
355.491	90.46
355.718	80.26
355.945	82.46
356.172	85.66
356.399	87.46
356.626	87.26
356.853	91.66
357.08	103.06
357.307	114.66
357.534	105.06
357.761	87.86
357.988	91.66
358.215	85.46
358.441	80.46
358.668	85.66
358.895	90.86
359.122	83.86
359.349	84.86
359.576	91.66
359.802	87.86
360.029	81.06
360.256	84.86
360.483	90.66
360.709	84.66
360.936	83.86
361.163	83.46
361.39	82.86
361.616	82.26
361.843	82.86
362.07	89.26
362.296	89.86
362.523	84.06
362.749	81.66
362.976	83.06
363.203	92.86
363.429	89.86
363.656	114.26
363.882	132.26
364.109	140.46
364.335	99.46
364.562	88.06
364.788	87.46
365.015	82.26
365.241	83.46
365.468	82.66
365.694	85.66
365.92	85.86
366.147	79.46
366.373	82.06
366.599	90.46
366.826	90.66
367.052	101.26
367.278	108.06
367.505	95.86
367.731	93.86
367.957	107.66
368.184	138.86
368.41	161.66
368.636	137.66
368.862	92.46
369.089	82.06
369.315	87.66
369.541	81.26
369.767	85.06
369.993	85.86
370.219	80.46
370.445	84.06
370.672	81.46
370.898	86.86
371.124	84.46
371.35	80.26
371.576	83.06
371.802	78.06
372.028	86.06
372.254	89.46
372.48	82.66
372.706	85.26
372.932	80.66
373.158	83.06
373.384	89.06
373.61	94.06
373.835	105.26
374.061	110.86
374.287	97.66
374.513	88.86
374.739	75.66
374.965	80.46
375.191	85.86
375.416	88.66
375.642	82.26
375.868	81.86
376.094	90.26
376.319	86.26
376.545	84.86
376.771	82.06
376.997	79.26
377.222	75.86
377.448	87.06
377.674	80.86
377.899	87.46
378.125	79.46
378.35	78.86
378.576	86.86
378.802	85.66
379.027	80.46
379.253	83.86
379.478	84.66
379.704	81.06
379.929	82.46
380.155	82.66
380.38	81.26
380.606	83.26
380.831	85.26
381.057	84.66
381.282	79.86
381.507	89.66
381.733	85.26
381.958	79.26
382.184	82.46
382.409	81.26
382.634	79.26
382.86	83.86
383.085	82.46
383.31	79.86
383.535	82.26
383.761	81.26
383.986	80.06
384.211	77.46
384.436	85.06
384.662	83.06
384.887	86.26
385.112	79.26
385.337	81.06
385.562	83.46
385.787	74.46
386.013	82.46
386.238	78.86
386.463	71.86
386.688	79.46
386.913	77.26
387.138	79.26
387.363	84.86
387.588	80.46
387.813	86.26
388.038	82.86
388.263	83.86
388.488	86.46
388.713	78.66
388.938	79.46
389.163	79.06
389.387	79.06
389.612	87.26
389.837	82.46
390.062	84.46
390.287	85.26
390.512	78.66
390.736	84.26
390.961	83.86
391.186	82.46
391.411	80.86
391.636	88.06
391.86	82.86
392.085	87.26
392.31	85.46
392.534	83.06
392.759	78.06
392.984	75.06
393.208	82.86
393.433	84.26
393.658	81.66
393.882	80.86
394.107	81.26
394.331	71.06
394.556	81.66
394.78	78.66
395.005	83.86
395.229	87.06
395.454	88.26
395.678	77.86
395.903	82.26
396.127	75.66
396.352	89.26
396.576	83.86
396.801	85.66
397.025	85.26
397.249	82.46
397.474	87.26
397.698	84.46
397.922	79.46
398.147	84.26
398.371	87.06
398.595	80.86
398.82	82.06
399.044	82.66
399.268	82.46
399.492	81.86
399.717	83.46
399.941	85.06
400.165	72.06
400.389	77.66
400.613	83.26
400.837	81.86
401.062	76.06
401.286	79.66
401.51	87.26
401.734	86.06
401.958	89.26
402.182	90.86
402.406	85.46
402.63	86.66
402.854	79.26
403.078	84.06
403.302	82.66
403.526	78.86
403.75	84.06
403.974	87.26
404.198	89.86
404.422	83.86
404.645	79.06
404.869	83.46
405.093	91.46
405.317	109.66
405.541	149.46
405.765	239.86
405.988	240.06
406.212	152.86
406.436	116.66
406.66	93.26
406.883	86.46
407.107	92.46
407.331	84.46
407.555	86.86
407.778	77.26
408.002	79.46
408.226	78.26
408.449	88.86
408.673	79.46
408.896	83.86
409.12	79.26
409.344	77.06
409.567	85.06
409.791	86.06
410.014	84.86
410.238	79.66
410.461	80.86
410.685	80.06
410.908	74.46
411.132	81.26
411.355	83.06
411.578	78.46
411.802	81.66
412.025	84.66
412.249	77.06
412.472	84.66
412.695	81.66
412.919	84.26
413.142	80.86
413.365	83.26
413.589	81.06
413.812	80.66
414.035	77.66
414.258	81.26
414.482	84.26
414.705	84.26
414.928	76.86
415.151	81.46
415.374	85.26
415.597	82.46
415.821	81.06
416.044	83.46
416.267	87.86
416.49	85.46
416.713	84.66
416.936	86.86
417.159	86.26
417.382	81.06
417.605	76.66
417.828	80.46
418.051	86.06
418.274	77.46
418.497	82.46
418.72	80.86
418.943	86.06
419.166	73.06
419.389	81.26
419.611	82.46
419.834	83.26
420.057	86.26
420.28	85.46
420.503	81.46
420.726	76.46
420.948	79.06
421.171	75.66
421.394	84.26
421.617	86.66
421.839	80.66
422.062	83.26
422.285	82.06
422.507	84.06
422.73	76.86
422.953	85.06
423.175	85.46
423.398	84.46
423.621	88.46
423.843	80.06
424.066	82.26
424.288	82.26
424.511	82.86
424.733	82.26
424.956	81.26
425.178	82.86
425.401	84.06
425.623	75.26
425.846	78.06
426.068	82.06
426.291	77.86
426.513	80.26
426.735	81.26
426.958	80.86
427.18	83.06
427.402	82.86
427.625	81.86
427.847	82.26
428.069	77.26
428.292	85.26
428.514	89.86
428.736	85.06
428.958	78.66
429.181	83.46
429.403	82.06
429.625	86.26
429.847	83.66
430.069	85.26
430.292	79.46
430.514	79.86
430.736	75.06
430.958	84.26
431.18	77.46
431.402	71.06
431.624	89.06
431.846	81.26
432.068	84.86
432.29	83.06
432.512	84.26
432.734	84.06
432.956	75.46
433.178	80.86
433.4	78.06
433.622	81.86
433.844	82.66
434.066	84.46
434.287	79.86
434.509	82.86
434.731	80.26
434.953	77.06
435.175	81.06
435.397	79.46
435.618	81.86
435.84	84.86
436.062	83.46
436.284	82.66
436.505	79.86
436.727	81.46
436.949	83.66
437.17	84.06
437.392	81.66
437.614	80.26
437.835	76.86
438.057	81.26
438.278	81.66
438.5	86.86
438.721	80.66
438.943	83.66
439.165	89.86
439.386	80.46
439.608	78.46
439.829	80.86
440.05	79.86
440.272	83.26
440.493	86.06
440.715	78.26
440.936	88.26
441.158	82.26
441.379	82.46
441.6	84.86
441.822	79.46
442.043	85.46
442.264	81.06
442.486	86.06
442.707	80.06
442.928	79.06
443.149	84.86
443.371	87.86
443.592	80.26
443.813	83.26
444.034	78.66
444.255	87.26
444.476	79.46
444.698	83.66
444.919	86.26
445.14	87.66
445.361	90.86
445.582	87.66
445.803	81.26
446.024	83.46
446.245	84.86
446.466	81.86
446.687	83.26
446.908	86.46
447.129	84.26
447.35	79.86
447.571	74.66
447.792	84.46
448.013	84.46
448.234	87.06
448.455	89.66
448.675	79.66
448.896	90.66
449.117	86.26
449.338	84.06
449.559	87.86
449.779	84.86
450	86.66
450.221	80.26
450.442	76.46
450.662	82.66
450.883	86.26
451.104	79.86
451.324	86.66
451.545	81.26
451.766	81.26
451.986	80.46
452.207	82.66
452.428	82.66
452.648	82.66
452.869	84.06
453.089	79.86
453.31	83.46
453.53	86.26
453.751	79.66
453.971	76.46
454.192	89.46
454.412	83.66
454.633	79.46
454.853	82.26
455.073	88.26
455.294	81.46
455.514	82.06
455.734	79.06
455.955	81.46
456.175	80.66
456.395	85.06
456.616	85.26
456.836	81.06
457.056	83.06
457.276	81.06
457.497	82.06
457.717	80.66
457.937	80.66
458.157	84.66
458.377	83.66
458.598	75.86
458.818	81.66
459.038	80.46
459.258	79.66
459.478	81.66
459.698	82.26
459.918	81.26
460.138	77.06
460.358	80.26
460.578	80.06
460.798	78.26
461.018	83.26
461.238	86.26
461.458	87.06
461.678	81.66
461.898	83.26
462.118	80.06
462.338	82.46
462.558	86.26
462.777	87.86
462.997	83.66
463.217	82.86
463.437	79.66
463.657	73.86
463.876	79.06
464.096	84.26
464.316	80.66
464.536	82.46
464.755	85.46
464.975	85.26
465.195	81.26
465.414	87.46
465.634	78.26
465.854	81.86
466.073	84.46
466.293	87.46
466.512	80.06
466.732	82.86
466.951	81.86
467.171	85.66
467.391	90.46
467.61	86.26
467.829	81.26
468.049	86.26
468.268	82.26
468.488	88.06
468.707	80.46
468.927	82.26
469.146	83.26
469.365	81.06
469.585	79.26
469.804	82.26
470.023	85.66
470.243	80.46
470.462	82.86
470.681	81.86
470.901	83.06
471.12	77.86
471.339	83.26
471.558	83.26
471.777	88.46
471.997	85.26
472.216	87.46
472.435	81.66
472.654	85.66
472.873	77.06
473.092	85.66
473.311	92.26
473.53	81.66
473.749	85.86
473.968	81.26
474.187	81.26
474.406	76.06
474.625	82.06
474.844	79.26
475.063	85.26
475.282	79.46
475.501	90.26
475.72	79.26
475.939	83.06
476.158	80.46
476.377	77.86
476.596	83.86
476.814	85.26
477.033	79.26
477.252	82.86
477.471	88.66
477.69	84.06
477.908	84.86
478.127	80.26
478.346	81.26
478.564	83.86
478.783	83.06
479.002	90.26
479.22	87.06
479.439	84.66
479.658	83.26
479.876	85.06
480.095	81.26
480.313	83.86
480.532	86.06
480.751	89.06
480.969	81.66
481.188	77.46
481.406	81.06
481.624	83.26
481.843	78.06
482.061	81.66
482.28	85.66
482.498	87.06
482.717	84.66
482.935	80.46
483.153	83.26
483.372	85.26
483.59	78.66
483.808	82.86
484.027	82.26
484.245	79.26
484.463	87.86
484.681	82.86
484.9	85.06
485.118	84.26
485.336	84.06
485.554	85.86
485.772	82.66
485.99	84.06
486.209	82.26
486.427	79.66
486.645	85.46
486.863	88.06
487.081	86.46
487.299	87.06
487.517	80.46
487.735	85.86
487.953	87.26
488.171	82.86
488.389	86.26
488.607	83.26
488.825	85.26
489.043	84.46
489.261	87.66
489.479	84.46
489.696	82.86
489.914	83.66
490.132	83.86
490.35	83.46
490.568	88.26
490.786	86.86
491.003	94.06
491.221	88.86
491.439	87.86
491.657	88.86
491.874	86.06
492.092	88.46
492.31	89.66
492.527	86.26
492.745	86.66
492.963	83.26
493.18	89.46
493.398	79.66
493.615	89.06
493.833	83.86
494.05	82.26
494.268	83.26
494.485	85.86
494.703	76.46
494.92	86.66
495.138	80.66
495.355	85.86
495.573	87.66
495.79	86.46
496.008	87.06
496.225	87.26
496.442	81.26
496.66	84.46
496.877	85.26
497.094	86.26
497.312	85.86
497.529	80.86
497.746	84.86
497.963	87.86
498.181	90.66
498.398	84.26
498.615	85.06
498.832	85.06
499.049	85.86
499.267	81.26
499.484	87.66
499.701	87.26
499.918	81.66
500.135	81.26
500.352	79.46
500.569	102.26
500.786	116.86
501.003	95.26
501.22	89.86
501.437	83.26
501.654	85.86
501.871	86.66
502.088	87.86
502.305	83.26
502.522	80.66
502.739	83.86
502.956	81.26
503.172	79.26
503.389	76.66
503.606	80.86
503.823	84.86
504.04	86.66
504.256	85.46
504.473	86.26
504.69	84.06
504.907	90.06
505.123	80.86
505.34	89.26
505.557	89.26
505.773	87.46
505.99	84.66
506.207	85.86
506.423	85.46
506.64	87.26
506.856	86.46
507.073	86.86
507.289	78.66
507.506	83.46
507.722	82.06
507.939	83.66
508.155	81.06
508.372	87.46
508.588	85.06
508.805	89.06
509.021	81.86
509.238	93.86
509.454	80.66
509.67	85.66
509.887	73.66
510.103	85.86
510.319	80.26
510.536	84.86
510.752	78.86
510.968	78.66
511.184	84.46
511.401	88.46
511.617	82.46
511.833	82.06
512.049	78.06
512.265	80.46
512.481	84.86
512.698	81.06
512.914	82.66
513.13	85.26
513.346	79.66
513.562	87.26
513.778	80.26
513.994	85.06
514.21	83.86
514.426	80.06
514.642	79.86
514.858	75.66
515.074	88.06
515.29	77.66
515.506	83.46
515.721	82.66
515.937	76.86
516.153	94.46
516.369	85.66
516.585	85.06
516.801	84.06
517.016	85.06
517.232	71.86
517.448	81.66
517.664	86.86
517.879	89.66
518.095	86.06
518.311	76.86
518.527	85.06
518.742	83.86
518.958	82.06
519.173	82.26
519.389	89.86
519.605	78.06
519.82	87.46
