Data from TenMicroDelayPb_HRD10591_00038.txt Node
Date: Mon Nov 24 14:37:09 EST 2025
User: Yrep
Spectrometer: HR+D1059
Trigger mode: 1
Integration Time (sec): 1.000000E-2
Scans to average: 5
Electric dark correction enabled: true
Nonlinearity correction enabled: false
Boxcar width: 0
XAxis mode: Wavelengths
Number of Pixels in Spectrum: 2048
>>>>>Begin Spectral Data<<<<<
223.165	-11.99
223.4	-11.99
223.635	-11.99
223.869	-20.59
224.104	-16.39
224.338	-20.99
224.573	-16.19
224.808	-16.19
225.042	-7.79
225.277	-5.39
225.511	-2.39
225.746	6.41
225.98	8.01
226.215	6.61
226.449	14.21
226.683	18.81
226.918	29.81
227.152	34.01
227.387	32.41
227.621	35.21
227.856	36.61
228.09	47.21
228.324	43.01
228.559	47.41
228.793	57.41
229.027	56.61
229.262	59.61
229.496	64.21
229.73	68.41
229.964	72.41
230.199	73.81
230.433	73.61
230.667	79.41
230.901	74.41
231.136	77.21
231.37	79.41
231.604	82.41
231.838	76.41
232.072	85.81
232.306	76.61
232.541	76.81
232.775	79.21
233.009	86.41
233.243	75.61
233.477	83.41
233.711	85.41
233.945	83.21
234.179	76.21
234.413	73.61
234.647	79.61
234.881	79.01
235.115	79.81
235.349	74.61
235.583	78.21
235.817	73.81
236.051	77.61
236.285	80.21
236.519	73.61
236.753	74.61
236.987	83.21
237.221	74.21
237.455	73.81
237.689	78.61
237.922	76.41
238.156	77.41
238.39	72.61
238.624	72.01
238.858	72.01
239.091	81.01
239.325	78.81
239.559	70.41
239.793	80.01
240.027	76.41
240.26	72.21
240.494	80.41
240.728	77.41
240.961	74.41
241.195	77.61
241.429	76.61
241.662	81.21
241.896	75.41
242.13	76.61
242.363	78.81
242.597	74.61
242.83	71.61
243.064	77.81
243.298	77.01
243.531	77.81
243.765	77.81
243.998	73.61
244.232	74.81
244.465	78.81
244.699	74.41
244.932	81.01
245.166	79.81
245.399	79.61
245.633	79.41
245.866	80.01
246.099	78.61
246.333	84.01
246.566	77.81
246.8	80.41
247.033	76.01
247.266	75.01
247.5	71.81
247.733	84.41
247.966	70.81
248.2	77.81
248.433	77.01
248.666	75.21
248.899	74.81
249.133	80.61
249.366	76.81
249.599	80.61
249.832	73.81
250.066	78.61
250.299	77.01
250.532	79.61
250.765	84.41
250.998	78.01
251.231	82.41
251.465	77.01
251.698	80.01
251.931	82.01
252.164	80.21
252.397	74.61
252.63	79.21
252.863	82.61
253.096	82.41
253.329	80.61
253.562	76.01
253.795	80.41
254.028	78.01
254.261	77.21
254.494	76.01
254.727	84.01
254.96	85.61
255.193	80.21
255.426	81.41
255.659	73.01
255.892	77.41
256.124	79.01
256.357	78.81
256.59	80.01
256.823	83.21
257.056	83.81
257.289	77.01
257.521	83.21
257.754	81.41
257.987	82.61
258.22	86.21
258.452	76.21
258.685	74.81
258.918	87.81
259.151	80.01
259.383	84.21
259.616	79.61
259.849	78.41
260.081	76.41
260.314	81.41
260.547	74.21
260.779	81.41
261.012	82.81
261.244	86.61
261.477	84.61
261.71	85.41
261.942	83.81
262.175	77.81
262.407	82.41
262.64	79.41
262.872	79.41
263.105	82.01
263.337	75.41
263.57	76.81
263.802	78.01
264.035	81.61
264.267	77.81
264.499	79.61
264.732	83.81
264.964	85.41
265.197	84.01
265.429	79.61
265.661	71.61
265.894	83.61
266.126	80.61
266.358	84.21
266.591	89.41
266.823	85.81
267.055	80.21
267.287	79.21
267.52	82.81
267.752	82.81
267.984	83.41
268.216	81.61
268.448	80.61
268.681	84.01
268.913	83.21
269.145	83.01
269.377	85.21
269.609	82.01
269.841	84.01
270.073	83.81
270.306	81.61
270.538	80.41
270.77	83.81
271.002	78.81
271.234	83.41
271.466	82.21
271.698	87.41
271.93	81.41
272.162	76.01
272.394	82.81
272.626	81.41
272.858	89.61
273.09	85.21
273.322	82.81
273.553	74.81
273.785	83.01
274.017	76.41
274.249	83.21
274.481	80.21
274.713	81.81
274.945	83.61
275.176	74.21
275.408	81.41
275.64	83.41
275.872	82.01
276.104	81.61
276.335	85.81
276.567	80.01
276.799	78.61
277.031	80.01
277.262	85.01
277.494	82.61
277.726	85.21
277.957	83.61
278.189	84.21
278.421	79.61
278.652	87.21
278.884	85.81
279.115	78.81
279.347	81.81
279.579	77.21
279.81	85.81
280.042	88.41
280.273	94.01
280.505	96.01
280.736	86.61
280.968	84.61
281.199	90.01
281.431	82.61
281.662	85.41
281.894	88.41
282.125	87.21
282.356	86.41
282.588	85.81
282.819	87.61
283.051	87.41
283.282	98.81
283.513	100.21
283.745	92.21
283.976	85.61
284.207	90.61
284.439	83.61
284.67	79.41
284.901	81.61
285.132	80.01
285.364	79.61
285.595	85.21
285.826	77.41
286.057	82.01
286.288	82.21
286.52	86.41
286.751	82.01
286.982	88.41
287.213	88.21
287.444	91.41
287.675	83.21
287.906	80.41
288.138	81.21
288.369	84.21
288.6	79.81
288.831	79.41
289.062	78.21
289.293	85.01
289.524	78.61
289.755	77.61
289.986	85.41
290.217	88.01
290.448	83.21
290.679	80.61
290.91	81.01
291.141	85.81
291.371	86.61
291.602	83.21
291.833	87.21
292.064	83.61
292.295	84.21
292.526	85.41
292.757	76.41
292.987	91.21
293.218	86.81
293.449	79.01
293.68	83.41
293.91	86.41
294.141	80.21
294.372	85.01
294.603	83.41
294.833	84.41
295.064	84.21
295.295	84.01
295.525	82.61
295.756	87.01
295.987	90.81
296.217	80.61
296.448	75.01
296.679	88.01
296.909	81.81
297.14	84.21
297.37	85.21
297.601	83.41
297.831	86.81
298.062	84.21
298.292	85.01
298.523	77.21
298.753	89.01
298.984	80.81
299.214	80.81
299.445	90.41
299.675	79.61
299.905	83.01
300.136	81.81
300.366	80.21
300.597	82.61
300.827	85.41
301.057	78.81
301.288	81.81
301.518	83.61
301.748	90.01
301.979	81.61
302.209	83.01
302.439	88.41
302.669	88.01
302.9	82.81
303.13	85.61
303.36	80.61
303.59	84.61
303.82	82.41
304.051	78.01
304.281	75.81
304.511	81.81
304.741	77.61
304.971	83.81
305.201	83.61
305.431	88.61
305.661	84.81
305.891	84.41
306.121	83.61
306.352	89.61
306.582	86.81
306.812	77.01
307.042	85.21
307.272	79.21
307.502	86.21
307.731	82.41
307.961	87.01
308.191	88.61
308.421	91.61
308.651	76.81
308.881	86.21
309.111	86.01
309.341	79.81
309.571	82.61
309.8	87.41
310.03	92.81
310.26	84.81
310.49	81.21
310.72	83.01
310.949	81.21
311.179	80.61
311.409	82.01
311.639	85.21
311.868	83.81
312.098	82.01
312.328	80.81
312.557	87.21
312.787	84.21
313.017	83.61
313.246	90.01
313.476	83.01
313.706	86.81
313.935	85.21
314.165	85.61
314.394	88.41
314.624	86.61
314.853	81.21
315.083	80.61
315.312	86.21
315.542	89.81
315.771	90.41
316.001	77.21
316.23	88.81
316.46	80.61
316.689	81.41
316.919	81.81
317.148	84.81
317.377	83.21
317.607	82.01
317.836	82.01
318.065	88.81
318.295	83.21
318.524	76.41
318.753	84.81
318.983	76.41
319.212	80.21
319.441	78.01
319.67	83.41
319.9	84.01
320.129	90.41
320.358	86.61
320.587	78.81
320.816	82.41
321.046	85.81
321.275	80.21
321.504	84.81
321.733	86.21
321.962	84.81
322.191	84.21
322.42	87.21
322.649	86.41
322.878	84.81
323.108	84.21
323.337	84.01
323.566	88.81
323.795	86.81
324.024	83.61
324.253	82.41
324.482	84.81
324.71	87.61
324.939	87.81
325.168	79.41
325.397	80.41
325.626	82.01
325.855	80.21
326.084	82.81
326.313	81.61
326.542	80.61
326.77	84.81
326.999	82.81
327.228	80.41
327.457	82.01
327.686	79.81
327.914	84.21
328.143	83.61
328.372	83.81
328.6	84.61
328.829	86.21
329.058	85.41
329.287	79.81
329.515	82.61
329.744	82.01
329.972	89.41
330.201	82.01
330.43	87.81
330.658	83.61
330.887	88.61
331.115	85.61
331.344	85.01
331.572	92.01
331.801	81.61
332.03	88.01
332.258	79.61
332.486	87.41
332.715	87.41
332.943	85.61
333.172	84.61
333.4	86.61
333.629	85.01
333.857	87.81
334.085	80.81
334.314	81.81
334.542	86.21
334.771	83.41
334.999	82.01
335.227	83.81
335.455	82.61
335.684	80.21
335.912	78.81
336.14	81.41
336.369	83.41
336.597	88.61
336.825	93.21
337.053	83.81
337.281	90.81
337.51	82.01
337.738	80.41
337.966	78.61
338.194	77.81
338.422	86.21
338.65	78.21
338.878	78.61
339.106	80.81
339.334	88.61
339.562	84.21
339.79	82.81
340.018	88.21
340.246	85.41
340.474	83.61
340.702	83.01
340.93	81.61
341.158	82.01
341.386	81.01
341.614	78.21
341.842	79.21
342.07	83.21
342.298	82.41
342.526	82.21
342.754	80.01
342.981	83.61
343.209	85.21
343.437	83.01
343.665	82.61
343.893	76.61
344.12	86.41
344.348	90.01
344.576	85.41
344.804	89.41
345.031	80.01
345.259	82.61
345.487	82.01
345.714	83.21
345.942	83.21
346.17	86.81
346.397	76.81
346.625	77.61
346.853	85.81
347.08	81.21
347.308	81.01
347.535	90.61
347.763	90.21
347.99	79.01
348.218	79.21
348.445	81.01
348.673	87.01
348.9	87.41
349.128	84.21
349.355	82.41
349.583	88.21
349.81	91.21
350.037	83.81
350.265	84.01
350.492	88.81
350.72	81.81
350.947	87.21
351.174	85.61
351.402	88.21
351.629	84.81
351.856	83.41
352.083	81.81
352.311	80.81
352.538	84.01
352.765	81.41
352.992	84.01
353.22	81.01
353.447	80.61
353.674	79.41
353.901	81.61
354.128	88.81
354.355	81.61
354.583	83.41
354.81	83.01
355.037	84.61
355.264	84.01
355.491	87.61
355.718	83.61
355.945	79.41
356.172	79.61
356.399	82.21
356.626	82.41
356.853	92.61
357.08	94.61
357.307	99.41
357.534	106.61
357.761	88.61
357.988	86.81
358.215	88.01
358.441	83.61
358.668	78.81
358.895	82.81
359.122	79.01
359.349	86.01
359.576	86.01
359.802	77.21
360.029	82.41
360.256	85.21
360.483	82.21
360.709	79.01
360.936	86.01
361.163	80.41
361.39	86.41
361.616	81.81
361.843	83.01
362.07	84.21
362.296	80.61
362.523	85.21
362.749	94.01
362.976	90.01
363.203	88.61
363.429	97.01
363.656	108.41
363.882	136.01
364.109	137.61
364.335	101.21
364.562	89.01
364.788	85.61
365.015	82.01
365.241	88.21
365.468	81.21
365.694	82.81
365.92	83.01
366.147	84.01
366.373	84.41
366.599	80.61
366.826	93.61
367.052	93.01
367.278	91.81
367.505	89.81
367.731	89.61
367.957	111.01
368.184	138.21
368.41	155.41
368.636	131.41
368.862	89.61
369.089	81.21
369.315	84.21
369.541	81.21
369.767	81.01
369.993	77.21
370.219	83.61
370.445	81.01
370.672	82.61
370.898	87.01
371.124	82.61
371.35	83.41
371.576	79.81
371.802	88.41
372.028	80.01
372.254	84.61
372.48	80.41
372.706	83.01
372.932	78.61
373.158	85.21
373.384	81.21
373.61	89.81
373.835	105.21
374.061	109.81
374.287	97.61
374.513	80.81
374.739	79.41
374.965	87.61
375.191	81.81
375.416	78.61
375.642	84.41
375.868	84.21
376.094	78.41
376.319	81.61
376.545	83.01
376.771	80.01
376.997	75.81
377.222	81.41
377.448	77.81
377.674	77.21
377.899	81.41
378.125	80.41
378.35	82.41
378.576	83.01
378.802	76.61
379.027	82.61
379.253	83.01
379.478	76.21
379.704	85.61
379.929	84.21
380.155	76.81
380.38	81.41
380.606	79.81
380.831	81.61
381.057	84.61
381.282	76.41
381.507	81.61
381.733	80.21
381.958	85.61
382.184	85.41
382.409	84.01
382.634	85.21
382.86	87.01
383.085	77.41
383.31	79.21
383.535	85.01
383.761	74.21
383.986	87.01
384.211	83.61
384.436	76.81
384.662	84.01
384.887	77.61
385.112	85.61
385.337	81.81
385.562	84.21
385.787	82.41
386.013	82.01
386.238	81.61
386.463	82.81
386.688	81.21
386.913	80.01
387.138	78.21
387.363	81.41
387.588	87.61
387.813	80.81
388.038	81.41
388.263	78.41
388.488	81.21
388.713	88.61
388.938	77.01
389.163	85.41
389.387	79.81
389.612	84.01
389.837	76.01
390.062	81.41
390.287	84.81
390.512	79.21
390.736	83.61
390.961	79.81
391.186	83.81
391.411	78.41
391.636	80.01
391.86	78.61
392.085	80.21
392.31	77.01
392.534	86.81
392.759	86.01
392.984	82.61
393.208	87.81
393.433	79.41
393.658	77.01
393.882	78.81
394.107	82.81
394.331	81.61
394.556	76.61
394.78	85.61
395.005	85.61
395.229	74.81
395.454	87.01
395.678	87.81
395.903	78.01
396.127	80.61
396.352	81.61
396.576	78.81
396.801	85.01
397.025	80.61
397.249	84.61
397.474	78.61
397.698	81.21
397.922	78.81
398.147	81.41
398.371	82.01
398.595	87.21
398.82	87.61
399.044	83.81
399.268	81.61
399.492	83.81
399.717	83.61
399.941	81.21
400.165	79.41
400.389	83.81
400.613	69.81
400.837	80.61
401.062	87.81
401.286	82.01
401.51	81.61
401.734	87.01
401.958	99.21
402.182	87.81
402.406	85.01
402.63	89.01
402.854	81.61
403.078	80.41
403.302	83.41
403.526	86.41
403.75	83.41
403.974	85.81
404.198	80.01
404.422	85.41
404.645	84.01
404.869	81.01
405.093	84.81
405.317	106.41
405.541	144.81
405.765	229.41
405.988	243.21
406.212	142.61
406.436	106.21
406.66	85.81
406.883	85.21
407.107	78.01
407.331	77.21
407.555	83.21
407.778	81.01
408.002	81.01
408.226	80.61
408.449	80.61
408.673	76.01
408.896	88.21
409.12	88.41
409.344	85.41
409.567	83.21
409.791	85.21
410.014	86.41
410.238	75.21
410.461	73.81
410.685	80.61
410.908	83.01
411.132	88.41
411.355	80.61
411.578	86.01
411.802	80.01
412.025	83.41
412.249	75.01
412.472	85.41
412.695	80.61
412.919	81.41
413.142	86.41
413.365	91.21
413.589	82.21
413.812	76.21
414.035	80.81
414.258	82.01
414.482	84.61
414.705	84.61
414.928	77.41
415.151	89.81
415.374	84.01
415.597	92.21
415.821	82.81
416.044	84.81
416.267	84.01
416.49	81.61
416.713	81.81
416.936	89.41
417.159	86.61
417.382	89.01
417.605	85.01
417.828	81.81
418.051	89.21
418.274	85.21
418.497	84.01
418.72	83.21
418.943	78.01
419.166	80.81
419.389	73.01
419.611	79.61
419.834	81.61
420.057	81.41
420.28	80.61
420.503	81.61
420.726	78.01
420.948	82.41
421.171	81.21
421.394	76.81
421.617	79.81
421.839	80.61
422.062	84.21
422.285	84.01
422.507	85.21
422.73	82.81
422.953	76.81
423.175	82.01
423.398	82.81
423.621	82.21
423.843	87.81
424.066	79.81
424.288	84.81
424.511	80.01
424.733	83.41
424.956	84.41
425.178	83.41
425.401	85.61
425.623	85.41
425.846	83.41
426.068	79.41
426.291	84.01
426.513	88.21
426.735	84.21
426.958	81.21
427.18	81.41
427.402	85.21
427.625	80.01
427.847	81.21
428.069	80.21
428.292	75.01
428.514	81.81
428.736	77.61
428.958	81.61
429.181	80.01
429.403	87.61
429.625	80.61
429.847	85.21
430.069	89.61
430.292	86.21
430.514	78.01
430.736	77.01
430.958	85.61
431.18	80.01
431.402	82.01
431.624	79.01
431.846	80.81
432.068	85.81
432.29	87.41
432.512	86.01
432.734	75.01
432.956	83.41
433.178	83.81
433.4	87.21
433.622	84.41
433.844	78.81
434.066	87.21
434.287	88.01
434.509	79.41
434.731	86.61
434.953	85.21
435.175	80.61
435.397	81.21
435.618	74.41
435.84	83.61
436.062	88.61
436.284	90.41
436.505	81.41
436.727	81.81
436.949	83.61
437.17	86.81
437.392	89.21
437.614	81.81
437.835	82.81
438.057	81.41
438.278	80.61
438.5	80.01
438.721	80.81
438.943	80.21
439.165	86.81
439.386	85.01
439.608	79.61
439.829	87.41
440.05	84.21
440.272	78.21
440.493	85.21
440.715	81.41
440.936	84.21
441.158	85.21
441.379	77.81
441.6	83.01
441.822	86.81
442.043	81.21
442.264	78.21
442.486	79.21
442.707	88.01
442.928	90.41
443.149	78.01
443.371	82.81
443.592	87.61
443.813	85.21
444.034	79.41
444.255	80.61
444.476	79.61
444.698	80.41
444.919	84.81
445.14	93.81
445.361	88.81
445.582	82.81
445.803	87.41
446.024	82.81
446.245	80.61
446.466	81.21
446.687	87.01
446.908	89.41
447.129	81.61
447.35	85.01
447.571	85.01
447.792	89.01
448.013	80.81
448.234	85.81
448.455	76.41
448.675	82.81
448.896	83.21
449.117	83.01
449.338	84.01
449.559	81.81
449.779	84.21
450	79.41
450.221	83.41
450.442	89.61
450.662	87.61
450.883	86.61
451.104	78.01
451.324	79.01
451.545	85.81
451.766	87.21
451.986	79.61
452.207	81.61
452.428	76.01
452.648	81.21
452.869	79.41
453.089	83.81
453.31	80.01
453.53	85.61
453.751	81.81
453.971	78.01
454.192	80.81
454.412	83.61
454.633	79.81
454.853	81.01
455.073	78.61
455.294	81.61
455.514	84.61
455.734	85.61
455.955	77.01
456.175	79.41
456.395	79.61
456.616	84.41
456.836	81.41
457.056	84.01
457.276	88.41
457.497	81.61
457.717	79.41
457.937	78.21
458.157	78.81
458.377	82.61
458.598	78.01
458.818	80.81
459.038	84.21
459.258	81.81
459.478	80.81
459.698	83.21
459.918	80.41
460.138	82.41
460.358	78.21
460.578	88.21
460.798	80.41
461.018	79.81
461.238	82.01
461.458	81.21
461.678	84.01
461.898	85.21
462.118	86.01
462.338	87.01
462.558	81.01
462.777	88.41
462.997	85.21
463.217	89.21
463.437	85.21
463.657	84.81
463.876	83.01
464.096	85.21
464.316	75.81
464.536	80.21
464.755	81.61
464.975	79.01
465.195	84.21
465.414	82.01
465.634	79.41
465.854	78.21
466.073	80.81
466.293	86.01
466.512	85.41
466.732	86.61
466.951	80.61
467.171	82.61
467.391	81.41
467.61	83.01
467.829	88.81
468.049	89.01
468.268	87.41
468.488	77.21
468.707	86.41
468.927	86.61
469.146	83.81
469.365	84.21
469.585	92.21
469.804	82.21
470.023	75.81
470.243	81.81
470.462	82.61
470.681	84.21
470.901	81.41
471.12	83.41
471.339	80.41
471.558	80.81
471.777	79.41
471.997	73.01
472.216	82.01
472.435	83.81
472.654	84.81
472.873	85.21
473.092	85.81
473.311	82.01
473.53	87.21
473.749	83.61
473.968	76.01
474.187	82.81
474.406	83.21
474.625	85.21
474.844	86.81
475.063	83.21
475.282	80.81
475.501	71.61
475.72	85.01
475.939	84.41
476.158	84.21
476.377	79.41
476.596	82.81
476.814	75.41
477.033	84.01
477.252	87.61
477.471	83.21
477.69	76.41
477.908	89.21
478.127	86.01
478.346	85.01
478.564	84.01
478.783	83.01
479.002	85.41
479.22	79.61
479.439	83.01
479.658	85.01
479.876	75.81
480.095	84.21
480.313	81.01
480.532	84.21
480.751	81.61
480.969	83.81
481.188	81.61
481.406	74.61
481.624	81.81
481.843	83.61
482.061	86.21
482.28	85.81
482.498	86.81
482.717	83.01
482.935	80.81
483.153	87.81
483.372	81.61
483.59	84.61
483.808	79.01
484.027	81.01
484.245	81.61
484.463	85.61
484.681	83.81
484.9	88.41
485.118	81.01
485.336	76.21
485.554	83.81
485.772	81.81
485.99	79.81
486.209	79.41
486.427	79.41
486.645	78.61
486.863	78.41
487.081	81.81
487.299	86.61
487.517	85.61
487.735	84.61
487.953	83.81
488.171	80.41
488.389	86.21
488.607	86.01
488.825	85.21
489.043	85.41
489.261	81.61
489.479	85.41
489.696	81.41
489.914	84.61
490.132	86.81
490.35	79.61
490.568	81.21
490.786	87.81
491.003	85.61
491.221	87.21
491.439	86.01
491.657	83.01
491.874	87.61
492.092	88.81
492.31	89.81
492.527	88.61
492.745	81.21
492.963	86.61
493.18	83.81
493.398	81.01
493.615	87.41
493.833	88.41
494.05	88.01
494.268	80.01
494.485	84.61
494.703	87.61
494.92	84.41
495.138	84.21
495.355	80.81
495.573	78.21
495.79	83.41
496.008	79.01
496.225	80.41
496.442	79.61
496.66	84.41
496.877	87.41
497.094	86.41
497.312	81.41
497.529	86.61
497.746	84.81
497.963	84.61
498.181	89.41
498.398	81.41
498.615	80.41
498.832	84.61
499.049	78.81
499.267	82.81
499.484	84.21
499.701	85.21
499.918	82.21
500.135	85.61
500.352	90.01
500.569	98.41
500.786	105.61
501.003	80.61
501.22	76.81
501.437	79.61
501.654	84.21
501.871	79.81
502.088	86.21
502.305	85.41
502.522	83.21
502.739	85.41
502.956	79.41
503.172	83.61
503.389	87.41
503.606	89.21
503.823	86.01
504.04	79.81
504.256	80.21
504.473	89.21
504.69	80.01
504.907	85.41
505.123	90.61
505.34	84.01
505.557	85.21
505.773	80.81
505.99	87.41
506.207	85.61
506.423	84.01
506.64	87.01
506.856	83.81
507.073	82.21
507.289	85.21
507.506	80.61
507.722	77.01
507.939	80.81
508.155	86.81
508.372	76.01
508.588	80.81
508.805	88.61
509.021	87.81
509.238	91.61
509.454	87.21
509.67	87.21
509.887	77.81
510.103	87.01
510.319	87.61
510.536	85.21
510.752	80.61
510.968	81.61
511.184	84.01
511.401	80.41
511.617	78.61
511.833	84.41
512.049	86.01
512.265	81.61
512.481	81.61
512.698	77.21
512.914	82.61
513.13	85.21
513.346	87.61
513.562	83.61
513.778	83.61
513.994	85.61
514.21	84.81
514.426	87.21
514.642	81.01
514.858	91.01
515.074	84.41
515.29	87.01
515.506	92.21
515.721	85.61
515.937	85.61
516.153	83.81
516.369	81.41
516.585	86.01
516.801	83.41
517.016	85.01
517.232	77.81
517.448	83.41
517.664	87.81
517.879	82.01
518.095	91.41
518.311	88.41
518.527	86.61
518.742	89.01
518.958	81.01
519.173	83.81
519.389	88.61
519.605	84.81
519.82	78.21
520.036	89.61
