Data from TenMicroDelayPb_HRD10591_00007.txt Node
Date: Mon Nov 24 14:34:24 EST 2025
User: Yrep
Spectrometer: HR+D1059
Trigger mode: 0
Integration Time (sec): 1.000000E-2
Scans to average: 5
Electric dark correction enabled: true
Nonlinearity correction enabled: false
Boxcar width: 0
XAxis mode: Wavelengths
Number of Pixels in Spectrum: 2048
>>>>>Begin Spectral Data<<<<<
223.165	-18.2
223.4	-18.2
223.635	-18.2
223.869	-18.4
224.104	-17.6
224.338	-14.4
224.573	-15
224.808	-15
225.042	-1.4
225.277	-3.4
225.511	-6.4
225.746	4
225.98	2.2
226.215	5.8
226.449	16
226.683	22.6
226.918	25.4
227.152	33.8
227.387	33.2
227.621	42.4
227.856	46
228.09	45.2
228.324	54.6
228.559	56.2
228.793	60.2
229.027	64.6
229.262	65.8
229.496	68.6
229.73	73.8
229.964	67.8
230.199	80.2
230.433	81.2
230.667	78.2
230.901	75
231.136	79.8
231.37	78.6
231.604	84.8
231.838	80
232.072	80
232.306	81.2
232.541	83.4
232.775	87.6
233.009	85.6
233.243	85.2
233.477	88.4
233.711	81
233.945	83.6
234.179	84.4
234.413	89.8
234.647	78.8
234.881	82.4
235.115	78.4
235.349	86
235.583	87.4
235.817	78.4
236.051	85.2
236.285	81.4
236.519	82.4
236.753	77.8
236.987	81.4
237.221	80.8
237.455	76.8
237.689	79.6
237.922	78.8
238.156	77.4
238.39	83.2
238.624	74.6
238.858	77.2
239.091	78
239.325	82
239.559	84.4
239.793	80.2
240.027	79.4
240.26	81.6
240.494	82.2
240.728	75.8
240.961	78.8
241.195	80.8
241.429	77.6
241.662	85.4
241.896	85.4
242.13	82
242.363	75.2
242.597	80.8
242.83	80.8
243.064	79.2
243.298	79.6
243.531	84.8
243.765	78.8
243.998	83.6
244.232	78.2
244.465	87.6
244.699	90.8
244.932	83.8
245.166	85.6
245.399	80.2
245.633	79.2
245.866	86.4
246.099	84.2
246.333	80
246.566	77.8
246.8	81.6
247.033	78.6
247.266	81.8
247.5	84.4
247.733	86
247.966	90.4
248.2	92.2
248.433	83.6
248.666	81
248.899	81.6
249.133	79.2
249.366	84.2
249.599	89
249.832	80.8
250.066	82.6
250.299	91.4
250.532	87.6
250.765	88.8
250.998	88.4
251.231	79.6
251.465	87.2
251.698	84.2
251.931	86
252.164	84.2
252.397	90.6
252.63	84.8
252.863	88.4
253.096	92
253.329	87.2
253.562	91.4
253.795	88.6
254.028	90
254.261	92
254.494	89.8
254.727	89.8
254.96	88
255.193	92.2
255.426	91.2
255.659	84
255.892	89.6
256.124	89.8
256.357	88
256.59	93.4
256.823	91.2
257.056	81.8
257.289	91
257.521	85.6
257.754	89.8
257.987	92.6
258.22	93.6
258.452	92.6
258.685	92.2
258.918	96.2
259.151	91.6
259.383	90.6
259.616	86.4
259.849	91.4
260.081	95.6
260.314	91.4
260.547	99.2
260.779	100.4
261.012	101.2
261.244	106.4
261.477	105.8
261.71	113
261.942	109.8
262.175	96.6
262.407	104
262.64	97.4
262.872	95.8
263.105	94.8
263.337	95.6
263.57	93.6
263.802	100.2
264.035	96.2
264.267	91.8
264.499	93.8
264.732	96.8
264.964	95.2
265.197	100.4
265.429	97.4
265.661	93
265.894	93.2
266.126	98.2
266.358	105.6
266.591	103.2
266.823	96.2
267.055	88.2
267.287	89.2
267.52	91
267.752	93
267.984	81.8
268.216	94.2
268.448	91.4
268.681	92.6
268.913	90
269.145	94.2
269.377	94.2
269.609	90.8
269.841	92.4
270.073	88.6
270.306	89.4
270.538	91.8
270.77	93.8
271.002	97.4
271.234	92.4
271.466	91.6
271.698	91.6
271.93	86
272.162	91.8
272.394	93
272.626	92.2
272.858	89.2
273.09	92.2
273.322	87.2
273.553	92.4
273.785	93.8
274.017	97.6
274.249	88.8
274.481	96.8
274.713	93.6
274.945	87.6
275.176	87.4
275.408	91.6
275.64	93.4
275.872	85.8
276.104	96.2
276.335	99.8
276.567	97.6
276.799	96.8
277.031	101
277.262	95
277.494	94
277.726	100.2
277.957	92.4
278.189	92
278.421	97.8
278.652	100.2
278.884	98.8
279.115	103.6
279.347	114.4
279.579	109.6
279.81	114
280.042	124.2
280.273	135.2
280.505	123
280.736	109
280.968	112.8
281.199	106.2
281.431	104.8
281.662	97.8
281.894	109.8
282.125	108.2
282.356	117.6
282.588	103
282.819	109.4
283.051	107.4
283.282	120.2
283.513	123.2
283.745	117.4
283.976	103
284.207	105
284.439	102.4
284.67	103.6
284.901	97.2
285.132	96.8
285.364	96
285.595	100
285.826	91
286.057	94
286.288	108.6
286.52	99
286.751	98.2
286.982	106
287.213	109
287.444	112.8
287.675	108
287.906	102.4
288.138	97.2
288.369	99
288.6	95.8
288.831	100.2
289.062	95.8
289.293	95.4
289.524	102.2
289.755	95.2
289.986	99.2
290.217	95.4
290.448	94
290.679	95
290.91	97.4
291.141	103.2
291.371	101
291.602	92.4
291.833	95.8
292.064	101.2
292.295	95.8
292.526	93.4
292.757	97.2
292.987	94
293.218	100
293.449	98.2
293.68	96.2
293.91	97.6
294.141	92.6
294.372	92.6
294.603	94.4
294.833	93.6
295.064	97
295.295	98
295.525	102
295.756	97.4
295.987	98.8
296.217	92.6
296.448	97.8
296.679	101.8
296.909	98.4
297.14	95.2
297.37	108.8
297.601	94.4
297.831	101.4
298.062	98.2
298.292	94
298.523	96
298.753	95
298.984	95.8
299.214	94.4
299.445	96.8
299.675	100.6
299.905	93.6
300.136	97.8
300.366	96
300.597	98.2
300.827	102.2
301.057	100
301.288	98
301.518	105.8
301.748	96.6
301.979	96.6
302.209	100.2
302.439	98.2
302.669	98
302.9	94
303.13	100.2
303.36	94.4
303.59	95.6
303.82	105
304.051	103.6
304.281	96.8
304.511	98.8
304.741	98.4
304.971	100.4
305.201	92.6
305.431	97.2
305.661	98.4
305.891	99.2
306.121	105.2
306.352	98.6
306.582	100.4
306.812	92.8
307.042	96.8
307.272	106
307.502	102.2
307.731	98.4
307.961	97.2
308.191	96.6
308.421	101.8
308.651	103.8
308.881	95.8
309.111	103.4
309.341	97.2
309.571	100.4
309.8	106.4
310.03	95.4
310.26	102.2
310.49	97.8
310.72	94.8
310.949	101.8
311.179	101.8
311.409	91.8
311.639	101.4
311.868	107.4
312.098	106.4
312.328	103.2
312.557	95
312.787	99.6
313.017	101.2
313.246	101.4
313.476	94.8
313.706	102.6
313.935	101.8
314.165	107.4
314.394	104
314.624	107
314.853	99.4
315.083	103.8
315.312	108.2
315.542	98
315.771	97.4
316.001	102.6
316.23	101.6
316.46	104.6
316.689	105.6
316.919	98.6
317.148	105.8
317.377	93.6
317.607	106
317.836	112.2
318.065	102
318.295	105
318.524	103.2
318.753	106.4
318.983	99.8
319.212	102
319.441	100.4
319.67	99.2
319.9	101.8
320.129	99.8
320.358	101.4
320.587	105.4
320.816	96.4
321.046	98.2
321.275	94
321.504	98.2
321.733	96.2
321.962	102.6
322.191	99.4
322.42	98.6
322.649	102
322.878	103.2
323.108	97.6
323.337	104.2
323.566	104.8
323.795	104.2
324.024	93.8
324.253	100
324.482	105.2
324.71	103.4
324.939	106
325.168	99.8
325.397	101.8
325.626	94.8
325.855	102.6
326.084	99.8
326.313	99.4
326.542	95.2
326.77	100
326.999	100.4
327.228	97.4
327.457	103.2
327.686	103
327.914	101.4
328.143	101
328.372	106.2
328.6	100.8
328.829	98.8
329.058	106.6
329.287	106.4
329.515	104.2
329.744	102.2
329.972	96
330.201	100.8
330.43	96.8
330.658	93.4
330.887	99.8
331.115	102
331.344	94.2
331.572	102.8
331.801	103.4
332.03	94
332.258	98.6
332.486	97.6
332.715	104
332.943	104.6
333.172	97.6
333.4	100
333.629	103.6
333.857	110.4
334.085	95
334.314	99.8
334.542	98.6
334.771	104.2
334.999	104.2
335.227	95.6
335.455	100.8
335.684	99.6
335.912	97.2
336.14	95.4
336.369	101
336.597	105
336.825	103.6
337.053	99.8
337.281	99.8
337.51	96.6
337.738	102.8
337.966	102
338.194	102
338.422	93.2
338.65	97.6
338.878	103.4
339.106	101
339.334	103.2
339.562	102.2
339.79	97
340.018	98.2
340.246	104.8
340.474	103.8
340.702	99.2
340.93	98.2
341.158	103.4
341.386	101
341.614	90.6
341.842	98.6
342.07	100.8
342.298	103.6
342.526	102
342.754	105.6
342.981	102.8
343.209	98
343.437	100
343.665	98.8
343.893	102.8
344.12	100.8
344.348	99
344.576	97.6
344.804	104.2
345.031	99.6
345.259	107.2
345.487	98.8
345.714	99.8
345.942	102.6
346.17	95.8
346.397	101.4
346.625	101.6
346.853	101.6
347.08	98.2
347.308	94.4
347.535	102
347.763	92
347.99	104.2
348.218	102.2
348.445	104.2
348.673	101.8
348.9	104
349.128	103.4
349.355	99.8
349.583	100.4
349.81	96.6
350.037	101.2
350.265	96.2
350.492	103.6
350.72	96.6
350.947	101
351.174	94.6
351.402	98
351.629	96.4
351.856	102
352.083	100.4
352.311	92.8
352.538	98.2
352.765	96.8
352.992	98
353.22	95.2
353.447	97.6
353.674	101.8
353.901	103.4
354.128	95
354.355	107.8
354.583	105
354.81	97
355.037	101.6
355.264	91.2
355.491	97.2
355.718	105.8
355.945	101
356.172	102.2
356.399	97.6
356.626	105.2
356.853	110.6
357.08	135
357.307	138.8
357.534	141.6
357.761	130.4
357.988	113.4
358.215	112
358.441	111.8
358.668	104.6
358.895	107.8
359.122	102.2
359.349	109.8
359.576	103.2
359.802	107.8
360.029	103.4
360.256	100.8
360.483	102.4
360.709	100.2
360.936	108.8
361.163	109
361.39	99
361.616	105.6
361.843	104.4
362.07	100.6
362.296	107.2
362.523	99.8
362.749	106.4
362.976	106.6
363.203	103.8
363.429	113.4
363.656	120.2
363.882	152
364.109	162.6
364.335	140.8
364.562	123.4
364.788	114
365.015	107.6
365.241	107.6
365.468	102.2
365.694	104.2
365.92	101.8
366.147	105.8
366.373	110
366.599	112
366.826	114.6
367.052	118.6
367.278	120.8
367.505	115
367.731	118.8
367.957	134.2
368.184	159.2
368.41	185.8
368.636	166.2
368.862	137.8
369.089	126.2
369.315	111.2
369.541	113.8
369.767	105.4
369.993	115.4
370.219	112
370.445	109.4
370.672	105.8
370.898	106
371.124	100.8
371.35	101
371.576	101.6
371.802	100.2
372.028	100.2
372.254	101.6
372.48	102.2
372.706	110.2
372.932	107.4
373.158	102.8
373.384	110
373.61	113.6
373.835	139
374.061	144.8
374.287	143.4
374.513	121.8
374.739	115.4
374.965	109.4
375.191	106.6
375.416	103.4
375.642	104
375.868	105
376.094	106
376.319	96.4
376.545	102.8
376.771	100.6
376.997	109.6
377.222	100
377.448	101.6
377.674	103.8
377.899	99.8
378.125	102.8
378.35	105.8
378.576	100.8
378.802	98
379.027	102.2
379.253	107.4
379.478	100.4
379.704	105.2
379.929	100.6
380.155	103.8
380.38	103
380.606	105.8
380.831	101.6
381.057	101.4
381.282	104.2
381.507	95.6
381.733	107.6
381.958	103
382.184	101.8
382.409	105.4
382.634	100
382.86	98.2
383.085	104
383.31	103.2
383.535	105.4
383.761	97.6
383.986	104.2
384.211	106
384.436	100.8
384.662	99.8
384.887	103.6
385.112	104.8
385.337	96.4
385.562	98.6
385.787	101.8
386.013	105.8
386.238	103.6
386.463	97.6
386.688	99.4
386.913	104.2
387.138	101.2
387.363	99
387.588	107.8
387.813	104.6
388.038	101.8
388.263	97.4
388.488	104.6
388.713	97.6
388.938	107
389.163	105.4
389.387	96.4
389.612	99.6
389.837	93
390.062	101.8
390.287	102.4
390.512	96
390.736	103
390.961	103.2
391.186	109.6
391.411	105.8
391.636	101.8
391.86	99.8
392.085	103.4
392.31	99
392.534	100.2
392.759	103
392.984	101.2
393.208	107.6
393.433	110.2
393.658	103.2
393.882	103.2
394.107	97.6
394.331	101.4
394.556	99
394.78	104.2
395.005	106.8
395.229	110
395.454	101.6
395.678	104.6
395.903	103
396.127	101.8
396.352	95
396.576	104.4
396.801	106
397.025	98.4
397.249	110.2
397.474	101
397.698	106.4
397.922	104.6
398.147	105.2
398.371	111.4
398.595	105.6
398.82	110.8
399.044	104.6
399.268	106.4
399.492	104.4
399.717	100.8
399.941	108
400.165	107.4
400.389	105.6
400.613	105.6
400.837	101.2
401.062	103
401.286	105.4
401.51	108.2
401.734	105.4
401.958	114.8
402.182	112.6
402.406	103.6
402.63	107.4
402.854	103
403.078	105.8
403.302	111.6
403.526	111.6
403.75	109.2
403.974	113.8
404.198	106.4
404.422	116.2
404.645	122.6
404.869	117.6
405.093	126
405.317	142
405.541	173.8
405.765	232.4
405.988	248.6
406.212	195.4
406.436	161.8
406.66	147.4
406.883	133.2
407.107	127.8
407.331	118.2
407.555	115.8
407.778	116.2
408.002	114.8
408.226	107.4
408.449	111.2
408.673	111.6
408.896	114
409.12	108
409.344	112.2
409.567	111.6
409.791	113.6
410.014	103.6
410.238	104
410.461	107
410.685	104
410.908	109.8
411.132	108.6
411.355	109.6
411.578	103.8
411.802	107
412.025	103.8
412.249	97.2
412.472	104.8
412.695	108.6
412.919	104.8
413.142	105
413.365	106.2
413.589	113.6
413.812	109
414.035	108
414.258	105.4
414.482	106.2
414.705	105
414.928	108.6
415.151	106
415.374	108
415.597	111.2
415.821	102.4
416.044	109.4
416.267	110.4
416.49	102.8
416.713	107
416.936	114.2
417.159	110.6
417.382	110.8
417.605	106.8
417.828	111.2
418.051	107.8
418.274	103.4
418.497	98
418.72	110
418.943	101.8
419.166	104.6
419.389	118.4
419.611	112.2
419.834	109.4
420.057	110.2
420.28	110.6
420.503	107.8
420.726	108.2
420.948	108.8
421.171	108
421.394	116
421.617	108.8
421.839	106.8
422.062	109.6
422.285	110.6
422.507	110
422.73	117.2
422.953	109.6
423.175	110.6
423.398	116.2
423.621	121.2
423.843	120
424.066	127.8
424.288	127.4
424.511	144.6
424.733	150.4
424.956	141.2
425.178	140
425.401	129.8
425.623	123.8
425.846	127
426.068	117
426.291	122.8
426.513	120
426.735	117.2
426.958	116
427.18	112.4
427.402	105.6
427.625	114.2
427.847	109.6
428.069	117.2
428.292	107.8
428.514	108.6
428.736	108.4
428.958	112.4
429.181	111.8
429.403	111.8
429.625	107.2
429.847	103.6
430.069	108.8
430.292	114.2
430.514	105.4
430.736	109.8
430.958	105.6
431.18	106.2
431.402	109.2
431.624	111.6
431.846	105.8
432.068	105.6
432.29	108
432.512	104.8
432.734	110
432.956	105.6
433.178	105
433.4	107.6
433.622	113.4
433.844	116
434.066	104.6
434.287	105.4
434.509	105.4
434.731	105
434.953	117.6
435.175	112.8
435.397	114.2
435.618	106.8
435.84	106
436.062	109.4
436.284	111.8
436.505	115.4
436.727	115.4
436.949	110.4
437.17	111.2
437.392	113.4
437.614	119.8
437.835	114.6
438.057	119
438.278	119
438.5	141.8
438.721	142.4
438.943	142
439.165	137
439.386	130.6
439.608	134.2
439.829	132
440.05	130.8
440.272	121.4
440.493	129.2
440.715	131.8
440.936	134.4
441.158	132.8
441.379	122.2
441.6	124.2
441.822	121.8
442.043	116.4
442.264	118
442.486	119.4
442.707	112.6
442.928	112
443.149	115.2
443.371	110
443.592	113.2
443.813	108.6
444.034	113.4
444.255	109
444.476	113.8
444.698	110.4
444.919	111.6
445.14	124.4
445.361	117
445.582	113
445.803	106.8
446.024	106.8
446.245	116.6
446.466	112.2
446.687	110.6
446.908	113.8
447.129	107.4
447.35	112.6
447.571	115.8
447.792	112
448.013	107.8
448.234	110.2
448.455	111.8
448.675	108
448.896	110.6
449.117	105.6
449.338	106.4
449.559	109.4
449.779	109.4
450	108.8
450.221	102.2
450.442	111.6
450.662	104.8
450.883	112.4
451.104	102.4
451.324	104.6
451.545	104.6
451.766	108.4
451.986	110.2
452.207	104.8
452.428	109.2
452.648	111
452.869	108.2
453.089	110.8
453.31	95.8
453.53	104.8
453.751	102.2
453.971	104.2
454.192	109.4
454.412	101.6
454.633	96.2
454.853	100.4
455.073	103.8
455.294	99.4
455.514	105.4
455.734	106.4
455.955	104.6
456.175	106.2
456.395	102.8
456.616	100.2
456.836	107.6
457.056	109.6
457.276	102.2
457.497	104.6
457.717	99.6
457.937	103.6
458.157	100.8
458.377	99.2
458.598	100
458.818	100.8
459.038	95.4
459.258	100.8
459.478	96.6
459.698	101.4
459.918	99.2
460.138	108.8
460.358	110.2
460.578	103
460.798	108
461.018	103.6
461.238	110.4
461.458	109.4
461.678	105.8
461.898	106.8
462.118	108.8
462.338	103.2
462.558	109.8
462.777	111.4
462.997	101.2
463.217	103.4
463.437	104.4
463.657	102.6
463.876	105
464.096	104
464.316	110.2
464.536	109
464.755	110
464.975	107.2
465.195	105
465.414	102.6
465.634	102.6
465.854	105.4
466.073	104.2
466.293	105.6
466.512	106.2
466.732	107
466.951	106
467.171	100.8
467.391	103
467.61	113.4
467.829	108
468.049	102.4
468.268	100.6
468.488	100.8
468.707	106
468.927	108.2
469.146	104.2
469.365	103.4
469.585	105.8
469.804	113.6
470.023	113.8
470.243	109.8
470.462	107.4
470.681	110.6
470.901	107.4
471.12	105.4
471.339	108.8
471.558	102.2
471.777	104.2
471.997	101.2
472.216	98
472.435	93.2
472.654	101.4
472.873	98.2
473.092	98.8
473.311	96.6
473.53	107.6
473.749	104
473.968	101.4
474.187	104.6
474.406	107.6
474.625	113.8
474.844	110
475.063	100.6
475.282	107
475.501	108
475.72	105.6
475.939	104.8
476.158	108.8
476.377	106.6
476.596	106.8
476.814	111
477.033	107
477.252	100
477.471	107.6
477.69	104.8
477.908	107.2
478.127	113.2
478.346	105.2
478.564	111.6
478.783	112.8
479.002	111.2
479.22	112.8
479.439	108.2
479.658	110.8
479.876	119.2
480.095	113.4
480.313	111.6
480.532	108.6
480.751	110
480.969	109.8
481.188	108.2
481.406	102.8
481.624	103.8
481.843	112.2
482.061	115.4
482.28	113
482.498	104
482.717	107.6
482.935	104.4
483.153	103.2
483.372	112.2
483.59	111
483.808	108.8
484.027	109.2
484.245	111.8
484.463	112.6
484.681	114.6
484.9	111.8
485.118	107.2
485.336	107.2
485.554	107.4
485.772	111.4
485.99	114.6
486.209	106.6
486.427	101.8
486.645	109.6
486.863	105.2
487.081	106.8
487.299	109.4
487.517	116.8
487.735	112.2
487.953	116.8
488.171	111.2
488.389	114.4
488.607	113.2
488.825	108.4
489.043	113
489.261	110.6
489.479	112.2
489.696	115.6
489.914	111.2
490.132	115.6
490.35	115
490.568	108.2
490.786	117.6
491.003	117.4
491.221	118
491.439	109.8
491.657	113
491.874	118.8
492.092	118
492.31	123.8
492.527	120
492.745	112
492.963	121
493.18	122.8
493.398	113
493.615	113.8
493.833	119
494.05	117
494.268	117
494.485	121.8
494.703	111
494.92	110.4
495.138	117.8
495.355	113.6
495.573	122.6
495.79	122.8
496.008	119.6
496.225	112.2
496.442	110.8
496.66	111.8
496.877	116.4
497.094	120.4
497.312	113.8
497.529	115
497.746	112.6
497.963	121.4
498.181	114.2
498.398	119.2
498.615	115.6
498.832	119.4
499.049	124.8
499.267	118.4
499.484	115.4
499.701	122.4
499.918	124
500.135	128
500.352	135.4
500.569	139.6
500.786	144.8
501.003	136.8
501.22	131.2
501.437	135.2
501.654	125.4
501.871	123.2
502.088	122.6
502.305	122.8
502.522	118.2
502.739	122.8
502.956	117.4
503.172	121.8
503.389	113.2
503.606	122.8
503.823	124.2
504.04	117.2
504.256	125.2
504.473	127.2
504.69	121.8
504.907	126
505.123	122.4
505.34	122.4
505.557	122
505.773	114.6
505.99	118.4
506.207	111
506.423	114.6
506.64	114.6
506.856	117
507.073	114.8
507.289	116.8
507.506	112.6
507.722	110.2
507.939	111.4
508.155	109.2
508.372	115.4
508.588	114.2
508.805	111.2
509.021	110.2
509.238	109
509.454	114.4
509.67	104
509.887	110
510.103	103.8
510.319	104
510.536	108.4
510.752	108
510.968	102.4
511.184	107.8
511.401	115.4
511.617	106.2
511.833	104.6
512.049	110.2
512.265	104.4
512.481	107.8
512.698	106.8
512.914	102.8
513.13	109.6
513.346	109.2
513.562	105.2
513.778	110.6
513.994	107.4
514.21	112.6
514.426	98.2
514.642	105.2
514.858	103.8
515.074	105.6
515.29	108.6
515.506	113.4
515.721	111.8
515.937	110
516.153	102
516.369	116.4
516.585	108.4
516.801	116.6
517.016	107.8
517.232	112.8
517.448	108
517.664	105.6
517.879	105.6
518.095	114.8
518.311	106.4
518.527	108.4
518.742	106.6
518.958	112.2
519.173	107.6
519.389	107.6
519.605	110.2
519.82	115.2
520.036	107
520.251	104
520.467	105
520.682	112.6
520.898	104.8
521.113	104.6
521.329	106.6
521.544	99.8
521.76	106.4
521.975	105.6
522.19	104.2
522.406	110.6
522.621	117.2
522.836	106.6
523.052	120.2
523.267	108.4
523.482	109.2
523.698	111.8
523.913	111.2
524.128	99.6
524.343	105.2
524.559	105.8
524.774	102.2
524.989	115.8
525.204	106.2
525.419	99.2
525.634	103.8
525.849	107.2
526.064	109.8
526.28	104.2
526.495	110
526.71	104.8
526.925	105.2
527.14	102.4
527.355	100.2
527.57	105.2
527.785	107.4
527.999	107
528.214	109.8
528.429	108.6
528.644	110
528.859	99
529.074	105.6
529.289	107.8
529.503	106
529.718	109.8
529.933	103.4
530.148	104.8
530.363	113.8
530.577	102
530.792	102.4
531.007	101.2
531.221	101.4
531.436	105.2
531.651	105.8
531.865	105.2
532.08	105.2
532.295	112.2
532.509	104.8
532.724	105.8
532.938	110.2
533.153	112
533.367	105.8
533.582	112.6
533.796	109.6
534.011	108.8
