Data from TenMicroDelayPb_HRD10591_00004.txt Node
Date: Mon Nov 24 14:34:24 EST 2025
User: Yrep
Spectrometer: HR+D1059
Trigger mode: 0
Integration Time (sec): 1.000000E-2
Scans to average: 5
Electric dark correction enabled: true
Nonlinearity correction enabled: false
Boxcar width: 0
XAxis mode: Wavelengths
Number of Pixels in Spectrum: 2048
>>>>>Begin Spectral Data<<<<<
223.165	-11.66
223.4	-11.66
223.635	-11.66
223.869	-12.86
224.104	-17.46
224.338	-21.06
224.573	-16.26
224.808	-5.06
225.042	-15.46
225.277	-5.66
225.511	-5.66
225.746	2.54
225.98	3.14
226.215	14.14
226.449	19.74
226.683	26.54
226.918	18.54
227.152	26.54
227.387	34.94
227.621	44.14
227.856	40.54
228.09	44.54
228.324	51.94
228.559	53.34
228.793	61.94
229.027	60.14
229.262	67.54
229.496	63.94
229.73	69.74
229.964	71.94
230.199	74.14
230.433	72.54
230.667	81.74
230.901	76.54
231.136	78.94
231.37	77.14
231.604	78.14
231.838	72.94
232.072	74.94
232.306	88.94
232.541	84.94
232.775	80.94
233.009	83.34
233.243	78.34
233.477	84.34
233.711	84.74
233.945	77.14
234.179	79.34
234.413	84.94
234.647	77.74
234.881	82.74
235.115	81.94
235.349	79.74
235.583	82.34
235.817	79.34
236.051	76.54
236.285	77.14
236.519	78.94
236.753	80.14
236.987	79.74
237.221	75.94
237.455	78.14
237.689	69.74
237.922	69.74
238.156	76.94
238.39	79.94
238.624	77.94
238.858	75.54
239.091	76.14
239.325	73.54
239.559	78.34
239.793	74.34
240.027	71.74
240.26	81.14
240.494	80.34
240.728	75.94
240.961	71.74
241.195	76.94
241.429	72.74
241.662	74.54
241.896	75.94
242.13	84.94
242.363	74.34
242.597	66.54
242.83	72.94
243.064	74.34
243.298	76.34
243.531	77.34
243.765	83.14
243.998	75.14
244.232	85.14
244.465	80.74
244.699	78.34
244.932	77.14
245.166	87.34
245.399	81.74
245.633	75.74
245.866	82.94
246.099	83.14
246.333	84.34
246.566	81.74
246.8	74.94
247.033	72.74
247.266	78.74
247.5	74.94
247.733	76.14
247.966	77.74
248.2	72.74
248.433	81.74
248.666	82.54
248.899	85.54
249.133	82.74
249.366	74.34
249.599	74.34
249.832	80.94
250.066	82.54
250.299	78.74
250.532	79.54
250.765	79.94
250.998	75.74
251.231	83.54
251.465	79.94
251.698	78.74
251.931	77.14
252.164	79.34
252.397	72.94
252.63	85.74
252.863	80.34
253.096	78.34
253.329	78.94
253.562	80.34
253.795	76.34
254.028	81.14
254.261	76.74
254.494	80.74
254.727	79.34
254.96	72.94
255.193	73.94
255.426	79.74
255.659	75.74
255.892	75.74
256.124	80.54
256.357	84.34
256.59	79.34
256.823	85.74
257.056	77.54
257.289	82.14
257.521	78.94
257.754	76.94
257.987	76.54
258.22	79.74
258.452	75.54
258.685	78.54
258.918	87.74
259.151	80.74
259.383	75.74
259.616	81.74
259.849	83.34
260.081	84.54
260.314	82.34
260.547	85.14
260.779	80.74
261.012	84.74
261.244	78.74
261.477	78.74
261.71	80.14
261.942	83.34
262.175	81.74
262.407	77.54
262.64	83.14
262.872	74.54
263.105	79.74
263.337	84.14
263.57	83.54
263.802	86.34
264.035	81.34
264.267	78.74
264.499	79.54
264.732	78.14
264.964	82.74
265.197	83.54
265.429	81.34
265.661	86.74
265.894	79.34
266.126	81.94
266.358	84.54
266.591	84.34
266.823	79.74
267.055	82.74
267.287	81.74
267.52	79.34
267.752	85.94
267.984	83.94
268.216	79.94
268.448	83.34
268.681	81.94
268.913	88.94
269.145	81.54
269.377	83.34
269.609	90.54
269.841	84.94
270.073	82.14
270.306	86.14
270.538	83.74
270.77	85.14
271.002	83.54
271.234	83.14
271.466	82.74
271.698	87.94
271.93	82.34
272.162	78.34
272.394	80.34
272.626	83.14
272.858	89.34
273.09	80.94
273.322	81.34
273.553	78.74
273.785	80.54
274.017	85.94
274.249	89.14
274.481	88.54
274.713	80.14
274.945	84.54
275.176	83.14
275.408	79.74
275.64	81.14
275.872	87.34
276.104	82.54
276.335	80.74
276.567	87.54
276.799	81.14
277.031	90.14
277.262	83.14
277.494	82.94
277.726	75.94
277.957	82.34
278.189	81.74
278.421	81.34
278.652	79.74
278.884	80.14
279.115	85.34
279.347	81.94
279.579	82.34
279.81	83.14
280.042	85.74
280.273	86.54
280.505	83.54
280.736	85.54
280.968	85.34
281.199	85.34
281.431	92.54
281.662	77.54
281.894	85.14
282.125	84.14
282.356	85.14
282.588	87.94
282.819	80.54
283.051	80.94
283.282	82.34
283.513	83.14
283.745	80.94
283.976	80.54
284.207	82.94
284.439	79.74
284.67	81.94
284.901	80.74
285.132	79.54
285.364	87.54
285.595	80.54
285.826	75.34
286.057	81.94
286.288	81.34
286.52	83.14
286.751	86.54
286.982	88.34
287.213	84.54
287.444	80.54
287.675	86.14
287.906	88.54
288.138	80.94
288.369	86.34
288.6	79.14
288.831	85.74
289.062	81.14
289.293	77.34
289.524	80.14
289.755	89.14
289.986	78.74
290.217	82.94
290.448	87.14
290.679	79.94
290.91	89.94
291.141	81.54
291.371	80.74
291.602	83.54
291.833	85.34
292.064	88.74
292.295	85.74
292.526	82.74
292.757	88.14
292.987	89.94
293.218	85.54
293.449	85.74
293.68	87.14
293.91	84.74
294.141	89.74
294.372	84.14
294.603	85.34
294.833	81.94
295.064	84.54
295.295	92.54
295.525	81.54
295.756	75.34
295.987	76.94
296.217	88.14
296.448	90.74
296.679	81.14
296.909	86.14
297.14	85.14
297.37	85.34
297.601	87.14
297.831	83.94
298.062	85.94
298.292	85.14
298.523	75.74
298.753	76.34
298.984	90.54
299.214	86.94
299.445	81.94
299.675	82.94
299.905	87.74
300.136	85.54
300.366	88.54
300.597	84.54
300.827	92.14
301.057	87.54
301.288	87.74
301.518	86.74
301.748	84.74
301.979	87.74
302.209	84.94
302.439	82.34
302.669	75.34
302.9	82.74
303.13	85.14
303.36	87.14
303.59	87.34
303.82	81.54
304.051	89.34
304.281	89.54
304.511	82.54
304.741	82.14
304.971	86.54
305.201	91.94
305.431	83.54
305.661	83.14
305.891	82.74
306.121	82.14
306.352	85.34
306.582	93.34
306.812	84.74
307.042	82.54
307.272	81.34
307.502	82.54
307.731	82.74
307.961	84.14
308.191	86.34
308.421	88.54
308.651	88.74
308.881	88.34
309.111	86.54
309.341	83.94
309.571	87.14
309.8	83.94
310.03	86.14
310.26	89.14
310.49	87.94
310.72	82.94
310.949	83.54
311.179	91.54
311.409	85.94
311.639	88.14
311.868	88.74
312.098	85.94
312.328	89.14
312.557	85.74
312.787	80.34
313.017	82.14
313.246	84.74
313.476	83.34
313.706	84.54
313.935	87.54
314.165	83.34
314.394	85.74
314.624	89.54
314.853	86.34
315.083	81.34
315.312	81.54
315.542	75.14
315.771	87.74
316.001	86.14
316.23	81.94
316.46	85.94
316.689	83.14
316.919	85.94
317.148	82.54
317.377	86.54
317.607	86.14
317.836	91.54
318.065	86.14
318.295	85.34
318.524	87.74
318.753	82.74
318.983	83.54
319.212	81.54
319.441	85.14
319.67	83.14
319.9	84.54
320.129	84.34
320.358	86.74
320.587	79.94
320.816	82.34
321.046	82.54
321.275	82.74
321.504	81.74
321.733	91.74
321.962	76.74
322.191	82.34
322.42	86.34
322.649	83.94
322.878	87.54
323.108	87.74
323.337	84.34
323.566	81.14
323.795	88.14
324.024	85.34
324.253	78.14
324.482	85.14
324.71	78.34
324.939	80.94
325.168	84.54
325.397	79.54
325.626	82.74
325.855	88.54
326.084	88.14
326.313	79.94
326.542	87.54
326.77	86.34
326.999	88.74
327.228	81.54
327.457	82.94
327.686	88.94
327.914	84.54
328.143	85.54
328.372	85.14
328.6	86.74
328.829	80.94
329.058	84.34
329.287	86.54
329.515	87.34
329.744	82.74
329.972	78.34
330.201	90.74
330.43	79.94
330.658	86.34
330.887	77.94
331.115	82.74
331.344	82.14
331.572	81.54
331.801	77.34
332.03	88.34
332.258	84.14
332.486	84.94
332.715	86.14
332.943	84.14
333.172	88.54
333.4	92.14
333.629	84.54
333.857	92.14
334.085	84.94
334.314	84.14
334.542	77.34
334.771	81.14
334.999	84.74
335.227	80.74
335.455	89.14
335.684	85.14
335.912	84.54
336.14	86.54
336.369	86.74
336.597	85.74
336.825	84.14
337.053	82.94
337.281	82.94
337.51	82.34
337.738	91.54
337.966	83.54
338.194	86.14
338.422	83.54
338.65	91.54
338.878	90.74
339.106	80.74
339.334	83.74
339.562	83.34
339.79	85.54
340.018	80.34
340.246	90.34
340.474	82.14
340.702	78.94
340.93	81.34
341.158	88.94
341.386	82.14
341.614	84.34
341.842	80.34
342.07	80.34
342.298	78.54
342.526	86.34
342.754	84.34
342.981	81.74
343.209	85.34
343.437	82.54
343.665	85.54
343.893	83.74
344.12	81.94
344.348	85.94
344.576	81.14
344.804	84.34
345.031	82.14
345.259	82.74
345.487	78.14
345.714	84.34
345.942	81.34
346.17	85.94
346.397	86.74
346.625	87.34
346.853	79.94
347.08	88.54
347.308	78.54
347.535	84.54
347.763	87.94
347.99	83.54
348.218	80.94
348.445	84.94
348.673	81.74
348.9	84.34
349.128	84.54
349.355	88.54
349.583	86.54
349.81	78.94
350.037	85.14
350.265	81.74
350.492	77.34
350.72	85.14
350.947	79.74
351.174	88.94
351.402	87.74
351.629	85.14
351.856	89.54
352.083	78.54
352.311	85.34
352.538	80.34
352.765	87.14
352.992	87.14
353.22	85.74
353.447	79.14
353.674	82.34
353.901	89.34
354.128	84.74
354.355	90.54
354.583	79.54
354.81	85.54
355.037	82.54
355.264	84.14
355.491	79.54
355.718	89.54
355.945	78.74
356.172	81.94
356.399	87.34
356.626	79.74
356.853	85.54
357.08	88.54
357.307	85.94
357.534	80.34
357.761	77.54
357.988	87.94
358.215	86.54
358.441	83.74
358.668	91.94
358.895	88.14
359.122	82.54
359.349	83.34
359.576	84.94
359.802	82.34
360.029	77.34
360.256	87.54
360.483	82.54
360.709	81.14
360.936	86.14
361.163	89.34
361.39	84.34
361.616	85.14
361.843	75.54
362.07	85.14
362.296	78.74
362.523	82.54
362.749	79.94
362.976	81.54
363.203	71.34
363.429	81.74
363.656	80.14
363.882	78.54
364.109	81.34
364.335	85.14
364.562	84.54
364.788	83.54
365.015	79.14
365.241	80.14
365.468	78.74
365.694	86.34
365.92	81.74
366.147	80.14
366.373	76.74
366.599	82.74
366.826	80.34
367.052	79.74
367.278	79.34
367.505	85.94
367.731	83.14
367.957	88.94
368.184	84.14
368.41	80.54
368.636	85.34
368.862	80.74
369.089	81.54
369.315	79.54
369.541	79.34
369.767	84.54
369.993	77.74
370.219	82.34
370.445	78.14
370.672	82.34
370.898	77.14
371.124	89.34
371.35	81.94
371.576	82.14
371.802	82.94
372.028	83.34
372.254	82.94
372.48	83.14
372.706	77.74
372.932	80.14
373.158	79.94
373.384	86.14
373.61	86.94
373.835	82.14
374.061	83.74
374.287	82.34
374.513	80.74
374.739	78.94
374.965	76.54
375.191	85.54
375.416	89.34
375.642	79.34
375.868	81.14
376.094	87.14
376.319	82.34
376.545	83.74
376.771	84.54
376.997	76.34
377.222	80.34
377.448	85.34
377.674	84.54
377.899	74.74
378.125	78.14
378.35	86.14
378.576	83.54
378.802	84.14
379.027	79.14
379.253	84.74
379.478	82.54
379.704	80.94
379.929	81.14
380.155	80.14
380.38	76.94
380.606	80.74
380.831	82.34
381.057	81.94
381.282	78.34
381.507	84.54
381.733	78.74
381.958	80.74
382.184	83.94
382.409	91.34
382.634	84.54
382.86	82.94
383.085	84.74
383.31	83.34
383.535	82.74
383.761	80.14
383.986	78.34
384.211	84.54
384.436	78.34
384.662	79.74
384.887	82.34
385.112	85.14
385.337	79.34
385.562	86.54
385.787	85.74
386.013	87.94
386.238	82.54
386.463	86.74
386.688	81.54
386.913	81.34
387.138	79.34
387.363	84.94
387.588	82.34
387.813	79.74
388.038	82.74
388.263	82.54
388.488	79.74
388.713	80.34
388.938	82.94
389.163	83.54
389.387	80.34
389.612	82.34
389.837	73.34
390.062	81.14
390.287	85.14
390.512	86.34
390.736	82.14
390.961	80.34
391.186	81.74
391.411	77.34
391.636	81.34
391.86	79.54
392.085	80.94
392.31	80.94
392.534	79.94
392.759	83.14
392.984	76.94
393.208	81.54
393.433	82.14
393.658	80.14
393.882	83.94
394.107	84.74
394.331	77.74
394.556	84.34
394.78	80.14
395.005	84.74
395.229	76.94
395.454	81.74
395.678	89.54
395.903	81.34
396.127	85.14
396.352	78.34
396.576	81.74
396.801	86.54
397.025	83.14
397.249	75.74
397.474	78.74
397.698	80.14
397.922	81.74
398.147	80.74
398.371	82.54
398.595	82.94
398.82	82.74
399.044	81.94
399.268	81.74
399.492	83.54
399.717	80.94
399.941	79.94
400.165	88.34
400.389	76.94
400.613	81.14
400.837	77.34
401.062	79.34
401.286	81.34
401.51	81.94
401.734	77.34
401.958	83.34
402.182	83.54
402.406	81.94
402.63	76.34
402.854	84.74
403.078	76.54
403.302	81.14
403.526	79.34
403.75	80.74
403.974	78.54
404.198	81.54
404.422	80.34
404.645	84.34
404.869	79.34
405.093	77.14
405.317	77.94
405.541	81.94
405.765	82.14
405.988	80.94
406.212	74.54
406.436	80.94
406.66	84.14
406.883	76.14
407.107	78.74
407.331	85.94
407.555	76.94
407.778	82.14
408.002	81.54
408.226	77.34
408.449	73.74
408.673	84.74
408.896	79.14
409.12	82.74
409.344	76.74
409.567	85.54
409.791	81.34
410.014	86.34
410.238	77.94
410.461	80.54
410.685	77.94
410.908	75.74
411.132	77.34
411.355	85.14
411.578	79.94
411.802	82.34
412.025	78.74
412.249	76.94
412.472	82.14
412.695	86.94
412.919	77.14
413.142	84.94
413.365	81.34
413.589	88.94
413.812	85.54
414.035	81.94
414.258	83.34
414.482	75.54
414.705	80.34
414.928	77.34
415.151	75.54
415.374	89.14
415.597	84.94
415.821	87.74
416.044	83.54
416.267	85.54
416.49	78.54
416.713	74.54
416.936	76.74
417.159	72.34
417.382	78.34
417.605	70.14
417.828	83.94
418.051	79.34
418.274	86.54
418.497	79.14
418.72	74.34
418.943	74.34
419.166	78.34
419.389	79.94
419.611	77.34
419.834	84.34
420.057	78.74
420.28	80.14
420.503	86.54
420.726	82.74
420.948	79.54
421.171	74.94
421.394	71.94
421.617	82.94
421.839	81.34
422.062	83.14
422.285	74.54
422.507	80.74
422.73	76.54
422.953	78.74
423.175	81.54
423.398	81.74
423.621	78.14
423.843	81.34
424.066	84.74
424.288	80.14
424.511	74.34
424.733	77.14
424.956	83.74
425.178	80.74
425.401	75.94
425.623	75.34
425.846	76.14
426.068	77.54
426.291	77.94
426.513	77.74
426.735	76.74
426.958	79.74
427.18	80.54
427.402	84.94
427.625	78.34
427.847	84.54
428.069	79.14
428.292	83.14
428.514	78.54
428.736	84.34
428.958	76.34
429.181	81.14
429.403	77.54
429.625	79.54
429.847	77.74
430.069	75.54
430.292	81.14
430.514	78.74
430.736	80.74
430.958	79.94
431.18	78.94
431.402	83.74
431.624	80.94
431.846	76.94
432.068	81.14
432.29	82.94
432.512	85.54
432.734	79.14
432.956	79.14
433.178	88.14
433.4	79.94
433.622	82.34
433.844	84.54
434.066	82.14
434.287	85.14
434.509	78.34
434.731	81.54
434.953	74.94
435.175	85.34
435.397	81.94
435.618	84.54
435.84	79.34
436.062	79.14
436.284	82.94
436.505	79.34
436.727	82.74
436.949	81.54
437.17	76.74
437.392	79.74
437.614	77.74
437.835	80.74
438.057	81.34
438.278	80.74
438.5	79.74
438.721	79.14
438.943	86.54
439.165	80.54
439.386	79.74
439.608	74.54
439.829	79.94
440.05	76.34
440.272	77.74
440.493	80.74
440.715	80.54
440.936	82.14
441.158	81.54
441.379	84.94
441.6	77.54
441.822	77.74
442.043	88.54
442.264	80.94
442.486	78.54
442.707	78.34
442.928	86.74
443.149	83.54
443.371	80.34
443.592	79.34
443.813	76.34
444.034	78.94
444.255	84.14
444.476	83.94
444.698	80.34
444.919	83.14
445.14	93.34
445.361	82.94
445.582	72.74
445.803	73.14
446.024	82.94
446.245	82.14
446.466	88.74
446.687	74.94
446.908	76.74
447.129	74.14
447.35	81.94
447.571	84.74
447.792	81.74
448.013	79.54
448.234	80.14
448.455	80.74
448.675	82.14
448.896	78.74
449.117	77.74
449.338	78.14
449.559	79.74
449.779	80.54
450	76.94
450.221	76.74
450.442	81.34
450.662	87.94
450.883	76.34
451.104	80.34
451.324	77.34
451.545	82.74
451.766	81.94
451.986	85.94
452.207	76.74
452.428	79.14
452.648	82.54
452.869	75.94
453.089	82.14
453.31	80.74
453.53	84.54
453.751	79.74
453.971	82.34
454.192	82.14
454.412	80.94
454.633	75.74
454.853	79.14
455.073	82.34
455.294	79.74
455.514	81.74
455.734	84.14
455.955	78.74
456.175	78.34
456.395	79.14
456.616	82.34
456.836	84.94
457.056	83.94
457.276	78.34
457.497	78.74
457.717	84.54
457.937	75.54
458.157	81.94
458.377	78.74
458.598	90.34
458.818	72.94
459.038	73.74
459.258	78.54
459.478	87.54
459.698	83.74
459.918	81.54
460.138	78.94
460.358	82.74
460.578	85.34
460.798	83.54
461.018	85.94
461.238	82.74
461.458	81.34
461.678	84.74
461.898	72.94
462.118	84.94
462.338	80.54
462.558	85.54
462.777	73.34
462.997	80.14
463.217	81.94
463.437	77.14
463.657	82.54
463.876	79.34
464.096	78.14
464.316	80.14
464.536	79.74
464.755	81.74
464.975	85.54
465.195	86.74
465.414	81.54
465.634	81.34
465.854	78.94
466.073	88.54
466.293	83.54
466.512	80.94
466.732	79.94
466.951	85.14
467.171	85.74
467.391	78.74
467.61	82.54
467.829	79.74
468.049	88.14
468.268	78.54
468.488	82.94
468.707	79.54
468.927	87.94
469.146	76.94
469.365	78.54
469.585	81.74
469.804	77.34
470.023	86.54
470.243	83.74
470.462	80.34
470.681	78.54
470.901	84.94
471.12	81.94
471.339	82.14
471.558	79.14
471.777	84.94
471.997	68.94
472.216	79.74
472.435	82.94
472.654	79.34
472.873	81.54
473.092	86.34
473.311	81.94
473.53	82.54
473.749	78.74
473.968	78.14
474.187	80.74
474.406	79.54
474.625	78.74
474.844	80.74
475.063	79.94
475.282	80.54
475.501	76.94
475.72	78.74
475.939	78.74
476.158	80.34
476.377	80.74
476.596	76.54
476.814	78.54
477.033	89.54
477.252	80.54
477.471	81.14
477.69	80.54
477.908	81.34
478.127	84.54
478.346	85.14
478.564	86.74
478.783	76.54
479.002	77.34
479.22	77.94
479.439	82.74
479.658	79.54
479.876	77.74
480.095	74.94
480.313	85.74
480.532	76.54
480.751	82.14
480.969	80.34
481.188	81.94
481.406	81.14
481.624	82.74
481.843	82.94
482.061	77.54
482.28	86.74
482.498	82.34
482.717	74.14
482.935	81.54
483.153	83.94
483.372	82.34
483.59	84.14
483.808	78.94
484.027	73.94
484.245	74.14
484.463	78.74
484.681	86.94
484.9	87.34
485.118	84.34
485.336	80.74
485.554	83.34
485.772	80.94
485.99	85.34
486.209	84.54
486.427	82.54
486.645	75.74
486.863	84.94
487.081	85.14
487.299	83.34
487.517	82.34
487.735	87.94
487.953	76.14
488.171	79.94
488.389	80.74
488.607	82.94
488.825	78.34
489.043	76.74
489.261	83.74
489.479	82.94
489.696	80.94
489.914	80.14
490.132	78.94
490.35	81.14
490.568	81.34
490.786	84.54
491.003	79.74
491.221	79.94
491.439	82.54
491.657	87.14
491.874	90.14
492.092	80.34
492.31	79.94
492.527	81.54
492.745	85.54
492.963	86.34
493.18	80.14
493.398	85.54
493.615	80.94
493.833	86.14
494.05	85.54
494.268	84.94
494.485	77.34
494.703	80.14
494.92	83.74
495.138	80.74
495.355	85.14
495.573	79.74
495.79	75.74
496.008	82.14
496.225	84.34
496.442	82.34
496.66	84.34
496.877	89.94
497.094	81.54
497.312	76.34
497.529	79.14
497.746	84.34
497.963	88.54
498.181	86.94
498.398	75.94
498.615	79.74
498.832	86.14
499.049	87.74
499.267	83.14
499.484	81.74
499.701	84.14
499.918	86.54
500.135	82.94
500.352	79.94
500.569	79.14
500.786	79.94
501.003	82.94
501.22	84.14
501.437	83.14
501.654	77.14
501.871	84.74
502.088	76.74
502.305	76.34
502.522	83.74
502.739	78.14
502.956	75.94
503.172	82.14
503.389	74.14
503.606	80.34
503.823	81.14
504.04	81.94
504.256	83.14
504.473	75.74
504.69	85.94
504.907	84.14
505.123	75.54
505.34	88.34
505.557	84.54
505.773	83.14
505.99	82.34
506.207	84.74
506.423	82.14
506.64	74.74
506.856	80.54
507.073	87.54
507.289	79.14
507.506	77.74
507.722	83.74
507.939	82.14
508.155	79.74
508.372	80.14
508.588	85.54
508.805	83.34
509.021	84.74
509.238	81.74
509.454	81.34
509.67	84.34
509.887	85.94
510.103	79.34
510.319	82.54
510.536	84.34
510.752	77.94
510.968	85.14
511.184	82.94
511.401	78.54
511.617	78.54
511.833	78.54
512.049	80.14
512.265	86.54
512.481	81.94
512.698	80.54
512.914	78.94
513.13	83.54
513.346	84.14
513.562	85.74
513.778	86.54
513.994	81.34
514.21	77.54
514.426	80.34
514.642	83.14
514.858	79.54
515.074	87.74
515.29	83.34
515.506	90.14
515.721	87.34
515.937	82.54
516.153	89.14
516.369	86.14
516.585	82.54
516.801	89.54
517.016	83.94
517.232	84.54
517.448	87.94
517.664	84.74
517.879	82.34
518.095	82.54
518.311	84.14
518.527	87.74
518.742	87.34
518.958	81.74
519.173	83.54
519.389	87.94
519.605	81.34
519.82	77.34
520.036	75.74
520.251	84.74
