Data from TenMicroDelayPb_HRD10591_00036.txt Node
Date: Mon Nov 24 14:37:04 EST 2025
User: Yrep
Spectrometer: HR+D1059
Trigger mode: 1
Integration Time (sec): 1.000000E-2
Scans to average: 5
Electric dark correction enabled: true
Nonlinearity correction enabled: false
Boxcar width: 0
XAxis mode: Wavelengths
Number of Pixels in Spectrum: 2048
>>>>>Begin Spectral Data<<<<<
223.165	-16.93
223.4	-16.93
223.635	-16.93
223.869	-18.73
224.104	-20.73
224.338	-9.33
224.573	-16.93
224.808	-9.53
225.042	-12.93
225.277	-10.13
225.511	-5.93
225.746	0.07
225.98	6.87
226.215	15.67
226.449	17.27
226.683	18.87
226.918	27.27
227.152	35.07
227.387	33.07
227.621	44.47
227.856	36.27
228.09	45.07
228.324	59.07
228.559	60.67
228.793	53.87
229.027	55.67
229.262	66.47
229.496	69.27
229.73	66.67
229.964	67.47
230.199	70.07
230.433	79.47
230.667	78.87
230.901	71.47
231.136	79.07
231.37	76.27
231.604	81.67
231.838	85.27
232.072	78.87
232.306	80.87
232.541	79.87
232.775	82.87
233.009	79.47
233.243	81.27
233.477	82.67
233.711	82.27
233.945	80.27
234.179	85.27
234.413	76.27
234.647	77.47
234.881	76.27
235.115	79.87
235.349	79.87
235.583	82.67
235.817	78.87
236.051	74.67
236.285	77.27
236.519	76.67
236.753	72.47
236.987	78.47
237.221	76.27
237.455	71.67
237.689	75.67
237.922	75.27
238.156	81.07
238.39	69.87
238.624	78.27
238.858	72.87
239.091	74.67
239.325	77.87
239.559	77.67
239.793	71.67
240.027	78.87
240.26	71.07
240.494	78.07
240.728	74.07
240.961	73.47
241.195	80.27
241.429	77.67
241.662	74.67
241.896	74.87
242.13	76.67
242.363	77.47
242.597	79.67
242.83	68.87
243.064	70.87
243.298	81.07
243.531	79.67
243.765	72.87
243.998	76.67
244.232	78.67
244.465	75.07
244.699	76.67
244.932	74.87
245.166	76.27
245.399	78.67
245.633	81.07
245.866	76.07
246.099	79.07
246.333	73.67
246.566	71.27
246.8	74.47
247.033	77.27
247.266	74.67
247.5	74.27
247.733	79.27
247.966	79.67
248.2	77.47
248.433	76.47
248.666	74.87
248.899	75.07
249.133	79.67
249.366	80.67
249.599	86.27
249.832	76.67
250.066	81.07
250.299	80.07
250.532	75.67
250.765	82.47
250.998	80.47
251.231	78.67
251.465	76.87
251.698	71.87
251.931	79.47
252.164	80.47
252.397	78.07
252.63	78.47
252.863	79.07
253.096	81.27
253.329	73.87
253.562	80.67
253.795	77.87
254.028	77.47
254.261	70.67
254.494	80.67
254.727	83.07
254.96	74.67
255.193	86.07
255.426	76.07
255.659	82.67
255.892	81.87
256.124	74.27
256.357	71.67
256.59	72.47
256.823	83.67
257.056	82.67
257.289	79.27
257.521	85.87
257.754	80.07
257.987	87.27
258.22	85.67
258.452	81.67
258.685	85.47
258.918	83.47
259.151	76.07
259.383	86.87
259.616	76.67
259.849	77.27
260.081	78.67
260.314	83.87
260.547	80.07
260.779	83.07
261.012	82.07
261.244	80.27
261.477	86.87
261.71	86.47
261.942	83.67
262.175	86.07
262.407	74.27
262.64	81.47
262.872	80.27
263.105	81.87
263.337	81.07
263.57	84.67
263.802	80.07
264.035	76.07
264.267	84.87
264.499	79.67
264.732	84.27
264.964	89.47
265.197	81.07
265.429	82.47
265.661	90.47
265.894	85.67
266.126	87.47
266.358	87.47
266.591	86.07
266.823	82.87
267.055	77.87
267.287	79.67
267.52	82.07
267.752	81.27
267.984	78.87
268.216	78.87
268.448	86.67
268.681	84.87
268.913	82.67
269.145	78.27
269.377	76.07
269.609	82.67
269.841	83.67
270.073	82.07
270.306	88.67
270.538	79.87
270.77	75.67
271.002	77.47
271.234	73.87
271.466	78.27
271.698	75.27
271.93	76.27
272.162	81.87
272.394	80.87
272.626	78.07
272.858	83.27
273.09	78.87
273.322	80.47
273.553	78.07
273.785	80.47
274.017	85.07
274.249	80.47
274.481	79.47
274.713	77.67
274.945	83.67
275.176	82.07
275.408	78.67
275.64	85.47
275.872	83.87
276.104	77.47
276.335	79.87
276.567	80.67
276.799	80.87
277.031	82.47
277.262	82.47
277.494	83.07
277.726	77.07
277.957	81.27
278.189	91.67
278.421	83.07
278.652	82.27
278.884	82.07
279.115	86.47
279.347	81.67
279.579	80.47
279.81	86.87
280.042	88.07
280.273	98.27
280.505	89.87
280.736	85.07
280.968	85.87
281.199	82.27
281.431	80.27
281.662	81.87
281.894	90.87
282.125	91.27
282.356	80.67
282.588	90.87
282.819	84.87
283.051	92.47
283.282	92.67
283.513	98.47
283.745	92.07
283.976	89.67
284.207	84.47
284.439	86.07
284.67	87.07
284.901	83.47
285.132	83.07
285.364	84.47
285.595	78.07
285.826	82.67
286.057	81.47
286.288	84.67
286.52	86.47
286.751	88.67
286.982	85.07
287.213	82.87
287.444	87.87
287.675	90.07
287.906	81.47
288.138	79.87
288.369	80.67
288.6	80.07
288.831	88.47
289.062	87.67
289.293	80.87
289.524	77.87
289.755	88.27
289.986	86.07
290.217	85.87
290.448	80.87
290.679	84.67
290.91	83.87
291.141	77.67
291.371	85.47
291.602	85.67
291.833	82.47
292.064	84.67
292.295	81.87
292.526	82.87
292.757	77.27
292.987	85.07
293.218	83.27
293.449	91.67
293.68	85.87
293.91	79.87
294.141	82.67
294.372	84.47
294.603	85.47
294.833	82.07
295.064	82.47
295.295	81.07
295.525	83.47
295.756	84.47
295.987	83.87
296.217	84.47
296.448	78.67
296.679	84.67
296.909	82.87
297.14	89.07
297.37	81.67
297.601	82.67
297.831	82.67
298.062	83.87
298.292	90.27
298.523	83.87
298.753	81.27
298.984	87.07
299.214	79.87
299.445	82.47
299.675	86.67
299.905	86.67
300.136	85.67
300.366	79.67
300.597	82.87
300.827	82.47
301.057	89.07
301.288	86.67
301.518	86.47
301.748	81.27
301.979	80.27
302.209	84.27
302.439	82.87
302.669	79.87
302.9	81.27
303.13	86.27
303.36	84.07
303.59	91.47
303.82	82.27
304.051	80.47
304.281	83.07
304.511	86.27
304.741	85.27
304.971	85.67
305.201	79.27
305.431	81.07
305.661	86.87
305.891	80.67
306.121	84.47
306.352	86.07
306.582	87.07
306.812	83.07
307.042	81.87
307.272	82.47
307.502	90.87
307.731	82.67
307.961	79.87
308.191	84.47
308.421	82.87
308.651	81.07
308.881	80.87
309.111	88.67
309.341	84.87
309.571	84.87
309.8	81.27
310.03	81.47
310.26	83.87
310.49	84.67
310.72	86.07
310.949	80.87
311.179	77.67
311.409	78.07
311.639	89.27
311.868	82.07
312.098	83.67
312.328	86.67
312.557	89.67
312.787	78.67
313.017	87.07
313.246	83.67
313.476	86.27
313.706	85.27
313.935	82.67
314.165	78.87
314.394	85.87
314.624	80.27
314.853	86.47
315.083	87.67
315.312	93.07
315.542	81.07
315.771	90.07
316.001	87.67
316.23	88.07
316.46	86.27
316.689	86.67
316.919	85.47
317.148	79.07
317.377	88.87
317.607	86.07
317.836	82.67
318.065	85.27
318.295	80.07
318.524	82.47
318.753	82.07
318.983	85.47
319.212	83.87
319.441	87.87
319.67	83.07
319.9	81.87
320.129	80.07
320.358	86.27
320.587	84.67
320.816	89.27
321.046	79.67
321.275	80.07
321.504	81.07
321.733	84.27
321.962	81.47
322.191	76.87
322.42	81.67
322.649	84.07
322.878	84.07
323.108	87.27
323.337	82.47
323.566	88.67
323.795	84.87
324.024	86.87
324.253	83.67
324.482	86.27
324.71	84.67
324.939	85.47
325.168	85.07
325.397	82.07
325.626	81.07
325.855	87.67
326.084	87.47
326.313	86.27
326.542	83.67
326.77	88.27
326.999	85.67
327.228	84.07
327.457	83.07
327.686	88.67
327.914	86.67
328.143	79.67
328.372	84.67
328.6	78.87
328.829	88.07
329.058	83.07
329.287	84.67
329.515	81.27
329.744	77.27
329.972	81.07
330.201	80.47
330.43	86.47
330.658	85.47
330.887	79.27
331.115	81.27
331.344	89.07
331.572	84.27
331.801	79.67
332.03	90.47
332.258	85.87
332.486	87.47
332.715	80.07
332.943	80.07
333.172	84.67
333.4	87.67
333.629	79.07
333.857	80.27
334.085	84.47
334.314	82.67
334.542	84.67
334.771	84.07
334.999	87.67
335.227	82.67
335.455	79.07
335.684	84.67
335.912	85.67
336.14	82.87
336.369	82.67
336.597	84.67
336.825	85.87
337.053	86.67
337.281	87.07
337.51	81.47
337.738	85.67
337.966	83.87
338.194	86.87
338.422	81.47
338.65	85.87
338.878	86.47
339.106	84.27
339.334	82.47
339.562	83.07
339.79	81.07
340.018	82.67
340.246	86.47
340.474	87.47
340.702	79.87
340.93	78.67
341.158	78.67
341.386	82.87
341.614	81.47
341.842	79.27
342.07	91.67
342.298	81.87
342.526	81.87
342.754	80.87
342.981	87.87
343.209	85.67
343.437	87.87
343.665	84.27
343.893	81.27
344.12	87.07
344.348	77.67
344.576	83.87
344.804	80.27
345.031	86.67
345.259	81.67
345.487	72.07
345.714	88.67
345.942	83.87
346.17	77.87
346.397	86.27
346.625	85.87
346.853	88.27
347.08	81.27
347.308	81.67
347.535	82.87
347.763	77.27
347.99	82.07
348.218	80.67
348.445	80.87
348.673	79.07
348.9	76.27
349.128	82.47
349.355	78.07
349.583	84.67
349.81	90.67
350.037	86.27
350.265	88.27
350.492	82.27
350.72	89.27
350.947	82.27
351.174	83.07
351.402	86.27
351.629	87.27
351.856	76.07
352.083	84.27
352.311	81.07
352.538	76.07
352.765	86.27
352.992	83.07
353.22	83.07
353.447	86.07
353.674	82.07
353.901	83.47
354.128	82.47
354.355	79.07
354.583	78.87
354.81	84.87
355.037	84.67
355.264	83.67
355.491	87.07
355.718	79.27
355.945	85.67
356.172	91.67
356.399	82.07
356.626	87.07
356.853	88.27
357.08	104.27
357.307	111.47
357.534	103.07
357.761	87.67
357.988	83.67
358.215	82.67
358.441	80.87
358.668	84.07
358.895	82.07
359.122	80.67
359.349	82.67
359.576	82.47
359.802	82.67
360.029	84.07
360.256	82.27
360.483	86.07
360.709	80.87
360.936	79.67
361.163	81.27
361.39	78.27
361.616	76.87
361.843	82.67
362.07	85.87
362.296	82.07
362.523	83.67
362.749	79.07
362.976	79.27
363.203	85.47
363.429	94.07
363.656	107.67
363.882	124.87
364.109	141.27
364.335	98.27
364.562	90.07
364.788	77.07
365.015	80.27
365.241	83.67
365.468	80.87
365.694	79.47
365.92	84.67
366.147	81.27
366.373	78.47
366.599	85.27
366.826	89.27
367.052	89.87
367.278	95.67
367.505	93.47
367.731	93.47
367.957	104.87
368.184	143.27
368.41	170.67
368.636	130.07
368.862	89.67
369.089	86.07
369.315	80.47
369.541	88.27
369.767	83.47
369.993	80.87
370.219	92.67
370.445	89.27
370.672	79.27
370.898	77.87
371.124	85.87
371.35	91.07
371.576	84.67
371.802	80.07
372.028	80.47
372.254	83.07
372.48	89.27
372.706	80.87
372.932	79.47
373.158	90.87
373.384	85.87
373.61	86.87
373.835	100.67
374.061	118.87
374.287	100.67
374.513	90.47
374.739	88.87
374.965	85.67
375.191	82.07
375.416	84.67
375.642	83.67
375.868	82.27
376.094	81.87
376.319	84.07
376.545	82.47
376.771	82.87
376.997	81.27
377.222	81.47
377.448	84.07
377.674	82.47
377.899	77.87
378.125	78.67
378.35	77.87
378.576	77.67
378.802	84.47
379.027	81.47
379.253	83.67
379.478	80.07
379.704	74.87
379.929	82.87
380.155	81.27
380.38	77.47
380.606	81.67
380.831	83.27
381.057	89.27
381.282	83.07
381.507	82.87
381.733	85.87
381.958	82.27
382.184	81.07
382.409	85.27
382.634	81.27
382.86	83.47
383.085	79.27
383.31	79.67
383.535	82.87
383.761	79.67
383.986	87.27
384.211	77.67
384.436	79.87
384.662	80.07
384.887	83.87
385.112	82.87
385.337	86.47
385.562	87.07
385.787	85.67
386.013	79.07
386.238	82.67
386.463	81.67
386.688	81.07
386.913	84.47
387.138	81.87
387.363	87.47
387.588	79.87
387.813	88.67
388.038	83.27
388.263	80.27
388.488	82.07
388.713	85.07
388.938	81.67
389.163	84.27
389.387	80.07
389.612	79.67
389.837	78.27
390.062	81.87
390.287	84.67
390.512	82.47
390.736	80.87
390.961	82.07
391.186	75.67
391.411	76.67
391.636	79.27
391.86	78.87
392.085	81.07
392.31	83.27
392.534	82.87
392.759	80.07
392.984	86.27
393.208	83.47
393.433	82.07
393.658	81.67
393.882	82.47
394.107	76.87
394.331	78.67
394.556	84.07
394.78	81.67
395.005	82.87
395.229	73.47
395.454	78.27
395.678	78.87
395.903	80.07
396.127	83.47
396.352	82.27
396.576	78.27
396.801	84.87
397.025	83.67
397.249	86.47
397.474	79.87
397.698	83.47
397.922	79.67
398.147	82.07
398.371	83.47
398.595	84.07
398.82	79.47
399.044	79.07
399.268	83.27
399.492	76.07
399.717	81.07
399.941	87.87
400.165	78.07
400.389	81.87
400.613	81.27
400.837	79.67
401.062	75.67
401.286	85.67
401.51	83.67
401.734	83.67
401.958	94.87
402.182	93.47
402.406	82.67
402.63	90.27
402.854	80.07
403.078	83.07
403.302	81.67
403.526	86.27
403.75	86.87
403.974	82.67
404.198	84.07
404.422	87.47
404.645	88.47
404.869	88.87
405.093	95.67
405.317	109.87
405.541	151.67
405.765	227.07
405.988	240.27
406.212	143.67
406.436	113.87
406.66	91.07
406.883	88.67
407.107	83.67
407.331	80.87
407.555	89.47
407.778	85.27
408.002	82.27
408.226	80.87
408.449	82.67
408.673	82.27
408.896	86.47
409.12	81.47
409.344	87.47
409.567	79.47
409.791	77.87
410.014	80.47
410.238	85.87
410.461	78.47
410.685	80.47
410.908	87.07
411.132	87.87
411.355	82.87
411.578	82.07
411.802	77.47
412.025	85.47
412.249	86.27
412.472	83.67
412.695	79.27
412.919	82.27
413.142	79.07
413.365	75.27
413.589	83.67
413.812	82.47
414.035	79.07
414.258	79.87
414.482	81.07
414.705	75.87
414.928	80.67
415.151	81.07
415.374	84.27
415.597	85.47
415.821	81.87
416.044	85.07
416.267	84.47
416.49	85.87
416.713	87.47
416.936	82.67
417.159	80.67
417.382	81.87
417.605	76.67
417.828	83.47
418.051	85.87
418.274	83.07
418.497	85.27
418.72	76.27
418.943	78.27
419.166	88.87
419.389	81.47
419.611	83.07
419.834	79.67
420.057	85.67
420.28	78.27
420.503	82.47
420.726	78.87
420.948	88.87
421.171	81.07
421.394	81.87
421.617	79.87
421.839	79.27
422.062	79.47
422.285	83.87
422.507	84.47
422.73	85.87
422.953	80.27
423.175	81.67
423.398	88.87
423.621	83.67
423.843	78.07
424.066	79.87
424.288	83.47
424.511	85.07
424.733	79.47
424.956	78.67
425.178	78.07
425.401	81.27
425.623	79.67
425.846	77.27
426.068	82.67
426.291	80.07
426.513	77.47
426.735	81.47
426.958	79.47
427.18	81.07
427.402	80.47
427.625	77.47
427.847	83.27
428.069	84.27
428.292	77.87
428.514	81.67
428.736	75.27
428.958	81.87
429.181	84.87
429.403	81.67
429.625	83.47
429.847	82.87
430.069	78.67
430.292	81.47
430.514	81.07
430.736	78.27
430.958	81.67
431.18	76.47
431.402	80.27
431.624	77.07
431.846	84.47
432.068	79.47
432.29	82.27
432.512	79.47
432.734	79.07
432.956	82.07
433.178	81.87
433.4	81.27
433.622	80.07
433.844	83.87
434.066	78.67
434.287	80.67
434.509	76.87
434.731	73.47
434.953	83.47
435.175	78.67
435.397	78.47
435.618	77.67
435.84	77.87
436.062	83.87
436.284	77.87
436.505	78.27
436.727	82.87
436.949	82.07
437.17	77.47
437.392	79.07
437.614	82.67
437.835	82.67
438.057	81.07
438.278	80.67
438.5	82.87
438.721	79.87
438.943	79.67
439.165	87.07
439.386	85.47
439.608	87.67
439.829	88.47
440.05	83.27
440.272	80.47
440.493	84.47
440.715	87.07
440.936	86.67
441.158	76.47
441.379	81.47
441.6	86.27
441.822	80.67
442.043	83.67
442.264	81.07
442.486	81.27
442.707	84.27
442.928	85.27
443.149	80.27
443.371	76.47
443.592	77.67
443.813	85.07
444.034	80.07
444.255	82.87
444.476	82.27
444.698	75.07
444.919	76.87
445.14	94.07
445.361	86.47
445.582	87.87
445.803	74.67
446.024	80.47
446.245	85.07
446.466	77.47
446.687	78.87
446.908	81.07
447.129	81.87
447.35	84.27
447.571	78.87
447.792	81.47
448.013	80.27
448.234	79.27
448.455	77.27
448.675	83.47
448.896	83.07
449.117	77.07
449.338	84.87
449.559	86.47
449.779	84.27
450	82.27
450.221	82.27
450.442	80.67
450.662	85.07
450.883	81.07
451.104	78.87
451.324	84.67
451.545	88.87
451.766	78.47
451.986	79.07
452.207	85.67
452.428	79.27
452.648	79.07
452.869	81.67
453.089	79.67
453.31	82.27
453.53	87.87
453.751	85.47
453.971	81.87
454.192	83.87
454.412	83.47
454.633	80.47
454.853	80.07
455.073	85.07
455.294	81.47
455.514	85.27
455.734	91.87
455.955	82.07
456.175	80.47
456.395	82.47
456.616	79.67
456.836	82.27
457.056	82.27
457.276	79.27
457.497	82.87
457.717	75.67
457.937	79.87
458.157	87.07
458.377	81.87
458.598	86.27
458.818	84.07
459.038	80.87
459.258	84.47
459.478	84.87
459.698	79.47
459.918	83.07
460.138	81.87
460.358	81.47
460.578	84.07
460.798	80.87
461.018	82.87
461.238	84.67
461.458	87.67
461.678	85.47
461.898	78.47
462.118	79.47
462.338	83.87
462.558	81.27
462.777	79.87
462.997	81.07
463.217	75.67
463.437	80.27
463.657	83.07
463.876	79.27
464.096	79.47
464.316	85.07
464.536	81.47
464.755	78.47
464.975	80.87
465.195	81.67
465.414	79.07
465.634	81.87
465.854	82.67
466.073	77.07
466.293	87.67
466.512	86.27
466.732	89.67
466.951	84.27
467.171	79.47
467.391	86.67
467.61	82.27
467.829	86.27
468.049	84.67
468.268	86.67
468.488	79.07
468.707	85.47
468.927	84.07
469.146	83.47
469.365	78.87
469.585	83.27
469.804	80.47
470.023	81.07
470.243	89.27
470.462	82.47
470.681	83.67
470.901	84.07
471.12	88.67
471.339	86.67
471.558	80.47
471.777	82.87
471.997	88.87
472.216	85.07
472.435	80.47
472.654	83.47
472.873	77.47
473.092	78.87
473.311	88.87
473.53	86.47
473.749	85.67
473.968	83.07
474.187	80.87
474.406	81.07
474.625	84.07
474.844	83.87
475.063	76.87
475.282	78.67
475.501	83.67
475.72	83.67
475.939	77.27
476.158	82.47
476.377	77.87
476.596	82.87
476.814	79.27
477.033	79.27
477.252	80.07
477.471	77.87
477.69	82.87
477.908	82.47
478.127	84.67
478.346	78.27
478.564	83.87
478.783	85.07
479.002	82.47
479.22	81.07
479.439	88.67
479.658	81.07
479.876	83.27
480.095	82.27
480.313	88.07
480.532	83.07
480.751	86.07
480.969	87.27
481.188	86.07
481.406	79.47
481.624	80.87
481.843	83.07
482.061	87.87
482.28	83.67
482.498	88.47
482.717	84.67
482.935	82.67
483.153	77.07
483.372	77.27
483.59	78.87
483.808	74.47
484.027	87.67
484.245	83.07
484.463	84.67
484.681	82.07
484.9	82.27
485.118	79.67
485.336	85.27
485.554	84.47
485.772	75.67
485.99	87.27
486.209	82.67
486.427	80.07
486.645	84.87
486.863	86.07
487.081	86.47
487.299	83.87
487.517	87.47
487.735	89.67
487.953	85.47
488.171	81.27
488.389	84.47
488.607	85.27
488.825	81.47
489.043	87.87
489.261	84.47
489.479	78.47
489.696	84.67
489.914	84.67
490.132	87.47
490.35	83.07
490.568	86.07
490.786	84.27
491.003	83.27
491.221	85.27
491.439	90.87
491.657	85.07
491.874	87.27
492.092	88.67
492.31	82.47
492.527	84.47
492.745	84.27
492.963	85.27
493.18	88.47
493.398	83.27
493.615	89.27
493.833	86.67
494.05	84.27
494.268	80.87
494.485	89.47
494.703	91.07
494.92	82.27
495.138	85.07
495.355	86.67
495.573	82.87
495.79	88.07
496.008	83.47
496.225	81.67
496.442	94.67
496.66	86.47
496.877	83.07
497.094	84.27
497.312	88.27
497.529	87.07
497.746	76.67
497.963	82.67
498.181	78.67
498.398	84.07
498.615	85.47
498.832	79.47
499.049	82.47
499.267	83.27
499.484	78.87
499.701	75.27
499.918	86.67
500.135	83.07
500.352	85.67
500.569	98.47
500.786	112.07
501.003	89.47
501.22	86.47
501.437	80.87
501.654	87.67
501.871	88.07
502.088	82.87
502.305	85.07
502.522	88.47
502.739	84.67
502.956	81.67
503.172	86.07
503.389	90.87
503.606	87.67
503.823	88.67
504.04	81.87
504.256	83.87
504.473	82.47
504.69	81.47
504.907	84.27
505.123	81.67
505.34	79.67
505.557	82.67
505.773	90.07
505.99	83.67
506.207	78.27
506.423	88.47
506.64	88.47
506.856	88.67
507.073	86.07
507.289	87.27
507.506	85.87
507.722	80.67
507.939	79.07
508.155	88.47
508.372	90.87
508.588	81.47
508.805	85.67
509.021	83.67
509.238	84.27
509.454	79.07
509.67	81.87
509.887	84.47
510.103	84.07
510.319	83.47
510.536	81.67
510.752	79.27
510.968	79.27
511.184	81.07
511.401	82.67
511.617	82.87
511.833	83.67
512.049	85.87
512.265	84.07
512.481	77.47
512.698	80.07
512.914	75.67
513.13	79.27
513.346	82.27
513.562	81.07
513.778	86.47
513.994	89.67
514.21	88.47
514.426	83.87
514.642	84.67
514.858	84.87
515.074	85.87
515.29	82.07
515.506	83.67
515.721	87.87
515.937	85.87
516.153	79.67
516.369	82.87
516.585	80.47
516.801	85.47
517.016	83.07
517.232	81.67
517.448	78.87
517.664	79.47
517.879	84.47
518.095	84.47
518.311	81.27
518.527	86.27
518.742	84.67
518.958	82.27
519.173	75.87
519.389	86.27
519.605	79.07
519.82	85.47
