Data from TenMicroDelayPb_HRD10591_00030.txt Node
Date: Mon Nov 24 14:34:29 EST 2025
User: Yrep
Spectrometer: HR+D1059
Trigger mode: 0
Integration Time (sec): 1.000000E-2
Scans to average: 5
Electric dark correction enabled: true
Nonlinearity correction enabled: false
Boxcar width: 0
XAxis mode: Wavelengths
Number of Pixels in Spectrum: 2048
>>>>>Begin Spectral Data<<<<<
223.165	-16.49
223.4	-16.49
223.635	-16.49
223.869	-13.89
224.104	-23.29
224.338	-14.09
224.573	-13.09
224.808	-9.49
225.042	-6.49
225.277	-3.09
225.511	-0.49
225.746	1.11
225.98	3.91
226.215	11.91
226.449	14.31
226.683	15.11
226.918	24.91
227.152	29.11
227.387	30.91
227.621	38.31
227.856	42.51
228.09	41.11
228.324	50.51
228.559	51.51
228.793	53.11
229.027	63.91
229.262	59.71
229.496	67.31
229.73	70.91
229.964	74.31
230.199	67.31
230.433	75.11
230.667	80.91
230.901	72.31
231.136	72.51
231.37	78.51
231.604	74.31
231.838	80.11
232.072	82.11
232.306	75.91
232.541	81.31
232.775	79.71
233.009	81.51
233.243	80.11
233.477	78.11
233.711	74.51
233.945	79.91
234.179	81.31
234.413	78.91
234.647	80.51
234.881	80.31
235.115	85.11
235.349	80.51
235.583	79.31
235.817	81.71
236.051	75.91
236.285	75.91
236.519	75.51
236.753	76.71
236.987	77.31
237.221	78.51
237.455	73.11
237.689	75.11
237.922	74.91
238.156	79.11
238.39	73.71
238.624	73.91
238.858	82.11
239.091	78.91
239.325	73.31
239.559	70.71
239.793	74.31
240.027	77.91
240.26	70.91
240.494	75.31
240.728	74.71
240.961	72.91
241.195	80.11
241.429	76.91
241.662	77.11
241.896	74.31
242.13	73.31
242.363	75.51
242.597	76.11
242.83	74.71
243.064	80.51
243.298	71.71
243.531	70.31
243.765	81.71
243.998	74.31
244.232	70.91
244.465	79.31
244.699	76.31
244.932	74.11
245.166	76.31
245.399	80.91
245.633	75.51
245.866	75.51
246.099	73.51
246.333	77.51
246.566	78.91
246.8	76.11
247.033	72.31
247.266	71.91
247.5	80.71
247.733	81.11
247.966	74.91
248.2	73.91
248.433	69.91
248.666	76.31
248.899	80.11
249.133	78.51
249.366	79.71
249.599	81.11
249.832	75.51
250.066	69.31
250.299	84.11
250.532	72.51
250.765	76.31
250.998	79.51
251.231	80.11
251.465	79.31
251.698	83.71
251.931	78.11
252.164	78.51
252.397	82.11
252.63	77.71
252.863	79.11
253.096	77.31
253.329	81.71
253.562	77.71
253.795	71.51
254.028	74.11
254.261	75.31
254.494	75.51
254.727	80.71
254.96	83.71
255.193	73.91
255.426	83.11
255.659	78.71
255.892	84.11
256.124	81.51
256.357	73.71
256.59	81.31
256.823	81.11
257.056	76.71
257.289	87.51
257.521	78.51
257.754	79.31
257.987	79.91
258.22	79.71
258.452	74.31
258.685	77.51
258.918	83.11
259.151	79.51
259.383	77.91
259.616	78.31
259.849	75.31
260.081	84.91
260.314	71.11
260.547	71.11
260.779	81.31
261.012	79.91
261.244	78.11
261.477	77.51
261.71	86.11
261.942	77.11
262.175	74.71
262.407	75.71
262.64	82.31
262.872	85.31
263.105	89.91
263.337	82.91
263.57	85.71
263.802	79.51
264.035	87.71
264.267	79.11
264.499	81.51
264.732	87.71
264.964	85.31
265.197	78.31
265.429	86.51
265.661	81.51
265.894	86.31
266.126	74.51
266.358	80.11
266.591	80.91
266.823	78.51
267.055	77.51
267.287	80.31
267.52	80.91
267.752	84.91
267.984	86.71
268.216	74.11
268.448	81.71
268.681	79.11
268.913	85.11
269.145	80.71
269.377	84.11
269.609	76.91
269.841	85.11
270.073	75.91
270.306	79.91
270.538	79.11
270.77	83.91
271.002	81.71
271.234	78.51
271.466	80.71
271.698	80.91
271.93	83.71
272.162	85.91
272.394	88.11
272.626	78.31
272.858	82.31
273.09	83.71
273.322	81.31
273.553	83.91
273.785	87.71
274.017	74.71
274.249	79.71
274.481	77.71
274.713	87.31
274.945	85.11
275.176	76.91
275.408	87.31
275.64	82.71
275.872	84.11
276.104	84.71
276.335	83.51
276.567	78.71
276.799	84.31
277.031	81.31
277.262	87.51
277.494	84.11
277.726	79.31
277.957	84.71
278.189	86.71
278.421	82.71
278.652	83.51
278.884	79.71
279.115	81.31
279.347	82.71
279.579	83.31
279.81	85.51
280.042	87.31
280.273	82.31
280.505	80.31
280.736	86.51
280.968	82.51
281.199	82.91
281.431	85.11
281.662	83.11
281.894	83.51
282.125	84.31
282.356	80.91
282.588	78.51
282.819	78.51
283.051	82.71
283.282	83.91
283.513	83.11
283.745	83.31
283.976	84.11
284.207	80.11
284.439	76.91
284.67	81.11
284.901	84.91
285.132	79.51
285.364	76.71
285.595	82.71
285.826	83.91
286.057	82.91
286.288	86.11
286.52	83.71
286.751	82.91
286.982	83.11
287.213	81.31
287.444	83.51
287.675	83.71
287.906	92.71
288.138	82.91
288.369	80.91
288.6	77.11
288.831	81.11
289.062	91.31
289.293	83.91
289.524	83.71
289.755	86.11
289.986	86.51
290.217	85.71
290.448	86.91
290.679	88.11
290.91	77.91
291.141	82.91
291.371	82.51
291.602	88.71
291.833	84.31
292.064	87.91
292.295	83.31
292.526	88.31
292.757	90.71
292.987	83.91
293.218	83.71
293.449	82.71
293.68	88.91
293.91	80.31
294.141	84.11
294.372	82.31
294.603	84.91
294.833	86.11
295.064	83.11
295.295	78.91
295.525	78.51
295.756	80.11
295.987	77.31
296.217	77.71
296.448	85.71
296.679	84.91
296.909	82.91
297.14	83.11
297.37	78.91
297.601	84.51
297.831	89.11
298.062	86.71
298.292	90.51
298.523	89.11
298.753	84.51
298.984	89.71
299.214	87.11
299.445	77.31
299.675	79.51
299.905	83.31
300.136	82.31
300.366	83.91
300.597	85.51
300.827	82.71
301.057	85.51
301.288	85.31
301.518	83.31
301.748	87.51
301.979	92.11
302.209	89.31
302.439	83.91
302.669	86.51
302.9	81.51
303.13	80.31
303.36	84.11
303.59	85.51
303.82	82.11
304.051	79.51
304.281	82.31
304.511	85.91
304.741	81.11
304.971	92.11
305.201	92.11
305.431	79.51
305.661	81.91
305.891	85.91
306.121	81.11
306.352	85.31
306.582	80.91
306.812	85.91
307.042	83.91
307.272	80.91
307.502	83.51
307.731	83.11
307.961	79.91
308.191	90.31
308.421	83.11
308.651	80.71
308.881	81.91
309.111	89.11
309.341	79.71
309.571	83.11
309.8	82.51
310.03	81.51
310.26	84.51
310.49	76.71
310.72	76.11
310.949	84.91
311.179	85.71
311.409	82.71
311.639	80.31
311.868	85.51
312.098	86.11
312.328	82.31
312.557	83.11
312.787	80.51
313.017	81.31
313.246	90.31
313.476	83.51
313.706	80.51
313.935	84.91
314.165	85.11
314.394	86.71
314.624	91.31
314.853	88.31
315.083	83.91
315.312	84.71
315.542	83.91
315.771	80.51
316.001	86.91
316.23	87.51
316.46	79.11
316.689	81.31
316.919	87.71
317.148	80.11
317.377	93.11
317.607	84.91
317.836	86.51
318.065	82.71
318.295	80.31
318.524	84.31
318.753	83.91
318.983	83.51
319.212	88.51
319.441	84.31
319.67	76.31
319.9	80.11
320.129	84.11
320.358	80.91
320.587	80.11
320.816	84.71
321.046	82.31
321.275	89.91
321.504	84.71
321.733	86.71
321.962	79.91
322.191	85.91
322.42	84.31
322.649	82.31
322.878	80.31
323.108	82.91
323.337	86.31
323.566	82.91
323.795	75.31
324.024	85.71
324.253	87.51
324.482	85.51
324.71	83.91
324.939	84.51
325.168	86.51
325.397	83.31
325.626	81.91
325.855	81.71
326.084	76.31
326.313	80.91
326.542	81.51
326.77	82.71
326.999	91.71
327.228	86.51
327.457	82.51
327.686	88.11
327.914	83.91
328.143	85.91
328.372	82.51
328.6	81.31
328.829	84.11
329.058	83.31
329.287	84.71
329.515	86.91
329.744	86.51
329.972	79.51
330.201	79.91
330.43	80.31
330.658	81.91
330.887	80.11
331.115	80.31
331.344	83.91
331.572	85.71
331.801	80.51
332.03	80.71
332.258	88.11
332.486	87.11
332.715	83.91
332.943	80.51
333.172	83.51
333.4	82.91
333.629	82.51
333.857	85.51
334.085	85.71
334.314	84.71
334.542	78.51
334.771	83.51
334.999	78.71
335.227	85.31
335.455	81.71
335.684	82.11
335.912	76.51
336.14	86.51
336.369	83.31
336.597	78.51
336.825	77.31
337.053	88.11
337.281	84.11
337.51	84.51
337.738	87.11
337.966	84.11
338.194	88.51
338.422	90.11
338.65	79.51
338.878	79.71
339.106	78.11
339.334	89.91
339.562	85.11
339.79	82.11
340.018	80.31
340.246	78.31
340.474	82.91
340.702	81.31
340.93	82.91
341.158	83.31
341.386	82.91
341.614	85.71
341.842	82.11
342.07	84.71
342.298	85.31
342.526	80.31
342.754	72.91
342.981	82.71
343.209	86.11
343.437	82.51
343.665	80.71
343.893	88.91
344.12	80.11
344.348	85.71
344.576	77.51
344.804	94.31
345.031	84.91
345.259	90.11
345.487	87.31
345.714	85.51
345.942	80.91
346.17	85.51
346.397	85.11
346.625	79.31
346.853	77.71
347.08	78.91
347.308	83.71
347.535	85.11
347.763	83.31
347.99	83.71
348.218	82.91
348.445	84.11
348.673	90.71
348.9	90.11
349.128	83.91
349.355	82.11
349.583	81.11
349.81	86.11
350.037	80.51
350.265	94.51
350.492	80.71
350.72	80.91
350.947	84.31
351.174	82.11
351.402	86.11
351.629	90.91
351.856	82.91
352.083	84.71
352.311	78.11
352.538	82.31
352.765	82.51
352.992	80.51
353.22	82.71
353.447	76.31
353.674	80.31
353.901	86.91
354.128	78.71
354.355	85.71
354.583	78.71
354.81	79.91
355.037	76.71
355.264	77.51
355.491	86.71
355.718	85.91
355.945	86.51
356.172	79.51
356.399	75.91
356.626	85.51
356.853	81.11
357.08	80.11
357.307	82.51
357.534	78.11
357.761	79.11
357.988	84.51
358.215	78.91
358.441	85.71
358.668	79.51
358.895	85.51
359.122	83.91
359.349	84.71
359.576	86.91
359.802	88.11
360.029	82.51
360.256	87.31
360.483	87.31
360.709	80.51
360.936	76.31
361.163	81.11
361.39	84.11
361.616	84.11
361.843	80.51
362.07	75.11
362.296	81.11
362.523	75.51
362.749	89.11
362.976	79.51
363.203	80.31
363.429	84.91
363.656	82.71
363.882	80.71
364.109	83.51
364.335	90.11
364.562	87.31
364.788	78.31
365.015	80.31
365.241	71.71
365.468	84.71
365.694	87.91
365.92	80.11
366.147	83.31
366.373	78.91
366.599	81.51
366.826	85.71
367.052	87.51
367.278	87.31
367.505	81.51
367.731	83.31
367.957	80.51
368.184	80.31
368.41	81.51
368.636	75.11
368.862	89.91
369.089	81.51
369.315	77.71
369.541	81.31
369.767	86.91
369.993	83.51
370.219	82.31
370.445	78.71
370.672	82.31
370.898	83.71
371.124	80.91
371.35	84.51
371.576	85.31
371.802	85.31
372.028	85.71
372.254	84.31
372.48	83.11
372.706	85.51
372.932	81.71
373.158	82.71
373.384	73.91
373.61	85.11
373.835	82.91
374.061	81.51
374.287	80.91
374.513	87.11
374.739	80.11
374.965	78.51
375.191	75.71
375.416	82.31
375.642	79.71
375.868	79.51
376.094	84.71
376.319	83.51
376.545	76.51
376.771	81.71
376.997	84.11
377.222	83.31
377.448	81.71
377.674	84.31
377.899	81.51
378.125	81.31
378.35	81.11
378.576	83.51
378.802	82.11
379.027	85.31
379.253	87.11
379.478	83.71
379.704	85.51
379.929	81.71
380.155	79.11
380.38	79.51
380.606	82.11
380.831	77.51
381.057	74.31
381.282	82.71
381.507	77.71
381.733	79.91
381.958	82.11
382.184	83.71
382.409	83.71
382.634	87.51
382.86	79.91
383.085	85.11
383.31	76.51
383.535	84.31
383.761	84.11
383.986	86.51
384.211	81.71
384.436	82.71
384.662	77.71
384.887	74.71
385.112	76.11
385.337	78.31
385.562	78.31
385.787	85.51
386.013	84.11
386.238	78.91
386.463	90.71
386.688	77.91
386.913	83.31
387.138	77.71
387.363	80.91
387.588	85.51
387.813	83.71
388.038	77.91
388.263	84.51
388.488	78.91
388.713	81.91
388.938	83.91
389.163	83.91
389.387	81.91
389.612	83.71
389.837	80.11
390.062	84.71
390.287	82.31
390.512	82.91
390.736	77.91
390.961	80.71
391.186	81.71
391.411	80.91
391.636	76.51
391.86	83.51
392.085	83.51
392.31	84.31
392.534	85.31
392.759	83.91
392.984	76.51
393.208	82.51
393.433	79.11
393.658	82.31
393.882	81.51
394.107	83.71
394.331	80.11
394.556	80.71
394.78	83.31
395.005	81.51
395.229	82.11
395.454	82.31
395.678	77.31
395.903	85.51
396.127	79.31
396.352	80.11
396.576	82.11
396.801	74.91
397.025	72.91
397.249	75.71
397.474	76.31
397.698	77.51
397.922	80.91
398.147	77.31
398.371	82.11
398.595	71.71
398.82	76.91
399.044	81.71
399.268	77.51
399.492	78.71
399.717	79.31
399.941	81.31
400.165	85.31
400.389	77.31
400.613	77.51
400.837	81.91
401.062	80.31
401.286	74.71
401.51	76.71
401.734	82.31
401.958	79.71
402.182	83.11
402.406	81.51
402.63	84.71
402.854	84.11
403.078	78.11
403.302	83.91
403.526	79.11
403.75	82.71
403.974	81.31
404.198	80.51
404.422	76.91
404.645	84.11
404.869	84.31
405.093	77.51
405.317	82.71
405.541	80.91
405.765	78.71
405.988	81.31
406.212	80.31
406.436	80.51
406.66	84.71
406.883	79.91
407.107	79.71
407.331	85.91
407.555	81.31
407.778	77.51
408.002	79.51
408.226	86.71
408.449	74.51
408.673	75.91
408.896	74.71
409.12	79.31
409.344	79.51
409.567	78.91
409.791	83.71
410.014	78.91
410.238	81.31
410.461	80.71
410.685	75.91
410.908	78.51
411.132	75.31
411.355	80.31
411.578	76.11
411.802	82.11
412.025	77.11
412.249	82.11
412.472	85.51
412.695	78.11
412.919	77.31
413.142	77.31
413.365	81.91
413.589	83.91
413.812	79.91
414.035	81.11
414.258	77.91
414.482	75.91
414.705	83.11
414.928	81.31
415.151	79.51
415.374	82.51
415.597	82.11
415.821	78.31
416.044	72.31
416.267	79.71
416.49	80.31
416.713	82.71
416.936	82.31
417.159	81.11
417.382	82.11
417.605	86.71
417.828	79.71
418.051	77.51
418.274	75.91
418.497	73.31
418.72	82.31
418.943	78.71
419.166	80.31
419.389	79.51
419.611	77.31
419.834	78.91
420.057	78.11
420.28	78.71
420.503	78.51
420.726	82.71
420.948	80.11
421.171	78.71
421.394	81.11
421.617	85.11
421.839	72.91
422.062	74.91
422.285	81.71
422.507	79.31
422.73	77.71
422.953	78.11
423.175	86.31
423.398	78.71
423.621	81.31
423.843	83.31
424.066	75.71
424.288	79.91
424.511	80.71
424.733	81.11
424.956	80.31
425.178	82.31
425.401	79.31
425.623	81.31
425.846	80.31
426.068	79.51
426.291	77.91
426.513	76.51
426.735	79.51
426.958	80.31
427.18	81.91
427.402	80.11
427.625	82.91
427.847	83.71
428.069	72.31
428.292	79.31
428.514	79.91
428.736	81.11
428.958	80.71
429.181	73.71
429.403	80.11
429.625	81.31
429.847	78.31
430.069	82.91
430.292	83.31
430.514	79.71
430.736	76.71
430.958	78.91
431.18	85.11
431.402	89.91
431.624	78.11
431.846	79.31
432.068	86.11
432.29	82.71
432.512	78.91
432.734	80.31
432.956	81.31
433.178	81.51
433.4	80.71
433.622	82.71
433.844	82.71
434.066	76.71
434.287	78.31
434.509	80.91
434.731	85.91
434.953	82.11
435.175	74.31
435.397	85.11
435.618	83.71
435.84	78.91
436.062	81.71
436.284	77.11
436.505	77.11
436.727	80.91
436.949	83.31
437.17	74.31
437.392	78.31
437.614	79.71
437.835	76.71
438.057	77.91
438.278	80.51
438.5	73.51
438.721	76.91
438.943	79.71
439.165	77.31
439.386	80.91
439.608	76.11
439.829	80.51
440.05	75.51
440.272	81.31
440.493	78.31
440.715	74.71
440.936	80.51
441.158	78.51
441.379	80.31
441.6	80.31
441.822	79.51
442.043	78.71
442.264	78.11
442.486	76.51
442.707	78.51
442.928	77.91
443.149	78.91
443.371	73.71
443.592	78.31
443.813	81.71
444.034	80.31
444.255	83.11
444.476	82.11
444.698	79.71
444.919	83.91
445.14	90.51
445.361	79.91
445.582	82.11
445.803	80.71
446.024	85.71
446.245	85.11
446.466	78.91
446.687	81.11
446.908	76.31
447.129	79.51
447.35	80.71
447.571	77.31
447.792	79.91
448.013	75.11
448.234	76.11
448.455	80.91
448.675	79.51
448.896	78.11
449.117	79.51
449.338	82.51
449.559	83.91
449.779	88.51
450	78.91
450.221	81.31
450.442	83.11
450.662	81.71
450.883	75.11
451.104	79.11
451.324	75.51
451.545	78.91
451.766	75.31
451.986	78.31
452.207	85.51
452.428	73.11
452.648	76.91
452.869	76.91
453.089	77.71
453.31	78.51
453.53	79.91
453.751	80.51
453.971	79.51
454.192	82.51
454.412	80.51
454.633	78.71
454.853	79.31
455.073	73.71
455.294	86.31
455.514	78.31
455.734	84.91
455.955	78.71
456.175	83.71
456.395	77.31
456.616	81.31
456.836	78.51
457.056	77.51
457.276	85.71
457.497	76.31
457.717	81.11
457.937	79.71
458.157	82.31
458.377	82.11
458.598	76.71
458.818	77.71
459.038	81.91
459.258	79.11
459.478	83.91
459.698	80.51
459.918	83.11
460.138	78.91
460.358	79.91
460.578	80.11
460.798	84.51
461.018	79.91
461.238	82.11
461.458	79.31
461.678	80.11
461.898	88.11
462.118	77.31
462.338	82.51
462.558	79.91
462.777	80.31
462.997	77.11
463.217	84.51
463.437	80.51
463.657	82.31
463.876	83.71
464.096	75.11
464.316	78.31
464.536	70.11
464.755	85.71
464.975	81.31
465.195	87.31
465.414	81.91
465.634	78.51
465.854	76.91
466.073	79.91
466.293	81.31
466.512	80.31
466.732	77.71
466.951	79.91
467.171	77.11
467.391	81.71
467.61	79.91
467.829	83.71
468.049	85.91
468.268	78.11
468.488	79.71
468.707	82.11
468.927	81.31
469.146	76.31
469.365	73.91
469.585	73.71
469.804	80.91
470.023	82.71
470.243	81.71
470.462	81.31
470.681	81.31
470.901	73.91
471.12	84.11
471.339	85.91
471.558	82.51
471.777	80.11
471.997	77.71
472.216	84.51
472.435	79.11
472.654	82.11
472.873	78.71
473.092	77.11
473.311	79.71
473.53	82.71
473.749	77.51
473.968	78.51
474.187	82.71
474.406	78.31
474.625	73.51
474.844	81.51
475.063	82.91
475.282	75.91
475.501	85.11
475.72	82.51
475.939	80.51
476.158	84.71
476.377	81.71
476.596	80.91
476.814	75.11
477.033	79.51
477.252	79.91
477.471	79.51
477.69	86.51
477.908	82.71
478.127	77.51
478.346	78.31
478.564	82.71
478.783	80.91
479.002	80.31
479.22	78.51
479.439	77.11
479.658	72.91
479.876	77.71
480.095	84.11
480.313	78.91
480.532	81.91
480.751	80.51
480.969	82.51
481.188	79.71
481.406	82.11
481.624	77.71
481.843	81.51
482.061	77.71
482.28	81.51
482.498	82.31
482.717	83.71
482.935	74.11
483.153	81.11
483.372	83.31
483.59	79.31
483.808	81.71
484.027	75.71
484.245	80.71
484.463	82.31
484.681	89.51
484.9	90.11
485.118	82.51
485.336	84.91
485.554	77.11
485.772	78.71
485.99	83.71
486.209	79.91
486.427	80.31
486.645	82.11
486.863	80.31
487.081	81.31
487.299	80.91
487.517	83.11
487.735	85.11
487.953	84.31
488.171	78.11
488.389	81.31
488.607	86.11
488.825	90.71
489.043	86.51
489.261	82.31
489.479	80.51
489.696	85.11
489.914	83.31
490.132	88.91
490.35	82.31
490.568	87.31
490.786	88.31
491.003	79.11
491.221	76.91
491.439	80.91
491.657	81.31
491.874	81.91
492.092	77.71
492.31	80.71
492.527	79.71
492.745	82.71
492.963	83.31
493.18	79.51
493.398	84.31
493.615	80.11
493.833	80.71
494.05	75.31
494.268	83.71
494.485	85.11
494.703	82.71
494.92	79.31
495.138	88.11
495.355	79.31
495.573	74.71
495.79	83.11
496.008	77.31
496.225	80.51
496.442	82.91
496.66	83.31
496.877	82.91
497.094	86.51
497.312	81.11
497.529	82.51
497.746	80.11
497.963	75.71
498.181	79.31
498.398	80.91
498.615	83.71
498.832	81.31
499.049	88.11
499.267	86.51
499.484	79.51
499.701	79.91
499.918	79.11
500.135	84.11
500.352	80.71
500.569	81.71
500.786	80.91
501.003	82.11
501.22	73.71
501.437	79.91
501.654	83.51
501.871	78.91
502.088	81.11
502.305	87.51
502.522	89.31
502.739	82.71
502.956	79.11
503.172	78.91
503.389	82.11
503.606	82.11
503.823	85.11
504.04	85.51
504.256	78.11
504.473	83.11
504.69	80.31
504.907	83.11
505.123	83.31
505.34	85.31
505.557	82.71
505.773	80.71
505.99	80.51
506.207	77.71
506.423	80.51
506.64	77.11
506.856	84.31
507.073	81.31
507.289	78.71
507.506	79.51
507.722	80.11
507.939	85.31
508.155	79.31
508.372	82.11
508.588	81.91
508.805	80.31
509.021	83.11
509.238	80.11
509.454	81.11
509.67	87.31
509.887	80.11
510.103	87.31
510.319	81.31
510.536	79.51
510.752	77.11
510.968	73.71
511.184	74.71
511.401	74.11
511.617	79.91
511.833	78.11
512.049	79.51
512.265	79.31
512.481	81.51
512.698	80.91
512.914	87.31
513.13	81.11
513.346	85.31
513.562	87.71
513.778	83.91
513.994	78.71
514.21	80.11
514.426	75.91
514.642	80.71
514.858	79.91
515.074	83.91
515.29	87.11
515.506	81.71
515.721	87.91
515.937	81.11
516.153	78.71
516.369	83.31
516.585	80.11
516.801	75.11
517.016	75.31
517.232	77.51
517.448	87.11
517.664	80.71
517.879	80.31
518.095	85.11
518.311	82.31
518.527	83.31
518.742	85.91
518.958	82.51
519.173	84.31
519.389	83.91
519.605	87.31
519.82	83.51
520.036	85.31
520.251	88.11
