Data from TenMicroDelayPb_HRD10591_00043.txt Node
Date: Mon Nov 24 14:37:21 EST 2025
User: Yrep
Spectrometer: HR+D1059
Trigger mode: 1
Integration Time (sec): 1.000000E-2
Scans to average: 5
Electric dark correction enabled: true
Nonlinearity correction enabled: false
Boxcar width: 0
XAxis mode: Wavelengths
Number of Pixels in Spectrum: 2048
>>>>>Begin Spectral Data<<<<<
223.165	-10.65
223.4	-10.65
223.635	-10.65
223.869	-13.25
224.104	-13.85
224.338	-17.45
224.573	-17.05
224.808	-13.05
225.042	-9.05
225.277	-6.45
225.511	-5.25
225.746	3.95
225.98	9.95
226.215	5.35
226.449	15.35
226.683	18.55
226.918	24.95
227.152	27.95
227.387	33.75
227.621	41.75
227.856	41.35
228.09	43.35
228.324	51.95
228.559	57.35
228.793	60.15
229.027	61.15
229.262	62.95
229.496	66.95
229.73	69.75
229.964	70.55
230.199	64.75
230.433	68.95
230.667	73.95
230.901	80.15
231.136	80.35
231.37	78.75
231.604	78.15
231.838	82.15
232.072	79.95
232.306	80.55
232.541	81.35
232.775	85.95
233.009	82.75
233.243	80.95
233.477	79.95
233.711	74.15
233.945	81.75
234.179	85.15
234.413	86.35
234.647	84.15
234.881	78.15
235.115	79.35
235.349	83.75
235.583	71.15
235.817	72.35
236.051	81.35
236.285	72.75
236.519	72.15
236.753	76.75
236.987	82.75
237.221	77.95
237.455	81.75
237.689	76.55
237.922	81.15
238.156	77.75
238.39	74.35
238.624	74.35
238.858	73.95
239.091	79.15
239.325	81.15
239.559	79.35
239.793	77.55
240.027	79.15
240.26	79.15
240.494	73.15
240.728	75.55
240.961	74.55
241.195	75.15
241.429	85.15
241.662	79.35
241.896	77.15
242.13	81.75
242.363	77.35
242.597	78.55
242.83	77.35
243.064	85.15
243.298	75.95
243.531	78.55
243.765	76.15
243.998	80.15
244.232	70.75
244.465	83.75
244.699	74.95
244.932	77.55
245.166	73.95
245.399	79.55
245.633	81.95
245.866	78.95
246.099	76.15
246.333	76.35
246.566	80.15
246.8	82.15
247.033	81.15
247.266	83.35
247.5	84.95
247.733	83.75
247.966	77.55
248.2	79.95
248.433	82.35
248.666	78.75
248.899	79.15
249.133	81.75
249.366	81.75
249.599	76.95
249.832	81.95
250.066	78.55
250.299	80.95
250.532	79.15
250.765	84.15
250.998	84.95
251.231	76.75
251.465	73.55
251.698	76.95
251.931	83.55
252.164	85.15
252.397	79.15
252.63	85.35
252.863	77.95
253.096	80.75
253.329	87.75
253.562	82.35
253.795	80.55
254.028	81.55
254.261	80.55
254.494	77.35
254.727	81.95
254.96	84.35
255.193	77.15
255.426	79.75
255.659	84.55
255.892	86.35
256.124	81.55
256.357	82.55
256.59	79.55
256.823	85.75
257.056	81.35
257.289	81.75
257.521	83.55
257.754	88.35
257.987	85.35
258.22	81.55
258.452	78.95
258.685	85.75
258.918	84.55
259.151	76.15
259.383	83.95
259.616	88.35
259.849	81.15
260.081	80.15
260.314	81.15
260.547	80.75
260.779	84.15
261.012	87.75
261.244	91.35
261.477	84.35
261.71	90.75
261.942	82.95
262.175	80.35
262.407	83.35
262.64	84.95
262.872	82.35
263.105	86.15
263.337	80.15
263.57	84.75
263.802	81.15
264.035	75.95
264.267	82.55
264.499	85.35
264.732	80.75
264.964	83.95
265.197	89.75
265.429	82.15
265.661	80.55
265.894	86.95
266.126	86.55
266.358	76.55
266.591	82.15
266.823	87.75
267.055	86.15
267.287	88.95
267.52	75.15
267.752	87.95
267.984	75.55
268.216	80.75
268.448	85.15
268.681	78.75
268.913	80.15
269.145	80.55
269.377	88.15
269.609	86.55
269.841	85.75
270.073	90.75
270.306	84.95
270.538	79.15
270.77	83.55
271.002	88.55
271.234	76.75
271.466	83.15
271.698	84.15
271.93	78.55
272.162	82.35
272.394	82.15
272.626	84.95
272.858	84.15
273.09	84.75
273.322	82.95
273.553	84.15
273.785	79.95
274.017	80.15
274.249	78.15
274.481	84.35
274.713	80.55
274.945	81.75
275.176	79.15
275.408	88.75
275.64	89.95
275.872	89.35
276.104	76.95
276.335	80.95
276.567	84.75
276.799	89.55
277.031	86.75
277.262	81.55
277.494	86.15
277.726	75.75
277.957	80.35
278.189	87.75
278.421	80.95
278.652	84.95
278.884	87.15
279.115	80.55
279.347	85.35
279.579	81.95
279.81	87.95
280.042	91.75
280.273	97.55
280.505	95.75
280.736	88.15
280.968	86.15
281.199	83.15
281.431	88.95
281.662	86.55
281.894	89.95
282.125	84.55
282.356	87.55
282.588	91.55
282.819	91.15
283.051	89.75
283.282	96.15
283.513	96.35
283.745	94.55
283.976	89.15
284.207	84.75
284.439	91.15
284.67	78.35
284.901	89.75
285.132	88.15
285.364	83.35
285.595	84.75
285.826	85.75
286.057	84.75
286.288	87.35
286.52	84.15
286.751	85.35
286.982	93.55
287.213	87.75
287.444	87.15
287.675	88.35
287.906	86.35
288.138	82.35
288.369	84.75
288.6	88.15
288.831	85.55
289.062	80.95
289.293	84.35
289.524	89.55
289.755	83.15
289.986	80.35
290.217	77.95
290.448	85.75
290.679	85.95
290.91	81.55
291.141	89.35
291.371	82.35
291.602	80.15
291.833	83.35
292.064	79.75
292.295	86.95
292.526	87.55
292.757	85.75
292.987	85.55
293.218	90.35
293.449	86.35
293.68	81.35
293.91	78.55
294.141	84.55
294.372	88.15
294.603	85.35
294.833	87.35
295.064	92.35
295.295	81.35
295.525	83.75
295.756	82.55
295.987	87.75
296.217	78.15
296.448	80.75
296.679	92.15
296.909	90.55
297.14	81.55
297.37	82.35
297.601	80.95
297.831	85.55
298.062	87.95
298.292	84.35
298.523	84.75
298.753	86.75
298.984	91.15
299.214	89.15
299.445	85.35
299.675	81.95
299.905	87.15
300.136	81.15
300.366	89.35
300.597	89.15
300.827	86.15
301.057	88.95
301.288	89.15
301.518	89.55
301.748	85.15
301.979	90.95
302.209	88.15
302.439	82.95
302.669	79.75
302.9	79.95
303.13	87.95
303.36	90.15
303.59	90.35
303.82	81.75
304.051	85.15
304.281	80.15
304.511	89.55
304.741	87.95
304.971	79.75
305.201	85.15
305.431	85.35
305.661	80.95
305.891	85.55
306.121	83.95
306.352	83.55
306.582	85.95
306.812	86.55
307.042	84.75
307.272	87.95
307.502	84.95
307.731	88.55
307.961	83.35
308.191	82.15
308.421	86.15
308.651	81.95
308.881	87.75
309.111	88.55
309.341	85.35
309.571	85.15
309.8	89.15
310.03	83.35
310.26	92.15
310.49	85.55
310.72	86.15
310.949	83.55
311.179	90.15
311.409	90.55
311.639	83.35
311.868	88.95
312.098	84.15
312.328	87.15
312.557	83.55
312.787	84.55
313.017	84.55
313.246	83.55
313.476	83.55
313.706	83.15
313.935	90.75
314.165	84.55
314.394	86.75
314.624	85.95
314.853	89.75
315.083	97.95
315.312	87.15
315.542	83.15
315.771	78.35
316.001	83.55
316.23	86.35
316.46	83.55
316.689	83.35
316.919	82.75
317.148	87.95
317.377	89.75
317.607	87.95
317.836	77.55
318.065	86.55
318.295	86.55
318.524	81.95
318.753	88.95
318.983	89.55
319.212	80.95
319.441	85.75
319.67	85.35
319.9	88.15
320.129	87.15
320.358	76.75
320.587	82.35
320.816	82.15
321.046	79.95
321.275	89.15
321.504	84.75
321.733	84.15
321.962	79.15
322.191	87.15
322.42	82.35
322.649	89.95
322.878	85.95
323.108	84.55
323.337	86.55
323.566	85.75
323.795	87.35
324.024	81.95
324.253	85.75
324.482	84.15
324.71	82.95
324.939	85.35
325.168	81.75
325.397	85.55
325.626	83.35
325.855	88.75
326.084	84.75
326.313	86.15
326.542	90.55
326.77	82.95
326.999	77.75
327.228	88.35
327.457	86.15
327.686	89.55
327.914	87.75
328.143	89.55
328.372	84.15
328.6	79.15
328.829	82.55
329.058	85.75
329.287	81.35
329.515	85.55
329.744	80.55
329.972	85.15
330.201	83.75
330.43	87.55
330.658	87.35
330.887	80.95
331.115	88.15
331.344	83.15
331.572	84.35
331.801	82.95
332.03	85.15
332.258	86.55
332.486	82.15
332.715	82.35
332.943	83.95
333.172	83.55
333.4	82.95
333.629	88.55
333.857	82.95
334.085	79.35
334.314	81.95
334.542	86.35
334.771	80.95
334.999	84.55
335.227	89.75
335.455	86.15
335.684	82.95
335.912	83.15
336.14	89.75
336.369	80.15
336.597	78.95
336.825	83.55
337.053	84.75
337.281	83.35
337.51	83.95
337.738	78.95
337.966	81.75
338.194	80.15
338.422	84.95
338.65	78.15
338.878	84.35
339.106	87.15
339.334	82.55
339.562	84.35
339.79	89.35
340.018	83.75
340.246	82.55
340.474	81.55
340.702	82.15
340.93	87.75
341.158	82.95
341.386	87.95
341.614	81.15
341.842	81.95
342.07	83.75
342.298	82.15
342.526	83.35
342.754	82.75
342.981	81.95
343.209	84.35
343.437	88.35
343.665	86.55
343.893	80.75
344.12	78.35
344.348	82.15
344.576	83.75
344.804	85.95
345.031	89.95
345.259	87.55
345.487	78.35
345.714	81.55
345.942	79.55
346.17	83.35
346.397	84.55
346.625	82.15
346.853	81.95
347.08	84.75
347.308	86.15
347.535	84.95
347.763	85.15
347.99	82.55
348.218	86.55
348.445	86.35
348.673	92.55
348.9	89.15
349.128	84.15
349.355	81.35
349.583	76.75
349.81	87.55
350.037	88.75
350.265	78.35
350.492	93.95
350.72	83.15
350.947	83.35
351.174	81.95
351.402	84.95
351.629	86.35
351.856	89.55
352.083	86.35
352.311	83.75
352.538	87.55
352.765	84.15
352.992	81.95
353.22	89.95
353.447	83.95
353.674	84.95
353.901	81.95
354.128	89.55
354.355	89.75
354.583	91.15
354.81	88.55
355.037	80.75
355.264	87.55
355.491	86.55
355.718	86.75
355.945	82.55
356.172	80.55
356.399	85.75
356.626	90.95
356.853	98.55
357.08	103.75
357.307	113.75
357.534	103.75
357.761	86.15
357.988	86.35
358.215	83.35
358.441	85.35
358.668	86.15
358.895	83.55
359.122	79.55
359.349	91.35
359.576	82.75
359.802	79.95
360.029	86.55
360.256	86.35
360.483	77.75
360.709	81.55
360.936	87.75
361.163	86.15
361.39	83.95
361.616	85.15
361.843	82.95
362.07	84.95
362.296	84.55
362.523	85.35
362.749	84.35
362.976	90.75
363.203	84.95
363.429	89.95
363.656	110.55
363.882	126.15
364.109	137.75
364.335	102.35
364.562	82.15
364.788	89.95
365.015	85.35
365.241	84.55
365.468	82.15
365.694	82.35
365.92	86.55
366.147	84.95
366.373	85.95
366.599	86.35
366.826	88.75
367.052	104.55
367.278	100.75
367.505	89.35
367.731	90.75
367.957	111.95
368.184	142.75
368.41	164.35
368.636	132.95
368.862	94.95
369.089	83.55
369.315	86.15
369.541	87.15
369.767	88.55
369.993	86.15
370.219	83.15
370.445	81.35
370.672	84.95
370.898	95.15
371.124	78.55
371.35	78.35
371.576	84.15
371.802	84.75
372.028	81.55
372.254	85.55
372.48	91.95
372.706	80.55
372.932	84.55
373.158	85.75
373.384	86.95
373.61	91.75
373.835	102.95
374.061	107.75
374.287	100.95
374.513	86.75
374.739	94.55
374.965	84.75
375.191	80.55
375.416	82.55
375.642	85.15
375.868	86.55
376.094	83.35
376.319	83.15
376.545	82.55
376.771	78.35
376.997	78.35
377.222	83.55
377.448	81.95
377.674	85.15
377.899	83.55
378.125	90.75
378.35	81.95
378.576	83.75
378.802	85.15
379.027	81.35
379.253	76.55
379.478	74.75
379.704	75.75
379.929	77.35
380.155	82.15
380.38	79.15
380.606	85.55
380.831	84.15
381.057	82.95
381.282	83.15
381.507	81.75
381.733	84.15
381.958	80.75
382.184	77.35
382.409	76.75
382.634	80.95
382.86	84.95
383.085	82.15
383.31	85.75
383.535	79.35
383.761	87.35
383.986	81.55
384.211	83.75
384.436	82.35
384.662	87.95
384.887	81.95
385.112	88.55
385.337	83.35
385.562	80.75
385.787	85.75
386.013	86.75
386.238	85.75
386.463	79.55
386.688	83.95
386.913	84.95
387.138	81.75
387.363	80.35
387.588	82.15
387.813	87.95
388.038	84.75
388.263	87.35
388.488	84.15
388.713	85.75
388.938	82.55
389.163	84.15
389.387	86.15
389.612	79.55
389.837	86.55
390.062	83.35
390.287	82.95
390.512	77.55
390.736	82.55
390.961	82.75
391.186	84.15
391.411	81.35
391.636	74.95
391.86	81.35
392.085	83.75
392.31	84.35
392.534	80.35
392.759	86.15
392.984	86.95
393.208	85.15
393.433	78.35
393.658	81.35
393.882	83.75
394.107	87.75
394.331	81.95
394.556	78.55
394.78	87.55
395.005	79.35
395.229	86.55
395.454	88.55
395.678	82.75
395.903	77.55
396.127	87.55
396.352	82.95
396.576	87.35
396.801	89.35
397.025	82.75
397.249	80.95
397.474	82.15
397.698	79.35
397.922	79.75
398.147	81.35
398.371	79.75
398.595	82.75
398.82	82.35
399.044	86.95
399.268	81.35
399.492	85.15
399.717	80.95
399.941	84.35
400.165	84.55
400.389	83.75
400.613	86.55
400.837	82.35
401.062	83.75
401.286	77.35
401.51	86.15
401.734	88.15
401.958	95.35
402.182	89.35
402.406	83.75
402.63	83.55
402.854	86.35
403.078	82.95
403.302	86.75
403.526	79.55
403.75	83.15
403.974	81.95
404.198	85.75
404.422	90.75
404.645	85.55
404.869	87.35
405.093	95.75
405.317	105.35
405.541	148.75
405.765	229.35
405.988	240.55
406.212	141.95
406.436	109.55
406.66	91.35
406.883	91.15
407.107	79.75
407.331	77.15
407.555	82.35
407.778	84.15
408.002	76.15
408.226	80.55
408.449	84.55
408.673	85.35
408.896	82.95
409.12	86.35
409.344	77.15
409.567	83.15
409.791	83.15
410.014	80.15
410.238	84.15
410.461	87.15
410.685	84.75
410.908	84.95
411.132	82.75
411.355	83.95
411.578	88.95
411.802	73.15
412.025	84.15
412.249	82.75
412.472	90.35
412.695	82.55
412.919	86.15
413.142	84.95
413.365	79.15
413.589	82.35
413.812	77.15
414.035	84.15
414.258	80.95
414.482	89.75
414.705	85.35
414.928	74.35
415.151	81.35
415.374	84.55
415.597	87.95
415.821	80.75
416.044	86.75
416.267	89.15
416.49	76.75
416.713	89.35
416.936	84.55
417.159	84.75
417.382	82.55
417.605	81.75
417.828	83.95
418.051	81.35
418.274	76.75
418.497	82.95
418.72	81.55
418.943	82.35
419.166	74.15
419.389	77.55
419.611	79.55
419.834	78.35
420.057	81.55
420.28	82.35
420.503	81.55
420.726	81.55
420.948	85.55
421.171	83.75
421.394	77.55
421.617	79.35
421.839	87.95
422.062	84.95
422.285	86.55
422.507	82.15
422.73	84.75
422.953	77.95
423.175	81.75
423.398	81.95
423.621	81.55
423.843	76.15
424.066	82.95
424.288	81.75
424.511	85.15
424.733	82.15
424.956	82.55
425.178	85.55
425.401	84.55
425.623	83.35
425.846	81.55
426.068	85.95
426.291	82.15
426.513	88.75
426.735	82.35
426.958	80.35
427.18	78.75
427.402	82.55
427.625	86.55
427.847	86.55
428.069	84.55
428.292	80.55
428.514	87.75
428.736	79.55
428.958	83.55
429.181	79.15
429.403	83.95
429.625	84.55
429.847	89.55
430.069	82.75
430.292	86.55
430.514	81.95
430.736	78.75
430.958	80.75
431.18	80.95
431.402	85.15
431.624	88.35
431.846	83.95
432.068	84.55
432.29	78.35
432.512	80.95
432.734	85.15
432.956	83.75
433.178	84.95
433.4	81.35
433.622	80.35
433.844	85.75
434.066	81.55
434.287	83.55
434.509	89.55
434.731	79.35
434.953	77.55
435.175	78.75
435.397	82.15
435.618	82.95
435.84	89.55
436.062	87.95
436.284	82.15
436.505	85.55
436.727	85.75
436.949	89.95
437.17	86.35
437.392	82.35
437.614	81.75
437.835	85.55
438.057	85.75
438.278	86.75
438.5	82.75
438.721	78.35
438.943	85.15
439.165	82.95
439.386	81.35
439.608	85.55
439.829	84.75
440.05	85.95
440.272	80.35
440.493	83.35
440.715	82.75
440.936	87.15
441.158	90.55
441.379	85.75
441.6	79.55
441.822	81.55
442.043	81.95
442.264	85.95
442.486	84.75
442.707	84.75
442.928	83.55
443.149	81.75
443.371	80.55
443.592	82.55
443.813	85.35
444.034	84.15
444.255	85.35
444.476	82.75
444.698	82.95
444.919	85.95
445.14	93.35
445.361	87.35
445.582	81.35
445.803	85.15
446.024	80.95
446.245	85.95
446.466	87.55
446.687	77.75
446.908	80.95
447.129	83.35
447.35	78.35
447.571	78.55
447.792	86.15
448.013	85.75
448.234	81.75
448.455	89.95
448.675	89.55
448.896	80.35
449.117	81.35
449.338	80.75
449.559	82.75
449.779	79.15
450	89.35
450.221	86.55
450.442	80.95
450.662	82.55
450.883	78.95
451.104	85.75
451.324	84.55
451.545	86.95
451.766	84.35
451.986	83.15
452.207	85.55
452.428	78.35
452.648	81.75
452.869	86.95
453.089	78.75
453.31	83.75
453.53	86.95
453.751	85.55
453.971	83.75
454.192	83.75
454.412	79.55
454.633	78.75
454.853	77.95
455.073	83.95
455.294	85.15
455.514	79.15
455.734	85.35
455.955	86.55
456.175	86.15
456.395	79.55
456.616	83.95
456.836	81.95
457.056	81.75
457.276	81.55
457.497	89.15
457.717	86.55
457.937	83.15
458.157	91.55
458.377	86.35
458.598	82.15
458.818	74.75
459.038	82.75
459.258	79.55
459.478	83.35
459.698	82.75
459.918	85.35
460.138	78.35
460.358	74.55
460.578	82.35
460.798	81.55
461.018	83.55
461.238	80.15
461.458	81.75
461.678	89.55
461.898	85.55
462.118	88.15
462.338	83.35
462.558	74.15
462.777	88.35
462.997	85.75
463.217	80.35
463.437	88.35
463.657	81.15
463.876	77.75
464.096	76.35
464.316	83.95
464.536	83.55
464.755	80.55
464.975	86.55
465.195	79.75
465.414	77.75
465.634	81.95
465.854	84.35
466.073	81.55
466.293	83.15
466.512	85.95
466.732	79.35
466.951	84.15
467.171	85.95
467.391	85.95
467.61	84.95
467.829	80.35
468.049	75.75
468.268	82.95
468.488	83.75
468.707	85.95
468.927	82.95
469.146	77.35
469.365	85.15
469.585	82.95
469.804	81.95
470.023	82.95
470.243	81.35
470.462	82.75
470.681	81.75
470.901	85.15
471.12	89.35
471.339	81.95
471.558	83.35
471.777	81.15
471.997	71.35
472.216	81.15
472.435	81.35
472.654	79.15
472.873	85.95
473.092	78.95
473.311	81.35
473.53	84.75
473.749	82.95
473.968	84.55
474.187	82.55
474.406	78.55
474.625	82.15
474.844	86.35
475.063	86.55
475.282	84.35
475.501	80.75
475.72	90.55
475.939	85.55
476.158	85.75
476.377	87.15
476.596	83.35
476.814	85.35
477.033	85.95
477.252	79.15
477.471	83.95
477.69	89.75
477.908	80.55
478.127	74.95
478.346	74.55
478.564	81.35
478.783	81.15
479.002	86.95
479.22	86.75
479.439	84.35
479.658	85.35
479.876	82.75
480.095	79.75
480.313	90.55
480.532	87.35
480.751	85.55
480.969	81.35
481.188	85.95
481.406	77.35
481.624	84.55
481.843	85.75
482.061	82.75
482.28	83.75
482.498	81.55
482.717	79.75
482.935	90.55
483.153	83.15
483.372	82.55
483.59	88.55
483.808	80.75
484.027	80.55
484.245	88.55
484.463	87.35
484.681	81.15
484.9	81.75
485.118	81.55
485.336	83.95
485.554	85.35
485.772	84.15
485.99	85.75
486.209	83.15
486.427	78.95
486.645	83.75
486.863	90.15
487.081	87.75
487.299	80.35
487.517	81.55
487.735	79.95
487.953	81.55
488.171	87.55
488.389	84.35
488.607	85.55
488.825	80.55
489.043	78.15
489.261	86.75
489.479	83.15
489.696	81.35
489.914	78.55
490.132	83.55
490.35	86.75
490.568	85.95
490.786	83.35
491.003	86.55
491.221	88.95
491.439	79.95
491.657	85.55
491.874	88.35
492.092	91.95
492.31	83.55
492.527	80.75
492.745	82.55
492.963	94.15
493.18	85.55
493.398	84.75
493.615	88.15
493.833	85.95
494.05	88.95
494.268	85.95
494.485	85.95
494.703	83.15
494.92	84.55
495.138	87.75
495.355	79.55
495.573	87.35
495.79	88.35
496.008	85.15
496.225	78.95
496.442	85.95
496.66	91.75
496.877	82.75
497.094	83.15
497.312	84.95
497.529	85.75
497.746	86.95
497.963	84.95
498.181	82.75
498.398	80.35
498.615	82.95
498.832	90.35
499.049	84.95
499.267	83.35
499.484	87.55
499.701	83.95
499.918	89.55
500.135	85.35
500.352	90.75
500.569	103.95
500.786	109.75
501.003	93.35
501.22	88.55
501.437	85.95
501.654	82.95
501.871	91.15
502.088	84.15
502.305	82.55
502.522	86.75
502.739	86.55
502.956	84.35
503.172	86.75
503.389	89.75
503.606	83.35
503.823	88.55
504.04	85.35
504.256	88.15
504.473	88.55
504.69	82.75
504.907	89.35
505.123	87.55
505.34	91.55
505.557	86.35
505.773	85.55
505.99	84.95
506.207	86.55
506.423	89.75
506.64	89.75
506.856	88.75
507.073	88.55
507.289	76.55
507.506	75.35
507.722	82.95
507.939	86.35
508.155	85.55
508.372	89.95
508.588	86.35
508.805	76.55
509.021	88.75
509.238	82.75
509.454	84.35
509.67	82.55
509.887	84.75
510.103	85.15
510.319	86.95
510.536	82.15
510.752	77.75
510.968	89.75
511.184	79.95
511.401	84.95
511.617	89.55
511.833	85.15
512.049	82.35
512.265	83.35
512.481	84.55
512.698	76.75
512.914	82.95
513.13	80.35
513.346	77.35
513.562	86.75
513.778	89.55
513.994	82.75
514.21	77.35
514.426	80.55
514.642	80.15
514.858	83.15
515.074	85.55
515.29	78.95
515.506	79.35
515.721	86.95
515.937	82.95
516.153	85.75
516.369	90.95
516.585	80.35
516.801	77.15
517.016	89.75
517.232	87.35
517.448	82.15
517.664	85.95
517.879	83.35
518.095	83.35
518.311	86.95
518.527	81.95
518.742	81.95
518.958	80.55
519.173	82.55
519.389	77.35
519.605	85.35
519.82	88.15
