Data from TenMicroDelayPb_HRD10591_00031.txt Node
Date: Mon Nov 24 14:36:51 EST 2025
User: Yrep
Spectrometer: HR+D1059
Trigger mode: 1
Integration Time (sec): 1.000000E-2
Scans to average: 5
Electric dark correction enabled: true
Nonlinearity correction enabled: false
Boxcar width: 0
XAxis mode: Wavelengths
Number of Pixels in Spectrum: 2048
>>>>>Begin Spectral Data<<<<<
223.165	-14.19
223.4	-14.19
223.635	-14.19
223.869	-15.99
224.104	-16.79
224.338	-19.99
224.573	-12.79
224.808	-11.59
225.042	-12.39
225.277	-8.39
225.511	-0.99
225.746	2.01
225.98	12.81
226.215	10.61
226.449	15.61
226.683	17.41
226.918	24.61
227.152	30.01
227.387	38.41
227.621	35.81
227.856	45.61
228.09	46.21
228.324	48.61
228.559	53.21
228.793	61.01
229.027	60.61
229.262	70.41
229.496	68.21
229.73	70.01
229.964	71.21
230.199	75.01
230.433	76.81
230.667	77.21
230.901	79.41
231.136	75.61
231.37	76.61
231.604	79.01
231.838	84.21
232.072	79.81
232.306	83.41
232.541	76.61
232.775	81.61
233.009	77.61
233.243	81.41
233.477	78.21
233.711	78.61
233.945	84.01
234.179	82.01
234.413	80.41
234.647	86.01
234.881	76.81
235.115	83.81
235.349	78.61
235.583	78.01
235.817	81.81
236.051	83.01
236.285	81.81
236.519	75.81
236.753	81.21
236.987	76.21
237.221	80.41
237.455	81.41
237.689	83.61
237.922	75.21
238.156	77.01
238.39	82.61
238.624	83.01
238.858	76.01
239.091	71.81
239.325	78.61
239.559	75.61
239.793	75.01
240.027	75.61
240.26	76.21
240.494	79.61
240.728	68.61
240.961	76.61
241.195	72.01
241.429	71.81
241.662	75.01
241.896	77.21
242.13	72.81
242.363	74.01
242.597	72.41
242.83	75.61
243.064	75.01
243.298	77.61
243.531	78.61
243.765	80.61
243.998	74.41
244.232	79.01
244.465	79.21
244.699	79.21
244.932	80.21
245.166	78.01
245.399	75.21
245.633	78.21
245.866	73.01
246.099	78.41
246.333	80.41
246.566	77.21
246.8	78.21
247.033	77.61
247.266	81.21
247.5	84.61
247.733	81.01
247.966	77.61
248.2	78.01
248.433	72.01
248.666	84.81
248.899	75.01
249.133	80.01
249.366	82.01
249.599	77.61
249.832	84.21
250.066	77.61
250.299	75.41
250.532	75.01
250.765	83.81
250.998	81.81
251.231	74.81
251.465	85.41
251.698	84.21
251.931	82.41
252.164	77.41
252.397	73.01
252.63	78.21
252.863	74.81
253.096	80.21
253.329	79.61
253.562	81.61
253.795	77.41
254.028	80.41
254.261	80.21
254.494	82.21
254.727	81.61
254.96	82.21
255.193	80.81
255.426	77.21
255.659	83.81
255.892	79.81
256.124	82.21
256.357	84.41
256.59	80.61
256.823	84.01
257.056	86.01
257.289	77.01
257.521	83.41
257.754	84.61
257.987	78.41
258.22	80.21
258.452	84.81
258.685	86.21
258.918	79.81
259.151	84.41
259.383	77.81
259.616	81.41
259.849	80.61
260.081	84.61
260.314	87.01
260.547	76.81
260.779	82.01
261.012	80.21
261.244	84.61
261.477	89.21
261.71	89.61
261.942	81.21
262.175	84.21
262.407	83.61
262.64	81.61
262.872	86.01
263.105	83.81
263.337	74.81
263.57	80.61
263.802	84.81
264.035	77.21
264.267	81.21
264.499	83.01
264.732	80.21
264.964	85.61
265.197	88.81
265.429	89.61
265.661	83.81
265.894	83.21
266.126	83.41
266.358	81.21
266.591	82.61
266.823	86.01
267.055	82.81
267.287	81.01
267.52	84.01
267.752	82.81
267.984	79.61
268.216	83.01
268.448	85.81
268.681	83.41
268.913	80.01
269.145	83.21
269.377	84.01
269.609	74.41
269.841	85.01
270.073	81.21
270.306	80.21
270.538	80.81
270.77	81.61
271.002	86.21
271.234	85.21
271.466	83.21
271.698	80.61
271.93	81.41
272.162	84.01
272.394	84.21
272.626	79.61
272.858	78.81
273.09	84.81
273.322	83.01
273.553	79.61
273.785	79.61
274.017	85.01
274.249	84.61
274.481	84.41
274.713	89.01
274.945	84.61
275.176	81.21
275.408	78.21
275.64	83.01
275.872	80.01
276.104	87.21
276.335	87.01
276.567	92.21
276.799	78.01
277.031	85.61
277.262	79.81
277.494	80.21
277.726	85.21
277.957	85.01
278.189	87.61
278.421	87.01
278.652	82.41
278.884	84.81
279.115	93.81
279.347	91.01
279.579	86.61
279.81	83.01
280.042	92.81
280.273	93.81
280.505	99.41
280.736	90.81
280.968	84.61
281.199	86.81
281.431	82.01
281.662	87.21
281.894	82.41
282.125	86.01
282.356	86.61
282.588	91.21
282.819	86.41
283.051	90.81
283.282	95.41
283.513	92.01
283.745	85.81
283.976	80.81
284.207	82.01
284.439	87.61
284.67	82.61
284.901	87.81
285.132	83.81
285.364	84.81
285.595	80.81
285.826	84.41
286.057	88.81
286.288	83.01
286.52	85.21
286.751	83.81
286.982	85.61
287.213	91.01
287.444	87.41
287.675	89.81
287.906	83.01
288.138	86.41
288.369	81.01
288.6	76.81
288.831	76.61
289.062	84.01
289.293	87.21
289.524	88.61
289.755	82.01
289.986	86.01
290.217	86.21
290.448	84.21
290.679	81.41
290.91	83.81
291.141	86.21
291.371	86.01
291.602	89.21
291.833	84.21
292.064	81.61
292.295	81.81
292.526	82.41
292.757	79.21
292.987	79.61
293.218	80.41
293.449	80.41
293.68	82.21
293.91	77.61
294.141	85.21
294.372	84.61
294.603	88.61
294.833	83.41
295.064	85.41
295.295	81.21
295.525	86.61
295.756	82.01
295.987	85.21
296.217	82.81
296.448	89.41
296.679	83.81
296.909	84.41
297.14	83.81
297.37	83.81
297.601	84.41
297.831	81.81
298.062	82.81
298.292	84.01
298.523	85.41
298.753	86.01
298.984	81.01
299.214	82.21
299.445	83.21
299.675	83.61
299.905	81.01
300.136	83.41
300.366	85.41
300.597	80.61
300.827	83.61
301.057	78.41
301.288	88.01
301.518	82.61
301.748	83.21
301.979	89.21
302.209	76.81
302.439	87.01
302.669	84.21
302.9	85.21
303.13	86.81
303.36	84.81
303.59	84.61
303.82	83.81
304.051	82.01
304.281	82.21
304.511	89.21
304.741	88.61
304.971	82.21
305.201	86.01
305.431	85.81
305.661	84.41
305.891	89.41
306.121	83.21
306.352	88.21
306.582	85.41
306.812	84.41
307.042	88.61
307.272	87.01
307.502	84.61
307.731	83.41
307.961	84.61
308.191	82.81
308.421	84.41
308.651	79.81
308.881	84.81
309.111	81.41
309.341	78.81
309.571	81.01
309.8	81.81
310.03	80.21
310.26	86.41
310.49	84.41
310.72	86.81
310.949	83.81
311.179	83.21
311.409	80.81
311.639	81.01
311.868	84.61
312.098	85.41
312.328	86.81
312.557	84.41
312.787	89.21
313.017	82.21
313.246	84.21
313.476	86.01
313.706	81.21
313.935	85.81
314.165	86.81
314.394	82.81
314.624	91.41
314.853	93.41
315.083	85.01
315.312	86.41
315.542	88.81
315.771	85.21
316.001	88.21
316.23	88.61
316.46	87.61
316.689	85.01
316.919	80.61
317.148	88.81
317.377	85.01
317.607	85.61
317.836	86.61
318.065	81.21
318.295	85.41
318.524	92.21
318.753	85.81
318.983	80.61
319.212	83.01
319.441	82.01
319.67	82.01
319.9	87.01
320.129	83.21
320.358	79.21
320.587	85.41
320.816	80.61
321.046	83.61
321.275	88.01
321.504	78.01
321.733	81.21
321.962	79.21
322.191	85.81
322.42	79.21
322.649	88.61
322.878	80.01
323.108	83.01
323.337	84.01
323.566	90.01
323.795	83.81
324.024	83.61
324.253	85.21
324.482	81.01
324.71	86.61
324.939	85.81
325.168	82.41
325.397	80.61
325.626	84.81
325.855	85.41
326.084	81.61
326.313	87.41
326.542	86.01
326.77	84.61
326.999	81.61
327.228	83.21
327.457	84.41
327.686	79.41
327.914	83.01
328.143	84.21
328.372	91.41
328.6	80.01
328.829	89.41
329.058	85.01
329.287	81.41
329.515	87.41
329.744	84.21
329.972	85.81
330.201	83.21
330.43	85.01
330.658	89.21
330.887	84.01
331.115	83.21
331.344	87.61
331.572	85.81
331.801	87.21
332.03	86.81
332.258	86.81
332.486	82.41
332.715	81.21
332.943	87.41
333.172	84.41
333.4	81.41
333.629	85.01
333.857	83.01
334.085	89.61
334.314	82.21
334.542	80.61
334.771	86.21
334.999	83.41
335.227	85.01
335.455	85.21
335.684	86.61
335.912	85.21
336.14	85.61
336.369	79.21
336.597	87.41
336.825	82.21
337.053	85.01
337.281	83.21
337.51	80.21
337.738	83.21
337.966	82.41
338.194	83.81
338.422	80.81
338.65	88.61
338.878	86.61
339.106	85.61
339.334	84.41
339.562	85.61
339.79	80.61
340.018	80.81
340.246	80.81
340.474	91.01
340.702	83.81
340.93	85.41
341.158	86.41
341.386	80.01
341.614	75.61
341.842	84.21
342.07	86.41
342.298	86.81
342.526	82.81
342.754	85.81
342.981	79.61
343.209	80.41
343.437	86.01
343.665	87.01
343.893	84.21
344.12	82.01
344.348	80.21
344.576	79.21
344.804	85.41
345.031	82.41
345.259	85.41
345.487	86.21
345.714	86.81
345.942	79.81
346.17	85.01
346.397	81.41
346.625	84.41
346.853	82.81
347.08	86.21
347.308	84.21
347.535	83.21
347.763	85.81
347.99	79.01
348.218	90.41
348.445	86.01
348.673	75.21
348.9	80.61
349.128	83.41
349.355	80.01
349.583	80.41
349.81	84.61
350.037	87.61
350.265	84.81
350.492	85.61
350.72	84.61
350.947	81.41
351.174	86.21
351.402	78.41
351.629	89.61
351.856	82.81
352.083	81.61
352.311	82.01
352.538	86.81
352.765	85.61
352.992	85.61
353.22	79.81
353.447	82.01
353.674	80.81
353.901	81.41
354.128	85.21
354.355	81.01
354.583	77.61
354.81	80.21
355.037	89.21
355.264	86.01
355.491	83.81
355.718	85.01
355.945	85.61
356.172	87.41
356.399	87.21
356.626	85.21
356.853	89.81
357.08	110.61
357.307	121.01
357.534	108.01
357.761	91.41
357.988	82.81
358.215	84.61
358.441	78.41
358.668	85.01
358.895	81.81
359.122	80.21
359.349	88.01
359.576	82.81
359.802	85.21
360.029	88.61
360.256	86.81
360.483	87.41
360.709	76.21
360.936	80.61
361.163	82.61
361.39	83.21
361.616	83.41
361.843	78.41
362.07	78.01
362.296	83.81
362.523	80.41
362.749	79.01
362.976	79.41
363.203	88.01
363.429	91.41
363.656	109.21
363.882	135.61
364.109	141.21
364.335	102.61
364.562	79.41
364.788	85.41
365.015	81.41
365.241	88.81
365.468	83.21
365.694	84.01
365.92	89.61
366.147	84.41
366.373	89.41
366.599	83.01
366.826	94.21
367.052	94.21
367.278	110.41
367.505	90.81
367.731	96.21
367.957	103.21
368.184	140.81
368.41	171.61
368.636	135.01
368.862	89.81
369.089	85.81
369.315	79.81
369.541	86.21
369.767	84.41
369.993	82.61
370.219	82.41
370.445	81.41
370.672	86.01
370.898	77.61
371.124	85.81
371.35	80.21
371.576	81.61
371.802	81.81
372.028	85.61
372.254	90.81
372.48	88.61
372.706	80.01
372.932	79.21
373.158	87.21
373.384	77.81
373.61	86.41
373.835	104.61
374.061	114.61
374.287	104.41
374.513	85.21
374.739	80.61
374.965	80.81
375.191	80.21
375.416	81.21
375.642	83.41
375.868	83.41
376.094	79.61
376.319	81.61
376.545	81.61
376.771	84.61
376.997	85.01
377.222	87.21
377.448	82.41
377.674	89.81
377.899	76.81
378.125	76.41
378.35	84.01
378.576	83.61
378.802	79.41
379.027	78.21
379.253	78.21
379.478	76.41
379.704	81.41
379.929	85.01
380.155	79.01
380.38	81.81
380.606	89.21
380.831	83.01
381.057	73.81
381.282	81.01
381.507	84.81
381.733	79.61
381.958	85.01
382.184	78.81
382.409	72.81
382.634	82.01
382.86	82.81
383.085	78.61
383.31	80.41
383.535	82.01
383.761	87.41
383.986	84.41
384.211	85.81
384.436	80.01
384.662	81.01
384.887	77.61
385.112	83.41
385.337	86.81
385.562	86.01
385.787	81.81
386.013	83.01
386.238	77.81
386.463	77.81
386.688	85.01
386.913	80.41
387.138	84.01
387.363	80.41
387.588	85.21
387.813	77.01
388.038	81.21
388.263	83.41
388.488	85.41
388.713	86.41
388.938	79.21
389.163	81.41
389.387	79.41
389.612	83.01
389.837	85.81
390.062	85.81
390.287	85.41
390.512	77.41
390.736	78.01
390.961	76.21
391.186	82.21
391.411	80.01
391.636	78.61
391.86	79.01
392.085	80.41
392.31	79.41
392.534	85.61
392.759	83.61
392.984	77.01
393.208	79.81
393.433	81.21
393.658	82.41
393.882	80.81
394.107	84.21
394.331	84.41
394.556	81.81
394.78	86.81
395.005	80.81
395.229	76.81
395.454	85.01
395.678	89.61
395.903	83.81
396.127	85.61
396.352	83.21
396.576	83.01
396.801	82.41
397.025	76.01
397.249	81.21
397.474	76.81
397.698	84.01
397.922	81.21
398.147	85.41
398.371	84.41
398.595	85.21
398.82	87.81
399.044	87.01
399.268	81.41
399.492	81.21
399.717	81.81
399.941	82.81
400.165	86.61
400.389	85.41
400.613	86.61
400.837	81.81
401.062	80.01
401.286	79.41
401.51	87.61
401.734	94.41
401.958	93.01
402.182	92.81
402.406	84.01
402.63	82.41
402.854	83.81
403.078	87.41
403.302	86.21
403.526	81.61
403.75	81.61
403.974	82.21
404.198	90.81
404.422	84.01
404.645	81.61
404.869	90.81
405.093	91.41
405.317	107.41
405.541	153.81
405.765	234.81
405.988	248.81
406.212	151.21
406.436	114.81
406.66	94.01
406.883	84.01
407.107	84.61
407.331	80.81
407.555	83.21
407.778	77.61
408.002	75.81
408.226	82.61
408.449	86.41
408.673	80.81
408.896	83.01
409.12	88.61
409.344	80.01
409.567	70.61
409.791	81.61
410.014	83.81
410.238	85.01
410.461	84.41
410.685	83.21
410.908	82.81
411.132	77.01
411.355	83.81
411.578	85.61
411.802	84.61
412.025	74.01
412.249	81.41
412.472	83.41
412.695	80.21
412.919	85.61
413.142	85.21
413.365	82.21
413.589	77.81
413.812	89.21
414.035	77.21
414.258	81.61
414.482	83.81
414.705	78.01
414.928	81.81
415.151	86.41
415.374	81.01
415.597	83.01
415.821	82.21
416.044	81.81
416.267	85.01
416.49	86.21
416.713	79.41
416.936	90.81
417.159	83.21
417.382	83.41
417.605	78.61
417.828	83.61
418.051	91.21
418.274	90.81
418.497	81.41
418.72	82.61
418.943	81.61
419.166	76.61
419.389	77.01
419.611	83.61
419.834	80.61
420.057	82.81
420.28	81.81
420.503	81.21
420.726	84.21
420.948	81.21
421.171	76.01
421.394	77.41
421.617	79.41
421.839	84.81
422.062	84.81
422.285	85.01
422.507	84.21
422.73	77.81
422.953	76.61
423.175	76.01
423.398	82.41
423.621	80.81
423.843	85.01
424.066	88.21
424.288	82.01
424.511	84.41
424.733	84.81
424.956	83.21
425.178	79.41
425.401	82.81
425.623	79.01
425.846	78.01
426.068	87.61
426.291	76.01
426.513	82.01
426.735	73.61
426.958	82.21
427.18	77.41
427.402	83.81
427.625	89.61
427.847	80.41
428.069	79.81
428.292	80.61
428.514	79.61
428.736	82.01
428.958	79.61
429.181	78.01
429.403	80.61
429.625	81.01
429.847	79.21
430.069	79.01
430.292	82.01
430.514	85.81
430.736	84.21
430.958	84.61
431.18	84.61
431.402	85.21
431.624	82.01
431.846	83.81
432.068	84.01
432.29	84.81
432.512	78.01
432.734	85.01
432.956	88.81
433.178	77.01
433.4	77.21
433.622	87.21
433.844	81.61
434.066	80.61
434.287	77.61
434.509	86.61
434.731	83.61
434.953	76.01
435.175	78.21
435.397	80.21
435.618	81.61
435.84	82.01
436.062	80.81
436.284	77.01
436.505	80.21
436.727	77.61
436.949	76.81
437.17	89.81
437.392	85.61
437.614	79.61
437.835	83.01
438.057	84.61
438.278	83.41
438.5	86.81
438.721	80.41
438.943	84.81
439.165	81.81
439.386	91.01
439.608	80.81
439.829	74.41
440.05	79.21
440.272	83.61
440.493	77.81
440.715	79.21
440.936	84.81
441.158	84.81
441.379	77.21
441.6	78.21
441.822	78.01
442.043	76.81
442.264	77.81
442.486	79.41
442.707	75.81
442.928	83.81
443.149	83.41
443.371	83.61
443.592	86.41
443.813	83.41
444.034	83.61
444.255	81.01
444.476	81.81
444.698	80.01
444.919	83.41
445.14	94.61
445.361	81.01
445.582	79.81
445.803	81.81
446.024	79.21
446.245	81.61
446.466	76.01
446.687	83.61
446.908	82.41
447.129	83.61
447.35	86.81
447.571	82.21
447.792	84.41
448.013	76.41
448.234	79.01
448.455	87.41
448.675	86.81
448.896	81.41
449.117	86.61
449.338	84.41
449.559	80.61
449.779	87.21
450	80.01
450.221	79.81
450.442	87.21
450.662	86.81
450.883	81.01
451.104	84.41
451.324	89.41
451.545	77.21
451.766	84.01
451.986	82.21
452.207	83.61
452.428	84.81
452.648	79.61
452.869	90.01
453.089	87.81
453.31	79.21
453.53	83.61
453.751	84.61
453.971	84.41
454.192	78.01
454.412	78.41
454.633	79.61
454.853	78.41
455.073	83.41
455.294	88.01
455.514	89.21
455.734	86.01
455.955	80.61
456.175	74.61
456.395	85.41
456.616	89.21
456.836	80.41
457.056	80.61
457.276	79.21
457.497	80.41
457.717	79.41
457.937	83.01
458.157	85.61
458.377	81.01
458.598	81.01
458.818	79.41
459.038	77.01
459.258	83.61
459.478	81.81
459.698	83.81
459.918	81.01
460.138	80.81
460.358	82.61
460.578	82.41
460.798	83.41
461.018	80.01
461.238	77.01
461.458	83.81
461.678	79.21
461.898	86.21
462.118	86.81
462.338	80.01
462.558	82.21
462.777	74.21
462.997	84.01
463.217	84.81
463.437	84.61
463.657	81.61
463.876	80.81
464.096	77.01
464.316	77.61
464.536	82.21
464.755	84.81
464.975	80.41
465.195	83.21
465.414	83.21
465.634	86.61
465.854	86.61
466.073	82.21
466.293	91.21
466.512	79.41
466.732	80.61
466.951	82.01
467.171	83.61
467.391	90.61
467.61	87.01
467.829	85.81
468.049	83.81
468.268	82.81
468.488	85.21
468.707	82.41
468.927	83.41
469.146	81.01
469.365	83.21
469.585	81.41
469.804	78.81
470.023	80.41
470.243	81.61
470.462	85.21
470.681	78.01
470.901	77.61
471.12	81.41
471.339	82.81
471.558	82.01
471.777	86.21
471.997	80.81
472.216	82.21
472.435	82.41
472.654	84.61
472.873	83.61
473.092	80.01
473.311	79.81
473.53	78.41
473.749	86.01
473.968	85.61
474.187	81.61
474.406	79.41
474.625	85.01
474.844	85.01
475.063	81.81
475.282	80.01
475.501	80.21
475.72	87.61
475.939	82.01
476.158	85.01
476.377	85.21
476.596	85.01
476.814	80.21
477.033	83.21
477.252	80.41
477.471	86.41
477.69	83.81
477.908	81.01
478.127	77.01
478.346	79.21
478.564	87.21
478.783	86.21
479.002	87.21
479.22	88.61
479.439	84.81
479.658	87.61
479.876	85.41
480.095	80.21
480.313	82.21
480.532	85.61
480.751	86.21
480.969	81.01
481.188	76.41
481.406	82.61
481.624	84.21
481.843	81.81
482.061	85.21
482.28	80.81
482.498	84.41
482.717	80.61
482.935	83.01
483.153	76.61
483.372	82.21
483.59	87.41
483.808	88.01
484.027	82.21
484.245	83.21
484.463	85.61
484.681	81.61
484.9	85.41
485.118	86.81
485.336	84.61
485.554	86.21
485.772	80.21
485.99	77.41
486.209	80.21
486.427	83.61
486.645	83.61
486.863	90.01
487.081	82.81
487.299	84.01
487.517	82.01
487.735	87.01
487.953	84.01
488.171	85.21
488.389	77.41
488.607	86.21
488.825	82.01
489.043	83.21
489.261	84.61
489.479	85.41
489.696	79.81
489.914	86.01
490.132	84.21
490.35	84.61
490.568	81.01
490.786	76.81
491.003	87.61
491.221	79.81
491.439	81.81
491.657	84.61
491.874	86.21
492.092	88.41
492.31	82.21
492.527	89.61
492.745	81.41
492.963	86.21
493.18	87.81
493.398	85.81
493.615	91.61
493.833	90.21
494.05	84.01
494.268	86.21
494.485	84.01
494.703	86.61
494.92	84.41
495.138	80.01
495.355	90.41
495.573	86.61
495.79	79.81
496.008	89.01
496.225	87.61
496.442	82.41
496.66	79.41
496.877	91.61
497.094	83.61
497.312	79.41
497.529	87.61
497.746	85.81
497.963	84.61
498.181	80.01
498.398	82.01
498.615	81.21
498.832	81.61
499.049	77.01
499.267	85.81
499.484	80.21
499.701	90.21
499.918	82.61
500.135	87.61
500.352	90.41
500.569	98.01
500.786	111.01
501.003	90.01
501.22	79.41
501.437	84.61
501.654	87.41
501.871	88.41
502.088	83.41
502.305	80.01
502.522	77.61
502.739	77.21
502.956	86.81
503.172	88.21
503.389	87.21
503.606	81.21
503.823	83.41
504.04	79.81
504.256	83.21
504.473	89.41
504.69	84.01
504.907	81.41
505.123	90.61
505.34	84.41
505.557	85.01
505.773	82.21
505.99	88.61
506.207	82.61
506.423	80.81
506.64	82.01
506.856	81.41
507.073	81.61
507.289	84.41
507.506	84.81
507.722	81.41
507.939	81.81
508.155	83.41
508.372	83.21
508.588	83.81
508.805	84.41
509.021	87.41
509.238	88.41
509.454	88.81
509.67	85.01
509.887	80.81
510.103	87.01
510.319	81.21
510.536	80.41
510.752	89.41
510.968	76.01
511.184	85.81
511.401	80.01
511.617	82.81
511.833	87.41
512.049	85.61
512.265	82.21
512.481	85.81
512.698	85.01
512.914	87.21
513.13	86.01
513.346	77.41
513.562	81.21
513.778	88.01
513.994	80.61
514.21	85.41
514.426	83.41
514.642	86.61
514.858	83.61
515.074	89.01
515.29	85.61
515.506	88.61
515.721	81.81
515.937	78.81
516.153	90.01
516.369	83.81
516.585	83.01
516.801	82.81
517.016	85.81
517.232	85.01
517.448	91.81
517.664	87.41
517.879	81.41
518.095	78.41
518.311	85.61
518.527	86.81
518.742	79.21
518.958	80.21
519.173	84.01
519.389	80.41
519.605	79.01
519.82	84.61
