Data from TenMicroDelayPb_HRD10591_00011.txt Node
Date: Mon Nov 24 14:34:24 EST 2025
User: Yrep
Spectrometer: HR+D1059
Trigger mode: 0
Integration Time (sec): 1.000000E-2
Scans to average: 5
Electric dark correction enabled: true
Nonlinearity correction enabled: false
Boxcar width: 0
XAxis mode: Wavelengths
Number of Pixels in Spectrum: 2048
>>>>>Begin Spectral Data<<<<<
223.165	-18.74
223.4	-18.74
223.635	-18.74
223.869	-13.74
224.104	-21.34
224.338	-13.14
224.573	-13.74
224.808	-8.34
225.042	-16.14
225.277	-9.94
225.511	-5.94
225.746	1.86
225.98	12.66
226.215	10.66
226.449	18.66
226.683	19.06
226.918	25.46
227.152	32.66
227.387	34.06
227.621	39.26
227.856	38.06
228.09	41.66
228.324	45.06
228.559	48.06
228.793	54.66
229.027	60.26
229.262	62.26
229.496	67.46
229.73	73.86
229.964	74.06
230.199	68.86
230.433	69.06
230.667	73.06
230.901	73.66
231.136	77.66
231.37	76.26
231.604	80.46
231.838	78.46
232.072	81.06
232.306	74.86
232.541	77.26
232.775	76.86
233.009	79.66
233.243	80.26
233.477	78.46
233.711	80.26
233.945	82.86
234.179	81.86
234.413	76.86
234.647	81.86
234.881	81.46
235.115	80.46
235.349	78.26
235.583	79.46
235.817	75.06
236.051	76.46
236.285	82.46
236.519	77.06
236.753	72.66
236.987	79.66
237.221	78.66
237.455	73.26
237.689	75.66
237.922	68.86
238.156	73.86
238.39	76.66
238.624	76.46
238.858	74.26
239.091	75.66
239.325	72.86
239.559	70.06
239.793	74.66
240.027	77.46
240.26	74.86
240.494	70.46
240.728	79.26
240.961	76.66
241.195	71.86
241.429	71.06
241.662	78.26
241.896	75.46
242.13	75.66
242.363	80.66
242.597	73.26
242.83	73.66
243.064	70.66
243.298	76.26
243.531	72.06
243.765	72.86
243.998	71.06
244.232	75.26
244.465	79.06
244.699	73.66
244.932	72.26
245.166	77.06
245.399	74.86
245.633	73.66
245.866	76.66
246.099	77.86
246.333	82.86
246.566	80.06
246.8	71.86
247.033	71.26
247.266	74.66
247.5	80.46
247.733	74.66
247.966	75.06
248.2	78.26
248.433	76.46
248.666	73.26
248.899	78.26
249.133	87.46
249.366	77.66
249.599	81.86
249.832	72.46
250.066	77.26
250.299	81.06
250.532	81.26
250.765	75.26
250.998	75.26
251.231	84.66
251.465	75.66
251.698	77.06
251.931	79.06
252.164	73.46
252.397	78.26
252.63	74.26
252.863	75.66
253.096	80.26
253.329	81.86
253.562	78.06
253.795	79.86
254.028	74.86
254.261	78.66
254.494	82.06
254.727	81.66
254.96	73.06
255.193	78.86
255.426	76.66
255.659	75.06
255.892	82.46
256.124	75.66
256.357	86.26
256.59	85.66
256.823	72.06
257.056	80.86
257.289	82.06
257.521	78.26
257.754	76.66
257.987	81.26
258.22	83.26
258.452	77.66
258.685	79.46
258.918	79.26
259.151	82.26
259.383	78.66
259.616	77.86
259.849	81.66
260.081	75.66
260.314	74.66
260.547	76.26
260.779	74.66
261.012	81.86
261.244	80.26
261.477	77.86
261.71	83.06
261.942	75.26
262.175	78.66
262.407	87.26
262.64	77.26
262.872	80.46
263.105	76.66
263.337	83.46
263.57	77.66
263.802	86.66
264.035	83.26
264.267	83.06
264.499	85.46
264.732	85.86
264.964	84.26
265.197	80.86
265.429	80.26
265.661	79.26
265.894	78.26
266.126	77.06
266.358	83.66
266.591	84.26
266.823	89.66
267.055	87.06
267.287	78.86
267.52	78.66
267.752	78.06
267.984	86.26
268.216	79.26
268.448	79.86
268.681	78.06
268.913	84.26
269.145	81.06
269.377	81.66
269.609	83.26
269.841	78.86
270.073	81.86
270.306	76.26
270.538	86.86
270.77	83.86
271.002	79.46
271.234	83.66
271.466	86.46
271.698	80.66
271.93	79.66
272.162	85.26
272.394	78.86
272.626	74.26
272.858	81.26
273.09	83.26
273.322	82.26
273.553	83.86
273.785	79.86
274.017	81.26
274.249	81.86
274.481	82.86
274.713	78.66
274.945	83.06
275.176	79.46
275.408	82.86
275.64	83.26
275.872	85.26
276.104	75.86
276.335	78.66
276.567	77.06
276.799	80.46
277.031	87.46
277.262	81.46
277.494	80.06
277.726	80.26
277.957	85.26
278.189	88.86
278.421	86.06
278.652	81.26
278.884	79.26
279.115	81.86
279.347	87.86
279.579	80.26
279.81	83.06
280.042	83.26
280.273	84.86
280.505	84.06
280.736	82.66
280.968	76.06
281.199	79.86
281.431	83.86
281.662	84.86
281.894	77.86
282.125	81.06
282.356	81.86
282.588	79.46
282.819	89.66
283.051	82.06
283.282	85.66
283.513	82.26
283.745	82.26
283.976	87.46
284.207	82.26
284.439	78.46
284.67	84.66
284.901	79.66
285.132	82.46
285.364	82.86
285.595	82.46
285.826	83.46
286.057	84.66
286.288	83.46
286.52	84.06
286.751	81.46
286.982	79.66
287.213	81.46
287.444	88.06
287.675	85.86
287.906	87.66
288.138	75.46
288.369	83.46
288.6	86.06
288.831	85.26
289.062	78.46
289.293	79.06
289.524	83.46
289.755	80.06
289.986	87.46
290.217	81.06
290.448	85.86
290.679	90.06
290.91	83.26
291.141	84.66
291.371	77.86
291.602	80.86
291.833	83.86
292.064	76.86
292.295	73.26
292.526	82.86
292.757	76.86
292.987	83.46
293.218	84.66
293.449	84.46
293.68	81.06
293.91	87.86
294.141	81.86
294.372	80.46
294.603	85.86
294.833	84.66
295.064	79.86
295.295	80.66
295.525	77.46
295.756	80.06
295.987	81.46
296.217	88.06
296.448	85.66
296.679	79.66
296.909	83.26
297.14	89.26
297.37	85.46
297.601	84.26
297.831	77.66
298.062	86.06
298.292	83.46
298.523	81.06
298.753	82.06
298.984	79.86
299.214	81.66
299.445	79.66
299.675	75.86
299.905	84.46
300.136	79.66
300.366	85.66
300.597	78.86
300.827	82.66
301.057	87.26
301.288	77.06
301.518	82.66
301.748	75.46
301.979	82.66
302.209	83.66
302.439	80.86
302.669	84.06
302.9	83.06
303.13	89.66
303.36	80.66
303.59	83.66
303.82	80.06
304.051	74.86
304.281	86.26
304.511	80.46
304.741	83.66
304.971	84.66
305.201	83.86
305.431	76.66
305.661	82.26
305.891	86.86
306.121	79.46
306.352	84.46
306.582	83.66
306.812	90.06
307.042	81.26
307.272	85.86
307.502	85.66
307.731	89.46
307.961	83.06
308.191	82.86
308.421	83.26
308.651	79.66
308.881	85.46
309.111	82.46
309.341	84.46
309.571	80.26
309.8	92.86
310.03	81.86
310.26	85.66
310.49	74.66
310.72	84.26
310.949	85.86
311.179	89.86
311.409	81.46
311.639	82.66
311.868	79.26
312.098	83.06
312.328	81.06
312.557	83.46
312.787	76.86
313.017	82.26
313.246	95.06
313.476	89.46
313.706	77.26
313.935	80.66
314.165	86.86
314.394	73.86
314.624	76.66
314.853	87.66
315.083	82.26
315.312	87.46
315.542	82.86
315.771	89.66
316.001	81.66
316.23	83.66
316.46	87.66
316.689	89.26
316.919	89.06
317.148	87.26
317.377	90.66
317.607	84.06
317.836	76.66
318.065	89.26
318.295	76.46
318.524	80.66
318.753	84.46
318.983	81.86
319.212	83.86
319.441	84.26
319.67	85.66
319.9	88.06
320.129	88.46
320.358	81.46
320.587	84.06
320.816	83.26
321.046	86.26
321.275	85.86
321.504	85.46
321.733	82.86
321.962	86.86
322.191	85.26
322.42	84.06
322.649	81.86
322.878	83.46
323.108	85.06
323.337	82.66
323.566	87.26
323.795	80.86
324.024	84.06
324.253	83.26
324.482	83.46
324.71	86.46
324.939	82.66
325.168	79.06
325.397	84.86
325.626	83.46
325.855	84.06
326.084	85.26
326.313	84.66
326.542	82.66
326.77	83.26
326.999	83.26
327.228	85.26
327.457	77.46
327.686	90.66
327.914	79.86
328.143	87.26
328.372	81.06
328.6	82.26
328.829	82.46
329.058	82.66
329.287	86.86
329.515	75.46
329.744	82.66
329.972	87.46
330.201	84.06
330.43	89.66
330.658	86.66
330.887	83.86
331.115	81.26
331.344	88.66
331.572	78.06
331.801	84.66
332.03	88.26
332.258	86.06
332.486	81.06
332.715	84.06
332.943	83.66
333.172	88.86
333.4	82.66
333.629	83.06
333.857	83.86
334.085	81.86
334.314	83.26
334.542	87.26
334.771	78.66
334.999	84.66
335.227	77.46
335.455	86.06
335.684	79.26
335.912	83.86
336.14	85.86
336.369	85.46
336.597	82.86
336.825	83.66
337.053	90.26
337.281	86.86
337.51	80.86
337.738	80.66
337.966	75.86
338.194	85.26
338.422	82.26
338.65	84.06
338.878	89.26
339.106	84.06
339.334	81.46
339.562	86.86
339.79	84.66
340.018	77.26
340.246	84.46
340.474	79.06
340.702	80.46
340.93	81.66
341.158	81.66
341.386	88.26
341.614	81.06
341.842	81.26
342.07	83.86
342.298	79.66
342.526	79.46
342.754	82.86
342.981	84.06
343.209	82.26
343.437	83.66
343.665	80.06
343.893	81.26
344.12	79.66
344.348	83.86
344.576	80.46
344.804	83.66
345.031	81.26
345.259	86.26
345.487	83.86
345.714	81.06
345.942	79.06
346.17	81.46
346.397	80.66
346.625	85.46
346.853	82.06
347.08	83.46
347.308	86.26
347.535	82.86
347.763	86.06
347.99	87.66
348.218	83.86
348.445	86.86
348.673	87.66
348.9	79.86
349.128	81.46
349.355	81.46
349.583	80.06
349.81	81.06
350.037	78.86
350.265	77.86
350.492	82.66
350.72	85.46
350.947	85.66
351.174	87.86
351.402	84.46
351.629	80.66
351.856	83.86
352.083	80.06
352.311	85.46
352.538	78.66
352.765	80.06
352.992	83.26
353.22	74.66
353.447	82.86
353.674	79.86
353.901	83.86
354.128	83.06
354.355	84.86
354.583	85.86
354.81	86.46
355.037	82.26
355.264	80.26
355.491	87.66
355.718	79.06
355.945	81.46
356.172	79.66
356.399	86.26
356.626	88.06
356.853	81.06
357.08	82.06
357.307	82.06
357.534	82.46
357.761	85.46
357.988	80.46
358.215	85.66
358.441	77.46
358.668	79.46
358.895	74.86
359.122	86.06
359.349	82.06
359.576	76.86
359.802	81.06
360.029	82.26
360.256	83.06
360.483	84.06
360.709	80.66
360.936	86.06
361.163	84.26
361.39	81.26
361.616	73.66
361.843	82.26
362.07	84.06
362.296	81.06
362.523	84.26
362.749	80.26
362.976	80.26
363.203	78.06
363.429	80.66
363.656	80.66
363.882	81.66
364.109	87.46
364.335	81.26
364.562	80.26
364.788	84.86
365.015	85.06
365.241	83.26
365.468	79.66
365.694	72.06
365.92	77.06
366.147	83.06
366.373	87.06
366.599	83.86
366.826	76.26
367.052	82.46
367.278	82.86
367.505	85.26
367.731	79.86
367.957	86.26
368.184	84.46
368.41	82.06
368.636	83.86
368.862	80.26
369.089	87.46
369.315	85.26
369.541	85.66
369.767	79.46
369.993	76.86
370.219	82.86
370.445	83.86
370.672	85.86
370.898	80.46
371.124	84.26
371.35	77.86
371.576	85.26
371.802	81.86
372.028	80.86
372.254	83.66
372.48	88.66
372.706	83.26
372.932	88.06
373.158	78.06
373.384	78.86
373.61	82.26
373.835	84.06
374.061	77.26
374.287	80.46
374.513	80.86
374.739	82.46
374.965	77.86
375.191	74.26
375.416	81.26
375.642	86.86
375.868	80.86
376.094	81.26
376.319	85.66
376.545	79.26
376.771	81.66
376.997	85.26
377.222	80.66
377.448	85.86
377.674	79.46
377.899	85.06
378.125	83.06
378.35	78.26
378.576	80.86
378.802	87.66
379.027	79.06
379.253	78.26
379.478	81.66
379.704	75.26
379.929	77.26
380.155	79.46
380.38	74.86
380.606	79.86
380.831	82.86
381.057	81.06
381.282	79.26
381.507	81.46
381.733	74.06
381.958	79.06
382.184	75.46
382.409	82.26
382.634	82.66
382.86	84.66
383.085	79.66
383.31	83.06
383.535	77.86
383.761	81.46
383.986	81.86
384.211	79.06
384.436	79.06
384.662	84.66
384.887	82.46
385.112	76.66
385.337	80.86
385.562	78.06
385.787	81.46
386.013	76.06
386.238	75.66
386.463	82.46
386.688	80.46
386.913	80.86
387.138	79.26
387.363	77.26
387.588	81.46
387.813	79.86
388.038	83.06
388.263	78.46
388.488	82.06
388.713	87.66
388.938	71.26
389.163	76.06
389.387	75.66
389.612	82.66
389.837	76.46
390.062	80.26
390.287	74.86
390.512	81.66
390.736	76.66
390.961	79.66
391.186	83.06
391.411	82.06
391.636	78.06
391.86	84.26
392.085	86.26
392.31	79.66
392.534	78.66
392.759	82.66
392.984	82.26
393.208	84.26
393.433	84.86
393.658	82.06
393.882	87.46
394.107	84.46
394.331	84.06
394.556	84.26
394.78	87.26
395.005	85.86
395.229	77.86
395.454	80.86
395.678	77.66
395.903	78.46
396.127	77.86
396.352	76.46
396.576	82.06
396.801	82.26
397.025	84.66
397.249	76.26
397.474	80.46
397.698	82.66
397.922	81.66
398.147	79.46
398.371	79.66
398.595	81.26
398.82	83.66
399.044	70.66
399.268	80.66
399.492	78.66
399.717	87.66
399.941	80.26
400.165	79.66
400.389	80.26
400.613	78.86
400.837	76.46
401.062	77.06
401.286	79.26
401.51	81.66
401.734	79.46
401.958	75.66
402.182	80.86
402.406	73.86
402.63	81.26
402.854	81.46
403.078	80.26
403.302	77.86
403.526	75.66
403.75	83.86
403.974	80.86
404.198	73.86
404.422	75.86
404.645	81.26
404.869	75.06
405.093	76.66
405.317	73.26
405.541	84.46
405.765	78.66
405.988	81.86
406.212	82.06
406.436	81.66
406.66	79.46
406.883	79.86
407.107	77.06
407.331	83.86
407.555	67.46
407.778	76.06
408.002	78.06
408.226	78.86
408.449	77.86
408.673	75.66
408.896	76.26
409.12	76.06
409.344	87.86
409.567	76.66
409.791	82.06
410.014	77.66
410.238	80.46
410.461	85.46
410.685	85.86
410.908	81.86
411.132	82.26
411.355	78.46
411.578	79.46
411.802	80.66
412.025	78.46
412.249	81.46
412.472	81.86
412.695	72.06
412.919	80.06
413.142	83.66
413.365	80.06
413.589	79.26
413.812	72.06
414.035	83.66
414.258	82.06
414.482	78.66
414.705	75.06
414.928	77.06
415.151	90.06
415.374	81.86
415.597	76.66
415.821	85.06
416.044	81.26
416.267	79.66
416.49	80.26
416.713	80.06
416.936	84.86
417.159	77.46
417.382	80.06
417.605	76.06
417.828	81.26
418.051	79.86
418.274	83.46
418.497	80.86
418.72	80.26
418.943	81.06
419.166	74.86
419.389	80.66
419.611	82.26
419.834	79.86
420.057	75.66
420.28	81.26
420.503	77.26
420.726	74.26
420.948	76.46
421.171	79.06
421.394	83.26
421.617	85.26
421.839	78.06
422.062	79.06
422.285	81.86
422.507	76.86
422.73	80.66
422.953	78.06
423.175	81.86
423.398	84.26
423.621	82.46
423.843	77.86
424.066	71.26
424.288	80.66
424.511	78.26
424.733	77.06
424.956	73.66
425.178	73.86
425.401	74.46
425.623	81.86
425.846	82.46
426.068	74.86
426.291	78.26
426.513	86.06
426.735	79.06
426.958	78.46
427.18	84.26
427.402	80.46
427.625	79.66
427.847	81.06
428.069	79.86
428.292	82.46
428.514	83.86
428.736	81.46
428.958	83.06
429.181	78.46
429.403	82.26
429.625	77.86
429.847	77.86
430.069	80.06
430.292	76.86
430.514	81.46
430.736	79.86
430.958	84.46
431.18	83.86
431.402	80.66
431.624	86.06
431.846	72.66
432.068	74.46
432.29	79.86
432.512	78.86
432.734	79.86
432.956	74.06
433.178	82.06
433.4	80.46
433.622	79.06
433.844	77.66
434.066	81.66
434.287	79.26
434.509	75.26
434.731	77.66
434.953	76.46
435.175	80.66
435.397	79.86
435.618	77.66
435.84	78.26
436.062	80.66
436.284	86.46
436.505	74.26
436.727	76.06
436.949	77.46
437.17	74.26
437.392	82.66
437.614	84.66
437.835	83.06
438.057	84.06
438.278	83.86
438.5	80.26
438.721	81.06
438.943	75.26
439.165	77.06
439.386	77.26
439.608	74.26
439.829	76.46
440.05	80.66
440.272	78.86
440.493	75.46
440.715	82.66
440.936	77.26
441.158	82.06
441.379	83.46
441.6	83.86
441.822	79.86
442.043	78.66
442.264	81.26
442.486	75.26
442.707	76.86
442.928	73.26
443.149	81.66
443.371	79.86
443.592	75.06
443.813	79.86
444.034	81.66
444.255	80.66
444.476	81.46
444.698	74.26
444.919	81.86
445.14	84.26
445.361	85.46
445.582	83.66
445.803	80.66
446.024	77.46
446.245	82.46
446.466	77.66
446.687	72.66
446.908	77.66
447.129	73.66
447.35	72.26
447.571	78.66
447.792	72.66
448.013	78.66
448.234	75.26
448.455	82.26
448.675	78.06
448.896	76.66
449.117	82.06
449.338	78.26
449.559	78.26
449.779	74.26
450	83.26
450.221	79.06
450.442	81.46
450.662	76.46
450.883	78.46
451.104	78.66
451.324	80.66
451.545	78.86
451.766	78.46
451.986	74.26
452.207	83.46
452.428	82.86
452.648	85.86
452.869	74.66
453.089	88.46
453.31	80.06
453.53	82.26
453.751	81.66
453.971	80.26
454.192	83.66
454.412	76.66
454.633	76.06
454.853	85.06
455.073	76.26
455.294	77.46
455.514	79.46
455.734	81.86
455.955	81.26
456.175	81.26
456.395	74.06
456.616	78.46
456.836	73.46
457.056	80.66
457.276	80.06
457.497	74.86
457.717	80.26
457.937	80.26
458.157	81.46
458.377	80.06
458.598	83.46
458.818	79.66
459.038	83.26
459.258	77.66
459.478	72.66
459.698	83.46
459.918	78.86
460.138	76.26
460.358	82.66
460.578	79.06
460.798	84.66
461.018	82.06
461.238	81.46
461.458	76.66
461.678	81.06
461.898	84.26
462.118	81.66
462.338	80.46
462.558	76.26
462.777	82.66
462.997	82.86
463.217	83.86
463.437	71.06
463.657	78.26
463.876	77.26
464.096	84.66
464.316	90.26
464.536	84.06
464.755	83.66
464.975	78.46
465.195	78.46
465.414	74.26
465.634	77.86
465.854	81.66
466.073	80.86
466.293	81.66
466.512	81.06
466.732	78.66
466.951	82.86
467.171	82.06
467.391	83.06
467.61	78.46
467.829	86.26
468.049	81.66
468.268	82.86
468.488	81.86
468.707	86.86
468.927	80.86
469.146	84.66
469.365	80.26
469.585	85.86
469.804	77.46
470.023	73.46
470.243	77.86
470.462	77.06
470.681	79.26
470.901	81.26
471.12	72.66
471.339	77.26
471.558	79.06
471.777	81.86
471.997	82.06
472.216	81.86
472.435	76.06
472.654	77.66
472.873	78.06
473.092	81.26
473.311	76.26
473.53	81.26
473.749	78.46
473.968	74.86
474.187	82.06
474.406	83.26
474.625	80.26
474.844	80.06
475.063	76.46
475.282	75.46
475.501	79.66
475.72	78.66
475.939	85.06
476.158	78.86
476.377	84.46
476.596	80.46
476.814	77.26
477.033	81.66
477.252	79.46
477.471	83.66
477.69	83.46
477.908	78.26
478.127	71.46
478.346	78.66
478.564	81.86
478.783	81.46
479.002	80.06
479.22	76.66
479.439	88.06
479.658	82.06
479.876	76.06
480.095	76.06
480.313	74.46
480.532	76.26
480.751	77.66
480.969	78.26
481.188	77.86
481.406	82.46
481.624	84.86
481.843	84.86
482.061	85.06
482.28	81.06
482.498	83.86
482.717	72.06
482.935	89.06
483.153	84.26
483.372	87.46
483.59	79.26
483.808	77.86
484.027	81.66
484.245	74.06
484.463	84.46
484.681	78.86
484.9	81.66
485.118	84.66
485.336	79.66
485.554	84.46
485.772	83.46
485.99	77.06
486.209	77.46
486.427	75.26
486.645	79.26
486.863	77.46
487.081	77.26
487.299	87.06
487.517	80.66
487.735	85.06
487.953	81.46
488.171	80.26
488.389	80.86
488.607	88.46
488.825	81.66
489.043	76.66
489.261	82.66
489.479	84.66
489.696	79.26
489.914	79.66
490.132	83.46
490.35	85.46
490.568	76.86
490.786	80.46
491.003	78.26
491.221	76.66
491.439	77.66
491.657	76.26
491.874	81.06
492.092	77.06
492.31	84.86
492.527	84.86
492.745	78.66
492.963	83.86
493.18	81.86
493.398	77.26
493.615	83.26
493.833	85.86
494.05	82.26
494.268	74.66
494.485	79.26
494.703	71.26
494.92	81.46
495.138	75.06
495.355	81.46
495.573	78.66
495.79	81.26
496.008	80.66
496.225	82.66
496.442	81.06
496.66	83.26
496.877	78.06
497.094	77.86
497.312	81.26
497.529	83.66
497.746	78.46
497.963	77.06
498.181	83.06
498.398	81.06
498.615	85.06
498.832	77.06
499.049	76.26
499.267	76.26
499.484	84.46
499.701	90.26
499.918	81.46
500.135	83.66
500.352	89.06
500.569	86.26
500.786	79.46
501.003	77.86
501.22	84.86
501.437	83.86
501.654	79.26
501.871	80.86
502.088	81.26
502.305	79.86
502.522	78.06
502.739	81.66
502.956	78.06
503.172	79.26
503.389	82.86
503.606	76.46
503.823	83.46
504.04	74.66
504.256	77.66
504.473	81.86
504.69	79.26
504.907	86.46
505.123	80.66
505.34	77.06
505.557	85.26
505.773	78.86
505.99	86.06
506.207	76.46
506.423	81.06
506.64	77.86
506.856	78.46
507.073	80.26
507.289	79.66
507.506	81.26
507.722	79.06
507.939	84.46
508.155	83.46
508.372	82.26
508.588	80.26
508.805	81.66
509.021	80.46
509.238	80.06
509.454	81.86
509.67	81.86
509.887	82.06
510.103	78.66
510.319	82.26
510.536	73.26
510.752	81.66
510.968	81.66
511.184	81.26
511.401	78.66
511.617	78.86
511.833	81.86
512.049	79.26
512.265	84.86
512.481	82.66
512.698	75.26
512.914	79.06
513.13	82.06
513.346	85.26
513.562	88.06
513.778	83.26
513.994	78.26
514.21	87.66
514.426	85.46
514.642	79.46
514.858	81.86
515.074	80.66
515.29	78.86
515.506	86.86
515.721	81.46
515.937	87.66
516.153	82.66
516.369	74.66
516.585	80.06
516.801	87.26
517.016	87.86
517.232	86.26
517.448	83.86
517.664	83.46
517.879	80.06
518.095	82.26
518.311	88.46
518.527	75.86
518.742	84.86
518.958	80.46
519.173	75.46
519.389	79.86
519.605	84.66
519.82	84.86
520.036	84.06
520.251	82.66
