Data from TenMicroDelayPb_HRD10591_00019.txt Node
Date: Mon Nov 24 14:34:28 EST 2025
User: Yrep
Spectrometer: HR+D1059
Trigger mode: 0
Integration Time (sec): 1.000000E-2
Scans to average: 5
Electric dark correction enabled: true
Nonlinearity correction enabled: false
Boxcar width: 0
XAxis mode: Wavelengths
Number of Pixels in Spectrum: 2048
>>>>>Begin Spectral Data<<<<<
223.165	-20.48
223.4	-20.48
223.635	-20.48
223.869	-24.08
224.104	-13.88
224.338	-15.08
224.573	-16.08
224.808	-15.48
225.042	-6.08
225.277	-9.28
225.511	0.12
225.746	5.72
225.98	10.52
226.215	11.52
226.449	11.72
226.683	18.12
226.918	27.12
227.152	35.52
227.387	32.52
227.621	41.12
227.856	36.52
228.09	44.12
228.324	47.72
228.559	54.92
228.793	54.52
229.027	61.12
229.262	61.52
229.496	62.52
229.73	70.92
229.964	74.12
230.199	64.92
230.433	73.32
230.667	79.92
230.901	80.52
231.136	73.72
231.37	74.52
231.604	77.92
231.838	78.12
232.072	79.72
232.306	83.12
232.541	82.72
232.775	89.92
233.009	87.72
233.243	78.72
233.477	77.72
233.711	79.52
233.945	78.12
234.179	80.92
234.413	84.92
234.647	84.72
234.881	77.12
235.115	83.72
235.349	81.12
235.583	82.12
235.817	75.12
236.051	75.72
236.285	75.72
236.519	76.52
236.753	75.12
236.987	78.12
237.221	75.92
237.455	77.32
237.689	73.32
237.922	74.92
238.156	78.52
238.39	75.32
238.624	73.52
238.858	72.32
239.091	75.92
239.325	75.92
239.559	72.32
239.793	72.12
240.027	70.52
240.26	73.92
240.494	77.32
240.728	68.92
240.961	77.12
241.195	68.32
241.429	73.72
241.662	72.52
241.896	71.92
242.13	74.12
242.363	75.32
242.597	72.72
242.83	76.32
243.064	75.92
243.298	79.92
243.531	73.52
243.765	76.32
243.998	75.52
244.232	77.52
244.465	77.92
244.699	79.12
244.932	80.72
245.166	75.72
245.399	70.72
245.633	80.52
245.866	76.12
246.099	73.72
246.333	77.72
246.566	79.52
246.8	69.72
247.033	79.12
247.266	70.72
247.5	84.32
247.733	76.52
247.966	84.12
248.2	74.52
248.433	81.32
248.666	78.92
248.899	78.12
249.133	72.52
249.366	82.92
249.599	76.72
249.832	79.32
250.066	78.92
250.299	72.52
250.532	73.72
250.765	77.12
250.998	76.72
251.231	73.32
251.465	77.12
251.698	81.72
251.931	84.32
252.164	79.52
252.397	80.52
252.63	80.32
252.863	76.12
253.096	77.72
253.329	78.32
253.562	80.72
253.795	77.72
254.028	77.12
254.261	85.52
254.494	73.92
254.727	77.32
254.96	80.12
255.193	80.32
255.426	73.12
255.659	80.92
255.892	88.32
256.124	80.72
256.357	81.32
256.59	70.32
256.823	72.72
257.056	79.52
257.289	81.52
257.521	79.12
257.754	83.52
257.987	76.32
258.22	74.72
258.452	84.92
258.685	78.92
258.918	83.12
259.151	79.92
259.383	78.52
259.616	83.32
259.849	79.52
260.081	85.72
260.314	81.52
260.547	81.72
260.779	72.72
261.012	84.52
261.244	78.52
261.477	80.92
261.71	80.52
261.942	80.92
262.175	79.32
262.407	83.32
262.64	85.12
262.872	79.32
263.105	85.32
263.337	76.12
263.57	77.32
263.802	71.72
264.035	81.72
264.267	78.92
264.499	80.32
264.732	74.52
264.964	73.32
265.197	77.72
265.429	79.12
265.661	79.92
265.894	91.52
266.126	86.52
266.358	79.52
266.591	81.32
266.823	78.32
267.055	76.92
267.287	85.32
267.52	81.72
267.752	82.92
267.984	85.72
268.216	83.72
268.448	77.92
268.681	81.72
268.913	75.92
269.145	77.52
269.377	78.72
269.609	81.12
269.841	81.12
270.073	82.52
270.306	81.12
270.538	88.12
270.77	85.72
271.002	75.32
271.234	78.72
271.466	85.92
271.698	82.52
271.93	79.72
272.162	77.32
272.394	85.12
272.626	76.72
272.858	83.32
273.09	81.12
273.322	76.12
273.553	78.52
273.785	84.72
274.017	79.92
274.249	82.32
274.481	80.32
274.713	90.52
274.945	77.72
275.176	79.12
275.408	81.32
275.64	89.12
275.872	76.72
276.104	81.72
276.335	90.32
276.567	84.52
276.799	79.92
277.031	78.32
277.262	78.32
277.494	88.32
277.726	80.92
277.957	85.12
278.189	81.12
278.421	85.12
278.652	80.52
278.884	83.32
279.115	86.92
279.347	80.52
279.579	82.12
279.81	79.52
280.042	76.12
280.273	79.32
280.505	81.52
280.736	84.92
280.968	87.32
281.199	82.92
281.431	81.92
281.662	83.72
281.894	84.12
282.125	76.52
282.356	82.12
282.588	86.72
282.819	82.92
283.051	80.32
283.282	78.32
283.513	82.12
283.745	81.12
283.976	75.12
284.207	78.32
284.439	86.32
284.67	83.52
284.901	81.12
285.132	85.32
285.364	84.92
285.595	80.12
285.826	77.52
286.057	79.72
286.288	85.12
286.52	84.72
286.751	84.72
286.982	77.12
287.213	86.72
287.444	86.12
287.675	83.92
287.906	82.72
288.138	83.52
288.369	80.32
288.6	82.32
288.831	83.12
289.062	88.32
289.293	84.72
289.524	76.92
289.755	86.32
289.986	84.52
290.217	82.72
290.448	86.12
290.679	80.32
290.91	85.32
291.141	85.12
291.371	88.72
291.602	80.72
291.833	82.72
292.064	79.72
292.295	86.52
292.526	86.12
292.757	80.12
292.987	84.92
293.218	84.12
293.449	84.72
293.68	83.72
293.91	83.92
294.141	84.72
294.372	78.12
294.603	81.52
294.833	83.32
295.064	83.12
295.295	79.92
295.525	82.72
295.756	77.52
295.987	85.72
296.217	82.12
296.448	85.92
296.679	88.92
296.909	81.32
297.14	84.92
297.37	85.12
297.601	81.32
297.831	85.92
298.062	82.72
298.292	83.92
298.523	87.72
298.753	85.32
298.984	79.12
299.214	86.72
299.445	84.92
299.675	80.12
299.905	81.32
300.136	82.52
300.366	80.32
300.597	83.72
300.827	85.92
301.057	79.72
301.288	83.32
301.518	79.72
301.748	78.72
301.979	79.92
302.209	81.12
302.439	90.32
302.669	84.12
302.9	84.72
303.13	83.52
303.36	80.72
303.59	76.12
303.82	83.12
304.051	83.32
304.281	84.32
304.511	84.32
304.741	83.52
304.971	81.72
305.201	81.92
305.431	84.52
305.661	92.32
305.891	89.92
306.121	84.32
306.352	89.92
306.582	75.52
306.812	79.92
307.042	81.52
307.272	86.32
307.502	86.52
307.731	82.32
307.961	82.32
308.191	82.72
308.421	82.92
308.651	86.12
308.881	80.12
309.111	85.92
309.341	83.52
309.571	85.12
309.8	86.92
310.03	88.52
310.26	74.92
310.49	82.72
310.72	84.92
310.949	87.72
311.179	86.92
311.409	83.12
311.639	80.12
311.868	86.32
312.098	84.92
312.328	84.12
312.557	84.92
312.787	84.52
313.017	82.72
313.246	85.52
313.476	83.72
313.706	80.92
313.935	92.12
314.165	79.12
314.394	82.92
314.624	84.32
314.853	89.32
315.083	85.72
315.312	84.52
315.542	84.72
315.771	87.32
316.001	85.52
316.23	76.32
316.46	79.92
316.689	79.32
316.919	89.12
317.148	87.32
317.377	84.12
317.607	78.32
317.836	88.12
318.065	77.72
318.295	89.32
318.524	89.52
318.753	86.32
318.983	84.92
319.212	83.52
319.441	82.72
319.67	88.92
319.9	82.32
320.129	83.12
320.358	81.92
320.587	78.32
320.816	80.32
321.046	85.12
321.275	80.52
321.504	86.12
321.733	86.12
321.962	85.32
322.191	89.12
322.42	83.32
322.649	86.92
322.878	87.12
323.108	81.32
323.337	82.72
323.566	83.92
323.795	81.52
324.024	82.92
324.253	80.52
324.482	77.92
324.71	84.92
324.939	81.52
325.168	78.72
325.397	83.32
325.626	78.92
325.855	85.72
326.084	81.32
326.313	82.92
326.542	86.12
326.77	90.72
326.999	82.52
327.228	77.32
327.457	87.52
327.686	87.32
327.914	77.72
328.143	81.52
328.372	79.32
328.6	83.12
328.829	89.12
329.058	87.12
329.287	82.32
329.515	83.52
329.744	82.12
329.972	82.52
330.201	80.32
330.43	83.52
330.658	85.32
330.887	83.72
331.115	82.72
331.344	81.72
331.572	78.72
331.801	74.72
332.03	79.12
332.258	80.72
332.486	78.72
332.715	84.52
332.943	84.32
333.172	79.92
333.4	85.92
333.629	81.12
333.857	84.12
334.085	84.12
334.314	81.32
334.542	78.92
334.771	81.92
334.999	83.52
335.227	75.32
335.455	86.52
335.684	81.92
335.912	83.32
336.14	82.12
336.369	85.52
336.597	86.52
336.825	78.52
337.053	76.12
337.281	79.72
337.51	85.52
337.738	88.12
337.966	81.32
338.194	76.92
338.422	83.32
338.65	72.12
338.878	82.12
339.106	77.32
339.334	78.72
339.562	81.32
339.79	84.32
340.018	83.72
340.246	81.72
340.474	75.32
340.702	82.12
340.93	82.92
341.158	76.12
341.386	85.72
341.614	82.12
341.842	84.52
342.07	85.32
342.298	79.72
342.526	82.32
342.754	79.52
342.981	77.72
343.209	80.92
343.437	84.72
343.665	86.52
343.893	82.12
344.12	86.72
344.348	89.12
344.576	79.92
344.804	76.72
345.031	81.32
345.259	73.92
345.487	83.72
345.714	83.72
345.942	85.12
346.17	84.72
346.397	83.52
346.625	84.52
346.853	84.92
347.08	83.72
347.308	79.52
347.535	77.32
347.763	86.92
347.99	82.32
348.218	84.92
348.445	74.12
348.673	78.72
348.9	81.12
349.128	88.72
349.355	86.92
349.583	80.92
349.81	82.72
350.037	79.12
350.265	78.72
350.492	77.72
350.72	80.52
350.947	79.12
351.174	78.92
351.402	76.92
351.629	83.92
351.856	88.72
352.083	89.72
352.311	84.12
352.538	89.52
352.765	79.32
352.992	77.32
353.22	84.32
353.447	72.92
353.674	77.32
353.901	87.12
354.128	79.92
354.355	85.92
354.583	77.72
354.81	80.92
355.037	85.32
355.264	82.32
355.491	84.12
355.718	80.72
355.945	87.52
356.172	83.12
356.399	82.32
356.626	76.32
356.853	83.72
357.08	86.92
357.307	84.72
357.534	85.52
357.761	82.12
357.988	77.32
358.215	83.72
358.441	82.12
358.668	81.12
358.895	80.32
359.122	75.92
359.349	85.92
359.576	86.32
359.802	78.12
360.029	83.72
360.256	84.92
360.483	80.12
360.709	85.92
360.936	89.52
361.163	83.52
361.39	82.72
361.616	84.32
361.843	82.12
362.07	80.52
362.296	81.92
362.523	81.72
362.749	81.32
362.976	87.72
363.203	83.12
363.429	79.52
363.656	81.12
363.882	83.92
364.109	84.12
364.335	86.72
364.562	86.32
364.788	80.52
365.015	83.52
365.241	83.32
365.468	79.92
365.694	83.32
365.92	84.92
366.147	83.12
366.373	77.92
366.599	82.92
366.826	81.72
367.052	86.32
367.278	84.72
367.505	76.92
367.731	83.12
367.957	83.52
368.184	83.92
368.41	80.72
368.636	80.32
368.862	85.12
369.089	87.92
369.315	79.12
369.541	81.52
369.767	77.12
369.993	80.32
370.219	77.72
370.445	81.52
370.672	85.52
370.898	81.92
371.124	88.52
371.35	78.32
371.576	81.32
371.802	82.32
372.028	80.52
372.254	78.32
372.48	85.32
372.706	77.32
372.932	84.52
373.158	81.52
373.384	79.32
373.61	83.72
373.835	75.72
374.061	75.52
374.287	82.32
374.513	81.52
374.739	80.52
374.965	84.12
375.191	84.32
375.416	77.72
375.642	82.72
375.868	76.92
376.094	83.72
376.319	78.72
376.545	84.72
376.771	81.92
376.997	77.92
377.222	81.72
377.448	79.52
377.674	85.72
377.899	82.72
378.125	80.12
378.35	77.12
378.576	82.32
378.802	82.92
379.027	79.92
379.253	88.72
379.478	79.92
379.704	81.52
379.929	78.32
380.155	80.32
380.38	77.92
380.606	79.32
380.831	79.12
381.057	82.92
381.282	82.32
381.507	76.32
381.733	86.12
381.958	77.52
382.184	77.32
382.409	84.72
382.634	77.12
382.86	87.72
383.085	83.92
383.31	82.32
383.535	79.92
383.761	80.72
383.986	82.52
384.211	81.12
384.436	84.72
384.662	84.12
384.887	77.12
385.112	73.92
385.337	80.72
385.562	75.92
385.787	76.12
386.013	80.72
386.238	79.52
386.463	84.32
386.688	81.72
386.913	84.52
387.138	83.52
387.363	87.12
387.588	79.12
387.813	80.32
388.038	85.12
388.263	81.92
388.488	75.52
388.713	77.32
388.938	87.52
389.163	83.72
389.387	78.72
389.612	75.92
389.837	81.32
390.062	83.32
390.287	78.52
390.512	75.12
390.736	85.72
390.961	85.52
391.186	81.12
391.411	77.92
391.636	78.92
391.86	79.92
392.085	77.92
392.31	80.12
392.534	82.92
392.759	77.92
392.984	78.12
393.208	72.32
393.433	82.92
393.658	81.72
393.882	76.12
394.107	79.32
394.331	82.72
394.556	80.52
394.78	81.32
395.005	76.12
395.229	76.32
395.454	82.12
395.678	86.92
395.903	78.72
396.127	87.52
396.352	81.12
396.576	86.12
396.801	84.72
397.025	78.52
397.249	74.52
397.474	81.92
397.698	81.92
397.922	84.32
398.147	83.32
398.371	80.72
398.595	81.32
398.82	85.32
399.044	78.92
399.268	75.12
399.492	77.32
399.717	75.12
399.941	81.12
400.165	85.32
400.389	81.72
400.613	76.92
400.837	74.92
401.062	76.52
401.286	74.32
401.51	82.52
401.734	76.12
401.958	74.92
402.182	84.52
402.406	82.52
402.63	75.92
402.854	83.12
403.078	84.92
403.302	81.12
403.526	79.12
403.75	78.72
403.974	85.32
404.198	79.52
404.422	76.12
404.645	82.92
404.869	85.72
405.093	84.52
405.317	81.52
405.541	85.12
405.765	73.52
405.988	79.52
406.212	80.72
406.436	81.52
406.66	80.32
406.883	80.52
407.107	78.12
407.331	78.52
407.555	81.12
407.778	79.72
408.002	82.12
408.226	78.72
408.449	83.12
408.673	75.52
408.896	84.52
409.12	82.32
409.344	84.32
409.567	81.12
409.791	72.72
410.014	79.92
410.238	77.92
410.461	85.52
410.685	78.72
410.908	85.72
411.132	75.72
411.355	75.92
411.578	70.52
411.802	88.32
412.025	79.92
412.249	76.72
412.472	85.12
412.695	74.12
412.919	81.12
413.142	85.72
413.365	71.72
413.589	76.32
413.812	79.92
414.035	83.92
414.258	83.72
414.482	82.72
414.705	80.52
414.928	79.52
415.151	79.92
415.374	79.32
415.597	76.92
415.821	77.32
416.044	82.52
416.267	83.92
416.49	79.32
416.713	76.32
416.936	85.72
417.159	79.32
417.382	79.32
417.605	80.32
417.828	76.92
418.051	80.52
418.274	79.32
418.497	79.72
418.72	79.52
418.943	80.12
419.166	75.92
419.389	76.32
419.611	72.92
419.834	79.52
420.057	82.92
420.28	76.12
420.503	77.52
420.726	80.12
420.948	79.72
421.171	80.12
421.394	79.72
421.617	81.52
421.839	79.72
422.062	79.32
422.285	76.12
422.507	81.32
422.73	76.52
422.953	76.72
423.175	72.92
423.398	77.52
423.621	77.12
423.843	74.72
424.066	82.12
424.288	80.12
424.511	85.32
424.733	78.52
424.956	78.72
425.178	81.12
425.401	80.52
425.623	76.32
425.846	84.92
426.068	74.72
426.291	78.52
426.513	79.12
426.735	85.52
426.958	86.52
427.18	82.52
427.402	80.12
427.625	75.92
427.847	80.52
428.069	81.12
428.292	79.32
428.514	84.72
428.736	81.32
428.958	75.92
429.181	78.32
429.403	79.92
429.625	78.52
429.847	81.12
430.069	75.32
430.292	81.92
430.514	76.52
430.736	77.32
430.958	76.32
431.18	73.92
431.402	80.12
431.624	73.12
431.846	80.72
432.068	78.92
432.29	76.52
432.512	82.92
432.734	76.72
432.956	72.92
433.178	77.52
433.4	81.32
433.622	74.52
433.844	78.92
434.066	79.92
434.287	80.92
434.509	79.72
434.731	79.72
434.953	79.52
435.175	82.32
435.397	83.12
435.618	72.92
435.84	78.72
436.062	83.72
436.284	74.12
436.505	80.92
436.727	82.52
436.949	77.12
437.17	85.32
437.392	77.32
437.614	84.72
437.835	79.32
438.057	79.12
438.278	74.52
438.5	78.52
438.721	78.72
438.943	81.12
439.165	79.72
439.386	78.52
439.608	83.52
439.829	77.32
440.05	82.92
440.272	79.92
440.493	81.12
440.715	82.12
440.936	79.72
441.158	77.92
441.379	76.52
441.6	80.12
441.822	81.32
442.043	82.72
442.264	88.32
442.486	77.72
442.707	80.12
442.928	80.52
443.149	80.92
443.371	81.32
443.592	79.52
443.813	85.32
444.034	78.12
444.255	76.12
444.476	80.92
444.698	81.32
444.919	74.32
445.14	84.12
445.361	84.32
445.582	81.12
445.803	74.72
446.024	77.12
446.245	80.32
446.466	85.12
446.687	79.72
446.908	75.72
447.129	75.52
447.35	75.72
447.571	74.32
447.792	79.32
448.013	82.92
448.234	77.92
448.455	78.12
448.675	88.72
448.896	71.52
449.117	79.32
449.338	83.32
449.559	83.32
449.779	83.72
450	80.32
450.221	78.72
450.442	80.92
450.662	84.12
450.883	76.32
451.104	78.32
451.324	81.92
451.545	79.72
451.766	76.32
451.986	81.12
452.207	80.92
452.428	85.92
452.648	83.92
452.869	78.72
453.089	75.72
453.31	74.12
453.53	77.52
453.751	77.72
453.971	77.32
454.192	79.12
454.412	75.72
454.633	79.52
454.853	80.12
455.073	80.12
455.294	72.12
455.514	79.52
455.734	78.92
455.955	77.12
456.175	85.12
456.395	82.92
456.616	77.92
456.836	84.72
457.056	84.52
457.276	81.52
457.497	76.92
457.717	76.32
457.937	81.32
458.157	82.92
458.377	80.92
458.598	76.92
458.818	79.92
459.038	69.12
459.258	78.32
459.478	83.72
459.698	82.12
459.918	74.92
460.138	80.52
460.358	76.72
460.578	79.52
460.798	79.92
461.018	81.92
461.238	83.72
461.458	79.92
461.678	79.72
461.898	79.52
462.118	81.52
462.338	79.92
462.558	80.52
462.777	77.92
462.997	89.52
463.217	77.92
463.437	86.52
463.657	84.12
463.876	83.92
464.096	81.12
464.316	88.12
464.536	74.92
464.755	78.92
464.975	78.12
465.195	79.52
465.414	83.52
465.634	81.52
465.854	79.52
466.073	80.12
466.293	80.32
466.512	81.32
466.732	78.12
466.951	80.52
467.171	74.12
467.391	77.92
467.61	77.92
467.829	83.52
468.049	76.12
468.268	82.32
468.488	77.72
468.707	82.72
468.927	84.12
469.146	84.52
469.365	82.12
469.585	81.52
469.804	88.72
470.023	81.72
470.243	85.12
470.462	83.92
470.681	84.72
470.901	78.92
471.12	85.72
471.339	75.32
471.558	85.92
471.777	77.52
471.997	85.52
472.216	74.32
472.435	87.52
472.654	79.52
472.873	75.52
473.092	84.92
473.311	75.72
473.53	83.72
473.749	90.92
473.968	79.92
474.187	77.92
474.406	82.52
474.625	73.72
474.844	79.12
475.063	73.12
475.282	79.92
475.501	83.52
475.72	78.72
475.939	80.92
476.158	78.92
476.377	79.92
476.596	78.72
476.814	90.52
477.033	84.72
477.252	78.52
477.471	81.52
477.69	82.52
477.908	75.12
478.127	82.52
478.346	84.12
478.564	77.72
478.783	84.92
479.002	77.72
479.22	78.52
479.439	80.12
479.658	78.92
479.876	83.12
480.095	83.32
480.313	79.32
480.532	82.72
480.751	84.92
480.969	85.72
481.188	82.12
481.406	83.52
481.624	78.32
481.843	82.72
482.061	77.52
482.28	78.72
482.498	77.52
482.717	77.12
482.935	84.32
483.153	82.12
483.372	78.32
483.59	83.72
483.808	85.12
484.027	80.72
484.245	78.72
484.463	81.12
484.681	85.92
484.9	79.32
485.118	82.92
485.336	82.72
485.554	85.52
485.772	85.32
485.99	82.32
486.209	81.52
486.427	75.52
486.645	77.92
486.863	89.72
487.081	78.92
487.299	84.12
487.517	83.52
487.735	85.12
487.953	82.72
488.171	83.52
488.389	80.72
488.607	78.92
488.825	82.72
489.043	83.52
489.261	82.12
489.479	83.32
489.696	85.72
489.914	79.32
490.132	87.72
490.35	84.92
490.568	75.32
490.786	82.12
491.003	87.52
491.221	80.32
491.439	83.92
491.657	75.32
491.874	78.32
492.092	78.32
492.31	82.12
492.527	87.12
492.745	83.52
492.963	81.92
493.18	85.92
493.398	92.92
493.615	86.12
493.833	82.32
494.05	88.32
494.268	79.12
494.485	77.12
494.703	85.72
494.92	79.12
495.138	86.72
495.355	79.32
495.573	91.12
495.79	77.12
496.008	81.32
496.225	84.92
496.442	86.92
496.66	80.92
496.877	83.92
497.094	83.12
497.312	79.12
497.529	80.12
497.746	80.92
497.963	74.12
498.181	74.72
498.398	77.12
498.615	84.72
498.832	84.92
499.049	80.32
499.267	81.32
499.484	85.52
499.701	77.12
499.918	70.32
500.135	81.12
500.352	76.52
500.569	82.72
500.786	82.92
501.003	83.92
501.22	81.52
501.437	81.72
501.654	74.52
501.871	76.72
502.088	79.52
502.305	85.12
502.522	82.52
502.739	89.32
502.956	81.52
503.172	86.52
503.389	86.52
503.606	87.92
503.823	82.52
504.04	80.12
504.256	80.92
504.473	83.92
504.69	83.52
504.907	85.92
505.123	84.72
505.34	81.92
505.557	82.32
505.773	74.92
505.99	79.52
506.207	82.72
506.423	81.32
506.64	80.12
506.856	80.52
507.073	84.72
507.289	81.52
507.506	74.12
507.722	81.12
507.939	82.52
508.155	82.92
508.372	84.72
508.588	81.52
508.805	89.52
509.021	78.72
509.238	86.52
509.454	84.92
509.67	81.12
509.887	86.52
510.103	85.92
510.319	83.72
510.536	83.32
510.752	86.52
510.968	83.32
511.184	82.52
511.401	82.92
511.617	80.32
511.833	84.32
512.049	86.32
512.265	81.72
512.481	75.92
512.698	80.52
512.914	84.32
513.13	81.92
513.346	85.32
513.562	84.92
513.778	77.92
513.994	78.12
514.21	85.32
514.426	84.32
514.642	79.52
514.858	80.92
515.074	87.92
515.29	80.52
515.506	81.12
515.721	84.92
515.937	82.92
516.153	85.92
516.369	82.92
516.585	77.12
516.801	81.52
517.016	80.72
517.232	75.92
517.448	72.32
517.664	80.72
517.879	77.72
518.095	81.92
518.311	80.12
518.527	86.12
518.742	78.12
518.958	84.52
519.173	79.92
519.389	77.92
519.605	81.52
519.82	82.52
520.036	82.52
520.251	80.32
