Data from TenMicroDelayPb_HRD10591_00015.txt Node
Date: Mon Nov 24 14:34:25 EST 2025
User: Yrep
Spectrometer: HR+D1059
Trigger mode: 0
Integration Time (sec): 1.000000E-2
Scans to average: 5
Electric dark correction enabled: true
Nonlinearity correction enabled: false
Boxcar width: 0
XAxis mode: Wavelengths
Number of Pixels in Spectrum: 2048
>>>>>Begin Spectral Data<<<<<
223.165	-21.86
223.4	-21.86
223.635	-21.86
223.869	-16.86
224.104	-10.46
224.338	-14.66
224.573	-13.66
224.808	-18.46
225.042	-14.66
225.277	-0.06
225.511	-4.26
225.746	-0.46
225.98	10.54
226.215	11.14
226.449	14.14
226.683	23.94
226.918	20.54
227.152	35.14
227.387	32.94
227.621	38.54
227.856	42.94
228.09	45.54
228.324	51.94
228.559	53.74
228.793	57.74
229.027	53.74
229.262	60.94
229.496	60.54
229.73	67.74
229.964	71.34
230.199	78.14
230.433	72.34
230.667	74.14
230.901	79.34
231.136	75.74
231.37	77.14
231.604	78.14
231.838	80.94
232.072	80.74
232.306	78.74
232.541	77.34
232.775	86.54
233.009	79.14
233.243	76.74
233.477	85.14
233.711	79.34
233.945	84.54
234.179	76.94
234.413	83.94
234.647	82.54
234.881	78.74
235.115	75.34
235.349	80.94
235.583	78.94
235.817	81.14
236.051	76.14
236.285	81.54
236.519	71.94
236.753	77.94
236.987	75.94
237.221	79.74
237.455	71.54
237.689	67.54
237.922	77.34
238.156	70.94
238.39	76.34
238.624	71.94
238.858	80.54
239.091	69.34
239.325	74.74
239.559	81.54
239.793	71.94
240.027	70.34
240.26	79.94
240.494	75.74
240.728	82.54
240.961	76.54
241.195	77.34
241.429	87.74
241.662	70.34
241.896	81.34
242.13	79.14
242.363	82.14
242.597	80.34
242.83	82.34
243.064	76.94
243.298	71.74
243.531	76.14
243.765	72.74
243.998	73.34
244.232	75.34
244.465	70.94
244.699	79.54
244.932	76.94
245.166	77.54
245.399	82.34
245.633	74.74
245.866	72.94
246.099	85.14
246.333	79.74
246.566	84.74
246.8	81.74
247.033	77.94
247.266	78.94
247.5	77.14
247.733	76.74
247.966	83.54
248.2	74.74
248.433	77.34
248.666	78.14
248.899	81.34
249.133	80.14
249.366	77.74
249.599	79.74
249.832	80.34
250.066	77.74
250.299	86.54
250.532	80.74
250.765	83.34
250.998	80.74
251.231	78.14
251.465	78.34
251.698	82.14
251.931	85.54
252.164	83.94
252.397	77.34
252.63	81.34
252.863	76.74
253.096	79.34
253.329	83.54
253.562	76.94
253.795	84.14
254.028	80.34
254.261	77.94
254.494	82.54
254.727	78.34
254.96	72.94
255.193	75.94
255.426	78.94
255.659	75.74
255.892	79.14
256.124	75.14
256.357	84.94
256.59	76.34
256.823	81.94
257.056	81.14
257.289	74.94
257.521	79.14
257.754	80.34
257.987	80.34
258.22	76.54
258.452	85.34
258.685	78.14
258.918	81.94
259.151	83.94
259.383	83.34
259.616	80.74
259.849	81.74
260.081	79.34
260.314	79.94
260.547	81.94
260.779	79.14
261.012	78.34
261.244	81.14
261.477	88.74
261.71	82.54
261.942	85.94
262.175	83.34
262.407	85.94
262.64	79.34
262.872	75.14
263.105	81.74
263.337	84.94
263.57	83.94
263.802	77.74
264.035	79.34
264.267	83.14
264.499	75.54
264.732	79.34
264.964	84.74
265.197	77.94
265.429	76.74
265.661	79.94
265.894	78.94
266.126	78.74
266.358	78.94
266.591	80.74
266.823	81.34
267.055	80.94
267.287	79.94
267.52	72.74
267.752	80.34
267.984	78.54
268.216	82.54
268.448	77.34
268.681	78.94
268.913	79.34
269.145	81.14
269.377	78.54
269.609	77.14
269.841	86.54
270.073	85.54
270.306	79.14
270.538	84.54
270.77	80.54
271.002	77.94
271.234	77.94
271.466	77.74
271.698	80.74
271.93	81.34
272.162	84.14
272.394	81.34
272.626	80.74
272.858	79.34
273.09	77.14
273.322	89.54
273.553	84.14
273.785	85.54
274.017	84.54
274.249	83.94
274.481	85.54
274.713	89.34
274.945	79.54
275.176	82.94
275.408	80.14
275.64	85.14
275.872	80.34
276.104	80.34
276.335	82.54
276.567	85.14
276.799	81.94
277.031	80.34
277.262	83.14
277.494	78.94
277.726	83.54
277.957	81.74
278.189	84.34
278.421	91.14
278.652	84.74
278.884	77.54
279.115	88.34
279.347	84.94
279.579	79.54
279.81	80.94
280.042	84.94
280.273	78.74
280.505	84.34
280.736	87.54
280.968	81.74
281.199	78.94
281.431	91.94
281.662	88.14
281.894	82.14
282.125	85.34
282.356	84.94
282.588	80.14
282.819	83.14
283.051	83.54
283.282	74.34
283.513	82.94
283.745	86.94
283.976	79.54
284.207	78.94
284.439	86.34
284.67	85.74
284.901	77.94
285.132	84.34
285.364	87.54
285.595	86.34
285.826	83.54
286.057	85.74
286.288	84.34
286.52	79.34
286.751	79.34
286.982	81.34
287.213	87.14
287.444	80.74
287.675	87.14
287.906	84.54
288.138	90.74
288.369	78.34
288.6	87.14
288.831	83.74
289.062	86.94
289.293	80.14
289.524	75.14
289.755	79.54
289.986	85.54
290.217	86.94
290.448	83.54
290.679	88.74
290.91	80.54
291.141	88.14
291.371	88.34
291.602	78.94
291.833	79.94
292.064	83.14
292.295	85.14
292.526	82.94
292.757	86.74
292.987	88.54
293.218	89.54
293.449	87.54
293.68	87.34
293.91	84.74
294.141	80.54
294.372	78.74
294.603	82.74
294.833	79.94
295.064	86.94
295.295	83.54
295.525	82.14
295.756	80.54
295.987	85.54
296.217	75.14
296.448	80.54
296.679	82.74
296.909	86.34
297.14	80.94
297.37	88.14
297.601	83.94
297.831	87.14
298.062	81.74
298.292	84.14
298.523	75.14
298.753	80.94
298.984	80.94
299.214	87.54
299.445	86.14
299.675	83.74
299.905	82.94
300.136	80.14
300.366	81.94
300.597	89.14
300.827	89.94
301.057	88.54
301.288	83.54
301.518	88.74
301.748	79.34
301.979	91.14
302.209	85.34
302.439	84.94
302.669	80.94
302.9	84.54
303.13	80.34
303.36	85.14
303.59	87.74
303.82	87.14
304.051	80.54
304.281	88.94
304.511	87.14
304.741	80.94
304.971	83.74
305.201	84.54
305.431	78.54
305.661	82.94
305.891	83.54
306.121	77.54
306.352	87.74
306.582	83.94
306.812	86.34
307.042	82.54
307.272	74.34
307.502	83.94
307.731	82.34
307.961	79.34
308.191	81.94
308.421	81.14
308.651	80.34
308.881	85.74
309.111	80.94
309.341	82.54
309.571	86.34
309.8	84.54
310.03	84.34
310.26	84.34
310.49	88.14
310.72	77.34
310.949	93.94
311.179	87.74
311.409	81.94
311.639	84.94
311.868	85.94
312.098	85.94
312.328	83.74
312.557	84.34
312.787	81.34
313.017	88.54
313.246	82.54
313.476	83.34
313.706	82.74
313.935	84.34
314.165	79.94
314.394	85.54
314.624	86.54
314.853	86.14
315.083	90.34
315.312	79.94
315.542	76.34
315.771	81.74
316.001	86.74
316.23	83.14
316.46	80.94
316.689	85.94
316.919	81.14
317.148	83.34
317.377	85.74
317.607	88.14
317.836	86.34
318.065	86.34
318.295	86.14
318.524	75.74
318.753	83.54
318.983	85.94
319.212	85.14
319.441	87.74
319.67	84.94
319.9	83.14
320.129	80.94
320.358	84.94
320.587	84.54
320.816	82.14
321.046	79.14
321.275	90.54
321.504	82.94
321.733	79.94
321.962	82.94
322.191	81.54
322.42	80.14
322.649	80.34
322.878	83.54
323.108	77.74
323.337	81.14
323.566	83.14
323.795	81.54
324.024	81.34
324.253	79.54
324.482	79.34
324.71	84.94
324.939	86.74
325.168	82.74
325.397	79.14
325.626	84.34
325.855	80.14
326.084	80.74
326.313	84.94
326.542	83.74
326.77	86.14
326.999	89.14
327.228	90.14
327.457	89.94
327.686	84.94
327.914	77.94
328.143	88.34
328.372	83.34
328.6	80.54
328.829	89.14
329.058	85.34
329.287	75.34
329.515	84.74
329.744	80.54
329.972	87.34
330.201	85.34
330.43	82.74
330.658	81.54
330.887	82.94
331.115	86.34
331.344	83.94
331.572	82.74
331.801	87.34
332.03	86.94
332.258	77.34
332.486	78.54
332.715	83.14
332.943	81.34
333.172	82.54
333.4	80.54
333.629	85.74
333.857	83.74
334.085	82.54
334.314	81.74
334.542	90.94
334.771	81.74
334.999	84.74
335.227	80.74
335.455	93.94
335.684	86.14
335.912	86.34
336.14	79.74
336.369	83.34
336.597	80.14
336.825	83.94
337.053	87.34
337.281	84.94
337.51	88.54
337.738	84.74
337.966	83.54
338.194	88.14
338.422	85.34
338.65	82.94
338.878	84.74
339.106	87.94
339.334	85.54
339.562	84.74
339.79	84.94
340.018	81.54
340.246	80.34
340.474	79.94
340.702	79.54
340.93	83.94
341.158	79.34
341.386	82.94
341.614	79.34
341.842	82.74
342.07	86.74
342.298	83.74
342.526	89.34
342.754	84.54
342.981	79.34
343.209	85.54
343.437	86.34
343.665	79.54
343.893	83.94
344.12	86.74
344.348	84.14
344.576	82.74
344.804	83.34
345.031	85.54
345.259	88.54
345.487	84.34
345.714	88.34
345.942	80.74
346.17	86.94
346.397	79.14
346.625	83.34
346.853	85.14
347.08	84.94
347.308	80.94
347.535	84.54
347.763	87.54
347.99	82.54
348.218	87.34
348.445	85.74
348.673	81.34
348.9	76.74
349.128	86.54
349.355	84.14
349.583	87.14
349.81	82.54
350.037	84.74
350.265	88.34
350.492	81.14
350.72	83.54
350.947	89.54
351.174	82.34
351.402	80.34
351.629	83.94
351.856	80.54
352.083	84.74
352.311	82.74
352.538	82.14
352.765	81.34
352.992	86.14
353.22	81.94
353.447	78.74
353.674	84.54
353.901	81.34
354.128	86.54
354.355	81.54
354.583	89.14
354.81	78.54
355.037	80.54
355.264	82.94
355.491	87.54
355.718	80.74
355.945	88.74
356.172	84.54
356.399	82.94
356.626	83.94
356.853	79.94
357.08	81.74
357.307	82.74
357.534	77.34
357.761	76.34
357.988	87.14
358.215	86.34
358.441	80.54
358.668	80.74
358.895	84.94
359.122	83.74
359.349	79.94
359.576	77.14
359.802	79.14
360.029	81.94
360.256	78.74
360.483	82.94
360.709	81.74
360.936	82.54
361.163	78.54
361.39	82.14
361.616	85.14
361.843	80.34
362.07	85.34
362.296	75.54
362.523	79.34
362.749	82.54
362.976	91.54
363.203	74.34
363.429	82.54
363.656	81.54
363.882	83.34
364.109	76.94
364.335	79.74
364.562	82.94
364.788	78.34
365.015	79.34
365.241	79.74
365.468	77.54
365.694	81.74
365.92	86.54
366.147	80.54
366.373	76.94
366.599	74.54
366.826	85.14
367.052	76.54
367.278	79.34
367.505	87.74
367.731	86.14
367.957	77.54
368.184	83.54
368.41	80.54
368.636	81.14
368.862	86.34
369.089	81.54
369.315	76.94
369.541	90.14
369.767	89.34
369.993	90.34
370.219	88.54
370.445	82.94
370.672	81.74
370.898	83.74
371.124	86.34
371.35	84.34
371.576	79.74
371.802	78.54
372.028	79.94
372.254	80.34
372.48	79.34
372.706	80.94
372.932	83.54
373.158	84.74
373.384	81.74
373.61	85.54
373.835	84.74
374.061	78.34
374.287	79.94
374.513	88.54
374.739	80.34
374.965	77.94
375.191	78.34
375.416	84.34
375.642	81.94
375.868	76.54
376.094	86.34
376.319	81.34
376.545	78.54
376.771	81.14
376.997	75.74
377.222	78.54
377.448	82.94
377.674	80.54
377.899	86.34
378.125	81.74
378.35	84.74
378.576	81.34
378.802	75.54
379.027	83.54
379.253	83.74
379.478	78.74
379.704	86.34
379.929	81.74
380.155	78.34
380.38	84.74
380.606	83.94
380.831	83.74
381.057	81.94
381.282	76.14
381.507	80.54
381.733	79.94
381.958	81.94
382.184	82.54
382.409	80.94
382.634	87.14
382.86	75.34
383.085	86.94
383.31	80.34
383.535	82.14
383.761	78.14
383.986	81.54
384.211	80.54
384.436	87.34
384.662	80.14
384.887	82.14
385.112	85.74
385.337	83.14
385.562	84.14
385.787	91.34
386.013	81.74
386.238	80.74
386.463	81.94
386.688	86.94
386.913	73.94
387.138	81.54
387.363	80.34
387.588	77.54
387.813	81.54
388.038	80.94
388.263	82.54
388.488	81.74
388.713	83.54
388.938	82.34
389.163	75.74
389.387	83.34
389.612	74.34
389.837	83.14
390.062	76.14
390.287	80.74
390.512	85.74
390.736	79.74
390.961	78.34
391.186	79.34
391.411	88.54
391.636	82.94
391.86	76.54
392.085	79.74
392.31	82.74
392.534	84.54
392.759	87.74
392.984	80.14
393.208	83.14
393.433	80.54
393.658	79.54
393.882	83.94
394.107	83.34
394.331	84.94
394.556	82.94
394.78	81.74
395.005	75.34
395.229	79.34
395.454	88.94
395.678	84.94
395.903	83.14
396.127	86.14
396.352	82.74
396.576	77.14
396.801	84.54
397.025	77.74
397.249	76.14
397.474	79.74
397.698	84.34
397.922	80.34
398.147	79.74
398.371	82.34
398.595	76.94
398.82	78.14
399.044	76.34
399.268	78.54
399.492	80.34
399.717	79.14
399.941	77.54
400.165	81.54
400.389	81.14
400.613	81.94
400.837	77.14
401.062	83.74
401.286	80.14
401.51	87.34
401.734	77.94
401.958	85.74
402.182	78.94
402.406	71.74
402.63	80.54
402.854	80.74
403.078	84.74
403.302	80.74
403.526	78.74
403.75	83.74
403.974	82.14
404.198	79.14
404.422	82.54
404.645	76.74
404.869	79.94
405.093	80.14
405.317	75.54
405.541	84.34
405.765	82.54
405.988	81.94
406.212	85.74
406.436	80.94
406.66	78.34
406.883	76.34
407.107	78.54
407.331	79.34
407.555	86.34
407.778	74.54
408.002	81.74
408.226	78.94
408.449	78.14
408.673	78.74
408.896	85.54
409.12	76.94
409.344	79.94
409.567	83.34
409.791	74.54
410.014	75.34
410.238	83.94
410.461	82.74
410.685	80.34
410.908	82.14
411.132	79.94
411.355	76.54
411.578	79.14
411.802	77.54
412.025	82.54
412.249	76.14
412.472	77.14
412.695	78.34
412.919	72.34
413.142	85.74
413.365	79.14
413.589	72.34
413.812	81.74
414.035	83.34
414.258	80.54
414.482	78.34
414.705	82.34
414.928	81.14
415.151	81.54
415.374	79.34
415.597	84.14
415.821	78.94
416.044	77.34
416.267	79.14
416.49	82.74
416.713	79.74
416.936	73.74
417.159	82.94
417.382	85.34
417.605	79.54
417.828	81.54
418.051	79.94
418.274	77.74
418.497	77.14
418.72	80.34
418.943	78.94
419.166	78.74
419.389	81.74
419.611	81.54
419.834	83.14
420.057	76.94
420.28	84.94
420.503	75.14
420.726	83.14
420.948	88.74
421.171	80.34
421.394	82.34
421.617	80.14
421.839	81.74
422.062	82.14
422.285	87.94
422.507	80.74
422.73	80.94
422.953	85.14
423.175	80.74
423.398	75.34
423.621	82.54
423.843	79.94
424.066	84.34
424.288	77.54
424.511	80.14
424.733	78.94
424.956	77.54
425.178	77.14
425.401	78.14
425.623	73.54
425.846	81.54
426.068	82.74
426.291	80.14
426.513	79.74
426.735	82.34
426.958	84.54
427.18	83.14
427.402	90.14
427.625	84.54
427.847	84.74
428.069	81.54
428.292	81.54
428.514	80.14
428.736	80.14
428.958	78.34
429.181	80.14
429.403	80.74
429.625	83.94
429.847	83.74
430.069	77.34
430.292	82.74
430.514	86.14
430.736	87.14
430.958	77.14
431.18	82.34
431.402	74.34
431.624	80.74
431.846	79.94
432.068	87.14
432.29	85.94
432.512	81.94
432.734	77.94
432.956	87.34
433.178	74.34
433.4	78.94
433.622	81.94
433.844	81.74
434.066	76.94
434.287	80.74
434.509	83.74
434.731	77.34
434.953	78.74
435.175	84.34
435.397	76.34
435.618	78.74
435.84	82.54
436.062	79.94
436.284	76.34
436.505	76.34
436.727	82.14
436.949	80.14
437.17	72.74
437.392	77.54
437.614	79.94
437.835	83.34
438.057	85.14
438.278	81.14
438.5	79.54
438.721	80.94
438.943	77.94
439.165	73.14
439.386	77.14
439.608	77.54
439.829	82.74
440.05	85.54
440.272	71.94
440.493	82.34
440.715	81.94
440.936	77.74
441.158	80.14
441.379	72.34
441.6	79.94
441.822	83.74
442.043	80.14
442.264	78.34
442.486	77.14
442.707	81.74
442.928	80.74
443.149	85.54
443.371	82.14
443.592	81.34
443.813	81.54
444.034	81.54
444.255	78.74
444.476	82.14
444.698	84.74
444.919	85.54
445.14	89.74
445.361	81.54
445.582	80.74
445.803	84.74
446.024	85.94
446.245	82.74
446.466	83.94
446.687	79.14
446.908	79.74
447.129	77.94
447.35	79.14
447.571	75.34
447.792	76.54
448.013	76.14
448.234	86.14
448.455	76.74
448.675	82.94
448.896	81.34
449.117	81.54
449.338	79.54
449.559	78.74
449.779	76.54
450	79.14
450.221	73.74
450.442	83.74
450.662	77.34
450.883	81.34
451.104	80.74
451.324	80.34
451.545	73.94
451.766	72.14
451.986	86.54
452.207	83.74
452.428	85.14
452.648	82.54
452.869	83.34
453.089	85.34
453.31	74.74
453.53	81.94
453.751	83.14
453.971	78.34
454.192	84.54
454.412	75.94
454.633	85.74
454.853	73.74
455.073	82.54
455.294	80.74
455.514	86.54
455.734	83.54
455.955	84.54
456.175	86.54
456.395	85.94
456.616	72.14
456.836	79.94
457.056	73.54
457.276	79.14
457.497	80.74
457.717	80.14
457.937	85.14
458.157	81.74
458.377	82.74
458.598	79.14
458.818	84.94
459.038	84.74
459.258	83.74
459.478	86.74
459.698	87.74
459.918	80.34
460.138	79.14
460.358	84.14
460.578	76.54
460.798	80.54
461.018	81.54
461.238	81.34
461.458	83.74
461.678	81.14
461.898	78.74
462.118	85.34
462.338	80.54
462.558	79.94
462.777	77.14
462.997	81.54
463.217	74.34
463.437	81.14
463.657	76.34
463.876	81.14
464.096	80.14
464.316	85.54
464.536	84.94
464.755	77.34
464.975	82.34
465.195	77.94
465.414	83.54
465.634	82.34
465.854	82.34
466.073	77.94
466.293	88.14
466.512	79.94
466.732	83.94
466.951	80.94
467.171	81.94
467.391	82.34
467.61	85.14
467.829	83.74
468.049	80.34
468.268	80.74
468.488	84.74
468.707	80.34
468.927	84.74
469.146	82.54
469.365	78.34
469.585	85.74
469.804	75.14
470.023	80.14
470.243	84.94
470.462	83.54
470.681	83.54
470.901	80.94
471.12	79.14
471.339	78.34
471.558	78.74
471.777	84.54
471.997	81.74
472.216	84.94
472.435	85.34
472.654	80.54
472.873	89.94
473.092	78.74
473.311	85.34
473.53	81.14
473.749	76.74
473.968	86.94
474.187	83.94
474.406	81.94
474.625	80.74
474.844	82.34
475.063	78.34
475.282	84.14
475.501	73.94
475.72	85.34
475.939	85.74
476.158	79.94
476.377	76.74
476.596	76.74
476.814	83.14
477.033	79.94
477.252	80.74
477.471	82.54
477.69	85.54
477.908	84.94
478.127	82.14
478.346	83.14
478.564	81.74
478.783	83.34
479.002	81.74
479.22	79.54
479.439	77.74
479.658	83.74
479.876	83.34
480.095	79.34
480.313	77.74
480.532	85.54
480.751	77.54
480.969	85.54
481.188	83.74
481.406	79.54
481.624	81.74
481.843	83.54
482.061	81.14
482.28	76.94
482.498	85.74
482.717	83.14
482.935	81.74
483.153	81.34
483.372	77.14
483.59	85.94
483.808	87.94
484.027	81.54
484.245	83.54
484.463	76.94
484.681	79.54
484.9	81.54
485.118	78.94
485.336	80.34
485.554	84.94
485.772	76.54
485.99	86.54
486.209	80.74
486.427	80.34
486.645	85.54
486.863	74.14
487.081	84.74
487.299	89.94
487.517	85.14
487.735	79.94
487.953	80.94
488.171	80.94
488.389	85.34
488.607	76.34
488.825	82.34
489.043	76.94
489.261	81.14
489.479	87.14
489.696	80.34
489.914	82.14
490.132	84.94
490.35	81.94
490.568	78.74
490.786	84.54
491.003	78.14
491.221	87.54
491.439	76.74
491.657	83.34
491.874	80.74
492.092	79.34
492.31	82.74
492.527	83.54
492.745	82.54
492.963	75.34
493.18	78.74
493.398	83.34
493.615	79.74
493.833	81.74
494.05	79.14
494.268	89.14
494.485	82.54
494.703	83.74
494.92	77.14
495.138	83.94
495.355	81.14
495.573	87.34
495.79	77.54
496.008	81.34
496.225	77.94
496.442	85.74
496.66	82.94
496.877	79.74
497.094	82.94
497.312	82.74
497.529	82.34
497.746	75.14
497.963	84.74
498.181	78.34
498.398	89.34
498.615	82.54
498.832	79.54
499.049	77.94
499.267	79.34
499.484	73.34
499.701	76.74
499.918	84.34
500.135	81.54
500.352	79.74
500.569	81.34
500.786	87.14
501.003	83.14
501.22	84.54
501.437	79.34
501.654	77.94
501.871	85.74
502.088	87.14
502.305	87.94
502.522	84.74
502.739	79.94
502.956	81.94
503.172	81.94
503.389	76.14
503.606	76.94
503.823	87.14
504.04	80.14
504.256	83.94
504.473	73.74
504.69	82.34
504.907	78.14
505.123	82.74
505.34	81.94
505.557	84.34
505.773	78.94
505.99	78.94
506.207	85.94
506.423	88.74
506.64	82.54
506.856	81.34
507.073	84.54
507.289	86.74
507.506	82.94
507.722	73.54
507.939	81.54
508.155	81.54
508.372	80.94
508.588	81.74
508.805	83.14
509.021	85.54
509.238	88.14
509.454	79.54
509.67	76.94
509.887	80.94
510.103	83.54
510.319	87.74
510.536	80.74
510.752	78.74
510.968	86.94
511.184	80.34
511.401	83.34
511.617	82.34
511.833	83.14
512.049	80.74
512.265	85.74
512.481	81.94
512.698	87.74
512.914	85.74
513.13	78.14
513.346	81.14
513.562	86.54
513.778	83.54
513.994	77.34
514.21	84.54
514.426	78.54
514.642	87.14
514.858	78.94
515.074	82.94
515.29	83.94
515.506	80.94
515.721	83.74
515.937	77.54
516.153	84.14
516.369	89.34
516.585	78.54
516.801	84.14
517.016	82.54
517.232	80.54
517.448	86.94
517.664	87.74
517.879	80.14
518.095	83.34
518.311	82.94
518.527	79.94
518.742	80.54
518.958	79.34
519.173	82.54
519.389	80.94
519.605	77.14
519.82	87.74
520.036	86.14
520.251	83.54
