Data from TenMicroDelayPb_HRD10591_00005.txt Node
Date: Mon Nov 24 14:34:24 EST 2025
User: Yrep
Spectrometer: HR+D1059
Trigger mode: 0
Integration Time (sec): 1.000000E-2
Scans to average: 5
Electric dark correction enabled: true
Nonlinearity correction enabled: false
Boxcar width: 0
XAxis mode: Wavelengths
Number of Pixels in Spectrum: 2048
>>>>>Begin Spectral Data<<<<<
223.165	-18.95
223.4	-18.95
223.635	-18.95
223.869	-18.75
224.104	-17.55
224.338	-18.35
224.573	-10.55
224.808	-10.75
225.042	-3.95
225.277	-5.95
225.511	-8.75
225.746	2.85
225.98	3.05
226.215	12.85
226.449	16.05
226.683	16.65
226.918	28.45
227.152	33.65
227.387	35.65
227.621	37.85
227.856	37.25
228.09	43.05
228.324	54.65
228.559	53.85
228.793	58.05
229.027	66.65
229.262	65.05
229.496	66.65
229.73	67.05
229.964	64.85
230.199	71.45
230.433	77.05
230.667	72.25
230.901	81.85
231.136	79.25
231.37	76.45
231.604	72.45
231.838	79.05
232.072	83.65
232.306	86.05
232.541	86.05
232.775	85.25
233.009	83.05
233.243	84.85
233.477	81.65
233.711	78.85
233.945	80.45
234.179	79.85
234.413	78.85
234.647	81.85
234.881	85.25
235.115	84.05
235.349	75.85
235.583	79.85
235.817	77.45
236.051	76.45
236.285	79.45
236.519	75.05
236.753	74.65
236.987	76.65
237.221	80.45
237.455	80.05
237.689	74.45
237.922	75.45
238.156	70.05
238.39	69.25
238.624	79.45
238.858	77.05
239.091	73.45
239.325	77.85
239.559	77.85
239.793	77.85
240.027	79.85
240.26	76.25
240.494	68.25
240.728	67.85
240.961	70.85
241.195	71.65
241.429	74.45
241.662	70.65
241.896	74.65
242.13	69.05
242.363	79.25
242.597	73.25
242.83	81.25
243.064	77.25
243.298	79.65
243.531	77.05
243.765	77.25
243.998	83.65
244.232	75.25
244.465	77.45
244.699	73.85
244.932	83.05
245.166	73.05
245.399	77.05
245.633	77.85
245.866	74.45
246.099	79.85
246.333	77.65
246.566	77.45
246.8	77.05
247.033	73.25
247.266	81.05
247.5	78.25
247.733	79.25
247.966	74.65
248.2	76.05
248.433	74.85
248.666	73.25
248.899	78.65
249.133	77.25
249.366	80.05
249.599	76.25
249.832	79.05
250.066	80.45
250.299	81.85
250.532	72.85
250.765	73.85
250.998	71.65
251.231	81.05
251.465	75.85
251.698	78.25
251.931	82.45
252.164	85.05
252.397	85.05
252.63	77.45
252.863	87.45
253.096	83.05
253.329	80.85
253.562	77.05
253.795	83.45
254.028	82.65
254.261	79.25
254.494	79.45
254.727	73.05
254.96	85.25
255.193	79.65
255.426	81.45
255.659	73.45
255.892	75.45
256.124	74.25
256.357	83.65
256.59	76.85
256.823	75.45
257.056	74.25
257.289	79.85
257.521	77.25
257.754	77.85
257.987	85.05
258.22	76.25
258.452	77.05
258.685	76.85
258.918	79.05
259.151	81.05
259.383	79.45
259.616	81.85
259.849	80.45
260.081	80.05
260.314	78.25
260.547	84.85
260.779	78.25
261.012	79.05
261.244	79.05
261.477	74.05
261.71	79.25
261.942	76.65
262.175	80.25
262.407	77.05
262.64	79.25
262.872	75.85
263.105	80.45
263.337	82.05
263.57	81.85
263.802	75.45
264.035	81.05
264.267	81.65
264.499	81.05
264.732	79.85
264.964	80.65
265.197	80.65
265.429	82.65
265.661	81.05
265.894	79.05
266.126	85.25
266.358	84.85
266.591	77.45
266.823	88.05
267.055	77.25
267.287	80.45
267.52	81.85
267.752	86.05
267.984	83.05
268.216	86.25
268.448	83.65
268.681	75.85
268.913	85.05
269.145	82.05
269.377	84.65
269.609	80.05
269.841	80.65
270.073	79.85
270.306	82.25
270.538	82.45
270.77	81.85
271.002	82.65
271.234	80.85
271.466	82.65
271.698	85.45
271.93	82.85
272.162	80.25
272.394	82.05
272.626	78.05
272.858	85.85
273.09	88.05
273.322	86.05
273.553	77.85
273.785	89.65
274.017	77.45
274.249	85.45
274.481	82.85
274.713	88.05
274.945	86.45
275.176	88.85
275.408	86.85
275.64	85.05
275.872	83.65
276.104	84.25
276.335	78.85
276.567	81.85
276.799	81.65
277.031	86.25
277.262	80.05
277.494	87.45
277.726	79.25
277.957	79.65
278.189	87.05
278.421	82.45
278.652	81.65
278.884	83.65
279.115	84.05
279.347	81.45
279.579	79.45
279.81	81.85
280.042	79.45
280.273	79.05
280.505	87.05
280.736	81.85
280.968	82.05
281.199	80.05
281.431	77.65
281.662	77.65
281.894	88.05
282.125	80.45
282.356	88.85
282.588	87.65
282.819	81.45
283.051	83.05
283.282	85.85
283.513	81.85
283.745	81.85
283.976	81.65
284.207	87.25
284.439	85.25
284.67	80.05
284.901	87.05
285.132	84.65
285.364	78.65
285.595	82.25
285.826	87.65
286.057	80.25
286.288	87.05
286.52	84.85
286.751	89.45
286.982	94.05
287.213	93.05
287.444	93.25
287.675	86.85
287.906	84.25
288.138	83.85
288.369	85.45
288.6	93.25
288.831	80.25
289.062	82.85
289.293	82.05
289.524	81.25
289.755	80.65
289.986	81.25
290.217	79.65
290.448	80.25
290.679	80.65
290.91	85.25
291.141	86.25
291.371	84.05
291.602	83.05
291.833	85.85
292.064	86.65
292.295	89.65
292.526	78.85
292.757	90.45
292.987	86.65
293.218	85.25
293.449	83.85
293.68	80.85
293.91	84.25
294.141	87.05
294.372	86.25
294.603	84.65
294.833	80.85
295.064	91.25
295.295	86.65
295.525	87.05
295.756	85.05
295.987	82.05
296.217	83.45
296.448	89.45
296.679	87.05
296.909	86.25
297.14	81.45
297.37	77.65
297.601	85.05
297.831	86.45
298.062	80.65
298.292	91.05
298.523	89.05
298.753	83.85
298.984	84.65
299.214	81.65
299.445	81.25
299.675	84.85
299.905	84.05
300.136	81.85
300.366	83.05
300.597	84.65
300.827	76.05
301.057	87.25
301.288	82.45
301.518	84.45
301.748	90.65
301.979	86.65
302.209	77.65
302.439	83.05
302.669	82.65
302.9	81.85
303.13	86.45
303.36	83.85
303.59	87.85
303.82	88.65
304.051	89.85
304.281	87.85
304.511	86.65
304.741	86.45
304.971	81.65
305.201	87.05
305.431	82.45
305.661	82.65
305.891	85.85
306.121	85.85
306.352	80.85
306.582	88.45
306.812	86.05
307.042	79.65
307.272	83.45
307.502	85.25
307.731	92.45
307.961	82.45
308.191	84.45
308.421	86.05
308.651	91.25
308.881	81.25
309.111	84.65
309.341	86.05
309.571	86.05
309.8	82.05
310.03	83.85
310.26	81.65
310.49	87.85
310.72	79.65
310.949	80.45
311.179	79.65
311.409	82.45
311.639	88.05
311.868	82.25
312.098	87.65
312.328	85.25
312.557	86.25
312.787	85.65
313.017	85.05
313.246	79.65
313.476	79.85
313.706	79.25
313.935	82.65
314.165	79.45
314.394	82.45
314.624	84.05
314.853	90.25
315.083	88.65
315.312	82.85
315.542	85.05
315.771	82.25
316.001	77.25
316.23	81.65
316.46	82.45
316.689	77.25
316.919	90.85
317.148	84.25
317.377	84.45
317.607	85.45
317.836	89.65
318.065	79.85
318.295	83.25
318.524	87.05
318.753	84.85
318.983	84.05
319.212	91.85
319.441	87.45
319.67	89.85
319.9	82.05
320.129	88.85
320.358	81.25
320.587	81.25
320.816	80.65
321.046	82.45
321.275	86.05
321.504	85.05
321.733	83.25
321.962	83.25
322.191	78.65
322.42	82.85
322.649	84.85
322.878	92.25
323.108	85.45
323.337	83.85
323.566	84.05
323.795	86.85
324.024	86.05
324.253	85.05
324.482	83.45
324.71	86.05
324.939	88.65
325.168	85.25
325.397	84.85
325.626	83.65
325.855	84.25
326.084	84.05
326.313	90.45
326.542	88.05
326.77	83.85
326.999	86.65
327.228	83.65
327.457	86.85
327.686	81.85
327.914	89.85
328.143	84.45
328.372	82.45
328.6	84.65
328.829	91.45
329.058	82.85
329.287	80.45
329.515	84.65
329.744	85.25
329.972	87.05
330.201	84.05
330.43	86.05
330.658	83.85
330.887	82.85
331.115	79.65
331.344	84.65
331.572	81.45
331.801	88.05
332.03	84.45
332.258	84.65
332.486	87.05
332.715	82.85
332.943	76.25
333.172	75.45
333.4	81.85
333.629	86.45
333.857	87.25
334.085	93.85
334.314	84.65
334.542	84.65
334.771	83.65
334.999	81.85
335.227	85.65
335.455	84.25
335.684	88.05
335.912	83.65
336.14	83.85
336.369	85.25
336.597	77.85
336.825	86.05
337.053	83.65
337.281	83.85
337.51	80.85
337.738	88.25
337.966	83.45
338.194	81.65
338.422	84.85
338.65	82.65
338.878	87.45
339.106	87.25
339.334	81.45
339.562	76.65
339.79	87.45
340.018	85.45
340.246	79.65
340.474	85.25
340.702	77.05
340.93	86.25
341.158	90.05
341.386	84.25
341.614	84.85
341.842	81.45
342.07	90.05
342.298	82.05
342.526	87.65
342.754	83.85
342.981	81.85
343.209	81.45
343.437	82.45
343.665	84.45
343.893	79.65
344.12	81.45
344.348	89.05
344.576	89.85
344.804	84.25
345.031	83.65
345.259	84.05
345.487	84.85
345.714	83.05
345.942	80.45
346.17	88.65
346.397	86.85
346.625	83.25
346.853	86.05
347.08	84.85
347.308	82.45
347.535	85.45
347.763	92.05
347.99	87.85
348.218	86.05
348.445	72.45
348.673	85.05
348.9	83.25
349.128	83.25
349.355	82.05
349.583	89.65
349.81	79.65
350.037	80.05
350.265	80.25
350.492	79.85
350.72	80.65
350.947	85.05
351.174	83.05
351.402	81.05
351.629	75.25
351.856	80.05
352.083	92.45
352.311	83.45
352.538	83.25
352.765	82.05
352.992	81.85
353.22	82.05
353.447	83.05
353.674	81.65
353.901	76.45
354.128	78.65
354.355	86.65
354.583	84.25
354.81	80.45
355.037	86.85
355.264	91.85
355.491	81.05
355.718	84.25
355.945	82.05
356.172	84.45
356.399	89.25
356.626	80.65
356.853	82.25
357.08	82.85
357.307	81.25
357.534	81.65
357.761	84.05
357.988	78.45
358.215	81.65
358.441	80.65
358.668	79.25
358.895	81.65
359.122	84.05
359.349	79.25
359.576	83.45
359.802	82.45
360.029	82.65
360.256	82.85
360.483	83.25
360.709	79.45
360.936	91.05
361.163	86.45
361.39	88.85
361.616	82.65
361.843	87.25
362.07	82.45
362.296	82.25
362.523	90.25
362.749	80.05
362.976	86.45
363.203	85.25
363.429	80.65
363.656	78.05
363.882	84.05
364.109	86.25
364.335	75.65
364.562	83.85
364.788	81.25
365.015	83.85
365.241	81.05
365.468	80.65
365.694	84.05
365.92	85.85
366.147	84.05
366.373	92.45
366.599	91.05
366.826	87.65
367.052	79.85
367.278	81.85
367.505	90.85
367.731	82.05
367.957	79.85
368.184	81.25
368.41	82.65
368.636	87.85
368.862	80.85
369.089	78.85
369.315	82.85
369.541	81.25
369.767	81.05
369.993	83.05
370.219	80.85
370.445	76.05
370.672	78.65
370.898	77.45
371.124	82.85
371.35	85.25
371.576	78.85
371.802	79.25
372.028	86.25
372.254	77.25
372.48	84.85
372.706	81.25
372.932	85.85
373.158	81.25
373.384	83.05
373.61	73.85
373.835	77.45
374.061	84.05
374.287	78.05
374.513	81.45
374.739	78.05
374.965	78.85
375.191	80.65
375.416	81.85
375.642	82.25
375.868	83.05
376.094	74.25
376.319	86.05
376.545	79.05
376.771	82.45
376.997	77.25
377.222	84.25
377.448	77.25
377.674	82.85
377.899	83.45
378.125	82.45
378.35	77.25
378.576	85.65
378.802	80.45
379.027	86.25
379.253	82.25
379.478	86.65
379.704	81.25
379.929	83.85
380.155	83.45
380.38	77.45
380.606	83.85
380.831	79.85
381.057	87.85
381.282	86.85
381.507	84.85
381.733	87.25
381.958	78.65
382.184	79.05
382.409	81.65
382.634	75.85
382.86	81.45
383.085	80.25
383.31	82.45
383.535	84.65
383.761	80.45
383.986	82.05
384.211	84.05
384.436	84.25
384.662	77.25
384.887	89.25
385.112	82.25
385.337	80.85
385.562	82.25
385.787	83.05
386.013	83.85
386.238	77.25
386.463	80.05
386.688	81.25
386.913	84.05
387.138	79.65
387.363	85.25
387.588	88.65
387.813	85.65
388.038	85.25
388.263	84.05
388.488	78.65
388.713	81.45
388.938	88.25
389.163	84.65
389.387	83.45
389.612	78.05
389.837	81.25
390.062	81.05
390.287	78.85
390.512	78.85
390.736	83.45
390.961	83.25
391.186	78.45
391.411	78.25
391.636	84.85
391.86	78.85
392.085	85.85
392.31	76.45
392.534	84.45
392.759	82.05
392.984	83.05
393.208	79.85
393.433	84.05
393.658	85.65
393.882	84.45
394.107	80.85
394.331	80.65
394.556	78.45
394.78	78.45
395.005	85.45
395.229	76.05
395.454	76.05
395.678	78.45
395.903	76.85
396.127	83.45
396.352	79.45
396.576	85.45
396.801	83.25
397.025	81.85
397.249	82.25
397.474	80.65
397.698	82.25
397.922	75.45
398.147	81.85
398.371	85.05
398.595	81.85
398.82	81.05
399.044	88.05
399.268	78.25
399.492	77.65
399.717	83.85
399.941	87.05
400.165	77.65
400.389	83.65
400.613	82.45
400.837	79.25
401.062	82.65
401.286	74.85
401.51	77.65
401.734	81.25
401.958	78.25
402.182	79.45
402.406	81.85
402.63	85.25
402.854	81.25
403.078	78.25
403.302	77.65
403.526	76.65
403.75	78.05
403.974	82.05
404.198	70.05
404.422	84.85
404.645	82.65
404.869	75.85
405.093	81.05
405.317	77.05
405.541	79.85
405.765	86.85
405.988	80.45
406.212	82.45
406.436	78.65
406.66	82.05
406.883	84.05
407.107	84.25
407.331	83.65
407.555	77.45
407.778	82.25
408.002	79.05
408.226	77.25
408.449	82.85
408.673	79.45
408.896	86.25
409.12	80.85
409.344	82.25
409.567	75.45
409.791	79.25
410.014	76.45
410.238	86.05
410.461	73.05
410.685	79.45
410.908	80.65
411.132	88.85
411.355	80.05
411.578	82.25
411.802	81.65
412.025	74.05
412.249	82.85
412.472	79.65
412.695	78.45
412.919	83.85
413.142	81.45
413.365	81.25
413.589	73.65
413.812	78.85
414.035	78.65
414.258	79.25
414.482	87.85
414.705	85.25
414.928	72.85
415.151	82.25
415.374	84.45
415.597	78.65
415.821	82.25
416.044	83.85
416.267	76.45
416.49	83.45
416.713	79.25
416.936	83.25
417.159	83.05
417.382	84.05
417.605	77.25
417.828	81.85
418.051	84.05
418.274	83.85
418.497	79.65
418.72	82.05
418.943	86.45
419.166	83.05
419.389	78.25
419.611	80.45
419.834	79.05
420.057	86.65
420.28	79.45
420.503	76.85
420.726	79.45
420.948	74.85
421.171	82.05
421.394	84.65
421.617	76.25
421.839	79.65
422.062	78.65
422.285	74.85
422.507	80.25
422.73	80.85
422.953	79.45
423.175	83.65
423.398	83.05
423.621	79.45
423.843	87.25
424.066	76.85
424.288	81.25
424.511	78.85
424.733	73.65
424.956	83.05
425.178	86.85
425.401	86.45
425.623	73.05
425.846	76.65
426.068	81.85
426.291	75.65
426.513	82.45
426.735	84.65
426.958	72.45
427.18	79.85
427.402	77.85
427.625	78.85
427.847	85.25
428.069	81.25
428.292	78.05
428.514	83.05
428.736	80.65
428.958	77.45
429.181	79.85
429.403	82.45
429.625	80.45
429.847	82.65
430.069	81.05
430.292	85.65
430.514	82.05
430.736	82.25
430.958	79.65
431.18	77.85
431.402	78.05
431.624	81.65
431.846	76.05
432.068	85.05
432.29	81.05
432.512	89.65
432.734	79.85
432.956	80.85
433.178	81.45
433.4	78.05
433.622	78.45
433.844	81.45
434.066	84.45
434.287	82.05
434.509	79.45
434.731	85.05
434.953	82.05
435.175	83.65
435.397	79.65
435.618	83.45
435.84	80.25
436.062	82.45
436.284	77.65
436.505	77.65
436.727	82.05
436.949	80.65
437.17	80.05
437.392	77.25
437.614	77.25
437.835	79.65
438.057	79.25
438.278	83.05
438.5	76.25
438.721	81.25
438.943	79.25
439.165	82.05
439.386	82.05
439.608	85.45
439.829	81.85
440.05	83.85
440.272	80.65
440.493	77.05
440.715	85.25
440.936	79.05
441.158	80.85
441.379	80.85
441.6	81.25
441.822	78.65
442.043	78.05
442.264	83.65
442.486	82.65
442.707	81.65
442.928	79.05
443.149	75.85
443.371	84.85
443.592	78.05
443.813	86.45
444.034	86.25
444.255	80.45
444.476	80.05
444.698	81.85
444.919	81.85
445.14	85.85
445.361	83.25
445.582	72.25
445.803	87.65
446.024	86.65
446.245	81.65
446.466	89.85
446.687	80.45
446.908	88.85
447.129	75.25
447.35	85.25
447.571	82.85
447.792	75.85
448.013	80.45
448.234	85.65
448.455	72.65
448.675	81.05
448.896	78.85
449.117	78.85
449.338	79.85
449.559	82.85
449.779	83.65
450	84.25
450.221	81.65
450.442	85.45
450.662	80.45
450.883	82.25
451.104	83.85
451.324	81.65
451.545	82.45
451.766	76.65
451.986	85.05
452.207	83.65
452.428	82.25
452.648	78.45
452.869	84.05
453.089	83.25
453.31	83.25
453.53	81.45
453.751	75.65
453.971	79.45
454.192	86.85
454.412	76.45
454.633	84.25
454.853	82.05
455.073	76.05
455.294	77.85
455.514	84.05
455.734	82.05
455.955	79.25
456.175	81.25
456.395	83.45
456.616	80.45
456.836	80.65
457.056	80.85
457.276	82.05
457.497	84.25
457.717	77.85
457.937	75.65
458.157	76.45
458.377	80.85
458.598	87.45
458.818	82.45
459.038	83.45
459.258	80.05
459.478	80.25
459.698	78.25
459.918	85.45
460.138	87.85
460.358	79.65
460.578	77.25
460.798	83.05
461.018	87.65
461.238	83.25
461.458	75.45
461.678	78.65
461.898	81.45
462.118	79.45
462.338	78.25
462.558	84.65
462.777	80.25
462.997	79.05
463.217	76.25
463.437	82.25
463.657	79.65
463.876	78.25
464.096	83.65
464.316	79.05
464.536	79.85
464.755	79.25
464.975	81.85
465.195	79.85
465.414	70.05
465.634	77.65
465.854	71.85
466.073	84.65
466.293	76.85
466.512	85.45
466.732	80.25
466.951	80.65
467.171	85.45
467.391	80.85
467.61	76.25
467.829	83.25
468.049	81.65
468.268	78.05
468.488	81.85
468.707	78.85
468.927	83.45
469.146	80.85
469.365	81.45
469.585	77.65
469.804	85.45
470.023	81.25
470.243	82.25
470.462	81.25
470.681	80.05
470.901	76.05
471.12	84.05
471.339	79.05
471.558	79.65
471.777	80.45
471.997	80.65
472.216	76.05
472.435	82.65
472.654	87.05
472.873	81.45
473.092	80.25
473.311	81.05
473.53	79.85
473.749	82.65
473.968	80.85
474.187	82.85
474.406	80.65
474.625	84.85
474.844	84.05
475.063	79.05
475.282	85.25
475.501	81.45
475.72	80.85
475.939	79.25
476.158	83.45
476.377	83.65
476.596	79.85
476.814	79.25
477.033	78.65
477.252	79.65
477.471	78.05
477.69	88.25
477.908	79.05
478.127	81.45
478.346	85.05
478.564	82.65
478.783	79.25
479.002	78.25
479.22	81.45
479.439	79.45
479.658	75.65
479.876	83.05
480.095	78.85
480.313	82.85
480.532	82.25
480.751	84.25
480.969	80.85
481.188	80.85
481.406	83.45
481.624	84.05
481.843	86.65
482.061	83.45
482.28	82.25
482.498	79.45
482.717	80.65
482.935	88.45
483.153	83.45
483.372	83.05
483.59	72.45
483.808	80.05
484.027	86.65
484.245	81.45
484.463	76.05
484.681	78.85
484.9	89.85
485.118	85.25
485.336	78.65
485.554	85.05
485.772	82.05
485.99	86.65
486.209	81.65
486.427	82.85
486.645	78.65
486.863	82.25
487.081	84.45
487.299	87.25
487.517	83.85
487.735	81.85
487.953	77.05
488.171	76.25
488.389	77.85
488.607	82.25
488.825	86.85
489.043	80.25
489.261	82.65
489.479	87.85
489.696	84.25
489.914	81.65
490.132	80.65
490.35	84.25
490.568	77.05
490.786	81.45
491.003	83.85
491.221	80.85
491.439	89.25
491.657	82.65
491.874	84.85
492.092	80.45
492.31	77.65
492.527	80.65
492.745	78.25
492.963	80.45
493.18	88.85
493.398	88.85
493.615	77.45
493.833	83.85
494.05	79.65
494.268	85.45
494.485	72.45
494.703	80.05
494.92	81.25
495.138	86.05
495.355	82.25
495.573	79.85
495.79	77.45
496.008	83.05
496.225	83.05
496.442	88.45
496.66	88.45
496.877	80.05
497.094	81.25
497.312	83.25
497.529	85.45
497.746	82.65
497.963	77.45
498.181	81.05
498.398	86.65
498.615	86.45
498.832	77.85
499.049	72.65
499.267	82.05
499.484	81.65
499.701	87.25
499.918	84.05
500.135	87.45
500.352	84.05
500.569	80.05
500.786	80.85
501.003	88.45
501.22	87.45
501.437	79.45
501.654	91.65
501.871	83.85
502.088	84.05
502.305	80.65
502.522	84.65
502.739	83.25
502.956	84.65
503.172	84.25
503.389	85.85
503.606	83.45
503.823	83.05
504.04	76.65
504.256	81.25
504.473	82.65
504.69	77.65
504.907	79.85
505.123	82.45
505.34	83.45
505.557	76.45
505.773	78.05
505.99	85.45
506.207	79.85
506.423	83.25
506.64	83.85
506.856	80.85
507.073	76.25
507.289	77.65
507.506	83.25
507.722	80.65
507.939	81.05
508.155	83.65
508.372	78.45
508.588	82.05
508.805	83.05
509.021	76.25
509.238	84.25
509.454	81.65
509.67	79.45
509.887	82.85
510.103	79.85
510.319	77.85
510.536	84.45
510.752	80.65
510.968	77.45
511.184	76.85
511.401	83.05
511.617	77.65
511.833	83.85
512.049	84.85
512.265	84.85
512.481	88.65
512.698	90.05
512.914	86.45
513.13	85.85
513.346	83.25
513.562	81.65
513.778	81.25
513.994	83.05
514.21	77.65
514.426	86.85
514.642	88.05
514.858	81.25
515.074	76.25
515.29	82.65
515.506	83.65
515.721	82.85
515.937	84.65
516.153	80.45
516.369	82.85
516.585	81.25
516.801	82.05
517.016	79.25
517.232	79.25
517.448	81.45
517.664	89.25
517.879	86.45
518.095	86.25
518.311	84.85
518.527	82.25
518.742	82.85
518.958	85.05
519.173	93.25
519.389	86.65
519.605	73.65
519.82	84.25
520.036	87.85
520.251	80.25
