Data from TenMicroDelayPb_HRD10591_00028.txt Node
Date: Mon Nov 24 14:34:29 EST 2025
User: Yrep
Spectrometer: HR+D1059
Trigger mode: 0
Integration Time (sec): 1.000000E-2
Scans to average: 5
Electric dark correction enabled: true
Nonlinearity correction enabled: false
Boxcar width: 0
XAxis mode: Wavelengths
Number of Pixels in Spectrum: 2048
>>>>>Begin Spectral Data<<<<<
223.165	-16.3
223.4	-16.3
223.635	-16.3
223.869	-10.5
224.104	-15.3
224.338	-14.9
224.573	-14.1
224.808	-11.9
225.042	-7.5
225.277	-5.5
225.511	-5.9
225.746	-0.7
225.98	5.1
226.215	14.7
226.449	10.1
226.683	15.3
226.918	26.9
227.152	30.5
227.387	35.3
227.621	41.1
227.856	42.7
228.09	47.9
228.324	50.1
228.559	54.5
228.793	49.1
229.027	64.5
229.262	64.9
229.496	64.5
229.73	66.1
229.964	73.7
230.199	67.7
230.433	75.1
230.667	70.5
230.901	77.9
231.136	77.5
231.37	78.5
231.604	80.3
231.838	76.9
232.072	80.3
232.306	85.5
232.541	76.3
232.775	81.5
233.009	83.7
233.243	84.9
233.477	80.1
233.711	77.3
233.945	77.7
234.179	80.1
234.413	74.5
234.647	79.3
234.881	78.7
235.115	83.7
235.349	84.1
235.583	86.7
235.817	81.7
236.051	77.3
236.285	78.3
236.519	78.7
236.753	75.5
236.987	75.5
237.221	76.3
237.455	74.5
237.689	78.5
237.922	77.7
238.156	80.1
238.39	77.7
238.624	76.5
238.858	72.9
239.091	78.3
239.325	76.1
239.559	75.9
239.793	79.9
240.027	83.5
240.26	81.5
240.494	74.7
240.728	75.9
240.961	77.5
241.195	77.9
241.429	73.5
241.662	82.3
241.896	71.9
242.13	82.3
242.363	81.5
242.597	74.3
242.83	73.1
243.064	79.1
243.298	81.1
243.531	72.5
243.765	73.7
243.998	75.5
244.232	75.5
244.465	79.3
244.699	77.9
244.932	76.5
245.166	77.1
245.399	76.7
245.633	80.7
245.866	84.7
246.099	77.7
246.333	80.5
246.566	77.3
246.8	78.3
247.033	77.7
247.266	82.1
247.5	76.3
247.733	75.5
247.966	72.1
248.2	83.3
248.433	83.9
248.666	85.9
248.899	80.3
249.133	70.3
249.366	78.1
249.599	75.9
249.832	85.3
250.066	79.5
250.299	73.5
250.532	76.7
250.765	81.5
250.998	78.5
251.231	79.1
251.465	81.9
251.698	80.1
251.931	79.9
252.164	82.1
252.397	77.7
252.63	83.9
252.863	72.3
253.096	79.5
253.329	81.3
253.562	82.9
253.795	79.9
254.028	78.1
254.261	81.5
254.494	76.3
254.727	75.1
254.96	80.3
255.193	78.9
255.426	82.3
255.659	87.1
255.892	79.9
256.124	84.7
256.357	83.7
256.59	82.5
256.823	78.9
257.056	73.3
257.289	82.9
257.521	78.9
257.754	83.7
257.987	77.1
258.22	82.3
258.452	76.9
258.685	79.3
258.918	77.1
259.151	82.7
259.383	87.7
259.616	83.3
259.849	83.9
260.081	78.5
260.314	82.3
260.547	81.7
260.779	80.7
261.012	78.1
261.244	76.7
261.477	87.3
261.71	84.7
261.942	88.9
262.175	78.9
262.407	85.1
262.64	78.7
262.872	85.7
263.105	82.3
263.337	80.3
263.57	87.3
263.802	75.7
264.035	76.3
264.267	77.1
264.499	85.5
264.732	81.7
264.964	85.1
265.197	85.7
265.429	78.9
265.661	84.1
265.894	78.9
266.126	79.5
266.358	81.7
266.591	84.3
266.823	78.9
267.055	76.9
267.287	83.7
267.52	82.1
267.752	83.1
267.984	76.1
268.216	84.7
268.448	84.3
268.681	81.3
268.913	77.3
269.145	77.5
269.377	84.1
269.609	86.9
269.841	77.1
270.073	80.1
270.306	80.5
270.538	82.7
270.77	83.7
271.002	82.1
271.234	88.1
271.466	85.7
271.698	81.5
271.93	77.7
272.162	82.7
272.394	88.1
272.626	88.1
272.858	82.5
273.09	82.7
273.322	83.7
273.553	82.1
273.785	84.5
274.017	75.5
274.249	88.1
274.481	86.3
274.713	78.5
274.945	75.7
275.176	79.7
275.408	87.9
275.64	85.9
275.872	82.3
276.104	81.1
276.335	81.1
276.567	86.7
276.799	82.3
277.031	79.7
277.262	83.9
277.494	78.3
277.726	81.9
277.957	78.3
278.189	83.1
278.421	82.1
278.652	83.5
278.884	93.5
279.115	82.9
279.347	90.9
279.579	80.9
279.81	80.5
280.042	80.3
280.273	83.7
280.505	86.1
280.736	87.7
280.968	85.1
281.199	80.1
281.431	80.1
281.662	79.9
281.894	81.5
282.125	82.9
282.356	90.9
282.588	88.7
282.819	79.5
283.051	88.5
283.282	87.1
283.513	87.1
283.745	86.7
283.976	87.5
284.207	77.1
284.439	78.9
284.67	80.9
284.901	83.1
285.132	82.7
285.364	81.9
285.595	84.7
285.826	83.3
286.057	89.7
286.288	91.1
286.52	84.7
286.751	84.9
286.982	86.1
287.213	85.3
287.444	87.9
287.675	90.7
287.906	87.3
288.138	82.3
288.369	87.1
288.6	88.7
288.831	84.9
289.062	80.1
289.293	85.7
289.524	79.7
289.755	84.5
289.986	85.7
290.217	82.9
290.448	81.3
290.679	90.3
290.91	88.1
291.141	85.1
291.371	88.3
291.602	89.1
291.833	78.9
292.064	84.7
292.295	83.1
292.526	92.1
292.757	84.9
292.987	88.3
293.218	86.7
293.449	85.5
293.68	85.3
293.91	86.7
294.141	81.7
294.372	88.1
294.603	80.7
294.833	86.7
295.064	91.1
295.295	80.1
295.525	82.3
295.756	83.5
295.987	83.7
296.217	84.9
296.448	88.1
296.679	87.7
296.909	87.3
297.14	82.7
297.37	90.1
297.601	83.9
297.831	86.3
298.062	80.5
298.292	85.9
298.523	84.7
298.753	92.1
298.984	86.3
299.214	85.3
299.445	86.7
299.675	80.5
299.905	90.1
300.136	76.9
300.366	82.3
300.597	87.1
300.827	84.3
301.057	86.9
301.288	90.1
301.518	83.1
301.748	86.5
301.979	82.5
302.209	83.3
302.439	89.1
302.669	82.5
302.9	86.3
303.13	90.3
303.36	80.5
303.59	82.7
303.82	83.1
304.051	89.7
304.281	79.3
304.511	83.3
304.741	84.5
304.971	80.3
305.201	82.9
305.431	90.9
305.661	93.5
305.891	88.7
306.121	87.3
306.352	82.7
306.582	85.1
306.812	91.3
307.042	89.5
307.272	84.3
307.502	83.3
307.731	83.7
307.961	91.1
308.191	88.5
308.421	85.7
308.651	85.9
308.881	92.3
309.111	78.9
309.341	82.7
309.571	84.1
309.8	76.9
310.03	84.5
310.26	84.9
310.49	76.5
310.72	80.9
310.949	84.9
311.179	81.5
311.409	80.1
311.639	85.5
311.868	90.7
312.098	86.7
312.328	91.7
312.557	89.1
312.787	84.5
313.017	85.7
313.246	90.7
313.476	90.5
313.706	84.9
313.935	86.5
314.165	88.3
314.394	83.7
314.624	86.9
314.853	86.9
315.083	82.3
315.312	88.5
315.542	87.7
315.771	89.5
316.001	80.7
316.23	75.7
316.46	86.3
316.689	90.5
316.919	85.1
317.148	90.9
317.377	80.7
317.607	86.7
317.836	87.9
318.065	95.5
318.295	84.1
318.524	81.3
318.753	82.7
318.983	85.5
319.212	76.9
319.441	88.7
319.67	81.5
319.9	86.1
320.129	78.9
320.358	78.5
320.587	82.3
320.816	84.7
321.046	86.3
321.275	89.5
321.504	80.3
321.733	84.9
321.962	88.1
322.191	84.5
322.42	89.5
322.649	88.7
322.878	83.3
323.108	85.1
323.337	85.9
323.566	85.9
323.795	80.9
324.024	92.9
324.253	87.5
324.482	86.5
324.71	85.3
324.939	83.9
325.168	86.7
325.397	90.7
325.626	82.7
325.855	79.7
326.084	86.5
326.313	85.7
326.542	82.9
326.77	79.9
326.999	84.3
327.228	85.9
327.457	85.3
327.686	87.7
327.914	84.9
328.143	86.1
328.372	86.3
328.6	87.9
328.829	90.3
329.058	82.5
329.287	88.1
329.515	80.9
329.744	79.9
329.972	85.3
330.201	88.9
330.43	88.1
330.658	87.1
330.887	92.1
331.115	81.5
331.344	84.5
331.572	87.5
331.801	89.1
332.03	90.1
332.258	85.1
332.486	84.7
332.715	81.1
332.943	86.1
333.172	86.5
333.4	78.1
333.629	85.3
333.857	83.9
334.085	81.1
334.314	81.1
334.542	84.3
334.771	82.9
334.999	87.5
335.227	82.7
335.455	87.3
335.684	82.3
335.912	80.9
336.14	78.5
336.369	84.5
336.597	84.9
336.825	80.3
337.053	81.9
337.281	80.7
337.51	81.5
337.738	86.5
337.966	83.9
338.194	91.1
338.422	79.5
338.65	84.7
338.878	86.5
339.106	82.7
339.334	77.3
339.562	82.9
339.79	84.5
340.018	82.7
340.246	78.9
340.474	84.7
340.702	85.7
340.93	86.3
341.158	88.9
341.386	81.1
341.614	83.1
341.842	87.3
342.07	83.3
342.298	88.9
342.526	85.9
342.754	88.1
342.981	80.9
343.209	85.5
343.437	88.1
343.665	89.3
343.893	90.5
344.12	86.1
344.348	83.5
344.576	83.3
344.804	85.3
345.031	79.1
345.259	79.7
345.487	84.1
345.714	84.7
345.942	86.3
346.17	85.1
346.397	84.3
346.625	85.9
346.853	86.9
347.08	81.5
347.308	79.1
347.535	87.5
347.763	78.7
347.99	88.9
348.218	89.1
348.445	85.7
348.673	85.9
348.9	82.3
349.128	82.1
349.355	82.9
349.583	86.9
349.81	88.1
350.037	83.3
350.265	82.9
350.492	85.9
350.72	81.9
350.947	83.9
351.174	80.9
351.402	85.1
351.629	85.1
351.856	78.9
352.083	87.1
352.311	81.9
352.538	84.7
352.765	85.5
352.992	88.7
353.22	80.9
353.447	84.9
353.674	84.7
353.901	83.5
354.128	85.3
354.355	83.5
354.583	82.7
354.81	86.9
355.037	88.7
355.264	82.5
355.491	83.5
355.718	82.7
355.945	82.9
356.172	82.1
356.399	81.5
356.626	81.5
356.853	87.5
357.08	90.3
357.307	81.3
357.534	85.5
357.761	84.7
357.988	82.1
358.215	80.7
358.441	85.5
358.668	84.1
358.895	81.3
359.122	88.9
359.349	82.7
359.576	85.1
359.802	79.9
360.029	79.9
360.256	84.1
360.483	82.1
360.709	81.1
360.936	88.3
361.163	84.5
361.39	80.9
361.616	80.9
361.843	86.5
362.07	83.7
362.296	85.1
362.523	88.5
362.749	83.5
362.976	81.1
363.203	86.9
363.429	83.1
363.656	86.3
363.882	83.3
364.109	85.1
364.335	84.9
364.562	80.7
364.788	83.1
365.015	83.9
365.241	81.3
365.468	81.1
365.694	88.3
365.92	84.5
366.147	83.7
366.373	80.7
366.599	80.3
366.826	83.9
367.052	75.9
367.278	90.7
367.505	82.5
367.731	83.9
367.957	79.7
368.184	80.3
368.41	86.9
368.636	82.9
368.862	86.5
369.089	82.7
369.315	83.7
369.541	88.7
369.767	88.9
369.993	83.1
370.219	83.7
370.445	81.1
370.672	82.9
370.898	85.1
371.124	84.3
371.35	86.1
371.576	79.5
371.802	82.5
372.028	87.5
372.254	76.9
372.48	80.5
372.706	84.1
372.932	86.1
373.158	83.7
373.384	79.7
373.61	79.7
373.835	91.5
374.061	83.9
374.287	79.5
374.513	84.3
374.739	76.1
374.965	77.3
375.191	85.5
375.416	85.3
375.642	89.7
375.868	88.5
376.094	84.5
376.319	80.5
376.545	74.5
376.771	82.9
376.997	84.5
377.222	79.9
377.448	82.3
377.674	81.1
377.899	81.7
378.125	80.1
378.35	87.9
378.576	86.9
378.802	88.1
379.027	88.9
379.253	88.1
379.478	84.5
379.704	88.7
379.929	83.1
380.155	82.9
380.38	80.1
380.606	86.9
380.831	81.7
381.057	88.1
381.282	73.9
381.507	75.9
381.733	85.5
381.958	74.9
382.184	84.3
382.409	85.5
382.634	81.1
382.86	82.5
383.085	86.1
383.31	83.7
383.535	80.9
383.761	86.7
383.986	76.9
384.211	84.9
384.436	81.5
384.662	81.3
384.887	80.3
385.112	84.7
385.337	82.9
385.562	79.9
385.787	83.1
386.013	79.5
386.238	83.1
386.463	82.9
386.688	78.3
386.913	80.5
387.138	83.1
387.363	80.9
387.588	84.3
387.813	82.3
388.038	81.9
388.263	85.1
388.488	85.3
388.713	82.5
388.938	87.5
389.163	85.7
389.387	79.1
389.612	81.1
389.837	78.3
390.062	73.1
390.287	85.7
390.512	81.3
390.736	78.5
390.961	85.9
391.186	87.7
391.411	81.5
391.636	76.3
391.86	78.5
392.085	81.7
392.31	79.7
392.534	87.3
392.759	76.7
392.984	82.3
393.208	87.7
393.433	82.9
393.658	81.9
393.882	78.7
394.107	77.7
394.331	84.1
394.556	78.7
394.78	83.3
395.005	85.3
395.229	84.9
395.454	87.9
395.678	83.7
395.903	81.7
396.127	87.3
396.352	78.9
396.576	86.5
396.801	77.9
397.025	82.9
397.249	80.1
397.474	77.9
397.698	88.3
397.922	82.1
398.147	76.7
398.371	88.9
398.595	82.5
398.82	83.3
399.044	82.9
399.268	82.7
399.492	80.9
399.717	77.9
399.941	77.5
400.165	84.9
400.389	81.5
400.613	79.7
400.837	82.1
401.062	86.1
401.286	84.7
401.51	84.5
401.734	80.7
401.958	81.9
402.182	82.1
402.406	87.9
402.63	82.5
402.854	85.7
403.078	77.5
403.302	85.1
403.526	81.3
403.75	75.9
403.974	76.1
404.198	74.9
404.422	87.1
404.645	81.5
404.869	80.3
405.093	88.9
405.317	82.3
405.541	80.9
405.765	79.9
405.988	77.7
406.212	81.1
406.436	89.1
406.66	79.9
406.883	79.7
407.107	83.3
407.331	79.5
407.555	82.3
407.778	80.5
408.002	86.7
408.226	87.3
408.449	80.1
408.673	80.3
408.896	85.5
409.12	80.7
409.344	86.5
409.567	80.3
409.791	84.3
410.014	90.1
410.238	82.7
410.461	82.9
410.685	82.1
410.908	86.3
411.132	77.9
411.355	85.1
411.578	82.7
411.802	82.5
412.025	78.5
412.249	76.3
412.472	73.3
412.695	85.5
412.919	78.7
413.142	77.5
413.365	80.9
413.589	79.5
413.812	74.7
414.035	84.1
414.258	84.9
414.482	81.7
414.705	89.5
414.928	84.5
415.151	84.9
415.374	86.1
415.597	82.9
415.821	85.1
416.044	75.3
416.267	78.5
416.49	82.3
416.713	81.5
416.936	83.5
417.159	81.9
417.382	85.7
417.605	83.5
417.828	81.7
418.051	87.3
418.274	85.5
418.497	77.9
418.72	81.5
418.943	81.3
419.166	83.5
419.389	81.9
419.611	78.9
419.834	82.5
420.057	82.3
420.28	77.7
420.503	76.5
420.726	80.5
420.948	85.1
421.171	82.5
421.394	82.1
421.617	77.7
421.839	79.5
422.062	85.5
422.285	80.3
422.507	79.7
422.73	79.3
422.953	83.5
423.175	85.7
423.398	80.5
423.621	80.7
423.843	78.3
424.066	81.5
424.288	76.5
424.511	85.7
424.733	82.3
424.956	82.3
425.178	81.7
425.401	83.7
425.623	75.1
425.846	77.7
426.068	81.5
426.291	83.9
426.513	76.7
426.735	82.1
426.958	82.9
427.18	82.9
427.402	81.9
427.625	81.1
427.847	81.7
428.069	83.5
428.292	84.7
428.514	82.3
428.736	82.9
428.958	79.3
429.181	77.3
429.403	83.9
429.625	77.3
429.847	81.9
430.069	84.7
430.292	82.3
430.514	87.1
430.736	84.7
430.958	91.1
431.18	83.3
431.402	84.9
431.624	81.3
431.846	87.3
432.068	79.9
432.29	81.3
432.512	82.3
432.734	82.7
432.956	80.9
433.178	77.3
433.4	83.1
433.622	78.9
433.844	79.7
434.066	79.7
434.287	90.3
434.509	83.9
434.731	78.5
434.953	82.1
435.175	79.5
435.397	93.3
435.618	79.5
435.84	73.1
436.062	78.7
436.284	78.9
436.505	85.1
436.727	82.9
436.949	81.9
437.17	74.5
437.392	82.5
437.614	84.1
437.835	79.7
438.057	74.1
438.278	82.3
438.5	77.5
438.721	87.1
438.943	82.9
439.165	74.7
439.386	77.1
439.608	71.9
439.829	76.5
440.05	86.1
440.272	81.3
440.493	90.7
440.715	80.7
440.936	84.7
441.158	81.3
441.379	76.5
441.6	79.7
441.822	82.7
442.043	81.5
442.264	79.5
442.486	81.7
442.707	83.5
442.928	81.9
443.149	79.1
443.371	78.7
443.592	81.5
443.813	83.5
444.034	82.1
444.255	81.1
444.476	83.9
444.698	82.3
444.919	82.3
445.14	84.1
445.361	83.7
445.582	85.1
445.803	82.1
446.024	81.1
446.245	83.7
446.466	78.9
446.687	81.5
446.908	79.5
447.129	84.3
447.35	81.7
447.571	84.1
447.792	78.9
448.013	79.7
448.234	84.7
448.455	80.7
448.675	81.1
448.896	76.1
449.117	82.5
449.338	77.3
449.559	74.5
449.779	81.3
450	82.5
450.221	84.1
450.442	92.9
450.662	81.5
450.883	81.7
451.104	74.7
451.324	77.5
451.545	79.3
451.766	82.9
451.986	86.1
452.207	81.5
452.428	83.5
452.648	79.9
452.869	72.9
453.089	76.9
453.31	73.7
453.53	82.3
453.751	84.5
453.971	82.7
454.192	83.3
454.412	83.1
454.633	80.5
454.853	81.7
455.073	84.5
455.294	79.1
455.514	77.3
455.734	79.7
455.955	82.7
456.175	82.7
456.395	80.5
456.616	79.1
456.836	83.5
457.056	80.1
457.276	76.5
457.497	79.9
457.717	85.9
457.937	86.7
458.157	84.9
458.377	82.5
458.598	85.9
458.818	82.3
459.038	80.1
459.258	81.9
459.478	86.7
459.698	78.1
459.918	75.5
460.138	82.5
460.358	85.3
460.578	84.5
460.798	81.9
461.018	88.7
461.238	83.1
461.458	82.7
461.678	80.3
461.898	82.3
462.118	76.9
462.338	79.5
462.558	77.9
462.777	83.9
462.997	83.9
463.217	81.5
463.437	75.9
463.657	83.7
463.876	80.5
464.096	86.9
464.316	83.5
464.536	81.3
464.755	79.5
464.975	80.7
465.195	84.7
465.414	81.7
465.634	84.3
465.854	81.7
466.073	82.1
466.293	77.9
466.512	82.9
466.732	81.1
466.951	76.1
467.171	82.9
467.391	77.7
467.61	80.1
467.829	75.1
468.049	79.7
468.268	84.3
468.488	88.3
468.707	81.7
468.927	82.9
469.146	86.5
469.365	84.7
469.585	81.1
469.804	81.7
470.023	82.3
470.243	72.1
470.462	81.1
470.681	88.5
470.901	79.3
471.12	80.1
471.339	84.3
471.558	82.9
471.777	82.1
471.997	86.5
472.216	78.3
472.435	83.5
472.654	89.7
472.873	85.3
473.092	76.1
473.311	79.5
473.53	79.7
473.749	76.9
473.968	88.1
474.187	82.1
474.406	78.5
474.625	85.7
474.844	77.1
475.063	81.3
475.282	83.7
475.501	73.5
475.72	82.3
475.939	81.5
476.158	90.5
476.377	82.3
476.596	81.7
476.814	83.3
477.033	79.7
477.252	86.7
477.471	87.9
477.69	82.9
477.908	87.3
478.127	85.5
478.346	80.1
478.564	83.7
478.783	81.1
479.002	75.5
479.22	77.3
479.439	85.1
479.658	83.9
479.876	78.7
480.095	90.3
480.313	84.1
480.532	86.3
480.751	85.7
480.969	81.1
481.188	84.1
481.406	82.5
481.624	84.1
481.843	87.1
482.061	85.3
482.28	84.5
482.498	75.9
482.717	85.7
482.935	75.7
483.153	86.5
483.372	85.9
483.59	78.3
483.808	82.5
484.027	79.7
484.245	88.7
484.463	79.9
484.681	82.5
484.9	80.1
485.118	85.5
485.336	86.9
485.554	73.5
485.772	83.7
485.99	80.9
486.209	76.5
486.427	79.5
486.645	79.9
486.863	75.9
487.081	79.1
487.299	74.5
487.517	77.3
487.735	84.9
487.953	85.5
488.171	82.9
488.389	78.7
488.607	84.5
488.825	75.3
489.043	77.3
489.261	79.3
489.479	85.1
489.696	84.7
489.914	85.9
490.132	80.3
490.35	80.5
490.568	87.3
490.786	77.5
491.003	82.7
491.221	87.1
491.439	85.9
491.657	81.5
491.874	84.5
492.092	79.9
492.31	89.9
492.527	80.5
492.745	78.3
492.963	82.7
493.18	83.5
493.398	82.3
493.615	81.3
493.833	80.1
494.05	83.5
494.268	77.3
494.485	88.9
494.703	83.1
494.92	80.7
495.138	81.9
495.355	77.9
495.573	84.7
495.79	80.7
496.008	81.7
496.225	80.9
496.442	82.9
496.66	73.7
496.877	79.5
497.094	83.1
497.312	81.3
497.529	88.5
497.746	79.5
497.963	80.9
498.181	84.1
498.398	85.3
498.615	74.3
498.832	87.5
499.049	87.5
499.267	87.3
499.484	86.1
499.701	80.5
499.918	79.5
500.135	86.7
500.352	86.3
500.569	82.5
500.786	80.9
501.003	80.9
501.22	86.3
501.437	84.5
501.654	84.7
501.871	81.9
502.088	86.9
502.305	83.9
502.522	81.7
502.739	79.9
502.956	81.9
503.172	83.9
503.389	87.9
503.606	81.3
503.823	85.9
504.04	78.9
504.256	82.3
504.473	88.7
504.69	85.7
504.907	83.5
505.123	80.7
505.34	79.9
505.557	85.1
505.773	80.5
505.99	81.1
506.207	83.1
506.423	86.9
506.64	82.1
506.856	83.3
507.073	82.7
507.289	77.5
507.506	86.9
507.722	81.5
507.939	80.1
508.155	85.7
508.372	85.9
508.588	79.7
508.805	83.3
509.021	84.9
509.238	87.1
509.454	84.9
509.67	77.5
509.887	75.7
510.103	85.5
510.319	85.1
510.536	89.5
510.752	87.1
510.968	83.5
511.184	80.7
511.401	86.1
511.617	85.7
511.833	86.1
512.049	85.1
512.265	80.9
512.481	82.5
512.698	81.3
512.914	84.9
513.13	80.7
513.346	84.7
513.562	80.5
513.778	84.9
513.994	80.7
514.21	80.5
514.426	79.9
514.642	86.7
514.858	87.7
515.074	80.9
515.29	84.3
515.506	84.3
515.721	77.5
515.937	87.5
516.153	79.7
516.369	85.1
516.585	84.7
516.801	87.1
517.016	81.3
517.232	86.3
517.448	88.3
517.664	81.9
517.879	78.9
518.095	78.3
518.311	88.7
518.527	90.9
518.742	88.9
518.958	80.3
519.173	79.9
519.389	82.5
519.605	87.1
519.82	86.1
520.036	80.7
520.251	77.1
520.467	81.3
520.682	80.7
520.898	85.1
521.113	82.9
521.329	80.5
521.544	83.1
521.76	84.5
521.975	89.7
522.19	85.9
522.406	84.9
522.621	79.7
522.836	88.3
523.052	82.7
523.267	84.5
523.482	84.3
523.698	75.3
523.913	88.9
524.128	77.9
524.343	90.1
524.559	85.7
524.774	89.9
524.989	90.1
525.204	83.1
525.419	87.1
525.634	83.9
525.849	84.1
526.064	85.3
526.28	87.1
526.495	79.3
526.71	77.7
526.925	88.3
527.14	81.5
527.355	81.1
527.57	80.9
527.785	85.1
527.999	84.1
528.214	86.7
528.429	87.1
528.644	86.1
528.859	86.1
529.074	86.7
529.289	78.1
529.503	80.3
529.718	87.7
529.933	85.7
530.148	81.5
530.363	81.5
530.577	80.9
530.792	80.3
531.007	82.5
531.221	85.3
531.436	85.9
531.651	86.1
531.865	81.3
532.08	88.3
532.295	85.5
532.509	88.1
532.724	74.5
532.938	79.7
533.153	80.9
533.367	78.9
533.582	83.7
533.796	86.5
534.011	81.9
534.225	78.9
534.44	80.5
534.654	80.7
534.868	78.9
535.083	82.1
535.297	81.7
535.511	78.5
535.726	81.9
535.94	89.9
536.154	88.7
536.369	79.3
536.583	86.9
536.797	81.5
537.011	81.5
537.225	87.5
537.44	84.1
537.654	91.7
537.868	84.5
538.082	82.9
538.296	82.1
538.51	78.9
538.724	83.5
538.938	90.9
539.153	79.5
539.367	84.1
539.581	92.1
539.795	84.9
540.009	82.1
540.222	82.1
540.436	85.1
540.65	90.7
