Data from TenMicroDelayPb_HRD10591_00042.txt Node
Date: Mon Nov 24 14:37:19 EST 2025
User: Yrep
Spectrometer: HR+D1059
Trigger mode: 1
Integration Time (sec): 1.000000E-2
Scans to average: 5
Electric dark correction enabled: true
Nonlinearity correction enabled: false
Boxcar width: 0
XAxis mode: Wavelengths
Number of Pixels in Spectrum: 2048
>>>>>Begin Spectral Data<<<<<
223.165	-16.87
223.4	-16.87
223.635	-16.87
223.869	-20.07
224.104	-19.87
224.338	-13.87
224.573	-17.87
224.808	-8.07
225.042	-9.67
225.277	-2.47
225.511	-1.47
225.746	-2.87
225.98	8.13
226.215	6.53
226.449	17.13
226.683	20.93
226.918	28.73
227.152	31.73
227.387	38.53
227.621	38.93
227.856	37.93
228.09	47.53
228.324	45.13
228.559	55.33
228.793	63.93
229.027	59.33
229.262	60.13
229.496	70.73
229.73	66.73
229.964	68.33
230.199	74.13
230.433	77.33
230.667	71.33
230.901	81.53
231.136	77.13
231.37	76.13
231.604	78.33
231.838	81.33
232.072	86.13
232.306	85.13
232.541	73.13
232.775	79.33
233.009	76.53
233.243	81.33
233.477	80.73
233.711	81.53
233.945	81.53
234.179	78.73
234.413	77.93
234.647	80.13
234.881	79.53
235.115	74.53
235.349	78.53
235.583	81.13
235.817	78.93
236.051	80.33
236.285	81.33
236.519	76.33
236.753	79.13
236.987	75.33
237.221	76.53
237.455	79.73
237.689	77.53
237.922	73.73
238.156	65.93
238.39	81.73
238.624	75.53
238.858	71.93
239.091	77.33
239.325	73.73
239.559	72.73
239.793	77.53
240.027	78.93
240.26	68.33
240.494	83.93
240.728	74.33
240.961	71.13
241.195	74.13
241.429	80.33
241.662	76.93
241.896	80.53
242.13	79.53
242.363	70.73
242.597	74.33
242.83	80.53
243.064	78.13
243.298	79.13
243.531	72.53
243.765	72.53
243.998	81.13
244.232	79.13
244.465	78.13
244.699	80.13
244.932	76.93
245.166	74.93
245.399	76.33
245.633	80.33
245.866	78.33
246.099	79.93
246.333	76.13
246.566	78.93
246.8	72.93
247.033	72.53
247.266	78.73
247.5	77.53
247.733	77.73
247.966	80.13
248.2	79.53
248.433	79.33
248.666	73.93
248.899	79.53
249.133	78.33
249.366	78.33
249.599	80.13
249.832	78.73
250.066	83.13
250.299	76.93
250.532	81.73
250.765	81.53
250.998	76.33
251.231	81.73
251.465	75.73
251.698	82.13
251.931	76.13
252.164	77.93
252.397	79.33
252.63	84.53
252.863	78.53
253.096	79.73
253.329	83.53
253.562	81.53
253.795	79.93
254.028	80.13
254.261	78.73
254.494	75.73
254.727	80.93
254.96	77.13
255.193	77.73
255.426	80.93
255.659	78.73
255.892	79.93
256.124	84.93
256.357	79.93
256.59	79.33
256.823	81.13
257.056	86.33
257.289	81.13
257.521	80.13
257.754	81.73
257.987	86.33
258.22	79.33
258.452	79.53
258.685	83.73
258.918	79.33
259.151	78.93
259.383	79.73
259.616	80.53
259.849	73.33
260.081	82.33
260.314	87.73
260.547	76.13
260.779	78.73
261.012	83.73
261.244	82.13
261.477	85.53
261.71	89.53
261.942	84.33
262.175	80.13
262.407	81.53
262.64	82.73
262.872	83.73
263.105	84.93
263.337	78.93
263.57	84.33
263.802	82.53
264.035	79.93
264.267	79.73
264.499	85.73
264.732	83.13
264.964	82.73
265.197	86.73
265.429	78.73
265.661	81.53
265.894	79.33
266.126	85.73
266.358	81.73
266.591	88.53
266.823	81.13
267.055	82.73
267.287	82.53
267.52	78.73
267.752	83.33
267.984	80.93
268.216	78.93
268.448	80.73
268.681	81.93
268.913	76.13
269.145	80.93
269.377	80.33
269.609	77.73
269.841	89.13
270.073	80.13
270.306	82.93
270.538	85.53
270.77	79.93
271.002	82.33
271.234	84.93
271.466	81.73
271.698	82.33
271.93	85.53
272.162	83.93
272.394	85.33
272.626	80.33
272.858	85.53
273.09	83.53
273.322	83.13
273.553	80.93
273.785	79.53
274.017	77.33
274.249	82.33
274.481	82.13
274.713	76.93
274.945	79.53
275.176	87.13
275.408	76.93
275.64	88.13
275.872	82.53
276.104	75.53
276.335	79.93
276.567	79.33
276.799	79.33
277.031	80.13
277.262	81.53
277.494	86.53
277.726	78.73
277.957	81.13
278.189	81.13
278.421	82.13
278.652	80.93
278.884	85.33
279.115	86.93
279.347	84.93
279.579	81.73
279.81	91.93
280.042	99.73
280.273	94.13
280.505	89.93
280.736	87.13
280.968	82.73
281.199	85.53
281.431	86.53
281.662	78.73
281.894	82.13
282.125	89.73
282.356	90.53
282.588	87.33
282.819	85.93
283.051	88.93
283.282	97.73
283.513	94.33
283.745	93.13
283.976	86.13
284.207	84.33
284.439	84.13
284.67	83.33
284.901	82.53
285.132	84.73
285.364	80.33
285.595	84.93
285.826	86.33
286.057	84.13
286.288	85.73
286.52	86.93
286.751	90.53
286.982	88.53
287.213	85.53
287.444	85.93
287.675	88.93
287.906	83.13
288.138	77.93
288.369	84.73
288.6	79.13
288.831	85.13
289.062	75.13
289.293	83.73
289.524	78.93
289.755	80.73
289.986	78.73
290.217	85.73
290.448	79.53
290.679	89.33
290.91	85.13
291.141	87.53
291.371	83.53
291.602	81.93
291.833	79.93
292.064	83.33
292.295	78.13
292.526	83.93
292.757	78.33
292.987	83.53
293.218	90.13
293.449	87.33
293.68	85.13
293.91	81.33
294.141	76.33
294.372	84.73
294.603	80.53
294.833	74.53
295.064	86.53
295.295	86.13
295.525	81.73
295.756	84.33
295.987	83.33
296.217	85.33
296.448	83.13
296.679	81.13
296.909	89.13
297.14	84.53
297.37	80.73
297.601	81.93
297.831	84.13
298.062	83.73
298.292	89.33
298.523	79.53
298.753	80.53
298.984	83.13
299.214	82.33
299.445	77.13
299.675	82.73
299.905	81.93
300.136	86.73
300.366	79.53
300.597	84.33
300.827	79.53
301.057	91.93
301.288	85.53
301.518	83.33
301.748	85.13
301.979	88.53
302.209	83.93
302.439	85.73
302.669	81.73
302.9	85.13
303.13	85.33
303.36	85.53
303.59	82.53
303.82	80.13
304.051	79.73
304.281	83.93
304.511	87.73
304.741	79.13
304.971	79.93
305.201	82.93
305.431	79.13
305.661	88.13
305.891	86.93
306.121	88.13
306.352	87.53
306.582	84.73
306.812	88.33
307.042	83.13
307.272	81.13
307.502	85.33
307.731	85.53
307.961	83.73
308.191	84.53
308.421	81.13
308.651	83.13
308.881	83.13
309.111	88.13
309.341	82.13
309.571	86.53
309.8	81.53
310.03	92.53
310.26	87.13
310.49	81.13
310.72	82.93
310.949	80.13
311.179	83.93
311.409	84.13
311.639	83.93
311.868	85.73
312.098	82.33
312.328	83.93
312.557	79.53
312.787	84.53
313.017	81.13
313.246	87.33
313.476	78.33
313.706	86.13
313.935	82.33
314.165	81.93
314.394	78.33
314.624	80.53
314.853	86.93
315.083	80.93
315.312	89.53
315.542	81.73
315.771	84.93
316.001	90.93
316.23	79.33
316.46	83.93
316.689	89.73
316.919	82.93
317.148	78.73
317.377	76.93
317.607	86.13
317.836	83.13
318.065	82.13
318.295	86.33
318.524	82.73
318.753	81.93
318.983	74.33
319.212	75.33
319.441	79.73
319.67	84.93
319.9	80.13
320.129	88.93
320.358	84.33
320.587	80.53
320.816	85.73
321.046	86.53
321.275	82.93
321.504	84.33
321.733	81.73
321.962	85.13
322.191	79.13
322.42	86.53
322.649	86.33
322.878	80.53
323.108	88.33
323.337	90.73
323.566	85.13
323.795	79.73
324.024	85.53
324.253	86.13
324.482	81.53
324.71	80.13
324.939	83.13
325.168	87.13
325.397	80.93
325.626	89.53
325.855	86.13
326.084	84.53
326.313	87.33
326.542	89.53
326.77	83.73
326.999	83.93
327.228	80.73
327.457	83.53
327.686	81.13
327.914	85.13
328.143	81.13
328.372	84.13
328.6	85.13
328.829	83.13
329.058	82.13
329.287	81.73
329.515	78.13
329.744	85.73
329.972	88.33
330.201	83.33
330.43	89.73
330.658	86.73
330.887	78.93
331.115	91.13
331.344	83.33
331.572	78.53
331.801	83.13
332.03	86.93
332.258	87.33
332.486	87.53
332.715	79.33
332.943	77.13
333.172	84.33
333.4	87.33
333.629	86.33
333.857	82.73
334.085	79.33
334.314	76.53
334.542	83.73
334.771	88.53
334.999	82.13
335.227	86.33
335.455	85.33
335.684	77.13
335.912	85.13
336.14	80.13
336.369	82.13
336.597	88.93
336.825	75.33
337.053	80.13
337.281	83.93
337.51	86.53
337.738	78.93
337.966	86.53
338.194	81.13
338.422	80.93
338.65	87.13
338.878	79.93
339.106	86.53
339.334	86.73
339.562	84.93
339.79	82.73
340.018	83.93
340.246	84.53
340.474	87.53
340.702	87.13
340.93	81.73
341.158	84.13
341.386	81.93
341.614	86.73
341.842	77.13
342.07	81.13
342.298	84.13
342.526	81.13
342.754	81.93
342.981	88.13
343.209	89.13
343.437	86.53
343.665	79.53
343.893	82.33
344.12	86.33
344.348	85.93
344.576	82.93
344.804	86.73
345.031	76.13
345.259	81.93
345.487	85.13
345.714	89.13
345.942	85.73
346.17	77.73
346.397	83.73
346.625	82.73
346.853	88.33
347.08	83.93
347.308	85.53
347.535	85.53
347.763	79.53
347.99	84.93
348.218	85.13
348.445	82.93
348.673	85.13
348.9	79.73
349.128	82.13
349.355	84.33
349.583	87.73
349.81	83.53
350.037	80.33
350.265	88.93
350.492	84.73
350.72	81.33
350.947	84.93
351.174	85.33
351.402	84.13
351.629	87.33
351.856	79.53
352.083	83.73
352.311	79.73
352.538	74.93
352.765	81.53
352.992	89.93
353.22	87.13
353.447	87.33
353.674	86.73
353.901	75.73
354.128	83.73
354.355	79.93
354.583	79.93
354.81	77.73
355.037	90.73
355.264	89.73
355.491	81.33
355.718	83.53
355.945	86.53
356.172	82.73
356.399	86.33
356.626	87.53
356.853	92.93
357.08	112.53
357.307	122.13
357.534	106.13
357.761	87.33
357.988	85.73
358.215	86.93
358.441	83.93
358.668	84.13
358.895	83.53
359.122	82.53
359.349	84.73
359.576	86.33
359.802	83.13
360.029	83.73
360.256	79.93
360.483	76.53
360.709	79.33
360.936	80.53
361.163	83.13
361.39	92.13
361.616	79.93
361.843	88.13
362.07	80.73
362.296	90.93
362.523	81.13
362.749	83.73
362.976	83.13
363.203	91.33
363.429	89.73
363.656	107.53
363.882	135.33
364.109	131.33
364.335	96.53
364.562	85.33
364.788	86.13
365.015	80.33
365.241	84.73
365.468	86.53
365.694	81.93
365.92	76.93
366.147	83.93
366.373	83.13
366.599	87.73
366.826	87.73
367.052	93.13
367.278	101.33
367.505	97.13
367.731	97.13
367.957	101.33
368.184	137.33
368.41	163.73
368.636	128.33
368.862	93.93
369.089	88.93
369.315	89.13
369.541	86.93
369.767	84.13
369.993	80.13
370.219	76.13
370.445	87.53
370.672	81.93
370.898	80.93
371.124	79.13
371.35	84.93
371.576	88.73
371.802	89.33
372.028	83.93
372.254	88.53
372.48	78.13
372.706	82.13
372.932	81.73
373.158	88.73
373.384	83.73
373.61	87.73
373.835	102.33
374.061	111.73
374.287	100.33
374.513	86.53
374.739	85.53
374.965	79.33
375.191	79.13
375.416	84.33
375.642	84.33
375.868	89.33
376.094	76.93
376.319	84.33
376.545	81.93
376.771	83.53
376.997	78.73
377.222	87.33
377.448	76.33
377.674	82.53
377.899	84.33
378.125	83.93
378.35	91.53
378.576	83.33
378.802	85.33
379.027	82.33
379.253	84.33
379.478	82.73
379.704	87.33
379.929	81.93
380.155	88.33
380.38	74.53
380.606	82.33
380.831	88.53
381.057	81.93
381.282	88.33
381.507	85.13
381.733	85.93
381.958	80.13
382.184	77.33
382.409	79.93
382.634	81.13
382.86	77.73
383.085	81.93
383.31	83.73
383.535	83.93
383.761	85.13
383.986	82.73
384.211	84.33
384.436	76.93
384.662	77.93
384.887	75.93
385.112	76.53
385.337	84.53
385.562	85.33
385.787	78.13
386.013	81.53
386.238	78.73
386.463	82.13
386.688	79.33
386.913	86.73
387.138	80.33
387.363	78.93
387.588	83.33
387.813	86.33
388.038	85.93
388.263	81.93
388.488	79.13
388.713	80.13
388.938	81.33
389.163	80.73
389.387	77.33
389.612	76.13
389.837	85.73
390.062	84.13
390.287	81.33
390.512	80.13
390.736	80.73
390.961	82.93
391.186	79.13
391.411	83.13
391.636	79.93
391.86	83.53
392.085	82.73
392.31	79.73
392.534	84.53
392.759	86.93
392.984	78.73
393.208	75.73
393.433	80.73
393.658	85.73
393.882	79.53
394.107	84.13
394.331	79.33
394.556	79.53
394.78	81.33
395.005	80.13
395.229	81.73
395.454	78.53
395.678	80.93
395.903	85.13
396.127	79.93
396.352	81.13
396.576	80.13
396.801	83.53
397.025	75.73
397.249	84.33
397.474	82.93
397.698	77.93
397.922	80.53
398.147	90.33
398.371	79.93
398.595	85.73
398.82	83.13
399.044	84.53
399.268	81.13
399.492	86.73
399.717	85.93
399.941	78.73
400.165	83.33
400.389	79.53
400.613	83.53
400.837	89.73
401.062	82.93
401.286	85.53
401.51	86.73
401.734	84.73
401.958	94.13
402.182	97.53
402.406	81.33
402.63	79.73
402.854	81.13
403.078	78.33
403.302	82.53
403.526	86.73
403.75	82.53
403.974	81.93
404.198	85.53
404.422	86.33
404.645	93.93
404.869	88.53
405.093	87.93
405.317	100.93
405.541	161.93
405.765	234.33
405.988	241.13
406.212	146.53
406.436	104.93
406.66	92.13
406.883	81.53
407.107	83.33
407.331	76.53
407.555	80.73
407.778	81.93
408.002	81.73
408.226	80.33
408.449	80.33
408.673	80.33
408.896	84.53
409.12	78.33
409.344	81.33
409.567	87.53
409.791	81.13
410.014	80.73
410.238	79.73
410.461	80.13
410.685	84.53
410.908	88.13
411.132	78.33
411.355	77.73
411.578	84.53
411.802	82.73
412.025	80.33
412.249	83.13
412.472	88.73
412.695	81.13
412.919	83.53
413.142	82.53
413.365	81.13
413.589	81.53
413.812	79.13
414.035	77.53
414.258	88.73
414.482	84.13
414.705	81.33
414.928	82.13
415.151	80.53
415.374	78.73
415.597	84.73
415.821	85.93
416.044	81.73
416.267	83.13
416.49	82.13
416.713	81.73
416.936	92.53
417.159	80.93
417.382	74.73
417.605	89.33
417.828	78.33
418.051	84.73
418.274	82.33
418.497	82.73
418.72	82.33
418.943	85.33
419.166	86.73
419.389	79.33
419.611	73.93
419.834	80.93
420.057	76.33
420.28	85.53
420.503	89.33
420.726	83.33
420.948	84.33
421.171	81.93
421.394	80.93
421.617	77.33
421.839	80.53
422.062	79.13
422.285	86.73
422.507	80.93
422.73	81.53
422.953	81.53
423.175	84.13
423.398	76.93
423.621	79.73
423.843	92.93
424.066	81.33
424.288	81.73
424.511	86.93
424.733	80.53
424.956	80.93
425.178	83.73
425.401	82.93
425.623	81.73
425.846	86.13
426.068	78.13
426.291	80.13
426.513	81.93
426.735	76.53
426.958	76.53
427.18	84.33
427.402	76.33
427.625	80.93
427.847	82.33
428.069	78.93
428.292	81.73
428.514	77.73
428.736	75.33
428.958	82.13
429.181	79.13
429.403	77.93
429.625	83.53
429.847	78.53
430.069	80.33
430.292	81.73
430.514	82.53
430.736	81.93
430.958	84.93
431.18	79.13
431.402	82.13
431.624	82.13
431.846	78.33
432.068	80.33
432.29	83.93
432.512	81.93
432.734	80.53
432.956	82.93
433.178	83.93
433.4	79.33
433.622	82.53
433.844	87.73
434.066	75.53
434.287	76.73
434.509	76.73
434.731	78.53
434.953	74.93
435.175	85.73
435.397	82.33
435.618	83.13
435.84	75.93
436.062	81.93
436.284	78.33
436.505	84.93
436.727	82.13
436.949	86.73
437.17	75.53
437.392	78.93
437.614	76.93
437.835	79.33
438.057	79.93
438.278	84.13
438.5	77.73
438.721	82.13
438.943	81.33
439.165	82.13
439.386	79.53
439.608	79.53
439.829	88.53
440.05	81.53
440.272	84.13
440.493	83.73
440.715	78.53
440.936	75.33
441.158	86.33
441.379	84.53
441.6	77.53
441.822	79.93
442.043	82.93
442.264	81.13
442.486	80.33
442.707	79.93
442.928	85.13
443.149	80.73
443.371	87.73
443.592	80.93
443.813	83.33
444.034	86.53
444.255	77.93
444.476	75.33
444.698	90.93
444.919	86.93
445.14	88.93
445.361	87.33
445.582	84.53
445.803	82.13
446.024	84.13
446.245	80.73
446.466	74.93
446.687	78.93
446.908	84.33
447.129	83.13
447.35	82.73
447.571	81.73
447.792	86.93
448.013	84.33
448.234	81.13
448.455	85.93
448.675	81.73
448.896	84.93
449.117	87.73
449.338	81.53
449.559	82.53
449.779	81.53
450	84.13
450.221	80.73
450.442	85.13
450.662	85.53
450.883	84.33
451.104	86.13
451.324	78.73
451.545	78.33
451.766	79.53
451.986	82.73
452.207	81.13
452.428	81.13
452.648	86.53
452.869	80.93
453.089	80.93
453.31	72.33
453.53	82.53
453.751	83.73
453.971	77.93
454.192	84.33
454.412	84.13
454.633	80.53
454.853	77.33
455.073	88.13
455.294	80.93
455.514	78.13
455.734	81.73
455.955	79.73
456.175	79.73
456.395	82.33
456.616	83.73
456.836	83.33
457.056	85.13
457.276	75.93
457.497	79.33
457.717	85.13
457.937	79.13
458.157	89.73
458.377	84.93
458.598	76.33
458.818	79.73
459.038	87.93
459.258	80.33
459.478	74.93
459.698	77.53
459.918	74.13
460.138	78.33
460.358	83.13
460.578	77.73
460.798	78.73
461.018	77.33
461.238	85.13
461.458	82.73
461.678	83.53
461.898	83.13
462.118	84.73
462.338	76.73
462.558	76.73
462.777	86.73
462.997	79.53
463.217	76.93
463.437	77.13
463.657	81.33
463.876	78.93
464.096	79.73
464.316	82.13
464.536	78.93
464.755	76.53
464.975	79.13
465.195	81.53
465.414	78.13
465.634	80.73
465.854	83.33
466.073	85.13
466.293	85.33
466.512	80.33
466.732	81.33
466.951	83.13
467.171	83.93
467.391	82.13
467.61	83.73
467.829	77.73
468.049	81.93
468.268	84.33
468.488	80.73
468.707	87.33
468.927	83.73
469.146	82.33
469.365	87.13
469.585	87.33
469.804	85.33
470.023	78.93
470.243	79.33
470.462	77.93
470.681	89.33
470.901	79.73
471.12	78.53
471.339	77.73
471.558	85.53
471.777	84.93
471.997	79.73
472.216	80.13
472.435	83.33
472.654	80.33
472.873	78.53
473.092	83.93
473.311	83.53
473.53	73.73
473.749	81.93
473.968	82.33
474.187	79.13
474.406	77.73
474.625	83.33
474.844	84.13
475.063	82.93
475.282	81.33
475.501	83.53
475.72	85.53
475.939	83.73
476.158	85.93
476.377	84.93
476.596	78.33
476.814	80.33
477.033	86.93
477.252	78.73
477.471	84.33
477.69	78.93
477.908	86.33
478.127	84.73
478.346	83.93
478.564	77.93
478.783	78.73
479.002	83.53
479.22	86.93
479.439	81.53
479.658	82.93
479.876	83.13
480.095	84.53
480.313	87.13
480.532	80.13
480.751	82.73
480.969	77.73
481.188	76.93
481.406	89.13
481.624	84.13
481.843	80.73
482.061	81.73
482.28	74.73
482.498	78.53
482.717	79.13
482.935	81.33
483.153	76.33
483.372	84.33
483.59	88.13
483.808	81.33
484.027	90.53
484.245	79.73
484.463	79.13
484.681	79.73
484.9	81.93
485.118	83.93
485.336	85.93
485.554	82.33
485.772	76.93
485.99	81.53
486.209	84.93
486.427	82.73
486.645	86.73
486.863	79.73
487.081	87.53
487.299	87.73
487.517	80.53
487.735	80.53
487.953	86.53
488.171	91.53
488.389	86.13
488.607	91.93
488.825	80.73
489.043	82.93
489.261	88.73
489.479	86.93
489.696	84.13
489.914	82.33
490.132	77.73
490.35	81.33
490.568	83.53
490.786	78.93
491.003	87.93
491.221	92.13
491.439	88.93
491.657	85.13
491.874	90.13
492.092	91.93
492.31	91.53
492.527	82.33
492.745	86.13
492.963	81.93
493.18	82.93
493.398	86.53
493.615	83.73
493.833	87.33
494.05	87.73
494.268	89.73
494.485	88.33
494.703	85.73
494.92	78.73
495.138	87.73
495.355	90.33
495.573	83.13
495.79	87.73
496.008	78.53
496.225	77.53
496.442	87.73
496.66	89.33
496.877	88.73
497.094	86.73
497.312	79.13
497.529	84.53
497.746	85.73
497.963	83.93
498.181	86.93
498.398	83.73
498.615	85.53
498.832	85.33
499.049	86.13
499.267	88.93
499.484	83.13
499.701	85.33
499.918	92.53
500.135	90.73
500.352	81.33
500.569	99.93
500.786	111.53
501.003	96.93
501.22	87.93
501.437	88.53
501.654	81.73
501.871	89.33
502.088	82.53
502.305	82.53
502.522	84.93
502.739	86.93
502.956	83.73
503.172	87.13
503.389	74.93
503.606	83.53
503.823	81.73
504.04	88.73
504.256	80.13
504.473	81.13
504.69	82.93
504.907	82.53
505.123	81.33
505.34	86.93
505.557	76.93
505.773	84.53
505.99	80.53
506.207	87.13
506.423	88.33
506.64	81.93
506.856	83.93
507.073	87.53
507.289	82.33
507.506	81.73
507.722	77.53
507.939	82.93
508.155	80.53
508.372	84.73
508.588	86.53
508.805	79.33
509.021	84.53
509.238	84.53
509.454	77.93
509.67	92.53
509.887	83.93
510.103	86.33
510.319	81.53
510.536	84.73
510.752	83.33
510.968	89.33
511.184	81.13
511.401	80.53
511.617	81.93
511.833	85.13
512.049	80.33
512.265	87.53
512.481	86.53
512.698	84.73
512.914	82.53
513.13	80.13
513.346	87.73
513.562	86.73
513.778	82.33
513.994	76.73
514.21	83.53
514.426	85.73
514.642	82.53
514.858	86.53
515.074	88.33
515.29	87.73
515.506	87.93
515.721	82.73
515.937	85.53
516.153	84.53
516.369	90.73
516.585	80.33
516.801	89.93
517.016	86.33
517.232	89.33
517.448	85.13
517.664	83.13
517.879	78.53
518.095	82.73
518.311	84.13
518.527	81.33
518.742	85.73
518.958	85.73
519.173	76.73
519.389	84.93
519.605	83.33
519.82	81.53
