Data from TenMicroDelayPb_HRD10591_00010.txt Node
Date: Mon Nov 24 14:34:24 EST 2025
User: Yrep
Spectrometer: HR+D1059
Trigger mode: 0
Integration Time (sec): 1.000000E-2
Scans to average: 5
Electric dark correction enabled: true
Nonlinearity correction enabled: false
Boxcar width: 0
XAxis mode: Wavelengths
Number of Pixels in Spectrum: 2048
>>>>>Begin Spectral Data<<<<<
223.165	-13.84
223.4	-13.84
223.635	-13.84
223.869	-15.44
224.104	-12.84
224.338	-20.84
224.573	-17.24
224.808	-12.84
225.042	-6.44
225.277	-5.04
225.511	-0.44
225.746	3.16
225.98	5.96
226.215	8.96
226.449	13.36
226.683	19.76
226.918	21.76
227.152	31.96
227.387	36.96
227.621	32.76
227.856	44.16
228.09	51.56
228.324	50.36
228.559	56.56
228.793	53.36
229.027	64.36
229.262	68.96
229.496	66.56
229.73	68.16
229.964	67.56
230.199	77.76
230.433	75.76
230.667	80.16
230.901	80.56
231.136	78.96
231.37	82.96
231.604	78.96
231.838	82.36
232.072	78.96
232.306	74.56
232.541	77.96
232.775	79.56
233.009	82.56
233.243	76.56
233.477	79.76
233.711	83.96
233.945	83.16
234.179	84.16
234.413	82.56
234.647	83.36
234.881	77.56
235.115	78.56
235.349	75.76
235.583	78.96
235.817	78.76
236.051	75.56
236.285	81.36
236.519	77.96
236.753	76.56
236.987	75.16
237.221	79.76
237.455	70.36
237.689	75.16
237.922	76.36
238.156	70.56
238.39	79.16
238.624	78.56
238.858	78.36
239.091	76.96
239.325	83.56
239.559	73.96
239.793	72.36
240.027	82.16
240.26	73.76
240.494	82.16
240.728	76.16
240.961	73.56
241.195	77.36
241.429	72.76
241.662	75.36
241.896	78.36
242.13	80.56
242.363	80.56
242.597	78.76
242.83	77.76
243.064	70.96
243.298	76.56
243.531	78.36
243.765	75.96
243.998	72.96
244.232	83.76
244.465	77.76
244.699	80.56
244.932	73.96
245.166	80.76
245.399	83.16
245.633	79.16
245.866	76.76
246.099	72.96
246.333	76.16
246.566	82.56
246.8	76.76
247.033	73.56
247.266	77.76
247.5	84.76
247.733	82.16
247.966	76.76
248.2	78.36
248.433	82.56
248.666	83.96
248.899	82.96
249.133	83.36
249.366	77.96
249.599	77.16
249.832	75.56
250.066	77.16
250.299	77.76
250.532	78.96
250.765	84.76
250.998	82.96
251.231	79.56
251.465	75.96
251.698	81.56
251.931	82.76
252.164	75.96
252.397	78.16
252.63	75.56
252.863	73.16
253.096	81.56
253.329	79.16
253.562	78.16
253.795	69.56
254.028	80.76
254.261	80.96
254.494	81.36
254.727	73.96
254.96	83.96
255.193	79.16
255.426	77.16
255.659	74.76
255.892	79.96
256.124	82.16
256.357	74.96
256.59	78.76
256.823	86.36
257.056	76.96
257.289	77.96
257.521	78.16
257.754	80.36
257.987	78.36
258.22	77.56
258.452	74.96
258.685	83.16
258.918	75.96
259.151	82.76
259.383	83.76
259.616	85.16
259.849	84.76
260.081	82.36
260.314	81.16
260.547	80.36
260.779	77.56
261.012	77.96
261.244	74.36
261.477	74.76
261.71	85.16
261.942	86.16
262.175	84.36
262.407	83.16
262.64	78.36
262.872	83.76
263.105	76.36
263.337	82.36
263.57	86.36
263.802	86.76
264.035	80.96
264.267	77.76
264.499	82.16
264.732	81.76
264.964	81.36
265.197	83.16
265.429	80.56
265.661	85.96
265.894	78.36
266.126	77.36
266.358	73.76
266.591	82.56
266.823	82.96
267.055	81.36
267.287	83.16
267.52	83.96
267.752	79.56
267.984	79.56
268.216	79.56
268.448	77.36
268.681	81.36
268.913	86.36
269.145	80.96
269.377	80.56
269.609	84.36
269.841	80.76
270.073	81.56
270.306	85.36
270.538	87.16
270.77	78.96
271.002	91.56
271.234	83.36
271.466	79.36
271.698	85.56
271.93	84.76
272.162	89.36
272.394	83.56
272.626	76.76
272.858	81.96
273.09	77.96
273.322	80.76
273.553	76.16
273.785	79.16
274.017	82.76
274.249	79.56
274.481	81.36
274.713	83.36
274.945	80.76
275.176	87.56
275.408	83.36
275.64	84.76
275.872	86.56
276.104	88.56
276.335	86.36
276.567	88.16
276.799	80.36
277.031	83.96
277.262	80.36
277.494	84.76
277.726	85.36
277.957	86.76
278.189	85.36
278.421	80.36
278.652	84.56
278.884	84.56
279.115	86.36
279.347	81.16
279.579	79.56
279.81	77.76
280.042	87.96
280.273	86.76
280.505	80.76
280.736	79.96
280.968	81.16
281.199	81.76
281.431	76.16
281.662	82.56
281.894	81.96
282.125	82.96
282.356	83.36
282.588	83.36
282.819	79.36
283.051	82.76
283.282	79.56
283.513	81.56
283.745	80.96
283.976	90.76
284.207	83.16
284.439	85.56
284.67	80.76
284.901	85.36
285.132	83.56
285.364	83.36
285.595	79.36
285.826	86.76
286.057	85.16
286.288	82.96
286.52	82.76
286.751	89.36
286.982	84.56
287.213	89.56
287.444	80.16
287.675	78.16
287.906	84.36
288.138	82.36
288.369	81.96
288.6	85.36
288.831	85.56
289.062	84.56
289.293	86.76
289.524	89.76
289.755	85.16
289.986	85.56
290.217	82.36
290.448	81.36
290.679	84.56
290.91	81.56
291.141	85.56
291.371	80.36
291.602	79.56
291.833	88.56
292.064	80.76
292.295	80.76
292.526	80.16
292.757	84.96
292.987	85.76
293.218	79.56
293.449	86.76
293.68	79.96
293.91	79.76
294.141	84.16
294.372	86.56
294.603	86.96
294.833	88.96
295.064	87.96
295.295	86.16
295.525	82.76
295.756	82.36
295.987	89.36
296.217	88.16
296.448	84.96
296.679	84.96
296.909	80.76
297.14	86.76
297.37	88.56
297.601	81.96
297.831	83.76
298.062	87.16
298.292	82.16
298.523	85.96
298.753	89.16
298.984	88.16
299.214	86.56
299.445	81.56
299.675	91.16
299.905	84.56
300.136	77.36
300.366	74.56
300.597	82.16
300.827	87.56
301.057	88.96
301.288	78.36
301.518	89.76
301.748	81.96
301.979	87.36
302.209	81.76
302.439	87.16
302.669	85.16
302.9	82.76
303.13	80.56
303.36	77.56
303.59	83.16
303.82	89.96
304.051	85.56
304.281	84.36
304.511	85.56
304.741	86.16
304.971	85.76
305.201	87.56
305.431	78.76
305.661	84.36
305.891	84.96
306.121	82.96
306.352	84.76
306.582	84.56
306.812	85.76
307.042	82.56
307.272	85.16
307.502	79.16
307.731	78.16
307.961	79.16
308.191	86.36
308.421	82.76
308.651	78.16
308.881	76.36
309.111	79.96
309.341	81.96
309.571	84.16
309.8	86.56
310.03	85.36
310.26	81.76
310.49	92.76
310.72	83.56
310.949	76.16
311.179	85.96
311.409	84.16
311.639	82.76
311.868	81.76
312.098	90.36
312.328	84.36
312.557	89.96
312.787	84.16
313.017	89.16
313.246	81.76
313.476	88.96
313.706	87.56
313.935	81.96
314.165	87.76
314.394	86.16
314.624	89.56
314.853	88.96
315.083	84.96
315.312	82.36
315.542	87.76
315.771	77.76
316.001	92.16
316.23	82.56
316.46	83.76
316.689	83.76
316.919	83.16
317.148	85.36
317.377	92.76
317.607	89.56
317.836	87.76
318.065	84.36
318.295	89.16
318.524	83.16
318.753	82.36
318.983	80.56
319.212	90.56
319.441	81.36
319.67	78.76
319.9	81.96
320.129	84.56
320.358	81.96
320.587	85.96
320.816	75.16
321.046	80.36
321.275	79.76
321.504	83.36
321.733	84.76
321.962	81.96
322.191	74.16
322.42	80.96
322.649	82.16
322.878	90.16
323.108	84.36
323.337	82.36
323.566	81.56
323.795	84.36
324.024	82.56
324.253	83.36
324.482	88.76
324.71	80.56
324.939	87.16
325.168	87.36
325.397	82.16
325.626	78.56
325.855	85.16
326.084	81.56
326.313	80.16
326.542	85.76
326.77	77.56
326.999	81.96
327.228	88.16
327.457	84.56
327.686	83.16
327.914	77.96
328.143	88.56
328.372	83.56
328.6	84.36
328.829	90.76
329.058	84.76
329.287	84.56
329.515	87.96
329.744	81.36
329.972	83.16
330.201	84.56
330.43	82.56
330.658	89.56
330.887	80.76
331.115	86.56
331.344	81.96
331.572	85.56
331.801	84.56
332.03	91.16
332.258	88.56
332.486	79.96
332.715	80.36
332.943	82.16
333.172	82.76
333.4	85.16
333.629	84.36
333.857	84.36
334.085	84.96
334.314	81.36
334.542	87.36
334.771	84.36
334.999	85.76
335.227	83.76
335.455	81.56
335.684	81.36
335.912	78.16
336.14	89.16
336.369	84.96
336.597	83.76
336.825	79.56
337.053	87.16
337.281	79.56
337.51	79.76
337.738	83.36
337.966	84.76
338.194	85.56
338.422	83.96
338.65	82.56
338.878	88.36
339.106	81.16
339.334	85.76
339.562	90.96
339.79	83.96
340.018	81.56
340.246	83.36
340.474	83.16
340.702	81.96
340.93	83.96
341.158	84.36
341.386	83.96
341.614	82.16
341.842	85.76
342.07	80.16
342.298	79.56
342.526	88.36
342.754	91.56
342.981	83.36
343.209	78.36
343.437	87.56
343.665	88.56
343.893	82.76
344.12	81.56
344.348	83.36
344.576	87.36
344.804	81.76
345.031	92.16
345.259	80.96
345.487	92.56
345.714	89.16
345.942	78.16
346.17	82.56
346.397	78.76
346.625	84.76
346.853	81.16
347.08	86.76
347.308	86.16
347.535	84.76
347.763	82.76
347.99	84.56
348.218	77.96
348.445	87.56
348.673	77.76
348.9	82.16
349.128	84.36
349.355	88.56
349.583	84.16
349.81	90.36
350.037	83.96
350.265	82.36
350.492	87.16
350.72	86.36
350.947	90.16
351.174	82.96
351.402	78.16
351.629	79.36
351.856	80.56
352.083	81.16
352.311	83.56
352.538	86.56
352.765	82.36
352.992	82.56
353.22	84.76
353.447	85.76
353.674	82.76
353.901	84.76
354.128	86.36
354.355	84.76
354.583	82.96
354.81	79.36
355.037	86.36
355.264	79.96
355.491	82.56
355.718	84.16
355.945	87.16
356.172	86.96
356.399	79.16
356.626	82.36
356.853	84.36
357.08	80.96
357.307	82.36
357.534	82.76
357.761	82.76
357.988	87.56
358.215	80.96
358.441	88.76
358.668	85.96
358.895	77.36
359.122	85.56
359.349	85.36
359.576	82.96
359.802	87.36
360.029	87.96
360.256	82.96
360.483	84.76
360.709	85.96
360.936	82.56
361.163	83.76
361.39	74.96
361.616	76.76
361.843	82.96
362.07	81.36
362.296	79.56
362.523	80.16
362.749	77.36
362.976	82.16
363.203	83.76
363.429	82.16
363.656	79.36
363.882	88.36
364.109	84.56
364.335	81.76
364.562	82.36
364.788	85.16
365.015	83.96
365.241	85.36
365.468	89.16
365.694	84.96
365.92	87.36
366.147	76.96
366.373	84.76
366.599	77.76
366.826	79.36
367.052	82.76
367.278	75.96
367.505	86.16
367.731	85.96
367.957	81.96
368.184	81.76
368.41	81.16
368.636	85.36
368.862	84.36
369.089	84.16
369.315	80.96
369.541	85.36
369.767	85.56
369.993	81.76
370.219	82.16
370.445	81.16
370.672	76.96
370.898	78.96
371.124	80.96
371.35	85.16
371.576	82.36
371.802	77.36
372.028	79.76
372.254	79.16
372.48	79.16
372.706	81.76
372.932	88.76
373.158	85.56
373.384	80.56
373.61	82.76
373.835	83.36
374.061	80.96
374.287	79.36
374.513	78.76
374.739	86.36
374.965	82.36
375.191	83.36
375.416	85.96
375.642	87.56
375.868	83.76
376.094	79.96
376.319	80.36
376.545	77.96
376.771	86.16
376.997	81.76
377.222	80.56
377.448	88.16
377.674	80.16
377.899	87.36
378.125	86.36
378.35	83.36
378.576	79.76
378.802	82.76
379.027	84.16
379.253	82.76
379.478	83.36
379.704	85.96
379.929	84.76
380.155	77.76
380.38	72.56
380.606	86.56
380.831	77.16
381.057	82.96
381.282	80.36
381.507	79.56
381.733	84.16
381.958	88.16
382.184	82.56
382.409	77.56
382.634	78.36
382.86	80.36
383.085	86.96
383.31	81.56
383.535	79.16
383.761	80.36
383.986	85.36
384.211	81.16
384.436	81.36
384.662	84.56
384.887	83.16
385.112	83.76
385.337	87.96
385.562	83.16
385.787	81.56
386.013	82.36
386.238	75.76
386.463	79.96
386.688	90.76
386.913	88.36
387.138	81.56
387.363	82.56
387.588	87.56
387.813	85.96
388.038	84.36
388.263	78.36
388.488	82.56
388.713	77.96
388.938	79.76
389.163	81.96
389.387	88.16
389.612	88.76
389.837	82.36
390.062	85.36
390.287	82.16
390.512	78.36
390.736	81.16
390.961	78.36
391.186	82.16
391.411	82.56
391.636	80.36
391.86	82.16
392.085	80.16
392.31	80.36
392.534	86.36
392.759	85.36
392.984	77.36
393.208	84.36
393.433	77.76
393.658	78.36
393.882	80.76
394.107	83.56
394.331	83.16
394.556	78.96
394.78	79.56
395.005	81.96
395.229	87.96
395.454	81.56
395.678	79.16
395.903	80.16
396.127	80.76
396.352	81.56
396.576	80.16
396.801	75.56
397.025	82.16
397.249	84.76
397.474	81.56
397.698	80.36
397.922	79.96
398.147	74.96
398.371	79.56
398.595	72.76
398.82	79.76
399.044	81.16
399.268	76.56
399.492	80.36
399.717	82.16
399.941	82.36
400.165	87.16
400.389	82.16
400.613	83.96
400.837	79.16
401.062	87.56
401.286	77.96
401.51	85.56
401.734	80.16
401.958	83.36
402.182	77.16
402.406	82.96
402.63	76.36
402.854	72.96
403.078	79.96
403.302	80.16
403.526	80.36
403.75	75.56
403.974	76.56
404.198	76.56
404.422	76.96
404.645	76.56
404.869	78.36
405.093	76.76
405.317	79.56
405.541	81.36
405.765	80.16
405.988	76.96
406.212	78.96
406.436	77.56
406.66	80.36
406.883	85.16
407.107	79.56
407.331	78.96
407.555	81.96
407.778	77.56
408.002	76.76
408.226	83.36
408.449	81.76
408.673	82.36
408.896	86.56
409.12	83.36
409.344	85.76
409.567	84.16
409.791	78.36
410.014	85.36
410.238	81.16
410.461	81.56
410.685	86.56
410.908	83.96
411.132	76.96
411.355	77.56
411.578	81.36
411.802	79.76
412.025	85.16
412.249	83.16
412.472	79.16
412.695	83.96
412.919	82.36
413.142	81.36
413.365	83.36
413.589	84.56
413.812	83.16
414.035	76.36
414.258	84.36
414.482	78.96
414.705	80.16
414.928	79.16
415.151	84.16
415.374	82.16
415.597	79.96
415.821	85.76
416.044	83.16
416.267	82.96
416.49	79.96
416.713	77.16
416.936	79.76
417.159	85.36
417.382	82.56
417.605	85.36
417.828	82.76
418.051	74.36
418.274	71.16
418.497	84.16
418.72	77.96
418.943	87.36
419.166	77.16
419.389	84.36
419.611	75.16
419.834	79.36
420.057	79.56
420.28	82.56
420.503	84.96
420.726	77.16
420.948	70.56
421.171	81.16
421.394	81.76
421.617	77.56
421.839	74.76
422.062	77.56
422.285	75.56
422.507	83.16
422.73	79.16
422.953	77.36
423.175	85.96
423.398	83.76
423.621	80.16
423.843	85.56
424.066	81.96
424.288	76.36
424.511	82.96
424.733	86.76
424.956	86.56
425.178	84.96
425.401	79.76
425.623	87.36
425.846	86.56
426.068	84.16
426.291	79.36
426.513	81.76
426.735	85.96
426.958	81.36
427.18	82.16
427.402	76.16
427.625	84.76
427.847	85.56
428.069	82.56
428.292	83.16
428.514	85.56
428.736	78.96
428.958	82.76
429.181	81.16
429.403	84.56
429.625	74.16
429.847	78.96
430.069	83.76
430.292	81.16
430.514	82.56
430.736	83.96
430.958	80.76
431.18	86.56
431.402	80.56
431.624	79.76
431.846	79.76
432.068	80.76
432.29	80.56
432.512	89.76
432.734	76.56
432.956	85.16
433.178	82.16
433.4	82.96
433.622	80.76
433.844	81.96
434.066	80.56
434.287	84.16
434.509	82.76
434.731	82.36
434.953	81.56
435.175	85.96
435.397	80.36
435.618	75.76
435.84	83.16
436.062	81.76
436.284	84.36
436.505	77.56
436.727	78.76
436.949	82.96
437.17	81.16
437.392	81.16
437.614	78.56
437.835	81.16
438.057	82.96
438.278	77.96
438.5	77.16
438.721	84.96
438.943	82.16
439.165	78.76
439.386	77.96
439.608	76.16
439.829	80.76
440.05	84.76
440.272	79.16
440.493	81.36
440.715	76.96
440.936	81.16
441.158	81.36
441.379	82.56
441.6	83.16
441.822	75.96
442.043	77.16
442.264	85.56
442.486	76.96
442.707	84.16
442.928	80.16
443.149	75.96
443.371	79.16
443.592	80.16
443.813	78.36
444.034	83.76
444.255	75.36
444.476	86.56
444.698	82.36
444.919	80.16
445.14	93.36
445.361	84.56
445.582	77.36
445.803	75.76
446.024	83.56
446.245	78.36
446.466	81.36
446.687	86.36
446.908	78.36
447.129	81.16
447.35	82.96
447.571	80.16
447.792	84.16
448.013	86.76
448.234	76.76
448.455	83.36
448.675	79.76
448.896	83.36
449.117	75.96
449.338	84.36
449.559	79.56
449.779	82.56
450	79.96
450.221	87.56
450.442	88.76
450.662	88.56
450.883	82.16
451.104	81.16
451.324	81.56
451.545	82.56
451.766	74.56
451.986	79.16
452.207	80.96
452.428	77.16
452.648	82.96
452.869	81.76
453.089	87.96
453.31	81.36
453.53	84.56
453.751	78.36
453.971	78.76
454.192	79.76
454.412	77.76
454.633	79.96
454.853	83.96
455.073	79.96
455.294	75.16
455.514	82.76
455.734	81.96
455.955	78.56
456.175	79.36
456.395	77.16
456.616	76.36
456.836	83.16
457.056	77.16
457.276	82.96
457.497	78.16
457.717	78.96
457.937	82.76
458.157	79.76
458.377	78.76
458.598	81.96
458.818	80.36
459.038	78.16
459.258	72.56
459.478	79.56
459.698	81.36
459.918	82.76
460.138	87.36
460.358	82.36
460.578	78.36
460.798	81.76
461.018	85.36
461.238	75.56
461.458	77.16
461.678	84.16
461.898	82.96
462.118	77.96
462.338	83.36
462.558	81.36
462.777	81.36
462.997	77.96
463.217	80.16
463.437	80.56
463.657	77.96
463.876	83.76
464.096	79.16
464.316	86.36
464.536	81.96
464.755	81.56
464.975	84.96
465.195	82.36
465.414	81.76
465.634	80.96
465.854	77.56
466.073	86.16
466.293	78.16
466.512	79.56
466.732	81.56
466.951	83.96
467.171	75.16
467.391	77.16
467.61	83.36
467.829	76.16
468.049	81.56
468.268	81.56
468.488	83.96
468.707	78.36
468.927	84.76
469.146	82.96
469.365	82.76
469.585	81.16
469.804	78.56
470.023	74.76
470.243	87.76
470.462	82.56
470.681	77.16
470.901	82.36
471.12	77.76
471.339	78.76
471.558	81.96
471.777	85.96
471.997	86.56
472.216	79.56
472.435	79.76
472.654	78.76
472.873	81.16
473.092	80.16
473.311	81.96
473.53	76.56
473.749	83.76
473.968	77.96
474.187	83.96
474.406	81.76
474.625	84.16
474.844	83.96
475.063	81.36
475.282	77.36
475.501	70.76
475.72	84.16
475.939	76.16
476.158	78.96
476.377	82.96
476.596	81.36
476.814	82.76
477.033	85.96
477.252	81.36
477.471	83.76
477.69	81.56
477.908	80.56
478.127	80.76
478.346	80.36
478.564	78.76
478.783	78.36
479.002	81.56
479.22	92.96
479.439	81.56
479.658	76.76
479.876	82.96
480.095	83.16
480.313	81.56
480.532	78.76
480.751	82.36
480.969	78.16
481.188	82.56
481.406	79.36
481.624	82.96
481.843	79.36
482.061	82.16
482.28	83.96
482.498	84.56
482.717	84.36
482.935	82.76
483.153	84.56
483.372	77.56
483.59	80.36
483.808	79.76
484.027	86.36
484.245	86.56
484.463	78.96
484.681	78.36
484.9	78.56
485.118	79.56
485.336	82.76
485.554	83.76
485.772	78.96
485.99	85.76
486.209	79.16
486.427	81.36
486.645	85.56
486.863	80.96
487.081	82.36
487.299	80.96
487.517	80.56
487.735	82.76
487.953	82.56
488.171	82.96
488.389	83.76
488.607	79.36
488.825	88.96
489.043	78.16
489.261	77.36
489.479	81.96
489.696	83.36
489.914	79.36
490.132	85.96
490.35	85.16
490.568	80.56
490.786	82.36
491.003	83.36
491.221	82.16
491.439	82.36
491.657	83.76
491.874	79.36
492.092	84.96
492.31	71.76
492.527	86.16
492.745	86.56
492.963	79.76
493.18	79.36
493.398	80.16
493.615	83.96
493.833	83.96
494.05	82.16
494.268	82.76
494.485	89.56
494.703	77.96
494.92	78.56
495.138	85.76
495.355	89.16
495.573	89.36
495.79	79.16
496.008	83.76
496.225	80.36
496.442	88.16
496.66	88.36
496.877	81.36
497.094	84.96
497.312	82.36
497.529	80.56
497.746	82.16
497.963	85.76
498.181	81.56
498.398	79.96
498.615	86.36
498.832	82.36
499.049	75.96
499.267	83.56
499.484	83.36
499.701	88.16
499.918	80.76
500.135	84.96
500.352	84.76
500.569	80.56
500.786	87.36
501.003	80.76
501.22	79.36
501.437	80.96
501.654	80.36
501.871	81.96
502.088	83.36
502.305	85.56
502.522	81.36
502.739	81.16
502.956	82.56
503.172	83.76
503.389	81.96
503.606	80.96
503.823	85.16
504.04	79.76
504.256	81.16
504.473	77.76
504.69	83.96
504.907	82.56
505.123	83.76
505.34	83.96
505.557	81.96
505.773	79.56
505.99	80.36
506.207	84.76
506.423	85.56
506.64	83.76
506.856	77.76
507.073	79.76
507.289	82.96
507.506	87.16
507.722	84.36
507.939	81.76
508.155	81.96
508.372	86.76
508.588	80.76
508.805	87.96
509.021	84.76
509.238	79.96
509.454	80.96
509.67	81.16
509.887	82.56
510.103	86.16
510.319	87.76
510.536	80.96
510.752	86.16
510.968	79.16
511.184	78.56
511.401	86.16
511.617	82.76
511.833	81.36
512.049	83.96
512.265	79.56
512.481	82.96
512.698	86.96
512.914	80.16
513.13	87.16
513.346	84.36
513.562	78.96
513.778	86.76
513.994	87.36
514.21	82.56
514.426	81.96
514.642	84.56
514.858	81.76
515.074	83.56
515.29	86.76
515.506	86.36
515.721	86.76
515.937	88.36
516.153	85.56
516.369	86.36
516.585	81.56
516.801	81.96
517.016	76.56
517.232	82.16
517.448	80.16
517.664	80.96
517.879	83.96
518.095	79.96
518.311	86.76
518.527	86.76
518.742	85.76
518.958	81.96
519.173	84.16
519.389	84.16
519.605	80.56
519.82	85.56
520.036	80.36
520.251	82.36
