Data from TenMicroDelayPb_HRD10591_00045.txt Node
Date: Mon Nov 24 14:37:26 EST 2025
User: Yrep
Spectrometer: HR+D1059
Trigger mode: 1
Integration Time (sec): 1.000000E-2
Scans to average: 5
Electric dark correction enabled: true
Nonlinearity correction enabled: false
Boxcar width: 0
XAxis mode: Wavelengths
Number of Pixels in Spectrum: 2048
>>>>>Begin Spectral Data<<<<<
223.165	-14.2
223.4	-14.2
223.635	-14.2
223.869	-20
224.104	-22.4
224.338	-17.6
224.573	-14.4
224.808	-12.4
225.042	-7
225.277	-4.4
225.511	1.6
225.746	2.2
225.98	2.2
226.215	9
226.449	19.8
226.683	19.4
226.918	29.6
227.152	28.6
227.387	36.2
227.621	38.6
227.856	47.6
228.09	46.8
228.324	47.8
228.559	54.6
228.793	56.2
229.027	59
229.262	63.4
229.496	67.8
229.73	69.2
229.964	71.6
230.199	68.6
230.433	73
230.667	80.6
230.901	73.2
231.136	83.6
231.37	77.2
231.604	77.6
231.838	75.6
232.072	86.6
232.306	77.4
232.541	86.4
232.775	95.2
233.009	84.4
233.243	81.2
233.477	86.4
233.711	80.8
233.945	77.4
234.179	78.2
234.413	86
234.647	80.6
234.881	77.6
235.115	80.2
235.349	78.6
235.583	75.2
235.817	75.6
236.051	79.6
236.285	76.4
236.519	75
236.753	76.4
236.987	74.8
237.221	77.2
237.455	81.6
237.689	81
237.922	76.6
238.156	74
238.39	80.8
238.624	75
238.858	69.2
239.091	77.8
239.325	78.8
239.559	73
239.793	79.8
240.027	74.8
240.26	79.2
240.494	80.8
240.728	75.2
240.961	75.6
241.195	75.6
241.429	78.2
241.662	79.4
241.896	78.2
242.13	70.4
242.363	77
242.597	78.4
242.83	83.4
243.064	71.6
243.298	81
243.531	77.8
243.765	78.4
243.998	79.8
244.232	75.2
244.465	74.2
244.699	78.8
244.932	75.8
245.166	81.8
245.399	79.2
245.633	80.8
245.866	76
246.099	81.4
246.333	86.6
246.566	70
246.8	71.6
247.033	83.2
247.266	75.2
247.5	82
247.733	81.6
247.966	79.4
248.2	78.4
248.433	74.4
248.666	81.4
248.899	86.4
249.133	78
249.366	68.8
249.599	82.8
249.832	80.4
250.066	80.4
250.299	74.4
250.532	76.6
250.765	79
250.998	80
251.231	81.2
251.465	87.6
251.698	79.4
251.931	89.8
252.164	84.2
252.397	81
252.63	81.2
252.863	75.2
253.096	82.2
253.329	75.6
253.562	76.4
253.795	81.8
254.028	77.6
254.261	82.4
254.494	79.2
254.727	77.4
254.96	78
255.193	82
255.426	82
255.659	78
255.892	83.2
256.124	80.8
256.357	73.6
256.59	79.4
256.823	83.2
257.056	78.4
257.289	82.8
257.521	86.6
257.754	73.6
257.987	84
258.22	81.6
258.452	76
258.685	85.4
258.918	77.8
259.151	75
259.383	78
259.616	76.2
259.849	79.8
260.081	81
260.314	78.8
260.547	75.6
260.779	83.2
261.012	84.2
261.244	84.8
261.477	88.4
261.71	96.8
261.942	80.8
262.175	85.6
262.407	78.8
262.64	82
262.872	88.2
263.105	89.2
263.337	83
263.57	84
263.802	86
264.035	88.4
264.267	79.6
264.499	85
264.732	78.8
264.964	86.8
265.197	82.6
265.429	85.4
265.661	81.8
265.894	85.8
266.126	86.2
266.358	88.6
266.591	90
266.823	81.4
267.055	74.2
267.287	83
267.52	80
267.752	85.2
267.984	87
268.216	83.8
268.448	84.6
268.681	84
268.913	79.2
269.145	87.2
269.377	78.2
269.609	83.4
269.841	83.2
270.073	77.6
270.306	79
270.538	79.6
270.77	82
271.002	78.4
271.234	78.4
271.466	82.8
271.698	78
271.93	87.6
272.162	85.6
272.394	86.4
272.626	83.6
272.858	84
273.09	88.4
273.322	83.4
273.553	87
273.785	85.4
274.017	80.2
274.249	80.6
274.481	78.2
274.713	87.6
274.945	84.4
275.176	78
275.408	82.8
275.64	86.2
275.872	90.2
276.104	75
276.335	82.4
276.567	89.6
276.799	85
277.031	95.4
277.262	86.2
277.494	84.2
277.726	86.2
277.957	82.6
278.189	83.8
278.421	86.4
278.652	81.8
278.884	81.8
279.115	86
279.347	82.8
279.579	83.6
279.81	92.6
280.042	95.2
280.273	99.2
280.505	96.6
280.736	83.4
280.968	83
281.199	87.6
281.431	88
281.662	84
281.894	81.2
282.125	88.6
282.356	89.6
282.588	88
282.819	92.4
283.051	94.4
283.282	99.4
283.513	91.8
283.745	84.4
283.976	85.4
284.207	84.6
284.439	83.2
284.67	84.6
284.901	84.4
285.132	83.6
285.364	79
285.595	81.4
285.826	86.2
286.057	84.4
286.288	77
286.52	84.4
286.751	82.6
286.982	88.6
287.213	88.8
287.444	96
287.675	88.2
287.906	87
288.138	81.4
288.369	84
288.6	82
288.831	88
289.062	92.2
289.293	83.4
289.524	87.4
289.755	83.8
289.986	80.2
290.217	86.2
290.448	87.4
290.679	85.6
290.91	87.6
291.141	87.8
291.371	81.2
291.602	81
291.833	86.2
292.064	85.6
292.295	79.8
292.526	85.4
292.757	79
292.987	82.6
293.218	81.2
293.449	83.4
293.68	82.2
293.91	82.8
294.141	81.2
294.372	84.2
294.603	88
294.833	84
295.064	84.4
295.295	83
295.525	84.2
295.756	78.4
295.987	82.4
296.217	78.6
296.448	93
296.679	83.6
296.909	80.4
297.14	87.6
297.37	85.4
297.601	78.4
297.831	85
298.062	88.2
298.292	76.2
298.523	83.6
298.753	83
298.984	80.4
299.214	84.2
299.445	86.8
299.675	87
299.905	90.6
300.136	83.6
300.366	89
300.597	82
300.827	82.2
301.057	78.4
301.288	86.2
301.518	85
301.748	86
301.979	89.6
302.209	85
302.439	84.2
302.669	82.6
302.9	85
303.13	89
303.36	90.2
303.59	83.6
303.82	91.4
304.051	81.8
304.281	85.4
304.511	83.4
304.741	81.4
304.971	83
305.201	79.4
305.431	79.4
305.661	81.2
305.891	85.4
306.121	86.4
306.352	82.6
306.582	76.8
306.812	84.6
307.042	82.8
307.272	81.6
307.502	82.6
307.731	83.6
307.961	82.4
308.191	84
308.421	81.8
308.651	84.2
308.881	76.8
309.111	91.4
309.341	81.4
309.571	81.2
309.8	85.2
310.03	90.4
310.26	80.6
310.49	80.8
310.72	84.2
310.949	86.2
311.179	88.6
311.409	84
311.639	85.4
311.868	80
312.098	82.4
312.328	83.6
312.557	83.2
312.787	85.8
313.017	79.6
313.246	88.4
313.476	85.2
313.706	89.4
313.935	87.8
314.165	87.6
314.394	88
314.624	89
314.853	80.6
315.083	81.4
315.312	85
315.542	87
315.771	90.2
316.001	90.2
316.23	81
316.46	86.4
316.689	85.4
316.919	85.8
317.148	87.8
317.377	89.6
317.607	78.4
317.836	83.4
318.065	88.6
318.295	87
318.524	86.8
318.753	83.8
318.983	81.8
319.212	88
319.441	80.4
319.67	88
319.9	86
320.129	81.6
320.358	85.6
320.587	83.4
320.816	81.8
321.046	84
321.275	84.6
321.504	83.4
321.733	77.6
321.962	89.6
322.191	85.4
322.42	76.8
322.649	87.6
322.878	83.4
323.108	86
323.337	87.8
323.566	83.8
323.795	82.6
324.024	89.8
324.253	83
324.482	80.6
324.71	85.4
324.939	81.8
325.168	81
325.397	83
325.626	84.2
325.855	83.6
326.084	85.4
326.313	87
326.542	84.8
326.77	79.4
326.999	85.8
327.228	89.4
327.457	85.8
327.686	86
327.914	85.4
328.143	89.8
328.372	86.4
328.6	84
328.829	88.2
329.058	80.6
329.287	81.6
329.515	82.8
329.744	88.4
329.972	83
330.201	82
330.43	83
330.658	85
330.887	92
331.115	85.6
331.344	79.8
331.572	81.2
331.801	90.2
332.03	83.4
332.258	88.6
332.486	83.6
332.715	84
332.943	83
333.172	87.8
333.4	91.2
333.629	86
333.857	78.8
334.085	75.6
334.314	83.4
334.542	89
334.771	83.8
334.999	80.8
335.227	90.2
335.455	80
335.684	82
335.912	79.8
336.14	84.6
336.369	82.4
336.597	86.8
336.825	86.4
337.053	82.4
337.281	84.6
337.51	79.4
337.738	83.4
337.966	86.8
338.194	87.8
338.422	79.6
338.65	78.2
338.878	84.8
339.106	85.2
339.334	83.8
339.562	86.4
339.79	85.2
340.018	86.8
340.246	82.8
340.474	86.6
340.702	82.4
340.93	80.8
341.158	83.8
341.386	88
341.614	84.4
341.842	86.2
342.07	84
342.298	87.4
342.526	81.2
342.754	87.6
342.981	80
343.209	84.8
343.437	86
343.665	85
343.893	85.4
344.12	87.4
344.348	79.8
344.576	81.4
344.804	81.6
345.031	84
345.259	79.6
345.487	76.8
345.714	85.8
345.942	87.2
346.17	87.2
346.397	83.2
346.625	88.2
346.853	86.8
347.08	80.6
347.308	79.8
347.535	86.8
347.763	82.2
347.99	86.8
348.218	82.2
348.445	73.8
348.673	85.4
348.9	84.6
349.128	83.4
349.355	84.2
349.583	84.8
349.81	82
350.037	83.4
350.265	85.6
350.492	86.2
350.72	83.4
350.947	83.8
351.174	85
351.402	86.4
351.629	74.6
351.856	80.6
352.083	77.8
352.311	85.8
352.538	86
352.765	89.2
352.992	84
353.22	83.4
353.447	82.2
353.674	83.8
353.901	76.2
354.128	81.2
354.355	85.4
354.583	81.4
354.81	80.2
355.037	86.4
355.264	83.8
355.491	87.4
355.718	85
355.945	84.2
356.172	78.8
356.399	91.2
356.626	84.8
356.853	92.6
357.08	100.8
357.307	119
357.534	104.2
357.761	93
357.988	85.6
358.215	92.6
358.441	86.2
358.668	82.4
358.895	81
359.122	92.4
359.349	86.4
359.576	80
359.802	78.4
360.029	89.6
360.256	83.2
360.483	84.6
360.709	85.2
360.936	86.8
361.163	83.8
361.39	87.8
361.616	85.6
361.843	80.4
362.07	86
362.296	79.2
362.523	79
362.749	87.4
362.976	79.4
363.203	90.2
363.429	93.4
363.656	107.2
363.882	130.2
364.109	136
364.335	98.4
364.562	92
364.788	86.8
365.015	80
365.241	81.4
365.468	80.8
365.694	82.4
365.92	86.8
366.147	79
366.373	80.4
366.599	89.4
366.826	89.2
367.052	99
367.278	106.4
367.505	97.2
367.731	91.4
367.957	108
368.184	139.2
368.41	164.8
368.636	131.8
368.862	92.2
369.089	92.4
369.315	84
369.541	88.6
369.767	78.4
369.993	81
370.219	84.8
370.445	85.2
370.672	79.2
370.898	84.6
371.124	87.4
371.35	81.4
371.576	92.6
371.802	85.4
372.028	83.8
372.254	86.6
372.48	86.4
372.706	80.4
372.932	82.4
373.158	84.8
373.384	84.8
373.61	90.2
373.835	102.8
374.061	111
374.287	97.6
374.513	84.4
374.739	81.8
374.965	81.6
375.191	84.4
375.416	84
375.642	82.6
375.868	75
376.094	75.2
376.319	83.8
376.545	83
376.771	85.8
376.997	86.4
377.222	88.4
377.448	84.2
377.674	82.8
377.899	87.4
378.125	76.6
378.35	86.6
378.576	83.8
378.802	78.4
379.027	78.8
379.253	84.4
379.478	82.4
379.704	85
379.929	82.6
380.155	79.2
380.38	81.8
380.606	87
380.831	85.6
381.057	82
381.282	82.4
381.507	84
381.733	80
381.958	84.2
382.184	88.6
382.409	85.8
382.634	85.4
382.86	80
383.085	84.2
383.31	83.6
383.535	82.6
383.761	84.2
383.986	85
384.211	83.4
384.436	83.6
384.662	73.4
384.887	89.4
385.112	80.2
385.337	76.6
385.562	76.8
385.787	81.6
386.013	84.8
386.238	82.2
386.463	79
386.688	88
386.913	85.4
387.138	81.8
387.363	77
387.588	75.8
387.813	84.6
388.038	81.4
388.263	85.4
388.488	84
388.713	85
388.938	84.2
389.163	84
389.387	79
389.612	79.4
389.837	82
390.062	78
390.287	76.6
390.512	80
390.736	86.8
390.961	78.6
391.186	75.8
391.411	75.8
391.636	82
391.86	83.8
392.085	86.4
392.31	81.4
392.534	85
392.759	85.8
392.984	86.4
393.208	82
393.433	79
393.658	79.2
393.882	78.6
394.107	79.6
394.331	78.6
394.556	79.8
394.78	82.8
395.005	80.2
395.229	80.4
395.454	82.6
395.678	81.6
395.903	82
396.127	87.4
396.352	88.4
396.576	85.6
396.801	86
397.025	80
397.249	76.4
397.474	85
397.698	86
397.922	85.2
398.147	83.6
398.371	77.4
398.595	79.6
398.82	80.6
399.044	80.8
399.268	81.2
399.492	80.4
399.717	84.6
399.941	92.2
400.165	83.6
400.389	79.2
400.613	79.8
400.837	83.4
401.062	86.6
401.286	85.8
401.51	84.4
401.734	89.8
401.958	92.8
402.182	93.2
402.406	84.6
402.63	89.4
402.854	85.4
403.078	83.8
403.302	82
403.526	80.6
403.75	78.4
403.974	81.4
404.198	88.6
404.422	79.4
404.645	87.2
404.869	90
405.093	89.4
405.317	108.4
405.541	145.6
405.765	229.2
405.988	246
406.212	138.2
406.436	105
406.66	91
406.883	87.6
407.107	86.4
407.331	95
407.555	86
407.778	86.6
408.002	83.8
408.226	81.8
408.449	83.4
408.673	85.6
408.896	74.8
409.12	83.4
409.344	89.4
409.567	80.8
409.791	82.2
410.014	83.4
410.238	79.8
410.461	81.4
410.685	83.8
410.908	86.6
411.132	83.6
411.355	79
411.578	79.4
411.802	78.6
412.025	79.2
412.249	76.6
412.472	84.2
412.695	82.6
412.919	89.4
413.142	81.6
413.365	77.8
413.589	81.2
413.812	86.2
414.035	80
414.258	76.8
414.482	75
414.705	85
414.928	82.4
415.151	80.8
415.374	87.4
415.597	85.8
415.821	83.4
416.044	87.2
416.267	79.8
416.49	81
416.713	88.2
416.936	82
417.159	82.4
417.382	74.8
417.605	78.6
417.828	79.4
418.051	78.2
418.274	91.2
418.497	78.8
418.72	81.4
418.943	84.2
419.166	86.2
419.389	76.4
419.611	81.8
419.834	75.2
420.057	78.6
420.28	82.2
420.503	81
420.726	77.2
420.948	80.2
421.171	81.6
421.394	86
421.617	85.2
421.839	83.6
422.062	79.6
422.285	79.2
422.507	82
422.73	81.8
422.953	76.4
423.175	77.4
423.398	81.4
423.621	90.4
423.843	79.8
424.066	77.2
424.288	76.6
424.511	82.8
424.733	79.4
424.956	82.2
425.178	82.8
425.401	83
425.623	82.6
425.846	84.6
426.068	78
426.291	73.2
426.513	85
426.735	89.4
426.958	80
427.18	80.8
427.402	75.8
427.625	81.4
427.847	79.2
428.069	81.8
428.292	81
428.514	82.8
428.736	79.2
428.958	84
429.181	76.2
429.403	86
429.625	83.6
429.847	83
430.069	79.2
430.292	85
430.514	81
430.736	83.4
430.958	80.6
431.18	81.2
431.402	79
431.624	85
431.846	86.2
432.068	81.6
432.29	82.8
432.512	75
432.734	82.6
432.956	77
433.178	81.2
433.4	77.4
433.622	84.2
433.844	83.8
434.066	85.6
434.287	85.6
434.509	78.8
434.731	82
434.953	78.4
435.175	84
435.397	83.6
435.618	87.6
435.84	79
436.062	79
436.284	88.4
436.505	83.8
436.727	77.6
436.949	82.4
437.17	79
437.392	85.2
437.614	77.8
437.835	83
438.057	83.8
438.278	82.4
438.5	82
438.721	82.8
438.943	86.4
439.165	85
439.386	89.2
439.608	82
439.829	83.4
440.05	80.4
440.272	86
440.493	84.8
440.715	79.6
440.936	80.6
441.158	80.2
441.379	78.6
441.6	80
441.822	79.6
442.043	87.2
442.264	83
442.486	80.4
442.707	83.8
442.928	81
443.149	87.4
443.371	84.8
443.592	80
443.813	84.8
444.034	82.4
444.255	77.4
444.476	81.8
444.698	86
444.919	88
445.14	87.4
445.361	88.8
445.582	87.4
445.803	84
446.024	79.2
446.245	82.8
446.466	84.2
446.687	82.8
446.908	84
447.129	81
447.35	83
447.571	84.4
447.792	76.6
448.013	75.2
448.234	82.8
448.455	84.2
448.675	80
448.896	84
449.117	84.2
449.338	80.6
449.559	77.4
449.779	80
450	81
450.221	83.4
450.442	83
450.662	86.4
450.883	81
451.104	83
451.324	78.4
451.545	84.4
451.766	78.4
451.986	75
452.207	85.2
452.428	77.6
452.648	80.4
452.869	80.6
453.089	80.6
453.31	80.6
453.53	79.2
453.751	81.6
453.971	78
454.192	80
454.412	86.2
454.633	89.4
454.853	79.2
455.073	77
455.294	75.6
455.514	84.2
455.734	80.2
455.955	76.4
456.175	83.4
456.395	77
456.616	82.8
456.836	79.4
457.056	79.6
457.276	88.6
457.497	80.8
457.717	86
457.937	85.6
458.157	81.8
458.377	81.4
458.598	78.4
458.818	81.4
459.038	84
459.258	87.8
459.478	82.4
459.698	86.6
459.918	82.8
460.138	80.2
460.358	84.6
460.578	82.8
460.798	76.8
461.018	79.6
461.238	86
461.458	75.8
461.678	81.6
461.898	85.6
462.118	83.8
462.338	79.4
462.558	82.2
462.777	81.6
462.997	86.4
463.217	83.6
463.437	85.4
463.657	84.8
463.876	84
464.096	88.8
464.316	82
464.536	81.4
464.755	80.8
464.975	88.6
465.195	78.2
465.414	77
465.634	86.8
465.854	80.4
466.073	76.4
466.293	80.8
466.512	79
466.732	86.6
466.951	83.6
467.171	85
467.391	84.8
467.61	84
467.829	82.6
468.049	85.2
468.268	81.8
468.488	82.8
468.707	86.4
468.927	86.4
469.146	82.6
469.365	81.6
469.585	85.8
469.804	86.6
470.023	80.8
470.243	83.4
470.462	84.2
470.681	83.2
470.901	79.6
471.12	78.6
471.339	80.2
471.558	83.8
471.777	80.8
471.997	87.6
472.216	87.6
472.435	79
472.654	81.8
472.873	84
473.092	80.8
473.311	77.6
473.53	88.2
473.749	85.4
473.968	85.4
474.187	84
474.406	82.6
474.625	84.8
474.844	78.6
475.063	80
475.282	86.2
475.501	79.6
475.72	83
475.939	86
476.158	89
476.377	89.4
476.596	81.4
476.814	86.4
477.033	78.2
477.252	84
477.471	85.6
477.69	84.2
477.908	79
478.127	85.4
478.346	81
478.564	83.2
478.783	87.2
479.002	85.4
479.22	89
479.439	80.8
479.658	83.8
479.876	83.4
480.095	78.4
480.313	81.2
480.532	79.8
480.751	80
480.969	85
481.188	75.6
481.406	77.6
481.624	79
481.843	81.2
482.061	82
482.28	87.8
482.498	86
482.717	79.8
482.935	83
483.153	80.2
483.372	84.2
483.59	87.8
483.808	80
484.027	82.6
484.245	84
484.463	84.6
484.681	78.6
484.9	82.6
485.118	84.4
485.336	91.4
485.554	86.2
485.772	77
485.99	86.2
486.209	80
486.427	80.4
486.645	83.4
486.863	79.2
487.081	83.4
487.299	88.2
487.517	86.2
487.735	82.8
487.953	88.2
488.171	84
488.389	88
488.607	88.2
488.825	79.4
489.043	80
489.261	81.6
489.479	84.2
489.696	74.6
489.914	82.8
490.132	85.6
490.35	79.6
490.568	80
490.786	90.6
491.003	85.2
491.221	77.6
491.439	80.4
491.657	83.4
491.874	86.6
492.092	85
492.31	85.6
492.527	87.2
492.745	80.2
492.963	84
493.18	84.8
493.398	86.8
493.615	85.4
493.833	83.8
494.05	81.8
494.268	83
494.485	86.6
494.703	82.8
494.92	89.2
495.138	85.8
495.355	78
495.573	88.4
495.79	89.6
496.008	87.4
496.225	82.6
496.442	84.6
496.66	90
496.877	81
497.094	85.2
497.312	79.6
497.529	78.2
497.746	90.4
497.963	81.6
498.181	81
498.398	85.4
498.615	74.8
498.832	79
499.049	75.2
499.267	86.8
499.484	82.4
499.701	83.2
499.918	83
500.135	86.2
500.352	87.4
500.569	102.4
500.786	107.8
501.003	87.2
501.22	85.8
501.437	83.4
501.654	87.2
501.871	80.2
502.088	82.2
502.305	81
502.522	81.8
502.739	84
502.956	85.6
503.172	81
503.389	83.4
503.606	83
503.823	84.8
504.04	82.6
504.256	83.8
504.473	87.8
504.69	76.8
504.907	83.8
505.123	83
505.34	81
505.557	77.8
505.773	81
505.99	81.4
506.207	83.4
506.423	89.4
506.64	85
506.856	91.6
507.073	91
507.289	89.8
507.506	83.2
507.722	91.6
507.939	84.2
508.155	80.4
508.372	82.4
508.588	75.4
508.805	84
509.021	82
509.238	82.4
509.454	81.4
509.67	82.8
509.887	76.8
510.103	78.8
510.319	85
510.536	83.8
510.752	79.8
510.968	78.6
511.184	82
511.401	80.8
511.617	85.8
511.833	81.6
512.049	75.8
512.265	80.4
512.481	87.8
512.698	77.4
512.914	83.4
513.13	80.8
513.346	83.6
513.562	87.4
513.778	87
513.994	87.6
514.21	83.2
514.426	82.8
514.642	82
514.858	84.6
515.074	79
515.29	89
515.506	84.2
515.721	84.2
515.937	86
516.153	88.8
516.369	84.8
516.585	84.8
516.801	83.6
517.016	79
517.232	78.6
517.448	82.6
517.664	85.6
517.879	80.8
518.095	85.4
518.311	79.6
518.527	79.6
518.742	79
518.958	79.4
519.173	87
519.389	84.2
519.605	85.2
519.82	85.8
520.036	83.2
520.251	86.4
520.467	87.4
520.682	80
520.898	90
521.113	77.8
521.329	78
521.544	84.4
521.76	87.2
521.975	80.2
522.19	87.8
522.406	89.2
522.621	91.2
522.836	83.4
523.052	90.4
523.267	87.4
523.482	84.8
523.698	83.2
523.913	80.4
524.128	85.6
524.343	78.8
524.559	83.8
524.774	86.4
524.989	85.6
525.204	80.6
525.419	88
525.634	82.4
525.849	77.6
526.064	87.8
526.28	85.4
526.495	82
526.71	77
526.925	79.6
527.14	74.2
527.355	79.6
527.57	84.8
527.785	76.8
527.999	85.8
528.214	82.2
528.429	86.6
528.644	82.4
528.859	80.4
529.074	84.6
529.289	80.6
529.503	87.4
529.718	87.2
529.933	85.4
530.148	87.2
530.363	87.8
530.577	82
530.792	81.8
531.007	78
531.221	85.4
531.436	78.4
531.651	84.4
531.865	86.4
532.08	86.6
532.295	86.4
532.509	83.4
532.724	81.4
532.938	83
533.153	85.8
533.367	77
533.582	82
533.796	89.8
534.011	83
534.225	84.2
534.44	78
534.654	83.4
534.868	81
535.083	84.6
535.297	88.4
535.511	87
535.726	82.2
535.94	81.2
536.154	88.4
536.369	90.4
536.583	78.8
536.797	81.8
537.011	85.2
537.225	77
537.44	87
537.654	75.4
537.868	90.6
538.082	86.4
538.296	80.8
538.51	78.6
538.724	80.2
538.938	81.8
539.153	79.8
539.367	83.2
539.581	83
539.795	89.4
540.009	88.6
540.222	80.8
540.436	88.6
540.65	84.8
540.864	87.6
541.078	80
541.292	80.4
541.506	85.2
541.72	82.4
541.934	81.6
542.147	81.4
542.361	81
542.575	85
542.789	91.2
543.002	80.8
543.216	82.8
543.43	84
543.644	76.2
543.857	79.6
544.071	84
544.285	83
544.498	85.6
544.712	86.6
544.925	89
545.139	87.6
545.352	85.2
545.566	88.4
545.779	81.4
545.993	83.8
546.206	75.6
546.42	85.2
546.633	93.2
546.847	80.8
547.06	88.4
547.274	79.6
547.487	86
547.7	77
547.914	83
548.127	85.4
548.34	77.8
548.554	80.2
548.767	78.8
548.98	87.8
549.193	84.4
549.407	85
549.62	90.8
549.833	79
550.046	77.6
