Data from TenMicroDelayPb_HRD10591_00027.txt Node
Date: Mon Nov 24 14:34:29 EST 2025
User: Yrep
Spectrometer: HR+D1059
Trigger mode: 0
Integration Time (sec): 1.000000E-2
Scans to average: 5
Electric dark correction enabled: true
Nonlinearity correction enabled: false
Boxcar width: 0
XAxis mode: Wavelengths
Number of Pixels in Spectrum: 2048
>>>>>Begin Spectral Data<<<<<
223.165	-15.87
223.4	-15.87
223.635	-15.87
223.869	-11.07
224.104	-20.07
224.338	-14.87
224.573	-19.47
224.808	-10.87
225.042	-11.47
225.277	-7.47
225.511	-3.27
225.746	3.93
225.98	7.53
226.215	12.73
226.449	15.13
226.683	17.93
226.918	24.93
227.152	32.33
227.387	32.13
227.621	38.33
227.856	41.53
228.09	49.93
228.324	48.13
228.559	53.73
228.793	58.93
229.027	64.53
229.262	71.13
229.496	67.13
229.73	69.73
229.964	71.53
230.199	67.53
230.433	66.93
230.667	76.13
230.901	72.93
231.136	70.93
231.37	82.13
231.604	78.53
231.838	76.73
232.072	84.93
232.306	77.93
232.541	80.33
232.775	86.33
233.009	84.53
233.243	81.93
233.477	74.73
233.711	78.93
233.945	79.33
234.179	77.93
234.413	82.73
234.647	79.73
234.881	79.53
235.115	76.33
235.349	80.93
235.583	83.53
235.817	79.33
236.051	73.73
236.285	74.93
236.519	73.33
236.753	70.13
236.987	70.53
237.221	75.73
237.455	80.73
237.689	73.53
237.922	81.53
238.156	78.13
238.39	75.53
238.624	72.73
238.858	80.73
239.091	65.93
239.325	69.73
239.559	74.53
239.793	78.33
240.027	71.13
240.26	72.93
240.494	71.33
240.728	75.53
240.961	72.13
241.195	76.13
241.429	78.73
241.662	76.93
241.896	71.13
242.13	74.93
242.363	65.33
242.597	74.53
242.83	72.13
243.064	76.13
243.298	78.73
243.531	80.53
243.765	82.33
243.998	74.33
244.232	74.93
244.465	76.53
244.699	75.13
244.932	78.53
245.166	73.93
245.399	76.73
245.633	72.93
245.866	78.53
246.099	77.33
246.333	78.73
246.566	73.93
246.8	69.93
247.033	74.73
247.266	78.73
247.5	73.53
247.733	73.13
247.966	76.73
248.2	74.73
248.433	76.33
248.666	74.73
248.899	76.73
249.133	70.53
249.366	73.93
249.599	67.93
249.832	76.93
250.066	75.73
250.299	80.53
250.532	74.93
250.765	76.33
250.998	81.53
251.231	75.33
251.465	73.93
251.698	77.73
251.931	78.53
252.164	76.73
252.397	83.53
252.63	73.53
252.863	85.73
253.096	79.33
253.329	78.73
253.562	76.33
253.795	83.93
254.028	75.13
254.261	78.93
254.494	79.13
254.727	77.53
254.96	76.93
255.193	79.53
255.426	76.13
255.659	77.13
255.892	74.93
256.124	82.93
256.357	78.93
256.59	79.13
256.823	78.73
257.056	87.13
257.289	83.33
257.521	81.73
257.754	78.53
257.987	83.13
258.22	81.93
258.452	72.93
258.685	72.33
258.918	76.53
259.151	81.13
259.383	76.53
259.616	73.93
259.849	80.53
260.081	81.73
260.314	82.13
260.547	78.13
260.779	78.13
261.012	73.33
261.244	85.13
261.477	82.73
261.71	79.73
261.942	72.33
262.175	77.93
262.407	74.93
262.64	78.93
262.872	75.33
263.105	75.13
263.337	81.33
263.57	75.33
263.802	81.53
264.035	83.73
264.267	79.73
264.499	77.93
264.732	81.13
264.964	85.93
265.197	71.93
265.429	85.53
265.661	71.13
265.894	80.13
266.126	83.33
266.358	78.73
266.591	75.73
266.823	79.93
267.055	80.33
267.287	80.73
267.52	77.13
267.752	80.53
267.984	86.13
268.216	81.33
268.448	80.73
268.681	73.53
268.913	71.93
269.145	79.93
269.377	80.93
269.609	78.73
269.841	79.73
270.073	83.73
270.306	74.33
270.538	77.13
270.77	86.53
271.002	78.73
271.234	78.93
271.466	82.53
271.698	80.73
271.93	88.73
272.162	79.93
272.394	75.33
272.626	81.33
272.858	76.73
273.09	84.13
273.322	83.73
273.553	83.33
273.785	76.53
274.017	80.93
274.249	82.33
274.481	79.93
274.713	83.33
274.945	79.73
275.176	81.73
275.408	77.33
275.64	77.53
275.872	84.53
276.104	83.13
276.335	82.93
276.567	74.33
276.799	77.93
277.031	88.93
277.262	74.33
277.494	81.73
277.726	82.73
277.957	86.33
278.189	83.53
278.421	78.93
278.652	78.93
278.884	76.53
279.115	83.13
279.347	85.93
279.579	85.93
279.81	81.13
280.042	80.53
280.273	78.93
280.505	80.93
280.736	82.53
280.968	78.53
281.199	78.93
281.431	86.53
281.662	78.73
281.894	83.93
282.125	80.53
282.356	82.93
282.588	77.93
282.819	78.33
283.051	86.13
283.282	86.33
283.513	81.33
283.745	83.93
283.976	87.13
284.207	86.13
284.439	76.93
284.67	79.13
284.901	81.73
285.132	84.73
285.364	81.93
285.595	80.93
285.826	79.73
286.057	88.73
286.288	80.13
286.52	80.13
286.751	86.73
286.982	79.13
287.213	88.53
287.444	79.13
287.675	84.93
287.906	88.53
288.138	83.33
288.369	79.33
288.6	78.93
288.831	82.93
289.062	85.53
289.293	82.53
289.524	84.73
289.755	86.33
289.986	88.93
290.217	81.93
290.448	85.93
290.679	86.73
290.91	81.13
291.141	83.73
291.371	86.13
291.602	88.73
291.833	76.33
292.064	79.73
292.295	85.33
292.526	77.13
292.757	87.13
292.987	87.93
293.218	84.53
293.449	83.93
293.68	86.53
293.91	81.53
294.141	78.33
294.372	80.53
294.603	76.53
294.833	83.13
295.064	77.33
295.295	84.53
295.525	82.53
295.756	80.93
295.987	78.13
296.217	84.53
296.448	87.33
296.679	79.73
296.909	80.53
297.14	83.53
297.37	82.13
297.601	86.73
297.831	83.33
298.062	84.33
298.292	81.13
298.523	75.93
298.753	82.13
298.984	89.33
299.214	85.33
299.445	79.53
299.675	84.53
299.905	79.53
300.136	80.13
300.366	79.53
300.597	82.93
300.827	84.13
301.057	85.33
301.288	84.93
301.518	86.93
301.748	86.13
301.979	89.53
302.209	85.53
302.439	83.53
302.669	79.93
302.9	89.53
303.13	83.53
303.36	89.13
303.59	85.73
303.82	83.93
304.051	86.53
304.281	78.53
304.511	81.73
304.741	88.93
304.971	86.53
305.201	81.53
305.431	86.73
305.661	86.13
305.891	84.73
306.121	80.33
306.352	78.53
306.582	82.73
306.812	80.73
307.042	81.53
307.272	83.93
307.502	91.33
307.731	84.13
307.961	81.73
308.191	87.13
308.421	77.73
308.651	81.93
308.881	86.13
309.111	84.73
309.341	79.13
309.571	83.13
309.8	86.53
310.03	90.93
310.26	90.73
310.49	86.33
310.72	83.33
310.949	89.93
311.179	78.53
311.409	84.53
311.639	87.53
311.868	82.73
312.098	80.33
312.328	80.13
312.557	87.73
312.787	81.73
313.017	83.53
313.246	82.53
313.476	85.53
313.706	88.33
313.935	84.53
314.165	82.73
314.394	85.33
314.624	77.93
314.853	82.73
315.083	82.93
315.312	84.33
315.542	83.53
315.771	78.73
316.001	88.53
316.23	84.73
316.46	82.73
316.689	84.73
316.919	87.93
317.148	81.13
317.377	76.93
317.607	79.93
317.836	79.73
318.065	79.73
318.295	82.93
318.524	82.93
318.753	85.33
318.983	78.33
319.212	86.13
319.441	82.53
319.67	82.93
319.9	88.33
320.129	82.73
320.358	81.13
320.587	77.53
320.816	81.93
321.046	79.73
321.275	85.13
321.504	84.53
321.733	77.33
321.962	78.13
322.191	80.33
322.42	84.13
322.649	84.53
322.878	84.93
323.108	77.13
323.337	82.73
323.566	82.33
323.795	90.93
324.024	88.33
324.253	87.53
324.482	76.33
324.71	82.33
324.939	80.13
325.168	85.93
325.397	82.73
325.626	81.33
325.855	80.13
326.084	88.33
326.313	83.73
326.542	81.53
326.77	87.33
326.999	83.93
327.228	83.93
327.457	85.13
327.686	81.13
327.914	84.13
328.143	81.53
328.372	84.93
328.6	89.93
328.829	83.13
329.058	87.73
329.287	84.93
329.515	82.73
329.744	82.33
329.972	88.73
330.201	77.73
330.43	83.13
330.658	86.73
330.887	81.53
331.115	88.73
331.344	82.13
331.572	79.73
331.801	83.13
332.03	83.33
332.258	82.93
332.486	84.13
332.715	84.33
332.943	82.53
333.172	91.33
333.4	87.93
333.629	89.53
333.857	84.53
334.085	82.53
334.314	86.73
334.542	85.13
334.771	91.13
334.999	82.13
335.227	81.73
335.455	81.53
335.684	85.33
335.912	86.13
336.14	77.73
336.369	87.93
336.597	89.13
336.825	79.53
337.053	77.73
337.281	83.33
337.51	83.93
337.738	85.33
337.966	78.93
338.194	82.13
338.422	81.13
338.65	80.73
338.878	79.53
339.106	85.73
339.334	88.13
339.562	80.33
339.79	83.93
340.018	85.13
340.246	76.33
340.474	89.33
340.702	83.93
340.93	80.93
341.158	78.73
341.386	84.93
341.614	78.93
341.842	84.33
342.07	81.13
342.298	82.93
342.526	86.33
342.754	88.13
342.981	81.13
343.209	83.33
343.437	82.33
343.665	82.13
343.893	82.53
344.12	90.53
344.348	88.53
344.576	83.93
344.804	85.33
345.031	80.93
345.259	82.53
345.487	85.53
345.714	84.13
345.942	83.13
346.17	82.53
346.397	80.13
346.625	82.73
346.853	82.53
347.08	83.93
347.308	91.13
347.535	82.73
347.763	84.33
347.99	82.53
348.218	90.13
348.445	88.53
348.673	83.73
348.9	87.13
349.128	86.53
349.355	83.93
349.583	89.33
349.81	76.73
350.037	86.93
350.265	91.53
350.492	78.53
350.72	80.33
350.947	88.13
351.174	82.53
351.402	87.33
351.629	83.73
351.856	74.53
352.083	87.53
352.311	85.73
352.538	83.73
352.765	85.13
352.992	80.53
353.22	86.73
353.447	78.93
353.674	82.13
353.901	82.73
354.128	84.73
354.355	80.33
354.583	87.53
354.81	80.73
355.037	85.13
355.264	82.33
355.491	81.73
355.718	88.93
355.945	85.73
356.172	80.13
356.399	86.53
356.626	77.93
356.853	82.13
357.08	80.93
357.307	85.13
357.534	77.93
357.761	82.13
357.988	84.93
358.215	82.73
358.441	84.53
358.668	83.73
358.895	84.13
359.122	78.53
359.349	85.13
359.576	78.73
359.802	79.73
360.029	77.33
360.256	78.33
360.483	85.13
360.709	82.93
360.936	85.53
361.163	80.33
361.39	78.73
361.616	82.93
361.843	80.13
362.07	81.73
362.296	89.13
362.523	85.93
362.749	88.13
362.976	83.13
363.203	85.13
363.429	79.93
363.656	84.93
363.882	83.93
364.109	82.33
364.335	78.93
364.562	88.33
364.788	84.93
365.015	85.73
365.241	85.53
365.468	80.73
365.694	76.73
365.92	78.33
366.147	86.93
366.373	82.73
366.599	78.13
366.826	80.73
367.052	83.33
367.278	83.33
367.505	82.73
367.731	89.13
367.957	85.33
368.184	77.33
368.41	78.93
368.636	84.33
368.862	87.73
369.089	75.73
369.315	83.13
369.541	80.93
369.767	81.33
369.993	88.13
370.219	77.73
370.445	78.33
370.672	80.73
370.898	81.13
371.124	85.53
371.35	80.73
371.576	82.93
371.802	78.73
372.028	79.93
372.254	81.53
372.48	80.33
372.706	89.73
372.932	78.73
373.158	86.13
373.384	79.53
373.61	79.73
373.835	85.33
374.061	83.33
374.287	80.53
374.513	84.53
374.739	79.33
374.965	81.13
375.191	78.73
375.416	78.93
375.642	81.73
375.868	82.93
376.094	82.73
376.319	81.33
376.545	78.53
376.771	87.13
376.997	82.73
377.222	82.93
377.448	80.13
377.674	73.13
377.899	81.13
378.125	84.33
378.35	74.33
378.576	83.53
378.802	80.93
379.027	90.53
379.253	77.33
379.478	83.33
379.704	82.53
379.929	83.53
380.155	84.13
380.38	81.53
380.606	81.13
380.831	87.73
381.057	88.33
381.282	83.93
381.507	81.33
381.733	83.93
381.958	75.53
382.184	81.33
382.409	75.73
382.634	79.33
382.86	77.33
383.085	87.13
383.31	82.53
383.535	81.33
383.761	85.33
383.986	81.33
384.211	80.33
384.436	75.93
384.662	79.13
384.887	77.53
385.112	80.53
385.337	80.33
385.562	81.53
385.787	80.53
386.013	73.93
386.238	75.53
386.463	80.13
386.688	77.93
386.913	78.33
387.138	76.33
387.363	74.53
387.588	78.93
387.813	76.73
388.038	83.73
388.263	83.73
388.488	81.53
388.713	85.93
388.938	81.33
389.163	80.73
389.387	78.73
389.612	84.13
389.837	84.93
390.062	75.73
390.287	79.33
390.512	79.93
390.736	78.13
390.961	82.73
391.186	83.13
391.411	84.73
391.636	78.73
391.86	82.33
392.085	77.33
392.31	79.93
392.534	86.93
392.759	80.73
392.984	78.13
393.208	83.33
393.433	81.33
393.658	82.73
393.882	77.13
394.107	83.33
394.331	75.73
394.556	94.73
394.78	76.33
395.005	85.13
395.229	80.33
395.454	80.13
395.678	82.93
395.903	82.73
396.127	82.33
396.352	83.33
396.576	81.53
396.801	76.33
397.025	76.93
397.249	82.13
397.474	81.73
397.698	81.13
397.922	79.73
398.147	79.73
398.371	83.93
398.595	78.33
398.82	78.33
399.044	83.73
399.268	79.93
399.492	78.33
399.717	79.53
399.941	75.93
400.165	71.73
400.389	81.53
400.613	80.33
400.837	76.33
401.062	84.13
401.286	83.33
401.51	79.73
401.734	82.93
401.958	82.93
402.182	80.13
402.406	81.73
402.63	85.13
402.854	79.33
403.078	82.93
403.302	81.73
403.526	79.53
403.75	76.33
403.974	77.93
404.198	77.53
404.422	83.73
404.645	81.33
404.869	86.93
405.093	77.53
405.317	79.53
405.541	85.53
405.765	77.93
405.988	79.33
406.212	74.73
406.436	75.73
406.66	79.33
406.883	81.33
407.107	82.93
407.331	77.93
407.555	78.53
407.778	75.13
408.002	79.93
408.226	82.73
408.449	76.33
408.673	75.33
408.896	76.73
409.12	80.93
409.344	82.73
409.567	81.73
409.791	79.73
410.014	81.33
410.238	82.53
410.461	83.13
410.685	84.73
410.908	84.73
411.132	79.53
411.355	79.53
411.578	76.13
411.802	75.33
412.025	76.93
412.249	83.73
412.472	83.13
412.695	85.13
412.919	81.53
413.142	81.93
413.365	78.53
413.589	77.73
413.812	81.53
414.035	75.13
414.258	77.93
414.482	71.93
414.705	79.53
414.928	84.93
415.151	81.93
415.374	78.53
415.597	78.73
415.821	77.73
416.044	74.93
416.267	72.53
416.49	73.53
416.713	79.73
416.936	81.33
417.159	77.33
417.382	73.93
417.605	79.33
417.828	87.33
418.051	80.13
418.274	83.93
418.497	72.13
418.72	78.73
418.943	83.33
419.166	76.33
419.389	82.33
419.611	79.53
419.834	79.73
420.057	78.53
420.28	79.53
420.503	75.73
420.726	78.53
420.948	74.53
421.171	86.93
421.394	80.13
421.617	80.53
421.839	84.53
422.062	78.33
422.285	82.73
422.507	81.13
422.73	80.13
422.953	85.13
423.175	80.33
423.398	83.53
423.621	84.13
423.843	74.33
424.066	74.93
424.288	77.13
424.511	77.33
424.733	83.53
424.956	78.73
425.178	78.73
425.401	82.13
425.623	82.13
425.846	77.93
426.068	82.13
426.291	81.33
426.513	79.93
426.735	90.93
426.958	78.33
427.18	79.33
427.402	86.73
427.625	76.73
427.847	79.53
428.069	77.33
428.292	78.33
428.514	79.33
428.736	79.93
428.958	76.13
429.181	77.93
429.403	80.73
429.625	80.53
429.847	80.13
430.069	78.93
430.292	81.13
430.514	78.73
430.736	78.93
430.958	81.33
431.18	83.93
431.402	91.93
431.624	78.93
431.846	79.33
432.068	79.93
432.29	82.53
432.512	73.73
432.734	77.93
432.956	75.93
433.178	76.13
433.4	80.13
433.622	76.53
433.844	80.73
434.066	76.73
434.287	75.13
434.509	75.73
434.731	76.93
434.953	80.33
435.175	80.73
435.397	80.93
435.618	82.93
435.84	79.13
436.062	75.33
436.284	77.93
436.505	81.13
436.727	78.53
436.949	80.53
437.17	80.33
437.392	83.93
437.614	79.73
437.835	74.73
438.057	74.53
438.278	78.53
438.5	76.33
438.721	76.53
438.943	78.33
439.165	77.33
439.386	77.53
439.608	73.93
439.829	80.13
440.05	80.13
440.272	80.73
440.493	74.73
440.715	85.33
440.936	81.53
441.158	83.13
441.379	76.13
441.6	81.33
441.822	76.13
442.043	80.73
442.264	78.33
442.486	75.13
442.707	75.93
442.928	83.53
443.149	80.53
443.371	75.53
443.592	80.93
443.813	80.13
444.034	80.13
444.255	77.13
444.476	78.93
444.698	79.73
444.919	80.93
445.14	89.73
445.361	84.53
445.582	83.73
445.803	77.33
446.024	76.53
446.245	84.53
446.466	80.33
446.687	74.93
446.908	76.13
447.129	79.13
447.35	80.53
447.571	82.13
447.792	74.33
448.013	79.73
448.234	80.73
448.455	86.93
448.675	83.13
448.896	77.33
449.117	76.53
449.338	79.73
449.559	81.93
449.779	80.53
450	78.53
450.221	75.33
450.442	73.33
450.662	77.53
450.883	76.73
451.104	74.53
451.324	73.13
451.545	80.73
451.766	80.93
451.986	78.13
452.207	82.73
452.428	85.93
452.648	77.93
452.869	79.93
453.089	78.13
453.31	76.33
453.53	81.93
453.751	74.73
453.971	79.13
454.192	76.33
454.412	74.33
454.633	75.73
454.853	81.53
455.073	81.93
455.294	78.93
455.514	80.93
455.734	80.73
455.955	76.73
456.175	75.73
456.395	79.53
456.616	82.33
456.836	83.13
457.056	80.73
457.276	77.13
457.497	75.93
457.717	82.33
457.937	77.93
458.157	83.93
458.377	81.73
458.598	74.33
458.818	76.13
459.038	68.73
459.258	82.73
459.478	85.33
459.698	80.13
459.918	80.53
460.138	84.53
460.358	80.53
460.578	80.73
460.798	83.93
461.018	79.33
461.238	82.73
461.458	85.13
461.678	84.73
461.898	77.93
462.118	76.33
462.338	80.53
462.558	78.73
462.777	79.13
462.997	82.33
463.217	80.93
463.437	83.93
463.657	78.33
463.876	77.13
464.096	83.53
464.316	78.53
464.536	83.73
464.755	85.53
464.975	81.33
465.195	84.53
465.414	78.53
465.634	77.73
465.854	82.53
466.073	81.93
466.293	80.53
466.512	79.93
466.732	83.13
466.951	78.13
467.171	75.33
467.391	79.53
467.61	84.13
467.829	75.93
468.049	81.33
468.268	80.53
468.488	83.33
468.707	81.13
468.927	77.73
469.146	80.93
469.365	81.73
469.585	82.33
469.804	79.93
470.023	75.93
470.243	79.73
470.462	77.73
470.681	83.93
470.901	78.13
471.12	83.93
471.339	79.53
471.558	87.73
471.777	78.33
471.997	76.13
472.216	82.53
472.435	83.53
472.654	83.93
472.873	79.73
473.092	85.13
473.311	81.53
473.53	77.93
473.749	78.33
473.968	75.93
474.187	82.13
474.406	78.13
474.625	81.53
474.844	79.33
475.063	77.73
475.282	79.33
475.501	85.33
475.72	81.73
475.939	83.93
476.158	80.73
476.377	82.73
476.596	76.93
476.814	80.53
477.033	73.93
477.252	75.93
477.471	79.53
477.69	80.13
477.908	82.13
478.127	77.93
478.346	73.53
478.564	85.93
478.783	81.13
479.002	83.33
479.22	80.53
479.439	79.53
479.658	83.93
479.876	80.13
480.095	76.13
480.313	73.93
480.532	85.73
480.751	82.93
480.969	77.33
481.188	79.33
481.406	76.93
481.624	86.73
481.843	84.33
482.061	80.13
482.28	76.13
482.498	82.13
482.717	82.93
482.935	77.73
483.153	79.93
483.372	81.13
483.59	77.33
483.808	80.33
484.027	80.73
484.245	84.13
484.463	80.93
484.681	81.33
484.9	81.53
485.118	83.93
485.336	81.93
485.554	82.93
485.772	76.33
485.99	80.13
486.209	80.53
486.427	81.53
486.645	80.33
486.863	81.33
487.081	80.73
487.299	80.73
487.517	80.73
487.735	75.13
487.953	84.13
488.171	83.73
488.389	79.93
488.607	82.53
488.825	79.53
489.043	83.93
489.261	89.93
489.479	83.33
489.696	83.73
489.914	86.33
490.132	79.13
490.35	74.53
490.568	82.53
490.786	75.93
491.003	78.73
491.221	80.33
491.439	83.53
491.657	82.53
491.874	80.13
492.092	86.13
492.31	88.33
492.527	76.73
492.745	80.93
492.963	83.53
493.18	82.13
493.398	79.73
493.615	80.73
493.833	84.73
494.05	82.73
494.268	82.33
494.485	84.13
494.703	77.53
494.92	83.53
495.138	84.33
495.355	80.13
495.573	79.93
495.79	80.93
496.008	82.13
496.225	81.33
496.442	83.53
496.66	77.93
496.877	79.13
497.094	80.93
497.312	77.13
497.529	84.93
497.746	82.33
497.963	85.53
498.181	84.93
498.398	83.33
498.615	77.73
498.832	82.33
499.049	81.93
499.267	81.13
499.484	81.13
499.701	81.53
499.918	86.73
500.135	81.33
500.352	82.13
500.569	74.73
500.786	82.33
501.003	85.53
501.22	79.53
501.437	78.93
501.654	75.33
501.871	75.73
502.088	77.73
502.305	79.13
502.522	79.93
502.739	83.13
502.956	81.53
503.172	86.13
503.389	84.93
503.606	86.53
503.823	87.53
504.04	81.73
504.256	86.73
504.473	80.33
504.69	84.73
504.907	84.13
505.123	86.33
505.34	81.93
505.557	74.13
505.773	82.33
505.99	78.53
506.207	80.93
506.423	78.53
506.64	76.13
506.856	80.53
507.073	81.33
507.289	80.33
507.506	79.73
507.722	81.93
507.939	77.53
508.155	77.53
508.372	81.13
508.588	86.13
508.805	85.33
509.021	84.93
509.238	79.93
509.454	83.53
509.67	83.33
509.887	77.93
510.103	88.73
510.319	78.33
510.536	76.53
510.752	85.13
510.968	81.53
511.184	79.33
511.401	80.93
511.617	78.73
511.833	81.53
512.049	87.13
512.265	86.53
512.481	77.73
512.698	75.33
512.914	83.13
513.13	80.93
513.346	87.33
513.562	78.33
513.778	80.93
513.994	83.53
514.21	82.13
514.426	80.53
514.642	82.13
514.858	82.93
515.074	81.93
515.29	85.73
515.506	81.73
515.721	78.53
515.937	83.53
516.153	81.33
516.369	79.93
516.585	84.13
516.801	87.13
517.016	86.93
517.232	88.73
517.448	80.33
517.664	81.93
517.879	87.53
518.095	81.13
518.311	92.93
518.527	88.53
518.742	82.13
518.958	75.53
519.173	79.73
519.389	81.13
519.605	86.73
519.82	76.73
520.036	83.93
520.251	75.33
