Data from TenMicroDelayPb_HRD10591_00016.txt Node
Date: Mon Nov 24 14:34:28 EST 2025
User: Yrep
Spectrometer: HR+D1059
Trigger mode: 0
Integration Time (sec): 1.000000E-2
Scans to average: 5
Electric dark correction enabled: true
Nonlinearity correction enabled: false
Boxcar width: 0
XAxis mode: Wavelengths
Number of Pixels in Spectrum: 2048
>>>>>Begin Spectral Data<<<<<
223.165	-16.66
223.4	-16.66
223.635	-16.66
223.869	-15.26
224.104	-13.46
224.338	-21.26
224.573	-22.46
224.808	-10.46
225.042	-6.66
225.277	-16.66
225.511	-1.86
225.746	2.54
225.98	11.14
226.215	13.34
226.449	20.94
226.683	17.94
226.918	29.74
227.152	29.14
227.387	35.34
227.621	38.54
227.856	41.74
228.09	47.94
228.324	48.74
228.559	52.34
228.793	54.74
229.027	59.74
229.262	64.74
229.496	63.94
229.73	69.14
229.964	68.94
230.199	73.34
230.433	77.74
230.667	73.54
230.901	76.54
231.136	76.34
231.37	76.74
231.604	75.74
231.838	79.94
232.072	83.14
232.306	73.94
232.541	82.74
232.775	78.14
233.009	85.54
233.243	81.14
233.477	78.94
233.711	83.94
233.945	80.94
234.179	78.94
234.413	78.54
234.647	76.54
234.881	76.34
235.115	75.14
235.349	80.74
235.583	79.54
235.817	74.34
236.051	78.14
236.285	83.34
236.519	84.34
236.753	80.74
236.987	76.54
237.221	78.14
237.455	68.54
237.689	76.34
237.922	80.74
238.156	75.14
238.39	70.34
238.624	72.74
238.858	77.94
239.091	75.34
239.325	76.94
239.559	69.94
239.793	70.34
240.027	70.74
240.26	69.54
240.494	73.34
240.728	78.74
240.961	75.74
241.195	73.94
241.429	77.14
241.662	77.94
241.896	73.74
242.13	74.54
242.363	79.54
242.597	73.94
242.83	73.34
243.064	76.34
243.298	75.34
243.531	76.94
243.765	82.34
243.998	80.14
244.232	76.74
244.465	73.14
244.699	74.74
244.932	80.94
245.166	80.14
245.399	81.74
245.633	81.14
245.866	78.74
246.099	82.34
246.333	78.54
246.566	77.14
246.8	69.54
247.033	76.14
247.266	74.94
247.5	80.74
247.733	80.34
247.966	77.34
248.2	75.74
248.433	81.34
248.666	78.34
248.899	80.74
249.133	78.94
249.366	75.94
249.599	75.14
249.832	82.34
250.066	76.34
250.299	77.94
250.532	76.54
250.765	75.54
250.998	79.54
251.231	75.14
251.465	82.74
251.698	78.94
251.931	80.34
252.164	81.94
252.397	84.74
252.63	79.54
252.863	78.34
253.096	80.34
253.329	87.34
253.562	76.34
253.795	74.74
254.028	79.14
254.261	80.94
254.494	75.14
254.727	80.94
254.96	82.94
255.193	86.34
255.426	78.54
255.659	84.34
255.892	83.34
256.124	73.54
256.357	77.34
256.59	76.94
256.823	79.34
257.056	78.74
257.289	83.74
257.521	79.74
257.754	80.14
257.987	79.54
258.22	72.94
258.452	81.34
258.685	84.14
258.918	78.94
259.151	80.74
259.383	76.74
259.616	74.34
259.849	74.94
260.081	77.14
260.314	82.74
260.547	73.74
260.779	79.34
261.012	79.94
261.244	72.74
261.477	85.14
261.71	79.94
261.942	84.34
262.175	79.54
262.407	80.14
262.64	77.94
262.872	79.14
263.105	80.94
263.337	83.74
263.57	78.74
263.802	83.34
264.035	78.94
264.267	76.74
264.499	79.74
264.732	82.54
264.964	83.54
265.197	81.34
265.429	88.14
265.661	89.94
265.894	79.34
266.126	81.94
266.358	77.14
266.591	81.54
266.823	85.54
267.055	78.74
267.287	81.74
267.52	82.54
267.752	89.74
267.984	87.34
268.216	80.94
268.448	80.54
268.681	84.74
268.913	83.54
269.145	80.34
269.377	85.54
269.609	83.34
269.841	85.74
270.073	86.74
270.306	80.34
270.538	79.34
270.77	77.34
271.002	82.14
271.234	83.34
271.466	87.14
271.698	81.74
271.93	87.54
272.162	88.54
272.394	78.14
272.626	75.74
272.858	80.94
273.09	80.94
273.322	75.14
273.553	80.74
273.785	86.54
274.017	75.94
274.249	76.74
274.481	87.54
274.713	81.94
274.945	75.74
275.176	81.94
275.408	81.34
275.64	85.54
275.872	79.14
276.104	75.34
276.335	78.94
276.567	95.54
276.799	87.14
277.031	78.34
277.262	81.14
277.494	86.14
277.726	85.34
277.957	85.74
278.189	79.74
278.421	86.14
278.652	82.14
278.884	83.54
279.115	83.74
279.347	81.94
279.579	86.14
279.81	82.54
280.042	85.14
280.273	80.54
280.505	83.34
280.736	75.54
280.968	82.74
281.199	87.94
281.431	80.34
281.662	80.74
281.894	78.94
282.125	83.14
282.356	84.94
282.588	84.94
282.819	83.94
283.051	86.34
283.282	82.94
283.513	89.14
283.745	80.34
283.976	85.14
284.207	79.94
284.439	82.54
284.67	85.14
284.901	79.94
285.132	87.34
285.364	74.94
285.595	84.94
285.826	75.94
286.057	82.74
286.288	83.94
286.52	82.34
286.751	87.14
286.982	79.94
287.213	81.54
287.444	86.74
287.675	78.74
287.906	85.74
288.138	75.54
288.369	83.54
288.6	86.74
288.831	83.14
289.062	82.14
289.293	87.34
289.524	91.74
289.755	83.14
289.986	84.74
290.217	86.94
290.448	90.94
290.679	86.54
290.91	89.74
291.141	79.74
291.371	82.34
291.602	83.54
291.833	88.14
292.064	87.14
292.295	85.94
292.526	82.54
292.757	83.94
292.987	84.54
293.218	87.94
293.449	83.34
293.68	76.14
293.91	80.34
294.141	85.54
294.372	89.94
294.603	81.54
294.833	84.54
295.064	90.94
295.295	87.74
295.525	79.14
295.756	82.54
295.987	84.94
296.217	90.74
296.448	91.14
296.679	87.74
296.909	86.74
297.14	85.94
297.37	89.74
297.601	83.74
297.831	86.74
298.062	82.14
298.292	84.74
298.523	86.74
298.753	78.34
298.984	83.14
299.214	86.54
299.445	87.34
299.675	88.54
299.905	81.74
300.136	78.94
300.366	81.34
300.597	84.54
300.827	83.34
301.057	87.34
301.288	84.34
301.518	79.74
301.748	76.14
301.979	84.74
302.209	83.34
302.439	81.54
302.669	89.14
302.9	86.54
303.13	86.94
303.36	84.54
303.59	87.34
303.82	81.94
304.051	84.14
304.281	79.94
304.511	81.34
304.741	82.14
304.971	87.14
305.201	85.54
305.431	89.94
305.661	85.34
305.891	80.54
306.121	87.54
306.352	81.54
306.582	86.54
306.812	80.54
307.042	82.34
307.272	81.94
307.502	95.34
307.731	80.54
307.961	83.14
308.191	86.14
308.421	82.34
308.651	84.14
308.881	81.94
309.111	78.74
309.341	82.54
309.571	80.14
309.8	83.74
310.03	85.34
310.26	82.14
310.49	84.94
310.72	88.94
310.949	85.74
311.179	86.14
311.409	86.94
311.639	81.94
311.868	87.54
312.098	83.94
312.328	80.74
312.557	82.34
312.787	78.14
313.017	77.94
313.246	90.94
313.476	90.54
313.706	87.74
313.935	81.34
314.165	86.54
314.394	85.34
314.624	82.94
314.853	84.34
315.083	89.14
315.312	91.14
315.542	82.94
315.771	84.94
316.001	86.54
316.23	84.14
316.46	79.94
316.689	79.74
316.919	77.94
317.148	85.74
317.377	88.14
317.607	82.54
317.836	87.94
318.065	88.14
318.295	86.94
318.524	88.54
318.753	87.54
318.983	82.74
319.212	84.74
319.441	81.14
319.67	80.54
319.9	81.74
320.129	78.34
320.358	84.14
320.587	85.94
320.816	88.54
321.046	83.74
321.275	78.94
321.504	90.74
321.733	87.14
321.962	81.14
322.191	79.74
322.42	86.54
322.649	85.54
322.878	82.34
323.108	78.54
323.337	80.94
323.566	87.54
323.795	89.54
324.024	89.54
324.253	82.14
324.482	83.94
324.71	85.54
324.939	85.94
325.168	85.14
325.397	80.34
325.626	88.34
325.855	86.34
326.084	82.74
326.313	80.34
326.542	83.74
326.77	75.94
326.999	75.94
327.228	84.14
327.457	86.34
327.686	90.74
327.914	85.14
328.143	81.74
328.372	89.74
328.6	77.74
328.829	84.14
329.058	82.94
329.287	83.34
329.515	83.34
329.744	89.34
329.972	87.14
330.201	83.94
330.43	80.94
330.658	80.54
330.887	81.54
331.115	84.14
331.344	88.74
331.572	85.94
331.801	89.34
332.03	83.54
332.258	84.74
332.486	89.74
332.715	75.34
332.943	74.34
333.172	85.94
333.4	87.34
333.629	80.94
333.857	88.14
334.085	74.94
334.314	81.94
334.542	80.74
334.771	79.94
334.999	92.54
335.227	86.74
335.455	83.14
335.684	86.14
335.912	84.54
336.14	83.14
336.369	82.74
336.597	91.14
336.825	77.54
337.053	82.94
337.281	80.74
337.51	84.14
337.738	86.54
337.966	84.74
338.194	88.34
338.422	84.34
338.65	91.14
338.878	95.94
339.106	93.34
339.334	82.94
339.562	85.74
339.79	82.94
340.018	78.94
340.246	81.94
340.474	81.54
340.702	78.94
340.93	80.94
341.158	81.74
341.386	80.94
341.614	86.34
341.842	86.14
342.07	88.54
342.298	92.54
342.526	88.14
342.754	80.54
342.981	81.54
343.209	83.34
343.437	88.94
343.665	83.54
343.893	86.14
344.12	85.14
344.348	82.94
344.576	78.14
344.804	83.94
345.031	82.94
345.259	89.54
345.487	80.34
345.714	79.74
345.942	85.14
346.17	82.54
346.397	81.14
346.625	76.74
346.853	83.14
347.08	84.74
347.308	89.94
347.535	80.54
347.763	84.14
347.99	85.54
348.218	83.14
348.445	85.74
348.673	78.94
348.9	83.14
349.128	83.34
349.355	83.94
349.583	84.74
349.81	81.54
350.037	81.94
350.265	80.94
350.492	83.74
350.72	82.94
350.947	83.74
351.174	89.74
351.402	81.94
351.629	86.34
351.856	79.74
352.083	76.94
352.311	90.14
352.538	88.14
352.765	80.34
352.992	84.34
353.22	87.94
353.447	89.74
353.674	85.34
353.901	82.14
354.128	85.94
354.355	76.94
354.583	88.54
354.81	89.94
355.037	84.14
355.264	87.54
355.491	88.54
355.718	80.54
355.945	83.14
356.172	80.54
356.399	84.14
356.626	83.94
356.853	77.14
357.08	86.74
357.307	80.54
357.534	79.74
357.761	76.74
357.988	77.94
358.215	76.74
358.441	85.74
358.668	83.94
358.895	85.74
359.122	85.54
359.349	81.54
359.576	79.94
359.802	80.14
360.029	80.94
360.256	86.54
360.483	78.94
360.709	82.54
360.936	83.74
361.163	85.94
361.39	87.94
361.616	80.54
361.843	86.94
362.07	79.94
362.296	86.54
362.523	92.54
362.749	83.74
362.976	81.94
363.203	89.94
363.429	81.34
363.656	83.34
363.882	76.34
364.109	79.74
364.335	75.94
364.562	76.14
364.788	81.74
365.015	80.14
365.241	82.14
365.468	86.54
365.694	81.54
365.92	87.94
366.147	74.14
366.373	85.14
366.599	84.54
366.826	82.34
367.052	85.94
367.278	90.54
367.505	83.74
367.731	83.94
367.957	86.34
368.184	85.34
368.41	85.14
368.636	81.34
368.862	75.34
369.089	86.34
369.315	85.34
369.541	81.74
369.767	81.14
369.993	84.54
370.219	84.94
370.445	78.94
370.672	86.14
370.898	88.74
371.124	75.34
371.35	84.34
371.576	88.54
371.802	84.94
372.028	79.14
372.254	85.74
372.48	88.34
372.706	85.94
372.932	80.54
373.158	84.14
373.384	77.34
373.61	78.94
373.835	87.34
374.061	86.54
374.287	89.34
374.513	86.94
374.739	85.94
374.965	83.94
375.191	82.94
375.416	77.54
375.642	85.34
375.868	86.14
376.094	84.94
376.319	84.34
376.545	81.34
376.771	80.94
376.997	81.54
377.222	89.74
377.448	87.74
377.674	85.94
377.899	87.74
378.125	81.14
378.35	85.54
378.576	76.54
378.802	84.14
379.027	76.34
379.253	80.94
379.478	78.14
379.704	76.34
379.929	86.14
380.155	83.34
380.38	77.94
380.606	81.34
380.831	85.74
381.057	86.54
381.282	83.74
381.507	83.74
381.733	86.54
381.958	84.74
382.184	83.54
382.409	83.14
382.634	76.74
382.86	75.54
383.085	83.34
383.31	79.34
383.535	81.94
383.761	80.54
383.986	78.74
384.211	82.14
384.436	79.34
384.662	91.74
384.887	87.34
385.112	84.54
385.337	85.54
385.562	84.54
385.787	76.94
386.013	81.94
386.238	79.74
386.463	85.34
386.688	79.34
386.913	80.34
387.138	79.34
387.363	84.14
387.588	80.54
387.813	83.14
388.038	81.14
388.263	78.94
388.488	76.14
388.713	72.34
388.938	77.34
389.163	80.34
389.387	84.94
389.612	84.74
389.837	88.94
390.062	85.34
390.287	80.94
390.512	77.94
390.736	82.14
390.961	82.14
391.186	82.14
391.411	80.74
391.636	79.74
391.86	87.94
392.085	88.34
392.31	81.34
392.534	84.94
392.759	78.54
392.984	84.54
393.208	85.54
393.433	82.74
393.658	83.34
393.882	83.94
394.107	86.34
394.331	83.34
394.556	79.74
394.78	85.14
395.005	77.34
395.229	79.74
395.454	79.14
395.678	84.94
395.903	87.14
396.127	78.54
396.352	77.14
396.576	80.54
396.801	80.14
397.025	83.34
397.249	86.74
397.474	81.54
397.698	86.34
397.922	77.94
398.147	81.34
398.371	85.54
398.595	87.54
398.82	79.54
399.044	79.14
399.268	77.74
399.492	81.34
399.717	83.74
399.941	86.94
400.165	80.34
400.389	83.14
400.613	79.34
400.837	81.94
401.062	85.14
401.286	80.14
401.51	79.54
401.734	80.74
401.958	82.54
402.182	81.14
402.406	75.54
402.63	80.74
402.854	81.94
403.078	79.54
403.302	81.74
403.526	82.54
403.75	76.54
403.974	79.54
404.198	80.94
404.422	78.74
404.645	78.14
404.869	81.74
405.093	79.14
405.317	81.74
405.541	84.74
405.765	89.74
405.988	85.34
406.212	81.94
406.436	80.74
406.66	82.54
406.883	82.14
407.107	84.74
407.331	83.74
407.555	78.14
407.778	82.74
408.002	85.14
408.226	80.94
408.449	85.34
408.673	77.74
408.896	80.14
409.12	84.74
409.344	85.14
409.567	84.54
409.791	79.94
410.014	77.94
410.238	84.14
410.461	79.94
410.685	77.94
410.908	82.74
411.132	82.34
411.355	73.74
411.578	81.94
411.802	81.14
412.025	79.14
412.249	85.14
412.472	82.74
412.695	79.54
412.919	79.94
413.142	77.74
413.365	81.34
413.589	83.34
413.812	87.54
414.035	88.14
414.258	80.54
414.482	83.54
414.705	85.14
414.928	85.74
415.151	79.94
415.374	81.94
415.597	81.14
415.821	80.54
416.044	79.54
416.267	82.34
416.49	78.54
416.713	90.14
416.936	83.74
417.159	83.14
417.382	80.94
417.605	83.74
417.828	78.14
418.051	76.94
418.274	78.54
418.497	72.34
418.72	78.34
418.943	83.54
419.166	79.54
419.389	84.54
419.611	86.34
419.834	85.94
420.057	83.14
420.28	82.74
420.503	79.14
420.726	78.74
420.948	78.14
421.171	82.94
421.394	79.14
421.617	81.34
421.839	85.34
422.062	83.94
422.285	83.34
422.507	84.54
422.73	84.34
422.953	80.54
423.175	79.74
423.398	79.94
423.621	78.74
423.843	80.34
424.066	86.94
424.288	79.14
424.511	80.74
424.733	77.34
424.956	80.54
425.178	79.34
425.401	81.14
425.623	77.34
425.846	79.94
426.068	81.74
426.291	80.34
426.513	82.54
426.735	81.74
426.958	83.74
427.18	80.94
427.402	80.14
427.625	79.94
427.847	81.54
428.069	79.34
428.292	80.14
428.514	82.54
428.736	80.34
428.958	83.14
429.181	74.74
429.403	83.74
429.625	84.34
429.847	79.94
430.069	76.94
430.292	80.94
430.514	80.34
430.736	84.14
430.958	85.74
431.18	79.94
431.402	84.94
431.624	82.94
431.846	82.74
432.068	87.54
432.29	81.74
432.512	78.94
432.734	81.34
432.956	80.74
433.178	85.54
433.4	85.34
433.622	85.34
433.844	74.94
434.066	82.74
434.287	80.74
434.509	77.74
434.731	84.54
434.953	80.94
435.175	71.94
435.397	74.94
435.618	78.74
435.84	80.34
436.062	87.94
436.284	78.34
436.505	81.74
436.727	85.94
436.949	83.34
437.17	79.94
437.392	80.54
437.614	89.54
437.835	84.74
438.057	79.74
438.278	80.34
438.5	81.14
438.721	78.14
438.943	82.54
439.165	80.54
439.386	84.34
439.608	85.54
439.829	89.14
440.05	81.34
440.272	77.34
440.493	81.54
440.715	76.94
440.936	81.14
441.158	73.14
441.379	78.74
441.6	85.74
441.822	80.14
442.043	81.94
442.264	89.54
442.486	78.34
442.707	74.74
442.928	76.74
443.149	82.54
443.371	80.54
443.592	80.14
443.813	81.14
444.034	86.14
444.255	80.74
444.476	83.94
444.698	78.94
444.919	85.14
445.14	85.74
445.361	82.54
445.582	83.54
445.803	74.74
446.024	82.54
446.245	79.14
446.466	84.94
446.687	85.94
446.908	79.14
447.129	77.54
447.35	84.54
447.571	81.74
447.792	74.74
448.013	80.54
448.234	86.94
448.455	79.74
448.675	78.94
448.896	73.54
449.117	82.74
449.338	76.34
449.559	79.34
449.779	83.14
450	82.14
450.221	81.54
450.442	80.74
450.662	91.54
450.883	80.94
451.104	84.34
451.324	84.74
451.545	80.54
451.766	82.54
451.986	84.14
452.207	84.34
452.428	81.14
452.648	76.14
452.869	81.34
453.089	81.74
453.31	78.94
453.53	74.34
453.751	84.94
453.971	84.14
454.192	82.54
454.412	79.14
454.633	83.74
454.853	81.74
455.073	75.74
455.294	76.74
455.514	81.94
455.734	80.14
455.955	81.54
456.175	83.74
456.395	78.74
456.616	77.14
456.836	80.74
457.056	78.14
457.276	83.74
457.497	83.94
457.717	81.74
457.937	85.14
458.157	80.14
458.377	82.74
458.598	82.74
458.818	80.14
459.038	81.34
459.258	85.74
459.478	76.74
459.698	81.34
459.918	76.54
460.138	76.54
460.358	79.74
460.578	78.94
460.798	86.74
461.018	82.74
461.238	84.34
461.458	78.34
461.678	81.14
461.898	75.94
462.118	79.54
462.338	88.34
462.558	77.94
462.777	81.94
462.997	74.74
463.217	79.74
463.437	81.94
463.657	75.74
463.876	71.74
464.096	79.54
464.316	79.94
464.536	77.34
464.755	85.54
464.975	82.34
465.195	81.14
465.414	86.14
465.634	86.34
465.854	81.74
466.073	86.54
466.293	81.94
466.512	86.94
466.732	84.14
466.951	80.34
467.171	80.74
467.391	84.94
467.61	81.74
467.829	82.54
468.049	79.14
468.268	85.54
468.488	82.74
468.707	82.14
468.927	84.74
469.146	81.74
469.365	87.54
469.585	79.34
469.804	80.74
470.023	81.54
470.243	84.94
470.462	78.14
470.681	81.14
470.901	81.34
471.12	80.14
471.339	85.34
471.558	78.74
471.777	83.54
471.997	78.94
472.216	79.94
472.435	79.34
472.654	78.34
472.873	84.94
473.092	78.14
473.311	84.54
473.53	77.54
473.749	76.34
473.968	82.14
474.187	81.94
474.406	76.94
474.625	82.54
474.844	78.74
475.063	82.94
475.282	78.54
475.501	79.94
475.72	80.74
475.939	76.54
476.158	79.14
476.377	88.14
476.596	83.14
476.814	82.94
477.033	80.54
477.252	82.14
477.471	84.94
477.69	74.94
477.908	82.74
478.127	77.94
478.346	78.94
478.564	83.54
478.783	78.54
479.002	79.94
479.22	78.34
479.439	81.74
479.658	87.54
479.876	81.54
480.095	83.94
480.313	81.34
480.532	80.74
480.751	78.74
480.969	87.54
481.188	85.54
481.406	85.14
481.624	86.74
481.843	84.54
482.061	81.94
482.28	77.54
482.498	79.34
482.717	85.94
482.935	78.94
483.153	83.74
483.372	81.94
483.59	77.74
483.808	72.54
484.027	80.94
484.245	83.34
484.463	81.94
484.681	82.14
484.9	84.34
485.118	79.54
485.336	88.14
485.554	78.94
485.772	82.34
485.99	80.14
486.209	87.54
486.427	78.54
486.645	80.14
486.863	86.14
487.081	81.94
487.299	82.94
487.517	77.34
487.735	81.34
487.953	83.34
488.171	86.94
488.389	86.14
488.607	86.14
488.825	85.34
489.043	81.14
489.261	79.54
489.479	81.14
489.696	76.54
489.914	83.14
490.132	86.14
490.35	81.14
490.568	83.74
490.786	90.54
491.003	78.54
491.221	84.94
491.439	84.94
491.657	83.94
491.874	86.74
492.092	77.14
492.31	85.34
492.527	81.94
492.745	80.34
492.963	82.54
493.18	82.54
493.398	81.34
493.615	81.14
493.833	89.54
494.05	82.54
494.268	84.94
494.485	82.34
494.703	89.54
494.92	81.34
495.138	81.54
495.355	83.74
495.573	78.74
495.79	75.34
496.008	87.54
496.225	85.54
496.442	80.74
496.66	81.14
496.877	80.34
497.094	87.74
497.312	82.54
497.529	81.14
497.746	72.94
497.963	78.14
498.181	79.74
498.398	83.94
498.615	86.54
498.832	81.34
499.049	79.34
499.267	85.34
499.484	78.14
499.701	91.14
499.918	80.54
500.135	86.34
500.352	80.14
500.569	82.94
500.786	86.34
501.003	89.14
501.22	86.54
501.437	82.74
501.654	83.54
501.871	80.14
502.088	79.94
502.305	87.14
502.522	79.54
502.739	86.14
502.956	82.74
503.172	83.54
503.389	83.34
503.606	88.14
503.823	84.94
504.04	81.54
504.256	80.94
504.473	82.54
504.69	88.14
504.907	84.14
505.123	85.14
505.34	79.94
505.557	76.14
505.773	85.54
505.99	85.34
506.207	89.54
506.423	83.34
506.64	80.54
506.856	82.74
507.073	85.14
507.289	81.14
507.506	86.94
507.722	78.94
507.939	77.74
508.155	78.74
508.372	81.94
508.588	82.34
508.805	83.74
509.021	80.34
509.238	79.94
509.454	81.54
509.67	83.94
509.887	85.74
510.103	82.34
510.319	86.94
510.536	85.94
510.752	84.54
510.968	83.14
511.184	85.14
511.401	82.54
511.617	85.94
511.833	83.14
512.049	85.34
512.265	84.14
512.481	83.74
512.698	77.94
512.914	76.74
513.13	82.74
513.346	84.54
513.562	78.54
513.778	88.14
513.994	84.14
514.21	93.14
514.426	82.34
514.642	79.34
514.858	85.94
515.074	76.94
515.29	83.54
515.506	86.34
515.721	90.74
515.937	84.74
516.153	88.74
516.369	87.34
516.585	84.94
516.801	83.54
517.016	86.94
517.232	84.74
517.448	88.34
517.664	85.54
517.879	87.54
518.095	78.14
518.311	78.34
518.527	85.54
518.742	83.74
518.958	78.94
519.173	80.74
519.389	83.94
519.605	89.14
519.82	84.54
520.036	86.54
520.251	85.74
