Data from TenMicroDelayPb_HRD10591_00021.txt Node
Date: Mon Nov 24 14:34:29 EST 2025
User: Yrep
Spectrometer: HR+D1059
Trigger mode: 0
Integration Time (sec): 1.000000E-2
Scans to average: 5
Electric dark correction enabled: true
Nonlinearity correction enabled: false
Boxcar width: 0
XAxis mode: Wavelengths
Number of Pixels in Spectrum: 2048
>>>>>Begin Spectral Data<<<<<
223.165	-14.75
223.4	-14.75
223.635	-14.75
223.869	-16.55
224.104	-14.55
224.338	-11.75
224.573	-16.15
224.808	-12.35
225.042	-5.35
225.277	0.45
225.511	-1.95
225.746	-3.35
225.98	4.25
226.215	6.25
226.449	15.25
226.683	23.25
226.918	18.25
227.152	29.05
227.387	31.65
227.621	40.45
227.856	49.05
228.09	43.25
228.324	51.85
228.559	53.45
228.793	60.45
229.027	57.05
229.262	66.65
229.496	67.25
229.73	63.25
229.964	69.65
230.199	69.45
230.433	68.85
230.667	79.85
230.901	74.25
231.136	79.65
231.37	69.25
231.604	78.85
231.838	83.25
232.072	72.65
232.306	83.45
232.541	87.25
232.775	75.25
233.009	79.45
233.243	79.45
233.477	81.85
233.711	82.25
233.945	72.25
234.179	92.45
234.413	78.05
234.647	76.25
234.881	78.25
235.115	72.45
235.349	80.25
235.583	73.65
235.817	75.45
236.051	76.25
236.285	73.45
236.519	76.05
236.753	72.45
236.987	77.65
237.221	77.85
237.455	80.45
237.689	75.45
237.922	76.05
238.156	73.05
238.39	78.45
238.624	78.85
238.858	77.65
239.091	77.05
239.325	75.25
239.559	74.45
239.793	74.05
240.027	77.05
240.26	74.05
240.494	70.45
240.728	73.65
240.961	74.45
241.195	79.45
241.429	73.25
241.662	66.05
241.896	75.85
242.13	73.25
242.363	71.85
242.597	69.25
242.83	69.25
243.064	70.85
243.298	78.85
243.531	77.25
243.765	70.25
243.998	80.05
244.232	77.65
244.465	71.85
244.699	78.65
244.932	78.45
245.166	73.65
245.399	73.25
245.633	78.05
245.866	76.85
246.099	77.25
246.333	80.65
246.566	77.45
246.8	80.65
247.033	79.85
247.266	77.25
247.5	80.45
247.733	76.65
247.966	76.05
248.2	71.45
248.433	74.85
248.666	79.25
248.899	78.85
249.133	77.65
249.366	78.45
249.599	79.65
249.832	69.25
250.066	78.45
250.299	73.25
250.532	75.65
250.765	77.65
250.998	67.85
251.231	71.25
251.465	76.45
251.698	79.45
251.931	75.25
252.164	76.05
252.397	73.65
252.63	78.45
252.863	80.45
253.096	78.65
253.329	77.85
253.562	77.05
253.795	77.85
254.028	83.85
254.261	81.65
254.494	79.85
254.727	77.25
254.96	77.85
255.193	80.25
255.426	81.25
255.659	78.25
255.892	72.05
256.124	79.45
256.357	76.65
256.59	80.25
256.823	81.05
257.056	76.45
257.289	77.05
257.521	83.65
257.754	77.25
257.987	80.85
258.22	77.65
258.452	90.25
258.685	81.85
258.918	71.05
259.151	71.05
259.383	77.25
259.616	81.45
259.849	81.65
260.081	83.65
260.314	83.05
260.547	73.85
260.779	76.05
261.012	82.25
261.244	81.45
261.477	80.85
261.71	78.85
261.942	77.05
262.175	74.85
262.407	70.25
262.64	79.45
262.872	78.25
263.105	77.65
263.337	77.25
263.57	79.05
263.802	80.65
264.035	79.45
264.267	80.05
264.499	75.65
264.732	83.45
264.964	83.85
265.197	75.65
265.429	84.25
265.661	82.25
265.894	82.25
266.126	75.05
266.358	80.25
266.591	80.85
266.823	83.65
267.055	81.65
267.287	89.05
267.52	86.45
267.752	83.45
267.984	75.05
268.216	84.25
268.448	75.25
268.681	78.45
268.913	84.45
269.145	86.65
269.377	85.05
269.609	87.05
269.841	86.05
270.073	81.65
270.306	79.05
270.538	78.25
270.77	77.45
271.002	84.65
271.234	74.45
271.466	79.45
271.698	78.65
271.93	81.25
272.162	83.45
272.394	83.25
272.626	83.45
272.858	82.85
273.09	84.85
273.322	85.05
273.553	84.85
273.785	79.25
274.017	82.25
274.249	85.65
274.481	83.45
274.713	78.25
274.945	85.25
275.176	85.65
275.408	78.65
275.64	90.25
275.872	78.65
276.104	80.05
276.335	84.45
276.567	85.05
276.799	75.65
277.031	78.25
277.262	76.05
277.494	83.05
277.726	80.85
277.957	79.45
278.189	80.25
278.421	77.25
278.652	81.85
278.884	82.25
279.115	80.25
279.347	87.25
279.579	79.25
279.81	80.65
280.042	80.45
280.273	84.25
280.505	83.25
280.736	81.85
280.968	84.65
281.199	86.05
281.431	84.25
281.662	88.45
281.894	87.25
282.125	82.05
282.356	81.05
282.588	79.25
282.819	81.05
283.051	80.65
283.282	76.65
283.513	85.65
283.745	83.45
283.976	85.65
284.207	77.45
284.439	85.65
284.67	83.45
284.901	84.05
285.132	83.05
285.364	89.65
285.595	78.85
285.826	76.25
286.057	85.85
286.288	85.45
286.52	83.25
286.751	85.25
286.982	82.25
287.213	80.45
287.444	78.25
287.675	77.25
287.906	78.25
288.138	82.25
288.369	78.45
288.6	81.05
288.831	84.65
289.062	80.85
289.293	79.65
289.524	83.85
289.755	88.65
289.986	77.25
290.217	87.85
290.448	84.45
290.679	79.45
290.91	86.05
291.141	84.05
291.371	79.65
291.602	83.65
291.833	85.05
292.064	82.45
292.295	85.85
292.526	85.25
292.757	87.45
292.987	88.45
293.218	86.85
293.449	83.45
293.68	83.85
293.91	84.25
294.141	84.05
294.372	85.65
294.603	83.25
294.833	79.85
295.064	85.25
295.295	85.25
295.525	87.45
295.756	82.85
295.987	82.25
296.217	77.05
296.448	86.05
296.679	89.45
296.909	91.65
297.14	83.65
297.37	83.05
297.601	83.05
297.831	89.45
298.062	91.05
298.292	86.25
298.523	84.85
298.753	75.45
298.984	82.85
299.214	80.25
299.445	83.45
299.675	83.25
299.905	81.85
300.136	80.85
300.366	81.25
300.597	86.25
300.827	77.65
301.057	87.25
301.288	85.45
301.518	91.65
301.748	82.65
301.979	82.65
302.209	82.45
302.439	89.45
302.669	94.45
302.9	80.05
303.13	83.25
303.36	86.85
303.59	78.85
303.82	79.65
304.051	83.25
304.281	80.45
304.511	82.85
304.741	86.65
304.971	80.65
305.201	85.25
305.431	86.05
305.661	83.45
305.891	86.85
306.121	80.65
306.352	81.25
306.582	80.65
306.812	87.65
307.042	84.65
307.272	84.85
307.502	76.05
307.731	82.45
307.961	83.85
308.191	85.05
308.421	79.85
308.651	84.65
308.881	89.25
309.111	83.45
309.341	81.25
309.571	85.05
309.8	83.05
310.03	83.25
310.26	84.25
310.49	81.85
310.72	81.65
310.949	86.85
311.179	86.05
311.409	87.45
311.639	85.85
311.868	84.25
312.098	85.85
312.328	87.65
312.557	85.05
312.787	82.85
313.017	87.85
313.246	88.25
313.476	79.65
313.706	81.65
313.935	81.45
314.165	85.45
314.394	81.45
314.624	81.65
314.853	86.65
315.083	86.05
315.312	78.85
315.542	86.45
315.771	78.45
316.001	91.25
316.23	85.65
316.46	85.05
316.689	85.05
316.919	88.05
317.148	85.45
317.377	85.65
317.607	77.45
317.836	89.65
318.065	78.25
318.295	79.65
318.524	87.85
318.753	79.45
318.983	85.85
319.212	82.65
319.441	85.05
319.67	80.05
319.9	77.65
320.129	85.25
320.358	80.05
320.587	89.85
320.816	84.45
321.046	84.25
321.275	89.85
321.504	86.25
321.733	85.45
321.962	78.85
322.191	86.25
322.42	82.45
322.649	79.65
322.878	87.45
323.108	80.05
323.337	86.25
323.566	78.65
323.795	84.65
324.024	80.85
324.253	82.85
324.482	83.85
324.71	82.05
324.939	79.45
325.168	76.05
325.397	79.85
325.626	84.85
325.855	80.85
326.084	84.65
326.313	86.45
326.542	85.65
326.77	85.45
326.999	84.65
327.228	81.45
327.457	81.85
327.686	87.45
327.914	71.05
328.143	86.65
328.372	85.85
328.6	82.05
328.829	86.45
329.058	82.45
329.287	86.25
329.515	91.25
329.744	81.45
329.972	86.85
330.201	79.25
330.43	82.65
330.658	85.25
330.887	90.05
331.115	83.65
331.344	84.25
331.572	80.25
331.801	89.65
332.03	81.25
332.258	80.65
332.486	88.05
332.715	79.05
332.943	86.45
333.172	82.45
333.4	78.85
333.629	74.85
333.857	82.85
334.085	86.45
334.314	81.45
334.542	87.45
334.771	83.25
334.999	84.25
335.227	81.25
335.455	81.45
335.684	84.25
335.912	90.05
336.14	84.65
336.369	84.25
336.597	81.25
336.825	82.85
337.053	76.05
337.281	81.85
337.51	90.45
337.738	73.45
337.966	84.85
338.194	81.25
338.422	84.65
338.65	82.85
338.878	91.25
339.106	84.25
339.334	84.45
339.562	79.65
339.79	86.85
340.018	81.85
340.246	76.45
340.474	91.25
340.702	88.05
340.93	87.45
341.158	84.85
341.386	87.65
341.614	82.05
341.842	89.45
342.07	87.25
342.298	83.05
342.526	86.65
342.754	88.85
342.981	85.65
343.209	86.05
343.437	84.25
343.665	80.05
343.893	79.65
344.12	79.65
344.348	88.25
344.576	84.85
344.804	79.65
345.031	86.05
345.259	81.05
345.487	81.05
345.714	80.65
345.942	82.05
346.17	87.65
346.397	81.65
346.625	86.05
346.853	82.65
347.08	82.25
347.308	85.45
347.535	81.65
347.763	85.45
347.99	87.25
348.218	77.05
348.445	78.05
348.673	83.65
348.9	88.05
349.128	75.85
349.355	82.45
349.583	84.05
349.81	80.25
350.037	77.45
350.265	80.45
350.492	83.25
350.72	79.25
350.947	83.25
351.174	83.45
351.402	83.05
351.629	80.85
351.856	84.25
352.083	86.85
352.311	82.45
352.538	83.25
352.765	83.25
352.992	79.85
353.22	79.85
353.447	80.85
353.674	88.45
353.901	79.05
354.128	84.45
354.355	92.85
354.583	89.45
354.81	82.05
355.037	85.25
355.264	84.05
355.491	81.25
355.718	81.45
355.945	82.25
356.172	75.25
356.399	78.05
356.626	84.65
356.853	85.25
357.08	80.85
357.307	81.65
357.534	81.85
357.761	88.85
357.988	80.85
358.215	83.45
358.441	80.25
358.668	83.25
358.895	82.45
359.122	82.85
359.349	80.85
359.576	79.25
359.802	76.25
360.029	85.65
360.256	86.05
360.483	86.85
360.709	78.05
360.936	80.25
361.163	80.05
361.39	79.25
361.616	77.85
361.843	83.45
362.07	79.65
362.296	90.45
362.523	82.85
362.749	86.25
362.976	83.05
363.203	85.25
363.429	89.25
363.656	87.25
363.882	87.65
364.109	79.85
364.335	82.85
364.562	72.05
364.788	81.65
365.015	83.05
365.241	75.05
365.468	85.05
365.694	72.05
365.92	84.05
366.147	84.85
366.373	80.85
366.599	77.45
366.826	77.85
367.052	75.65
367.278	79.85
367.505	76.05
367.731	81.05
367.957	80.25
368.184	83.45
368.41	74.65
368.636	82.25
368.862	80.45
369.089	78.25
369.315	80.65
369.541	82.45
369.767	87.25
369.993	84.25
370.219	86.85
370.445	81.65
370.672	79.45
370.898	87.65
371.124	80.05
371.35	82.25
371.576	81.45
371.802	82.85
372.028	87.45
372.254	80.65
372.48	80.05
372.706	76.65
372.932	78.65
373.158	80.45
373.384	72.65
373.61	89.65
373.835	83.05
374.061	83.05
374.287	80.05
374.513	77.25
374.739	79.65
374.965	79.65
375.191	86.25
375.416	86.05
375.642	81.85
375.868	77.65
376.094	82.65
376.319	87.65
376.545	79.85
376.771	83.85
376.997	84.45
377.222	78.65
377.448	75.85
377.674	80.45
377.899	84.65
378.125	78.85
378.35	78.65
378.576	79.65
378.802	83.65
379.027	86.45
379.253	87.85
379.478	80.65
379.704	87.05
379.929	78.45
380.155	79.45
380.38	84.25
380.606	84.05
380.831	85.05
381.057	83.65
381.282	85.45
381.507	81.25
381.733	86.85
381.958	88.45
382.184	87.85
382.409	82.85
382.634	78.65
382.86	83.25
383.085	88.25
383.31	89.05
383.535	81.45
383.761	89.05
383.986	78.85
384.211	81.65
384.436	84.05
384.662	81.05
384.887	75.85
385.112	88.05
385.337	83.05
385.562	78.05
385.787	81.45
386.013	83.45
386.238	81.25
386.463	84.25
386.688	82.65
386.913	87.25
387.138	87.45
387.363	76.85
387.588	75.65
387.813	85.85
388.038	78.25
388.263	79.05
388.488	79.65
388.713	84.65
388.938	79.45
389.163	89.25
389.387	87.25
389.612	80.25
389.837	88.05
390.062	81.65
390.287	87.05
390.512	82.45
390.736	81.25
390.961	82.25
391.186	83.05
391.411	88.85
391.636	81.25
391.86	84.05
392.085	74.85
392.31	80.85
392.534	81.65
392.759	75.65
392.984	81.85
393.208	89.05
393.433	80.45
393.658	81.45
393.882	84.45
394.107	88.65
394.331	82.25
394.556	80.85
394.78	77.85
395.005	81.85
395.229	75.85
395.454	84.85
395.678	80.25
395.903	79.25
396.127	79.65
396.352	77.05
396.576	89.85
396.801	81.45
397.025	85.05
397.249	81.65
397.474	85.45
397.698	83.45
397.922	84.45
398.147	75.05
398.371	79.65
398.595	84.45
398.82	78.65
399.044	82.65
399.268	77.85
399.492	80.85
399.717	81.65
399.941	89.45
400.165	86.05
400.389	79.05
400.613	84.25
400.837	80.85
401.062	81.85
401.286	85.85
401.51	80.05
401.734	88.65
401.958	86.65
402.182	83.05
402.406	75.65
402.63	81.85
402.854	82.65
403.078	85.25
403.302	81.45
403.526	84.45
403.75	77.05
403.974	80.65
404.198	80.45
404.422	82.45
404.645	79.85
404.869	84.25
405.093	82.45
405.317	85.05
405.541	76.25
405.765	78.25
405.988	87.05
406.212	83.25
406.436	85.85
406.66	85.65
406.883	76.85
407.107	79.65
407.331	81.85
407.555	78.25
407.778	77.65
408.002	80.05
408.226	78.65
408.449	84.05
408.673	82.05
408.896	85.65
409.12	79.45
409.344	80.45
409.567	85.85
409.791	83.85
410.014	75.25
410.238	82.85
410.461	81.25
410.685	82.05
410.908	72.45
411.132	75.45
411.355	76.85
411.578	80.85
411.802	76.85
412.025	80.85
412.249	81.25
412.472	77.65
412.695	85.45
412.919	82.25
413.142	80.65
413.365	81.05
413.589	82.65
413.812	79.85
414.035	83.05
414.258	76.25
414.482	77.85
414.705	80.65
414.928	84.45
415.151	76.65
415.374	78.65
415.597	82.25
415.821	87.85
416.044	82.05
416.267	83.25
416.49	76.65
416.713	75.05
416.936	80.05
417.159	73.05
417.382	80.85
417.605	84.65
417.828	85.45
418.051	82.05
418.274	81.25
418.497	78.85
418.72	81.65
418.943	73.65
419.166	81.45
419.389	75.05
419.611	88.25
419.834	80.25
420.057	81.05
420.28	81.65
420.503	79.05
420.726	77.65
420.948	88.45
421.171	81.85
421.394	77.45
421.617	85.65
421.839	77.25
422.062	78.65
422.285	81.05
422.507	77.65
422.73	85.85
422.953	82.85
423.175	85.45
423.398	82.65
423.621	80.65
423.843	78.45
424.066	87.45
424.288	78.85
424.511	76.45
424.733	77.85
424.956	85.45
425.178	79.65
425.401	76.05
425.623	82.05
425.846	80.65
426.068	78.45
426.291	79.65
426.513	77.25
426.735	77.05
426.958	89.85
427.18	76.05
427.402	76.45
427.625	78.25
427.847	73.65
428.069	75.05
428.292	75.45
428.514	76.85
428.736	79.45
428.958	79.45
429.181	81.05
429.403	83.25
429.625	82.85
429.847	80.85
430.069	82.45
430.292	80.85
430.514	77.65
430.736	83.85
430.958	76.85
431.18	82.65
431.402	77.05
431.624	88.05
431.846	82.05
432.068	81.25
432.29	80.45
432.512	78.25
432.734	78.45
432.956	80.85
433.178	83.25
433.4	82.25
433.622	77.05
433.844	79.05
434.066	77.65
434.287	86.85
434.509	79.45
434.731	77.65
434.953	79.05
435.175	89.85
435.397	83.05
435.618	84.05
435.84	83.85
436.062	84.25
436.284	82.25
436.505	81.25
436.727	80.65
436.949	82.65
437.17	81.25
437.392	80.05
437.614	79.05
437.835	79.65
438.057	72.45
438.278	71.65
438.5	82.85
438.721	82.05
438.943	81.65
439.165	75.25
439.386	75.05
439.608	81.05
439.829	79.05
440.05	74.45
440.272	81.85
440.493	72.25
440.715	81.85
440.936	82.05
441.158	79.45
441.379	76.45
441.6	80.65
441.822	83.25
442.043	78.25
442.264	74.45
442.486	83.65
442.707	79.25
442.928	78.25
443.149	78.25
443.371	79.25
443.592	83.45
443.813	82.45
444.034	79.45
444.255	78.45
444.476	81.45
444.698	81.45
444.919	77.85
445.14	87.25
445.361	86.65
445.582	80.45
445.803	76.45
446.024	75.85
446.245	80.65
446.466	78.45
446.687	77.05
446.908	87.05
447.129	84.05
447.35	81.65
447.571	86.05
447.792	79.05
448.013	80.65
448.234	82.65
448.455	86.25
448.675	81.85
448.896	87.05
449.117	80.85
449.338	80.05
449.559	82.25
449.779	77.65
450	81.65
450.221	80.25
450.442	82.25
450.662	74.25
450.883	78.25
451.104	83.05
451.324	76.85
451.545	79.05
451.766	79.45
451.986	78.05
452.207	79.25
452.428	77.45
452.648	84.25
452.869	83.05
453.089	82.25
453.31	80.85
453.53	78.85
453.751	85.65
453.971	77.85
454.192	75.25
454.412	75.65
454.633	83.45
454.853	80.65
455.073	83.25
455.294	79.85
455.514	82.05
455.734	85.05
455.955	72.65
456.175	75.65
456.395	81.05
456.616	83.25
456.836	80.45
457.056	77.65
457.276	77.05
457.497	81.85
457.717	76.85
457.937	76.45
458.157	73.45
458.377	80.05
458.598	75.65
458.818	80.25
459.038	76.05
459.258	75.05
459.478	85.45
459.698	75.45
459.918	77.45
460.138	84.25
460.358	80.45
460.578	82.25
460.798	85.65
461.018	84.05
461.238	77.25
461.458	81.65
461.678	82.05
461.898	88.25
462.118	82.25
462.338	81.45
462.558	82.25
462.777	82.65
462.997	81.65
463.217	74.65
463.437	79.45
463.657	75.85
463.876	78.85
464.096	80.45
464.316	73.45
464.536	79.45
464.755	77.05
464.975	84.45
465.195	88.05
465.414	87.25
465.634	79.25
465.854	80.65
466.073	74.85
466.293	87.65
466.512	79.25
466.732	86.25
466.951	83.25
467.171	76.45
467.391	77.85
467.61	84.85
467.829	81.45
468.049	74.45
468.268	79.85
468.488	80.65
468.707	79.45
468.927	87.45
469.146	81.05
469.365	74.85
469.585	78.05
469.804	75.65
470.023	83.25
470.243	80.25
470.462	81.65
470.681	84.85
470.901	84.85
471.12	80.25
471.339	75.65
471.558	84.45
471.777	85.85
471.997	84.45
472.216	73.65
472.435	86.25
472.654	80.65
472.873	81.25
473.092	75.25
473.311	83.05
473.53	76.25
473.749	76.85
473.968	81.05
474.187	85.25
474.406	78.25
474.625	77.65
474.844	83.65
475.063	77.45
475.282	79.85
475.501	79.65
475.72	77.65
475.939	85.65
476.158	84.05
476.377	78.05
476.596	82.85
476.814	81.65
477.033	89.05
477.252	74.85
477.471	86.45
477.69	78.65
477.908	82.05
478.127	80.05
478.346	86.45
478.564	80.05
478.783	80.45
479.002	81.05
479.22	79.85
479.439	78.85
479.658	75.25
479.876	73.05
480.095	76.25
480.313	79.85
480.532	75.05
480.751	76.85
480.969	83.65
481.188	82.65
481.406	75.45
481.624	85.45
481.843	81.25
482.061	79.25
482.28	84.45
482.498	80.65
482.717	77.05
482.935	81.45
483.153	84.85
483.372	80.25
483.59	80.05
483.808	76.25
484.027	80.65
484.245	85.65
484.463	84.85
484.681	86.05
484.9	89.65
485.118	81.05
485.336	79.65
485.554	88.85
485.772	79.05
485.99	84.45
486.209	81.45
486.427	76.45
486.645	80.25
486.863	83.05
487.081	79.25
487.299	85.45
487.517	76.25
487.735	80.25
487.953	79.65
488.171	78.65
488.389	75.05
488.607	82.05
488.825	76.45
489.043	79.45
489.261	85.85
489.479	79.65
489.696	82.05
489.914	83.45
490.132	78.65
490.35	79.45
490.568	84.85
490.786	83.25
491.003	83.05
491.221	84.05
491.439	79.85
491.657	79.25
491.874	81.85
492.092	84.85
492.31	85.25
492.527	88.05
492.745	80.85
492.963	84.65
493.18	82.05
493.398	80.65
493.615	83.45
493.833	79.45
494.05	80.45
494.268	79.85
494.485	79.05
494.703	79.05
494.92	85.25
495.138	84.85
495.355	81.25
495.573	83.05
495.79	78.65
496.008	82.25
496.225	79.85
496.442	84.45
496.66	82.05
496.877	78.45
497.094	84.25
497.312	73.65
497.529	79.25
497.746	73.05
497.963	77.65
498.181	84.45
498.398	84.05
498.615	79.05
498.832	82.05
499.049	82.65
499.267	80.25
499.484	82.45
499.701	84.25
499.918	77.45
500.135	78.25
500.352	75.25
500.569	73.65
500.786	81.65
501.003	83.25
501.22	74.85
501.437	77.25
501.654	76.85
501.871	83.05
502.088	81.45
502.305	79.25
502.522	76.45
502.739	84.65
502.956	84.25
503.172	79.65
503.389	81.65
503.606	79.85
503.823	82.25
504.04	86.65
504.256	81.65
504.473	82.25
504.69	81.85
504.907	85.85
505.123	82.85
505.34	82.05
505.557	75.45
505.773	80.85
505.99	84.05
506.207	84.65
506.423	82.45
506.64	82.25
506.856	77.45
507.073	79.85
507.289	79.45
507.506	82.85
507.722	77.05
507.939	79.05
508.155	83.85
508.372	84.05
508.588	80.45
508.805	84.45
509.021	76.05
509.238	79.85
509.454	85.85
509.67	78.25
509.887	79.85
510.103	78.65
510.319	82.65
510.536	81.25
510.752	78.25
510.968	80.65
511.184	81.45
511.401	82.45
511.617	81.25
511.833	82.65
512.049	85.25
512.265	80.25
512.481	82.85
512.698	81.65
512.914	78.85
513.13	83.25
513.346	80.25
513.562	75.85
513.778	81.05
513.994	90.65
514.21	87.85
514.426	81.25
514.642	77.85
514.858	88.05
515.074	83.85
515.29	83.05
515.506	77.25
515.721	88.45
515.937	76.65
516.153	83.05
516.369	86.25
516.585	80.65
516.801	85.45
517.016	91.45
517.232	84.45
517.448	84.65
517.664	80.65
517.879	82.05
518.095	84.85
518.311	84.25
518.527	85.25
518.742	82.85
518.958	80.05
519.173	87.25
519.389	88.85
519.605	79.85
519.82	84.85
520.036	86.25
520.251	79.65
