Data from TenMicroDelayPb_HRD10591_00002.txt Node
Date: Mon Nov 24 14:34:24 EST 2025
User: Yrep
Spectrometer: HR+D1059
Trigger mode: 0
Integration Time (sec): 1.000000E-2
Scans to average: 5
Electric dark correction enabled: true
Nonlinearity correction enabled: false
Boxcar width: 0
XAxis mode: Wavelengths
Number of Pixels in Spectrum: 2048
>>>>>Begin Spectral Data<<<<<
223.165	-13.19
223.4	-13.19
223.635	-13.19
223.869	-19.99
224.104	-17.79
224.338	-16.19
224.573	-9.79
224.808	-12.79
225.042	-6.39
225.277	-10.59
225.511	-2.59
225.746	2.81
225.98	5.41
226.215	9.61
226.449	9.01
226.683	24.81
226.918	33.21
227.152	24.41
227.387	29.81
227.621	39.01
227.856	38.41
228.09	49.01
228.324	47.81
228.559	52.01
228.793	56.21
229.027	55.81
229.262	60.81
229.496	62.21
229.73	64.41
229.964	67.01
230.199	70.21
230.433	78.61
230.667	68.81
230.901	73.41
231.136	78.21
231.37	74.61
231.604	71.01
231.838	81.01
232.072	83.41
232.306	78.01
232.541	76.21
232.775	76.81
233.009	73.01
233.243	79.81
233.477	74.81
233.711	70.81
233.945	80.81
234.179	83.21
234.413	86.21
234.647	71.41
234.881	79.81
235.115	75.41
235.349	72.81
235.583	80.61
235.817	78.01
236.051	78.81
236.285	76.21
236.519	80.01
236.753	81.01
236.987	77.21
237.221	72.61
237.455	74.41
237.689	70.21
237.922	75.41
238.156	77.41
238.39	74.41
238.624	73.01
238.858	74.81
239.091	71.81
239.325	76.01
239.559	72.61
239.793	76.81
240.027	75.21
240.26	73.81
240.494	72.81
240.728	71.81
240.961	72.81
241.195	80.61
241.429	81.21
241.662	75.81
241.896	71.41
242.13	77.81
242.363	78.41
242.597	75.21
242.83	80.41
243.064	75.21
243.298	77.81
243.531	76.81
243.765	78.61
243.998	74.81
244.232	80.21
244.465	73.21
244.699	80.81
244.932	79.61
245.166	75.61
245.399	70.81
245.633	79.41
245.866	72.81
246.099	76.21
246.333	71.41
246.566	71.81
246.8	76.41
247.033	72.41
247.266	64.41
247.5	73.41
247.733	79.81
247.966	83.41
248.2	72.21
248.433	76.61
248.666	80.81
248.899	79.01
249.133	84.61
249.366	81.21
249.599	79.81
249.832	81.61
250.066	76.41
250.299	77.21
250.532	73.41
250.765	77.81
250.998	76.81
251.231	79.21
251.465	80.01
251.698	73.21
251.931	74.01
252.164	81.01
252.397	78.61
252.63	80.81
252.863	78.81
253.096	80.21
253.329	84.61
253.562	71.21
253.795	74.41
254.028	80.61
254.261	77.21
254.494	74.61
254.727	76.81
254.96	78.41
255.193	78.81
255.426	78.01
255.659	77.61
255.892	80.61
256.124	78.21
256.357	80.41
256.59	85.01
256.823	78.41
257.056	79.61
257.289	79.41
257.521	78.41
257.754	81.21
257.987	80.41
258.22	81.41
258.452	79.61
258.685	81.61
258.918	71.81
259.151	78.61
259.383	81.61
259.616	84.21
259.849	73.81
260.081	87.61
260.314	84.21
260.547	79.41
260.779	78.61
261.012	78.81
261.244	78.01
261.477	76.41
261.71	75.61
261.942	83.41
262.175	84.61
262.407	78.61
262.64	80.01
262.872	78.81
263.105	80.81
263.337	83.21
263.57	74.21
263.802	79.21
264.035	79.41
264.267	75.81
264.499	78.61
264.732	79.01
264.964	77.21
265.197	73.81
265.429	78.81
265.661	76.21
265.894	71.21
266.126	75.61
266.358	71.81
266.591	79.01
266.823	85.41
267.055	79.61
267.287	77.41
267.52	74.81
267.752	79.81
267.984	77.01
268.216	84.81
268.448	75.01
268.681	74.41
268.913	77.81
269.145	84.01
269.377	79.21
269.609	74.21
269.841	76.01
270.073	82.21
270.306	78.81
270.538	80.21
270.77	77.01
271.002	81.41
271.234	82.01
271.466	81.21
271.698	80.61
271.93	78.61
272.162	79.61
272.394	82.81
272.626	78.61
272.858	82.21
273.09	82.01
273.322	83.41
273.553	84.81
273.785	79.01
274.017	76.81
274.249	80.21
274.481	82.81
274.713	81.81
274.945	80.81
275.176	80.01
275.408	80.41
275.64	82.21
275.872	79.21
276.104	83.61
276.335	81.21
276.567	77.81
276.799	77.01
277.031	77.81
277.262	75.81
277.494	77.81
277.726	88.81
277.957	80.61
278.189	84.41
278.421	79.61
278.652	72.01
278.884	84.21
279.115	78.61
279.347	84.41
279.579	78.61
279.81	81.41
280.042	80.81
280.273	83.61
280.505	85.21
280.736	81.01
280.968	86.61
281.199	83.41
281.431	83.41
281.662	84.01
281.894	81.81
282.125	85.61
282.356	76.61
282.588	78.41
282.819	75.41
283.051	85.81
283.282	83.01
283.513	83.01
283.745	77.21
283.976	81.01
284.207	75.21
284.439	80.61
284.67	88.21
284.901	86.61
285.132	78.01
285.364	75.81
285.595	84.01
285.826	84.01
286.057	82.81
286.288	77.61
286.52	84.61
286.751	84.01
286.982	80.01
287.213	81.81
287.444	76.21
287.675	73.21
287.906	79.81
288.138	88.61
288.369	78.01
288.6	78.41
288.831	79.81
289.062	87.21
289.293	81.61
289.524	87.41
289.755	77.01
289.986	79.81
290.217	82.41
290.448	75.81
290.679	78.41
290.91	83.41
291.141	84.41
291.371	87.41
291.602	82.41
291.833	81.81
292.064	85.41
292.295	81.81
292.526	78.01
292.757	85.61
292.987	87.21
293.218	85.21
293.449	82.41
293.68	78.01
293.91	81.61
294.141	81.41
294.372	87.41
294.603	83.81
294.833	80.81
295.064	82.61
295.295	83.61
295.525	86.41
295.756	80.81
295.987	84.21
296.217	82.01
296.448	82.81
296.679	79.41
296.909	76.81
297.14	76.81
297.37	74.61
297.601	82.01
297.831	78.21
298.062	87.81
298.292	87.41
298.523	82.41
298.753	82.41
298.984	76.61
299.214	82.21
299.445	79.41
299.675	81.01
299.905	78.61
300.136	86.41
300.366	82.41
300.597	87.61
300.827	84.41
301.057	80.41
301.288	82.61
301.518	77.01
301.748	82.01
301.979	90.21
302.209	80.61
302.439	84.61
302.669	86.01
302.9	79.81
303.13	88.41
303.36	87.41
303.59	84.21
303.82	83.01
304.051	83.81
304.281	80.41
304.511	80.61
304.741	78.01
304.971	83.61
305.201	77.81
305.431	87.21
305.661	86.61
305.891	76.81
306.121	79.21
306.352	84.41
306.582	83.41
306.812	84.41
307.042	84.61
307.272	87.21
307.502	81.81
307.731	83.81
307.961	82.21
308.191	78.41
308.421	82.61
308.651	76.01
308.881	84.81
309.111	88.21
309.341	75.41
309.571	77.41
309.8	80.01
310.03	79.21
310.26	79.21
310.49	83.61
310.72	78.01
310.949	80.61
311.179	86.61
311.409	84.01
311.639	83.61
311.868	79.01
312.098	83.61
312.328	81.61
312.557	82.41
312.787	76.81
313.017	85.61
313.246	80.61
313.476	82.61
313.706	77.81
313.935	83.81
314.165	82.21
314.394	85.21
314.624	81.21
314.853	80.01
315.083	86.01
315.312	71.01
315.542	84.41
315.771	82.81
316.001	83.81
316.23	89.01
316.46	84.81
316.689	84.21
316.919	82.61
317.148	81.81
317.377	79.41
317.607	83.81
317.836	79.81
318.065	83.61
318.295	80.21
318.524	82.81
318.753	76.01
318.983	76.01
319.212	79.61
319.441	85.01
319.67	81.01
319.9	83.21
320.129	79.01
320.358	79.01
320.587	80.21
320.816	84.61
321.046	82.41
321.275	84.21
321.504	82.21
321.733	84.21
321.962	84.21
322.191	85.81
322.42	83.21
322.649	80.61
322.878	83.21
323.108	85.21
323.337	90.21
323.566	77.21
323.795	82.81
324.024	84.21
324.253	76.81
324.482	79.21
324.71	76.81
324.939	82.61
325.168	82.01
325.397	82.61
325.626	80.21
325.855	79.61
326.084	84.41
326.313	82.81
326.542	92.61
326.77	83.81
326.999	80.41
327.228	78.21
327.457	84.01
327.686	85.01
327.914	85.41
328.143	82.21
328.372	82.61
328.6	81.21
328.829	83.21
329.058	79.21
329.287	84.01
329.515	82.81
329.744	90.01
329.972	81.01
330.201	86.81
330.43	83.41
330.658	87.21
330.887	81.21
331.115	85.01
331.344	81.61
331.572	83.21
331.801	78.81
332.03	80.41
332.258	84.21
332.486	84.41
332.715	78.81
332.943	84.61
333.172	86.81
333.4	77.21
333.629	83.01
333.857	86.21
334.085	84.81
334.314	83.61
334.542	83.21
334.771	82.41
334.999	84.41
335.227	82.61
335.455	85.01
335.684	92.81
335.912	83.21
336.14	80.01
336.369	78.41
336.597	81.01
336.825	92.41
337.053	85.01
337.281	81.61
337.51	78.61
337.738	80.41
337.966	85.21
338.194	78.01
338.422	87.01
338.65	78.81
338.878	80.41
339.106	78.81
339.334	81.01
339.562	82.21
339.79	84.61
340.018	79.41
340.246	80.21
340.474	85.01
340.702	77.01
340.93	77.21
341.158	83.41
341.386	79.01
341.614	80.21
341.842	82.21
342.07	82.81
342.298	79.21
342.526	82.61
342.754	77.21
342.981	77.81
343.209	83.41
343.437	83.61
343.665	89.41
343.893	76.81
344.12	82.41
344.348	84.61
344.576	82.41
344.804	75.81
345.031	77.21
345.259	78.81
345.487	86.41
345.714	76.41
345.942	86.21
346.17	84.01
346.397	80.21
346.625	82.61
346.853	81.61
347.08	76.41
347.308	89.81
347.535	83.21
347.763	83.61
347.99	82.21
348.218	76.21
348.445	84.81
348.673	80.01
348.9	86.21
349.128	82.41
349.355	85.01
349.583	83.81
349.81	80.61
350.037	85.41
350.265	86.41
350.492	74.21
350.72	81.01
350.947	83.01
351.174	82.81
351.402	83.81
351.629	84.41
351.856	80.61
352.083	75.01
352.311	84.21
352.538	77.81
352.765	84.41
352.992	86.81
353.22	85.01
353.447	82.41
353.674	88.21
353.901	79.81
354.128	82.21
354.355	80.01
354.583	75.21
354.81	79.01
355.037	87.61
355.264	84.81
355.491	80.61
355.718	83.21
355.945	82.61
356.172	82.81
356.399	83.21
356.626	78.81
356.853	85.61
357.08	76.41
357.307	79.61
357.534	81.81
357.761	84.01
357.988	79.01
358.215	83.01
358.441	83.01
358.668	85.01
358.895	82.41
359.122	83.01
359.349	84.01
359.576	89.41
359.802	82.81
360.029	78.41
360.256	83.01
360.483	83.81
360.709	78.61
360.936	86.61
361.163	79.61
361.39	87.41
361.616	81.61
361.843	86.01
362.07	82.81
362.296	86.41
362.523	81.01
362.749	83.81
362.976	81.01
363.203	80.61
363.429	85.01
363.656	83.41
363.882	82.61
364.109	84.01
364.335	87.01
364.562	74.21
364.788	84.81
365.015	86.61
365.241	77.41
365.468	77.61
365.694	79.21
365.92	83.01
366.147	82.41
366.373	81.01
366.599	81.41
366.826	76.61
367.052	77.41
367.278	75.61
367.505	78.41
367.731	84.81
367.957	82.21
368.184	84.21
368.41	78.21
368.636	82.81
368.862	85.01
369.089	83.21
369.315	77.21
369.541	80.61
369.767	86.21
369.993	77.21
370.219	88.61
370.445	82.21
370.672	87.41
370.898	80.21
371.124	80.41
371.35	77.41
371.576	78.01
371.802	79.41
372.028	84.01
372.254	83.01
372.48	80.21
372.706	79.61
372.932	88.21
373.158	83.41
373.384	78.01
373.61	80.41
373.835	81.61
374.061	88.01
374.287	75.21
374.513	79.01
374.739	72.01
374.965	82.61
375.191	77.21
375.416	77.41
375.642	85.61
375.868	80.01
376.094	83.61
376.319	76.21
376.545	83.21
376.771	76.41
376.997	78.01
377.222	84.61
377.448	79.01
377.674	77.41
377.899	80.41
378.125	76.01
378.35	82.81
378.576	77.01
378.802	81.41
379.027	85.61
379.253	80.21
379.478	82.81
379.704	77.21
379.929	75.81
380.155	83.61
380.38	82.01
380.606	79.81
380.831	82.41
381.057	81.01
381.282	83.01
381.507	85.61
381.733	81.21
381.958	75.01
382.184	80.61
382.409	81.01
382.634	81.01
382.86	83.81
383.085	75.61
383.31	80.21
383.535	81.41
383.761	79.41
383.986	84.81
384.211	76.21
384.436	84.61
384.662	79.81
384.887	82.21
385.112	81.81
385.337	78.21
385.562	78.41
385.787	74.21
386.013	75.41
386.238	74.81
386.463	73.41
386.688	82.01
386.913	80.61
387.138	81.01
387.363	77.81
387.588	84.21
387.813	77.01
388.038	85.61
388.263	78.61
388.488	74.81
388.713	77.41
388.938	80.81
389.163	80.21
389.387	79.21
389.612	80.41
389.837	77.81
390.062	79.41
390.287	79.41
390.512	78.61
390.736	79.41
390.961	83.41
391.186	78.81
391.411	71.81
391.636	83.61
391.86	82.81
392.085	84.61
392.31	77.21
392.534	78.61
392.759	84.81
392.984	78.21
393.208	81.21
393.433	78.81
393.658	78.41
393.882	77.41
394.107	76.01
394.331	78.61
394.556	77.01
394.78	77.41
395.005	77.21
395.229	79.01
395.454	82.21
395.678	78.01
395.903	85.41
396.127	77.41
396.352	76.61
396.576	77.61
396.801	79.81
397.025	82.01
397.249	75.21
397.474	81.21
397.698	78.01
397.922	81.61
398.147	74.01
398.371	76.61
398.595	76.41
398.82	77.01
399.044	85.21
399.268	81.41
399.492	73.61
399.717	82.41
399.941	77.61
400.165	77.61
400.389	80.61
400.613	76.61
400.837	76.61
401.062	82.01
401.286	83.61
401.51	83.21
401.734	73.61
401.958	83.01
402.182	80.81
402.406	80.21
402.63	80.21
402.854	76.61
403.078	82.61
403.302	83.81
403.526	77.01
403.75	81.41
403.974	76.01
404.198	80.61
404.422	79.21
404.645	79.41
404.869	79.81
405.093	85.81
405.317	77.81
405.541	87.81
405.765	81.41
405.988	77.21
406.212	73.01
406.436	81.01
406.66	76.21
406.883	82.41
407.107	84.21
407.331	89.01
407.555	80.81
407.778	74.41
408.002	80.81
408.226	81.21
408.449	81.81
408.673	78.41
408.896	73.41
409.12	79.61
409.344	82.21
409.567	80.81
409.791	77.41
410.014	80.41
410.238	79.61
410.461	77.41
410.685	81.21
410.908	82.21
411.132	80.61
411.355	79.41
411.578	77.21
411.802	80.01
412.025	77.41
412.249	72.01
412.472	83.81
412.695	80.21
412.919	83.01
413.142	79.61
413.365	76.61
413.589	74.81
413.812	78.21
414.035	82.01
414.258	82.01
414.482	74.21
414.705	76.61
414.928	85.61
415.151	80.61
415.374	76.01
415.597	76.61
415.821	82.41
416.044	77.61
416.267	77.41
416.49	78.01
416.713	81.21
416.936	74.81
417.159	78.21
417.382	79.01
417.605	81.01
417.828	80.41
418.051	82.01
418.274	85.01
418.497	80.21
418.72	78.41
418.943	76.01
419.166	79.41
419.389	78.81
419.611	74.81
419.834	83.41
420.057	78.01
420.28	75.81
420.503	82.01
420.726	89.81
420.948	79.41
421.171	72.21
421.394	82.21
421.617	75.01
421.839	82.01
422.062	72.01
422.285	71.81
422.507	83.21
422.73	77.01
422.953	73.21
423.175	78.41
423.398	81.01
423.621	79.21
423.843	80.01
424.066	81.01
424.288	76.41
424.511	81.21
424.733	83.61
424.956	80.41
425.178	83.41
425.401	79.21
425.623	77.81
425.846	77.41
426.068	81.41
426.291	77.81
426.513	83.61
426.735	73.41
426.958	76.81
427.18	78.41
427.402	79.21
427.625	70.41
427.847	76.21
428.069	75.61
428.292	79.21
428.514	68.21
428.736	76.61
428.958	77.01
429.181	73.61
429.403	81.41
429.625	84.21
429.847	78.81
430.069	83.21
430.292	79.01
430.514	69.81
430.736	77.61
430.958	80.61
431.18	82.61
431.402	79.21
431.624	81.41
431.846	82.01
432.068	80.61
432.29	82.01
432.512	83.61
432.734	81.41
432.956	80.01
433.178	82.41
433.4	86.81
433.622	76.21
433.844	80.61
434.066	81.21
434.287	77.01
434.509	82.81
434.731	75.81
434.953	74.61
435.175	77.81
435.397	77.81
435.618	79.61
435.84	76.01
436.062	80.01
436.284	86.41
436.505	83.61
436.727	83.21
436.949	79.21
437.17	78.01
437.392	73.61
437.614	79.01
437.835	80.01
438.057	82.61
438.278	77.21
438.5	75.21
438.721	79.21
438.943	85.81
439.165	81.01
439.386	74.81
439.608	84.01
439.829	79.61
440.05	80.61
440.272	78.81
440.493	76.21
440.715	82.41
440.936	77.61
441.158	76.61
441.379	79.21
441.6	78.01
441.822	77.41
442.043	75.61
442.264	75.41
442.486	78.81
442.707	82.81
442.928	83.01
443.149	79.01
443.371	79.61
443.592	77.01
443.813	78.21
444.034	80.41
444.255	85.81
444.476	77.21
444.698	74.61
444.919	74.81
445.14	89.21
445.361	87.41
445.582	78.81
445.803	75.61
446.024	83.01
446.245	85.21
446.466	72.61
446.687	77.01
446.908	77.81
447.129	87.61
447.35	80.41
447.571	77.61
447.792	79.01
448.013	78.41
448.234	79.61
448.455	79.21
448.675	84.01
448.896	77.41
449.117	77.21
449.338	80.01
449.559	82.01
449.779	81.41
450	86.21
450.221	77.01
450.442	80.61
450.662	73.61
450.883	79.61
451.104	79.61
451.324	82.41
451.545	82.61
451.766	74.41
451.986	76.81
452.207	74.61
452.428	78.21
452.648	75.21
452.869	82.41
453.089	73.41
453.31	75.61
453.53	71.61
453.751	80.81
453.971	81.01
454.192	78.21
454.412	72.61
454.633	75.61
454.853	81.81
455.073	78.61
455.294	75.61
455.514	79.01
455.734	70.61
455.955	81.81
456.175	74.21
456.395	75.61
456.616	83.21
456.836	75.41
457.056	76.01
457.276	82.81
457.497	77.61
457.717	79.61
457.937	77.81
458.157	81.21
458.377	73.41
458.598	74.21
458.818	78.61
459.038	81.01
459.258	84.61
459.478	84.61
459.698	74.41
459.918	78.21
460.138	79.61
460.358	80.81
460.578	80.61
460.798	82.81
461.018	82.01
461.238	75.21
461.458	79.21
461.678	80.01
461.898	75.81
462.118	73.81
462.338	81.21
462.558	74.01
462.777	84.01
462.997	76.61
463.217	76.01
463.437	78.01
463.657	72.61
463.876	82.01
464.096	79.41
464.316	76.81
464.536	73.01
464.755	80.01
464.975	80.61
465.195	79.41
465.414	77.21
465.634	82.41
465.854	86.41
466.073	83.41
466.293	82.41
466.512	81.21
466.732	77.61
466.951	77.21
467.171	78.81
467.391	77.41
467.61	80.21
467.829	76.21
468.049	79.41
468.268	74.41
468.488	71.01
468.707	80.01
468.927	77.61
469.146	78.81
469.365	77.21
469.585	77.01
469.804	80.41
470.023	79.01
470.243	75.21
470.462	70.01
470.681	79.41
470.901	82.41
471.12	80.81
471.339	79.61
471.558	81.81
471.777	81.61
471.997	83.01
472.216	84.01
472.435	84.61
472.654	87.61
472.873	88.41
473.092	75.21
473.311	76.81
473.53	75.01
473.749	83.81
473.968	83.81
474.187	83.21
474.406	79.41
474.625	74.21
474.844	81.21
475.063	82.21
475.282	80.81
475.501	73.81
475.72	82.81
475.939	80.81
476.158	74.81
476.377	84.61
476.596	80.41
476.814	78.81
477.033	76.61
477.252	81.41
477.471	85.21
477.69	78.41
477.908	80.21
478.127	80.41
478.346	81.01
478.564	76.01
478.783	82.81
479.002	83.21
479.22	78.81
479.439	73.21
479.658	80.61
479.876	74.81
480.095	76.81
480.313	77.81
480.532	87.81
480.751	87.21
480.969	75.81
481.188	79.01
481.406	82.01
481.624	73.61
481.843	77.21
482.061	72.81
482.28	74.61
482.498	82.61
482.717	75.41
482.935	81.61
483.153	79.81
483.372	81.21
483.59	81.21
483.808	77.21
484.027	78.61
484.245	79.81
484.463	80.21
484.681	80.01
484.9	78.01
485.118	80.21
485.336	81.01
485.554	75.21
485.772	70.81
485.99	77.41
486.209	78.01
486.427	84.41
486.645	78.81
486.863	72.01
487.081	79.01
487.299	85.01
487.517	81.21
487.735	76.01
487.953	80.61
488.171	84.61
488.389	82.81
488.607	85.01
488.825	73.01
489.043	73.21
489.261	79.41
489.479	78.01
489.696	76.21
489.914	79.21
490.132	79.21
490.35	80.41
490.568	82.21
490.786	84.01
491.003	75.61
491.221	85.41
491.439	73.81
491.657	73.21
491.874	85.21
492.092	83.01
492.31	79.81
492.527	81.41
492.745	76.81
492.963	76.61
493.18	77.81
493.398	79.81
493.615	78.21
493.833	82.41
494.05	81.21
494.268	86.01
494.485	79.61
494.703	79.01
494.92	76.61
495.138	76.41
495.355	82.21
495.573	76.01
495.79	80.01
496.008	81.01
496.225	81.81
496.442	80.61
496.66	82.41
496.877	80.01
497.094	78.81
497.312	75.21
497.529	80.61
497.746	90.21
497.963	80.41
498.181	82.21
498.398	77.81
498.615	78.21
498.832	78.81
499.049	76.41
499.267	78.61
499.484	72.81
499.701	86.61
499.918	81.01
500.135	85.61
500.352	85.81
500.569	81.81
500.786	81.61
501.003	86.81
501.22	82.01
501.437	77.21
501.654	85.81
501.871	79.01
502.088	78.81
502.305	81.01
502.522	76.21
502.739	82.61
502.956	87.21
503.172	80.41
503.389	81.41
503.606	80.21
503.823	75.81
504.04	82.21
504.256	79.01
504.473	73.01
504.69	82.41
504.907	79.41
505.123	74.01
505.34	77.21
505.557	80.21
505.773	79.01
505.99	77.41
506.207	84.21
506.423	80.41
506.64	78.61
506.856	81.61
507.073	79.81
507.289	74.21
507.506	83.01
507.722	83.01
507.939	82.81
508.155	80.41
508.372	80.21
508.588	81.41
508.805	84.41
509.021	80.21
509.238	78.01
509.454	79.01
509.67	83.01
509.887	73.01
510.103	81.41
510.319	72.01
510.536	84.61
510.752	78.61
510.968	81.81
511.184	88.81
511.401	86.21
511.617	80.21
511.833	78.61
512.049	75.41
512.265	84.81
512.481	80.21
512.698	83.61
512.914	85.01
513.13	86.21
513.346	77.81
513.562	73.01
513.778	82.21
513.994	86.41
514.21	74.21
514.426	82.21
514.642	81.01
514.858	82.81
515.074	80.01
515.29	81.21
515.506	88.21
515.721	80.21
515.937	81.41
516.153	82.81
516.369	78.61
516.585	82.01
516.801	83.01
517.016	85.61
517.232	87.81
517.448	82.41
517.664	81.61
517.879	85.61
518.095	73.81
518.311	78.01
518.527	82.61
518.742	77.21
518.958	77.81
519.173	85.01
519.389	77.61
519.605	76.21
519.82	85.01
520.036	78.61
520.251	83.21
