Data from TenMicroDelayPb_HRD10591_00018.txt Node
Date: Mon Nov 24 14:34:28 EST 2025
User: Yrep
Spectrometer: HR+D1059
Trigger mode: 0
Integration Time (sec): 1.000000E-2
Scans to average: 5
Electric dark correction enabled: true
Nonlinearity correction enabled: false
Boxcar width: 0
XAxis mode: Wavelengths
Number of Pixels in Spectrum: 2048
>>>>>Begin Spectral Data<<<<<
223.165	-17.68
223.4	-17.68
223.635	-17.68
223.869	-18.48
224.104	-12.88
224.338	-15.08
224.573	-14.48
224.808	-8.08
225.042	-8.28
225.277	-10.88
225.511	-4.68
225.746	2.52
225.98	6.52
226.215	7.52
226.449	14.12
226.683	23.32
226.918	26.52
227.152	29.92
227.387	34.52
227.621	43.52
227.856	48.32
228.09	45.32
228.324	49.52
228.559	55.72
228.793	56.72
229.027	58.92
229.262	64.12
229.496	75.12
229.73	69.12
229.964	64.92
230.199	68.92
230.433	68.72
230.667	81.12
230.901	79.12
231.136	73.12
231.37	75.32
231.604	79.72
231.838	74.72
232.072	81.52
232.306	81.72
232.541	83.32
232.775	83.32
233.009	79.32
233.243	79.32
233.477	80.92
233.711	80.92
233.945	76.12
234.179	79.92
234.413	76.12
234.647	84.72
234.881	78.12
235.115	79.32
235.349	81.92
235.583	79.12
235.817	76.52
236.051	78.72
236.285	72.72
236.519	82.72
236.753	78.12
236.987	77.12
237.221	73.92
237.455	77.92
237.689	78.52
237.922	75.72
238.156	75.92
238.39	77.72
238.624	71.52
238.858	78.92
239.091	71.32
239.325	75.92
239.559	74.52
239.793	75.92
240.027	79.72
240.26	73.12
240.494	76.12
240.728	75.92
240.961	68.92
241.195	76.12
241.429	72.52
241.662	81.92
241.896	76.92
242.13	78.72
242.363	79.72
242.597	71.12
242.83	79.52
243.064	77.52
243.298	76.32
243.531	80.72
243.765	70.32
243.998	76.52
244.232	79.52
244.465	78.72
244.699	79.92
244.932	74.52
245.166	75.32
245.399	70.52
245.633	75.12
245.866	73.52
246.099	75.72
246.333	69.92
246.566	73.12
246.8	78.32
247.033	77.12
247.266	71.52
247.5	75.92
247.733	82.92
247.966	72.52
248.2	78.52
248.433	72.92
248.666	75.12
248.899	77.12
249.133	75.72
249.366	82.92
249.599	76.32
249.832	77.12
250.066	82.12
250.299	76.52
250.532	79.72
250.765	78.12
250.998	76.52
251.231	82.32
251.465	74.72
251.698	73.72
251.931	73.72
252.164	78.72
252.397	76.52
252.63	77.32
252.863	78.12
253.096	73.32
253.329	76.12
253.562	77.32
253.795	74.72
254.028	77.72
254.261	77.72
254.494	81.32
254.727	77.72
254.96	81.32
255.193	72.12
255.426	82.52
255.659	78.52
255.892	83.32
256.124	83.52
256.357	78.92
256.59	71.52
256.823	80.52
257.056	83.32
257.289	77.12
257.521	79.72
257.754	79.72
257.987	79.72
258.22	81.72
258.452	81.12
258.685	80.72
258.918	75.72
259.151	75.12
259.383	81.12
259.616	73.92
259.849	76.52
260.081	76.12
260.314	77.32
260.547	78.32
260.779	83.12
261.012	80.92
261.244	79.92
261.477	79.72
261.71	79.72
261.942	79.32
262.175	73.32
262.407	80.52
262.64	78.92
262.872	78.32
263.105	76.92
263.337	79.32
263.57	81.12
263.802	82.72
264.035	70.12
264.267	79.52
264.499	77.92
264.732	81.92
264.964	83.12
265.197	80.32
265.429	78.32
265.661	77.52
265.894	78.32
266.126	74.12
266.358	80.52
266.591	80.92
266.823	84.92
267.055	80.72
267.287	83.92
267.52	85.92
267.752	84.12
267.984	76.52
268.216	80.92
268.448	82.32
268.681	78.72
268.913	84.32
269.145	83.92
269.377	80.12
269.609	78.32
269.841	82.72
270.073	80.52
270.306	86.92
270.538	80.52
270.77	79.92
271.002	80.12
271.234	83.12
271.466	84.92
271.698	85.12
271.93	80.12
272.162	82.52
272.394	78.92
272.626	84.72
272.858	86.32
273.09	79.12
273.322	84.92
273.553	82.72
273.785	83.32
274.017	83.12
274.249	91.32
274.481	82.12
274.713	79.52
274.945	77.52
275.176	82.52
275.408	82.52
275.64	81.32
275.872	82.72
276.104	82.92
276.335	83.12
276.567	76.92
276.799	87.32
277.031	84.92
277.262	85.12
277.494	88.52
277.726	80.12
277.957	82.32
278.189	86.92
278.421	82.72
278.652	85.92
278.884	84.32
279.115	79.32
279.347	79.32
279.579	79.92
279.81	77.52
280.042	79.12
280.273	82.52
280.505	77.12
280.736	82.32
280.968	84.32
281.199	85.52
281.431	77.32
281.662	83.32
281.894	79.92
282.125	82.52
282.356	85.72
282.588	79.32
282.819	86.32
283.051	81.12
283.282	80.72
283.513	77.12
283.745	81.52
283.976	82.12
284.207	80.12
284.439	81.92
284.67	78.72
284.901	81.12
285.132	86.32
285.364	84.12
285.595	87.72
285.826	82.32
286.057	84.92
286.288	88.12
286.52	85.92
286.751	82.52
286.982	82.32
287.213	82.72
287.444	86.72
287.675	80.12
287.906	81.72
288.138	88.12
288.369	86.52
288.6	81.12
288.831	85.72
289.062	86.72
289.293	85.72
289.524	86.12
289.755	82.92
289.986	81.32
290.217	80.12
290.448	89.12
290.679	85.72
290.91	84.92
291.141	84.12
291.371	82.12
291.602	77.12
291.833	84.72
292.064	86.92
292.295	78.72
292.526	80.12
292.757	83.52
292.987	86.72
293.218	79.72
293.449	80.92
293.68	86.72
293.91	80.32
294.141	79.52
294.372	85.12
294.603	85.72
294.833	87.12
295.064	84.52
295.295	81.72
295.525	85.52
295.756	89.92
295.987	83.12
296.217	83.32
296.448	82.72
296.679	87.12
296.909	84.92
297.14	88.32
297.37	82.12
297.601	87.72
297.831	86.72
298.062	85.72
298.292	84.72
298.523	78.32
298.753	84.72
298.984	84.32
299.214	80.12
299.445	82.52
299.675	84.12
299.905	79.12
300.136	78.92
300.366	81.32
300.597	83.72
300.827	84.12
301.057	80.32
301.288	78.12
301.518	84.92
301.748	79.52
301.979	85.32
302.209	85.92
302.439	79.12
302.669	81.92
302.9	80.92
303.13	83.52
303.36	85.72
303.59	85.72
303.82	88.12
304.051	74.92
304.281	91.72
304.511	85.92
304.741	86.72
304.971	81.92
305.201	84.92
305.431	80.12
305.661	77.72
305.891	82.12
306.121	85.32
306.352	81.32
306.582	78.72
306.812	85.32
307.042	83.52
307.272	81.12
307.502	84.32
307.731	81.92
307.961	88.92
308.191	77.92
308.421	86.32
308.651	84.92
308.881	85.32
309.111	79.12
309.341	80.32
309.571	86.32
309.8	84.12
310.03	85.72
310.26	85.52
310.49	85.52
310.72	81.72
310.949	83.32
311.179	75.92
311.409	89.72
311.639	79.92
311.868	84.52
312.098	90.32
312.328	84.92
312.557	84.32
312.787	83.72
313.017	86.12
313.246	85.72
313.476	82.52
313.706	74.92
313.935	85.32
314.165	77.92
314.394	80.72
314.624	81.12
314.853	79.52
315.083	82.12
315.312	85.72
315.542	81.52
315.771	84.92
316.001	87.52
316.23	84.72
316.46	89.52
316.689	82.52
316.919	90.92
317.148	83.52
317.377	83.32
317.607	83.92
317.836	79.72
318.065	83.12
318.295	82.92
318.524	83.72
318.753	85.72
318.983	85.12
319.212	86.92
319.441	90.92
319.67	90.12
319.9	89.72
320.129	91.52
320.358	85.72
320.587	82.52
320.816	78.92
321.046	82.32
321.275	88.92
321.504	85.72
321.733	83.92
321.962	84.12
322.191	79.92
322.42	82.12
322.649	82.72
322.878	80.12
323.108	84.72
323.337	84.52
323.566	87.92
323.795	85.92
324.024	87.32
324.253	86.72
324.482	85.32
324.71	80.12
324.939	86.32
325.168	87.52
325.397	84.92
325.626	84.12
325.855	83.92
326.084	87.32
326.313	78.92
326.542	85.72
326.77	86.12
326.999	88.32
327.228	83.32
327.457	90.52
327.686	83.32
327.914	85.72
328.143	82.72
328.372	80.92
328.6	79.52
328.829	84.32
329.058	78.92
329.287	83.72
329.515	84.52
329.744	80.52
329.972	80.92
330.201	84.12
330.43	80.92
330.658	79.32
330.887	81.32
331.115	82.72
331.344	80.72
331.572	85.12
331.801	84.12
332.03	82.52
332.258	80.32
332.486	84.72
332.715	83.32
332.943	84.32
333.172	79.12
333.4	77.52
333.629	85.12
333.857	80.32
334.085	86.72
334.314	84.12
334.542	81.92
334.771	83.52
334.999	84.52
335.227	91.72
335.455	86.72
335.684	76.12
335.912	89.12
336.14	81.32
336.369	86.92
336.597	86.72
336.825	88.52
337.053	84.92
337.281	85.32
337.51	79.92
337.738	78.32
337.966	80.12
338.194	78.32
338.422	81.72
338.65	85.12
338.878	83.52
339.106	85.92
339.334	78.72
339.562	84.72
339.79	83.72
340.018	80.12
340.246	83.72
340.474	88.32
340.702	88.72
340.93	83.32
341.158	88.52
341.386	83.52
341.614	85.12
341.842	82.92
342.07	77.72
342.298	79.12
342.526	80.92
342.754	79.52
342.981	84.12
343.209	79.32
343.437	85.72
343.665	80.52
343.893	84.32
344.12	78.72
344.348	81.52
344.576	79.52
344.804	90.92
345.031	77.52
345.259	83.12
345.487	87.52
345.714	86.72
345.942	84.92
346.17	85.92
346.397	88.12
346.625	88.52
346.853	82.32
347.08	81.72
347.308	82.32
347.535	84.52
347.763	82.32
347.99	81.32
348.218	82.72
348.445	81.12
348.673	86.52
348.9	79.72
349.128	89.12
349.355	81.72
349.583	70.92
349.81	81.32
350.037	81.92
350.265	76.32
350.492	83.92
350.72	86.32
350.947	82.12
351.174	85.72
351.402	82.72
351.629	81.52
351.856	83.52
352.083	81.92
352.311	81.52
352.538	75.72
352.765	83.12
352.992	80.92
353.22	84.32
353.447	81.52
353.674	85.12
353.901	82.32
354.128	82.52
354.355	84.92
354.583	86.32
354.81	84.12
355.037	85.52
355.264	83.72
355.491	81.92
355.718	84.72
355.945	84.52
356.172	83.72
356.399	80.32
356.626	85.52
356.853	89.32
357.08	83.72
357.307	85.32
357.534	84.92
357.761	79.32
357.988	84.12
358.215	82.92
358.441	84.32
358.668	80.92
358.895	82.32
359.122	80.12
359.349	81.92
359.576	80.12
359.802	80.92
360.029	78.32
360.256	86.92
360.483	79.12
360.709	81.92
360.936	84.52
361.163	78.32
361.39	85.92
361.616	82.92
361.843	81.12
362.07	82.12
362.296	83.52
362.523	77.32
362.749	82.92
362.976	86.12
363.203	82.12
363.429	85.72
363.656	84.12
363.882	85.12
364.109	87.12
364.335	87.12
364.562	74.92
364.788	76.72
365.015	88.12
365.241	86.52
365.468	73.52
365.694	81.32
365.92	80.32
366.147	86.12
366.373	84.32
366.599	86.92
366.826	86.92
367.052	85.32
367.278	74.32
367.505	78.52
367.731	87.92
367.957	80.92
368.184	85.92
368.41	83.12
368.636	79.32
368.862	79.92
369.089	81.92
369.315	82.72
369.541	76.72
369.767	79.72
369.993	77.12
370.219	83.12
370.445	84.32
370.672	79.12
370.898	85.32
371.124	85.12
371.35	80.52
371.576	84.72
371.802	83.52
372.028	78.52
372.254	80.52
372.48	76.32
372.706	83.72
372.932	77.52
373.158	85.32
373.384	84.92
373.61	81.52
373.835	82.52
374.061	81.72
374.287	84.92
374.513	85.52
374.739	89.72
374.965	86.92
375.191	76.92
375.416	82.12
375.642	78.52
375.868	83.52
376.094	83.92
376.319	83.52
376.545	80.52
376.771	79.32
376.997	81.32
377.222	81.32
377.448	77.52
377.674	78.12
377.899	74.52
378.125	83.32
378.35	81.32
378.576	84.92
378.802	89.92
379.027	77.92
379.253	85.32
379.478	80.32
379.704	82.52
379.929	82.92
380.155	78.92
380.38	84.72
380.606	76.32
380.831	80.52
381.057	85.12
381.282	83.52
381.507	80.92
381.733	75.52
381.958	84.52
382.184	79.12
382.409	79.12
382.634	87.32
382.86	81.52
383.085	76.92
383.31	83.32
383.535	78.52
383.761	77.32
383.986	72.12
384.211	78.92
384.436	77.72
384.662	83.12
384.887	79.52
385.112	80.92
385.337	81.72
385.562	80.92
385.787	85.32
386.013	80.12
386.238	75.92
386.463	81.72
386.688	75.12
386.913	80.72
387.138	84.32
387.363	83.52
387.588	79.52
387.813	76.32
388.038	78.52
388.263	77.72
388.488	80.92
388.713	80.92
388.938	83.92
389.163	82.52
389.387	83.72
389.612	78.92
389.837	83.32
390.062	81.52
390.287	80.72
390.512	86.32
390.736	89.52
390.961	90.92
391.186	88.32
391.411	78.52
391.636	86.32
391.86	80.72
392.085	85.52
392.31	83.92
392.534	85.52
392.759	83.12
392.984	77.52
393.208	83.52
393.433	81.12
393.658	85.72
393.882	79.52
394.107	79.52
394.331	76.52
394.556	82.72
394.78	80.72
395.005	72.72
395.229	76.12
395.454	84.12
395.678	81.52
395.903	79.12
396.127	75.52
396.352	81.32
396.576	85.72
396.801	83.52
397.025	78.12
397.249	84.72
397.474	82.12
397.698	77.32
397.922	75.92
398.147	83.12
398.371	81.72
398.595	78.52
398.82	81.32
399.044	83.52
399.268	85.52
399.492	80.72
399.717	83.72
399.941	77.72
400.165	85.12
400.389	78.12
400.613	76.52
400.837	76.72
401.062	79.12
401.286	79.52
401.51	84.92
401.734	84.92
401.958	80.72
402.182	78.92
402.406	83.12
402.63	81.12
402.854	73.72
403.078	78.12
403.302	77.72
403.526	78.72
403.75	79.32
403.974	79.52
404.198	88.92
404.422	77.72
404.645	75.32
404.869	79.52
405.093	80.72
405.317	77.12
405.541	82.32
405.765	80.32
405.988	78.32
406.212	80.12
406.436	85.72
406.66	76.52
406.883	80.52
407.107	80.52
407.331	77.92
407.555	81.52
407.778	78.52
408.002	77.12
408.226	86.72
408.449	77.52
408.673	80.72
408.896	80.72
409.12	86.72
409.344	74.52
409.567	81.12
409.791	80.72
410.014	80.52
410.238	88.92
410.461	73.52
410.685	75.12
410.908	77.72
411.132	80.52
411.355	81.92
411.578	78.92
411.802	74.52
412.025	81.52
412.249	77.32
412.472	81.32
412.695	82.52
412.919	82.92
413.142	79.92
413.365	79.72
413.589	82.72
413.812	79.12
414.035	84.32
414.258	81.72
414.482	80.92
414.705	75.12
414.928	78.92
415.151	77.32
415.374	72.32
415.597	83.72
415.821	78.12
416.044	75.72
416.267	82.12
416.49	81.12
416.713	84.72
416.936	80.12
417.159	77.52
417.382	79.12
417.605	80.52
417.828	77.12
418.051	79.12
418.274	82.92
418.497	81.72
418.72	73.52
418.943	80.12
419.166	83.92
419.389	78.72
419.611	75.32
419.834	81.32
420.057	82.32
420.28	85.52
420.503	78.92
420.726	79.52
420.948	80.12
421.171	81.12
421.394	78.12
421.617	78.72
421.839	82.52
422.062	80.92
422.285	78.32
422.507	74.12
422.73	76.52
422.953	71.72
423.175	71.72
423.398	76.72
423.621	79.52
423.843	80.92
424.066	79.52
424.288	74.92
424.511	79.92
424.733	82.52
424.956	78.32
425.178	86.12
425.401	73.12
425.623	83.32
425.846	84.12
426.068	79.92
426.291	77.52
426.513	81.52
426.735	79.32
426.958	81.72
427.18	82.32
427.402	77.32
427.625	83.12
427.847	85.12
428.069	89.32
428.292	75.92
428.514	74.92
428.736	76.72
428.958	79.32
429.181	83.32
429.403	76.12
429.625	81.32
429.847	76.32
430.069	80.32
430.292	80.52
430.514	80.12
430.736	80.72
430.958	80.32
431.18	82.52
431.402	75.12
431.624	79.72
431.846	79.52
432.068	83.12
432.29	79.12
432.512	82.12
432.734	74.52
432.956	82.32
433.178	80.72
433.4	81.32
433.622	79.92
433.844	82.92
434.066	80.12
434.287	82.32
434.509	81.72
434.731	77.52
434.953	81.32
435.175	78.72
435.397	81.52
435.618	74.32
435.84	84.72
436.062	78.12
436.284	81.92
436.505	78.32
436.727	79.52
436.949	81.92
437.17	87.72
437.392	81.52
437.614	72.32
437.835	81.92
438.057	76.12
438.278	85.52
438.5	82.52
438.721	78.12
438.943	81.12
439.165	79.32
439.386	79.92
439.608	85.92
439.829	79.72
440.05	80.72
440.272	82.92
440.493	74.52
440.715	83.12
440.936	84.72
441.158	84.72
441.379	78.92
441.6	79.72
441.822	81.92
442.043	76.72
442.264	76.52
442.486	80.32
442.707	78.32
442.928	74.32
443.149	80.32
443.371	76.32
443.592	80.12
443.813	79.52
444.034	76.92
444.255	86.32
444.476	80.72
444.698	85.12
444.919	80.52
445.14	84.72
445.361	84.12
445.582	82.12
445.803	86.32
446.024	82.12
446.245	87.92
446.466	73.92
446.687	75.92
446.908	81.72
447.129	77.92
447.35	82.32
447.571	80.72
447.792	80.72
448.013	78.92
448.234	81.32
448.455	86.72
448.675	80.32
448.896	79.32
449.117	76.32
449.338	79.32
449.559	80.92
449.779	75.72
450	85.12
450.221	80.12
450.442	81.32
450.662	83.52
450.883	78.72
451.104	77.92
451.324	78.12
451.545	85.52
451.766	79.72
451.986	77.52
452.207	78.92
452.428	82.32
452.648	79.12
452.869	81.92
453.089	86.12
453.31	78.52
453.53	82.32
453.751	80.12
453.971	79.52
454.192	81.72
454.412	78.72
454.633	77.92
454.853	76.72
455.073	78.92
455.294	77.72
455.514	83.32
455.734	75.52
455.955	79.12
456.175	74.72
456.395	80.72
456.616	83.32
456.836	79.12
457.056	76.92
457.276	78.12
457.497	71.52
457.717	82.92
457.937	74.72
458.157	84.32
458.377	82.92
458.598	79.92
458.818	78.12
459.038	82.92
459.258	83.52
459.478	91.32
459.698	73.92
459.918	78.72
460.138	76.52
460.358	81.12
460.578	82.52
460.798	78.12
461.018	80.32
461.238	77.72
461.458	78.52
461.678	74.92
461.898	80.92
462.118	84.12
462.338	83.92
462.558	84.72
462.777	78.92
462.997	87.52
463.217	77.12
463.437	78.52
463.657	83.52
463.876	89.72
464.096	77.92
464.316	70.92
464.536	80.92
464.755	80.92
464.975	78.92
465.195	82.52
465.414	78.72
465.634	80.12
465.854	81.52
466.073	80.72
466.293	76.32
466.512	84.12
466.732	81.92
466.951	83.72
467.171	78.92
467.391	80.32
467.61	82.72
467.829	79.52
468.049	85.12
468.268	83.92
468.488	80.52
468.707	80.72
468.927	85.52
469.146	75.52
469.365	82.72
469.585	76.52
469.804	81.72
470.023	82.12
470.243	78.92
470.462	82.72
470.681	85.72
470.901	78.12
471.12	79.72
471.339	81.72
471.558	79.52
471.777	78.92
471.997	70.72
472.216	79.72
472.435	81.72
472.654	79.32
472.873	81.12
473.092	81.92
473.311	83.92
473.53	84.32
473.749	81.12
473.968	80.52
474.187	77.32
474.406	82.12
474.625	79.72
474.844	86.92
475.063	76.52
475.282	78.92
475.501	79.12
475.72	78.52
475.939	79.32
476.158	83.52
476.377	83.72
476.596	82.12
476.814	80.72
477.033	86.92
477.252	83.32
477.471	80.32
477.69	73.52
477.908	79.72
478.127	86.72
478.346	80.72
478.564	82.72
478.783	78.32
479.002	80.92
479.22	76.32
479.439	72.52
479.658	82.92
479.876	79.32
480.095	79.32
480.313	79.52
480.532	86.12
480.751	84.32
480.969	73.32
481.188	83.32
481.406	78.52
481.624	83.32
481.843	81.72
482.061	78.92
482.28	79.92
482.498	77.92
482.717	77.12
482.935	82.72
483.153	74.32
483.372	78.52
483.59	82.32
483.808	76.32
484.027	79.32
484.245	80.52
484.463	80.12
484.681	85.52
484.9	82.92
485.118	83.12
485.336	84.12
485.554	90.12
485.772	86.52
485.99	75.12
486.209	78.72
486.427	78.72
486.645	81.52
486.863	82.92
487.081	79.72
487.299	81.92
487.517	76.92
487.735	84.92
487.953	81.72
488.171	79.12
488.389	81.92
488.607	74.92
488.825	87.52
489.043	90.72
489.261	80.52
489.479	85.92
489.696	75.12
489.914	86.12
490.132	78.52
490.35	77.72
490.568	82.52
490.786	82.52
491.003	80.52
491.221	84.32
491.439	87.92
491.657	84.72
491.874	75.72
492.092	76.72
492.31	80.32
492.527	75.72
492.745	76.12
492.963	79.52
493.18	85.52
493.398	83.52
493.615	80.32
493.833	82.52
494.05	80.92
494.268	83.72
494.485	85.72
494.703	81.32
494.92	79.12
495.138	81.32
495.355	83.72
495.573	81.12
495.79	78.32
496.008	83.32
496.225	86.52
496.442	74.12
496.66	82.52
496.877	80.12
497.094	79.52
497.312	81.52
497.529	81.52
497.746	81.52
497.963	76.72
498.181	80.32
498.398	84.12
498.615	81.92
498.832	77.32
499.049	80.92
499.267	85.72
499.484	78.72
499.701	80.32
499.918	82.72
500.135	79.72
500.352	82.52
500.569	82.72
500.786	85.72
501.003	78.72
501.22	73.92
501.437	81.12
501.654	87.72
501.871	80.12
502.088	78.32
502.305	77.92
502.522	75.12
502.739	85.72
502.956	85.12
503.172	82.12
503.389	83.32
503.606	79.52
503.823	80.92
504.04	77.32
504.256	80.32
504.473	74.72
504.69	85.92
504.907	87.32
505.123	85.32
505.34	84.92
505.557	78.72
505.773	82.32
505.99	81.52
506.207	77.52
506.423	76.52
506.64	82.32
506.856	80.72
507.073	83.52
507.289	77.12
507.506	79.12
507.722	83.52
507.939	82.32
508.155	78.72
508.372	84.12
508.588	81.92
508.805	77.12
509.021	80.92
509.238	82.32
509.454	83.32
509.67	83.92
509.887	78.92
510.103	82.32
510.319	81.72
510.536	79.72
510.752	80.72
510.968	87.72
511.184	82.32
511.401	82.12
511.617	79.32
511.833	83.32
512.049	83.32
512.265	82.12
512.481	79.72
512.698	79.52
512.914	77.92
513.13	83.32
513.346	90.32
513.562	82.52
513.778	80.72
513.994	77.72
514.21	82.52
514.426	86.32
514.642	82.32
514.858	81.92
515.074	88.72
515.29	79.72
515.506	79.12
515.721	82.52
515.937	82.52
516.153	80.32
516.369	82.12
516.585	76.72
516.801	81.32
517.016	80.92
517.232	82.32
517.448	77.92
517.664	81.92
517.879	86.92
518.095	87.12
518.311	87.12
518.527	84.92
518.742	87.52
518.958	84.32
519.173	76.72
519.389	85.72
519.605	81.72
519.82	82.72
520.036	79.12
520.251	86.92
