Data from TenMicroDelayPb_HRD10591_00029.txt Node
Date: Mon Nov 24 14:34:29 EST 2025
User: Yrep
Spectrometer: HR+D1059
Trigger mode: 0
Integration Time (sec): 1.000000E-2
Scans to average: 5
Electric dark correction enabled: true
Nonlinearity correction enabled: false
Boxcar width: 0
XAxis mode: Wavelengths
Number of Pixels in Spectrum: 2048
>>>>>Begin Spectral Data<<<<<
223.165	-12.8
223.4	-12.8
223.635	-12.8
223.869	-18
224.104	-18.6
224.338	-19
224.573	-15.6
224.808	-14.4
225.042	-8.8
225.277	-4
225.511	0.8
225.746	1.6
225.98	8.4
226.215	14.2
226.449	15.2
226.683	20.4
226.918	25
227.152	25.6
227.387	34
227.621	39.6
227.856	42
228.09	44.4
228.324	48.4
228.559	56.2
228.793	55
229.027	58.4
229.262	67
229.496	67.6
229.73	64.2
229.964	71.6
230.199	68.2
230.433	63.6
230.667	76.8
230.901	79.6
231.136	74.8
231.37	82.6
231.604	78.4
231.838	74.8
232.072	84.2
232.306	85.2
232.541	88
232.775	79.4
233.009	81.4
233.243	81.6
233.477	80.6
233.711	82.2
233.945	82.4
234.179	81.4
234.413	77.8
234.647	83.4
234.881	74.6
235.115	78.4
235.349	79.2
235.583	80.8
235.817	76.6
236.051	81.2
236.285	75.4
236.519	74.2
236.753	75
236.987	76.8
237.221	76.2
237.455	75.6
237.689	75.6
237.922	76.8
238.156	79.4
238.39	87.6
238.624	79.4
238.858	75.6
239.091	68.8
239.325	78.4
239.559	75.2
239.793	78.6
240.027	76.6
240.26	74.4
240.494	74.6
240.728	81.8
240.961	76.4
241.195	78.2
241.429	78.6
241.662	75.8
241.896	69.4
242.13	80
242.363	80.4
242.597	78.2
242.83	81
243.064	73.8
243.298	72.8
243.531	76.6
243.765	71.4
243.998	80.2
244.232	76.6
244.465	73.8
244.699	78
244.932	79.4
245.166	74.4
245.399	75.4
245.633	82
245.866	75.6
246.099	79.4
246.333	83.2
246.566	75.2
246.8	78.2
247.033	81.4
247.266	73
247.5	83.2
247.733	72.2
247.966	71.4
248.2	78.6
248.433	77.2
248.666	86.4
248.899	81.2
249.133	75.2
249.366	79.4
249.599	85.4
249.832	82.8
250.066	79
250.299	81.8
250.532	75.6
250.765	79.8
250.998	84.6
251.231	83.6
251.465	78.4
251.698	77.2
251.931	81.2
252.164	76.6
252.397	77
252.63	75
252.863	84.6
253.096	83.6
253.329	79.2
253.562	70.4
253.795	83.8
254.028	77.6
254.261	82.6
254.494	77.6
254.727	79.6
254.96	78.2
255.193	83.8
255.426	80.6
255.659	80.8
255.892	80.2
256.124	75.8
256.357	81
256.59	81.2
256.823	77.6
257.056	80.4
257.289	82.8
257.521	79.4
257.754	78.2
257.987	76.6
258.22	78
258.452	75.8
258.685	83.2
258.918	80.8
259.151	79.4
259.383	76.6
259.616	77.8
259.849	81.2
260.081	85.2
260.314	81.4
260.547	79.2
260.779	87.2
261.012	87.2
261.244	80.8
261.477	81.8
261.71	83.8
261.942	80.2
262.175	85
262.407	73.2
262.64	80.4
262.872	77.6
263.105	80.2
263.337	75
263.57	79.6
263.802	83.4
264.035	83.6
264.267	75.2
264.499	81.2
264.732	73
264.964	82.6
265.197	83.4
265.429	77.6
265.661	80.8
265.894	78
266.126	74.6
266.358	80.4
266.591	77
266.823	81.4
267.055	83.6
267.287	84.8
267.52	79.2
267.752	74.8
267.984	81.8
268.216	83.4
268.448	82.2
268.681	85.2
268.913	77.2
269.145	80.2
269.377	80.8
269.609	73.6
269.841	86
270.073	83.6
270.306	86.8
270.538	85.8
270.77	81.4
271.002	84.2
271.234	83.8
271.466	82.2
271.698	83.4
271.93	80.6
272.162	83.4
272.394	78.2
272.626	88.4
272.858	80.6
273.09	83.8
273.322	82.2
273.553	82.4
273.785	80.4
274.017	85.2
274.249	84.2
274.481	82.6
274.713	83.6
274.945	80
275.176	86.6
275.408	74.8
275.64	82
275.872	85.8
276.104	85.6
276.335	80.4
276.567	84.2
276.799	85.6
277.031	85.8
277.262	83.4
277.494	74.8
277.726	80.8
277.957	81.8
278.189	81.6
278.421	79
278.652	80.8
278.884	84
279.115	81.8
279.347	85.8
279.579	83.8
279.81	81.2
280.042	83.4
280.273	82.2
280.505	85.6
280.736	78.6
280.968	88.8
281.199	81.8
281.431	80.4
281.662	85
281.894	84
282.125	84.4
282.356	85.6
282.588	80
282.819	74.8
283.051	83.8
283.282	85.8
283.513	80.6
283.745	86.4
283.976	79.8
284.207	82.4
284.439	85
284.67	82.8
284.901	85.8
285.132	83.2
285.364	80
285.595	85.2
285.826	83.8
286.057	79.4
286.288	89
286.52	79.2
286.751	79.8
286.982	78
287.213	80.6
287.444	82.8
287.675	82.8
287.906	81.6
288.138	84.4
288.369	75.4
288.6	84.2
288.831	85.2
289.062	89.4
289.293	80.2
289.524	82.4
289.755	84.6
289.986	81.8
290.217	83.4
290.448	88.8
290.679	88
290.91	87.8
291.141	84.2
291.371	79.6
291.602	82.6
291.833	83
292.064	91.6
292.295	83.2
292.526	84
292.757	83.8
292.987	79
293.218	81.4
293.449	82.4
293.68	84.6
293.91	83.8
294.141	85.4
294.372	87.6
294.603	83.8
294.833	86.6
295.064	88.2
295.295	82.8
295.525	78.2
295.756	87.2
295.987	80.6
296.217	82.6
296.448	83.8
296.679	87
296.909	90.6
297.14	88
297.37	84.2
297.601	91.2
297.831	82.2
298.062	82.6
298.292	83.2
298.523	85.4
298.753	84
298.984	84
299.214	82
299.445	83.4
299.675	87.6
299.905	81.6
300.136	81.4
300.366	79.8
300.597	85.8
300.827	85.2
301.057	86.6
301.288	78.6
301.518	83.2
301.748	82.4
301.979	87.6
302.209	78
302.439	84.8
302.669	90.4
302.9	82.6
303.13	87.4
303.36	82.2
303.59	82.6
303.82	81
304.051	83.8
304.281	80.2
304.511	87.8
304.741	88.6
304.971	87.2
305.201	78.6
305.431	83.6
305.661	83.2
305.891	91.8
306.121	83.2
306.352	84
306.582	81.4
306.812	77.6
307.042	84.8
307.272	88.2
307.502	82
307.731	87.2
307.961	88
308.191	87.6
308.421	81.8
308.651	86.6
308.881	80.4
309.111	81.8
309.341	81
309.571	85.4
309.8	77
310.03	85.4
310.26	85.8
310.49	83.8
310.72	90.6
310.949	81
311.179	89.2
311.409	92
311.639	82.4
311.868	84.8
312.098	87.2
312.328	82.8
312.557	81.6
312.787	88
313.017	85.8
313.246	85.2
313.476	83.4
313.706	79.6
313.935	85.8
314.165	90
314.394	79.2
314.624	83.2
314.853	80.2
315.083	83.8
315.312	85.6
315.542	90.4
315.771	85
316.001	80.8
316.23	84.8
316.46	86
316.689	84
316.919	83.2
317.148	81
317.377	82.6
317.607	79.6
317.836	83
318.065	79.2
318.295	86.6
318.524	84
318.753	83.2
318.983	92.8
319.212	83.4
319.441	83.6
319.67	81.6
319.9	86.2
320.129	81.6
320.358	88.6
320.587	79.6
320.816	88.4
321.046	82.8
321.275	86
321.504	81
321.733	88.4
321.962	81.6
322.191	89.8
322.42	82.8
322.649	85
322.878	89
323.108	91.8
323.337	83.6
323.566	88.6
323.795	80.4
324.024	91.6
324.253	80.2
324.482	83.8
324.71	84.2
324.939	82.2
325.168	84
325.397	81.8
325.626	85.2
325.855	82.8
326.084	82.4
326.313	88.2
326.542	85.4
326.77	90
326.999	84.6
327.228	82.2
327.457	83.2
327.686	85.4
327.914	87.2
328.143	91.8
328.372	84.8
328.6	86
328.829	86.6
329.058	85.4
329.287	82.6
329.515	83
329.744	82.6
329.972	83
330.201	82
330.43	79.6
330.658	87.6
330.887	76.8
331.115	86.2
331.344	85.4
331.572	81
331.801	88
332.03	82.6
332.258	83.6
332.486	85.2
332.715	82
332.943	85
333.172	78.6
333.4	86.4
333.629	88.8
333.857	88.2
334.085	82.4
334.314	86.6
334.542	81.6
334.771	79.8
334.999	89.4
335.227	84.2
335.455	86.4
335.684	84.4
335.912	84.6
336.14	79.6
336.369	84.4
336.597	87.6
336.825	86.6
337.053	86.4
337.281	80.4
337.51	83.2
337.738	85.2
337.966	85.2
338.194	81
338.422	90.4
338.65	88.2
338.878	85.8
339.106	84.2
339.334	85
339.562	83
339.79	88.2
340.018	87.6
340.246	84.4
340.474	88.6
340.702	87.8
340.93	80.4
341.158	84.4
341.386	82.8
341.614	88.4
341.842	92.4
342.07	90
342.298	83.8
342.526	79.8
342.754	78.8
342.981	88.8
343.209	80.2
343.437	81.6
343.665	83.2
343.893	83.2
344.12	80.4
344.348	82.6
344.576	84.2
344.804	87
345.031	87.8
345.259	81.2
345.487	88
345.714	82.8
345.942	89.6
346.17	86.4
346.397	87.2
346.625	82.6
346.853	86.4
347.08	91
347.308	87.2
347.535	85.6
347.763	81.8
347.99	82.8
348.218	85.8
348.445	81
348.673	85.6
348.9	81.4
349.128	85.8
349.355	89
349.583	88.2
349.81	87.4
350.037	88.2
350.265	81.4
350.492	83.6
350.72	77.2
350.947	82
351.174	84
351.402	82
351.629	80.4
351.856	84.8
352.083	84
352.311	87.8
352.538	84.8
352.765	75.6
352.992	85.4
353.22	85.6
353.447	82.4
353.674	92.8
353.901	88.6
354.128	85.6
354.355	85.8
354.583	85.6
354.81	82.2
355.037	79
355.264	90.2
355.491	86
355.718	80
355.945	87
356.172	81.8
356.399	81.8
356.626	83.2
356.853	84
357.08	79.2
357.307	81
357.534	81.2
357.761	82
357.988	89
358.215	82.8
358.441	82.2
358.668	83
358.895	87.4
359.122	91
359.349	88.8
359.576	85.2
359.802	85.6
360.029	82.8
360.256	75.6
360.483	80
360.709	80
360.936	89.8
361.163	79.8
361.39	82.4
361.616	82.2
361.843	84
362.07	80
362.296	84.2
362.523	81.4
362.749	77.6
362.976	87.4
363.203	87
363.429	81
363.656	84.6
363.882	78
364.109	80
364.335	77.4
364.562	80.8
364.788	83.6
365.015	82.2
365.241	84.2
365.468	83.4
365.694	82.8
365.92	92.8
366.147	83.8
366.373	84.2
366.599	79.6
366.826	85.8
367.052	75.8
367.278	88.2
367.505	85
367.731	83.6
367.957	77.4
368.184	79.8
368.41	79
368.636	83.6
368.862	85
369.089	81.6
369.315	86.8
369.541	82.4
369.767	86.2
369.993	82
370.219	77
370.445	83.8
370.672	92.4
370.898	87.6
371.124	81.2
371.35	80.2
371.576	86.2
371.802	89.4
372.028	71.8
372.254	81.6
372.48	88
372.706	80.2
372.932	78.4
373.158	85.2
373.384	83.4
373.61	78.8
373.835	84.2
374.061	85.2
374.287	80.8
374.513	84.4
374.739	81.8
374.965	78.6
375.191	83.2
375.416	76
375.642	83.6
375.868	84.4
376.094	78.2
376.319	85.6
376.545	76.8
376.771	78.6
376.997	78.4
377.222	82
377.448	78.2
377.674	80.8
377.899	81.2
378.125	86.4
378.35	86.8
378.576	84.2
378.802	85
379.027	83.8
379.253	81.4
379.478	80.2
379.704	77
379.929	79.2
380.155	80.2
380.38	78.6
380.606	81.8
380.831	77.8
381.057	85
381.282	83.8
381.507	84.2
381.733	78
381.958	80.2
382.184	85.8
382.409	83.8
382.634	82.6
382.86	82
383.085	83
383.31	82.6
383.535	83.4
383.761	82.2
383.986	85.2
384.211	84
384.436	84.4
384.662	82.6
384.887	78.6
385.112	81.8
385.337	83.4
385.562	85.2
385.787	73.8
386.013	84.4
386.238	83.2
386.463	81.2
386.688	87.8
386.913	82.8
387.138	85.2
387.363	83.8
387.588	79.2
387.813	89.6
388.038	80.4
388.263	82.4
388.488	84.6
388.713	83.8
388.938	78.4
389.163	82.4
389.387	77.4
389.612	85.2
389.837	83.6
390.062	80
390.287	81.2
390.512	77.4
390.736	86.6
390.961	83
391.186	87.4
391.411	89.2
391.636	75.2
391.86	81.4
392.085	84.8
392.31	86.6
392.534	82.6
392.759	83.4
392.984	81.2
393.208	81.2
393.433	82
393.658	81.4
393.882	78.8
394.107	76
394.331	84.6
394.556	84.4
394.78	76.8
395.005	78
395.229	85.2
395.454	79.4
395.678	83.2
395.903	81.4
396.127	82.4
396.352	88
396.576	83.8
396.801	79.8
397.025	85.2
397.249	89.2
397.474	82.2
397.698	78
397.922	83.6
398.147	84.2
398.371	79.6
398.595	74.6
398.82	84.6
399.044	79
399.268	84.2
399.492	80.6
399.717	79.4
399.941	84.8
400.165	77
400.389	80
400.613	81.2
400.837	83.2
401.062	77.4
401.286	85.2
401.51	86
401.734	79
401.958	81.6
402.182	84.6
402.406	78.8
402.63	78.2
402.854	85.4
403.078	80.6
403.302	78.8
403.526	79
403.75	87.2
403.974	84.8
404.198	81.6
404.422	84.2
404.645	82.2
404.869	79
405.093	73
405.317	81.2
405.541	80
405.765	82
405.988	83.8
406.212	85.6
406.436	80.6
406.66	79.8
406.883	83.2
407.107	87
407.331	77.2
407.555	75.8
407.778	79.4
408.002	79
408.226	80
408.449	84.8
408.673	86.8
408.896	84.8
409.12	80
409.344	83.2
409.567	86.4
409.791	88
410.014	89
410.238	84.8
410.461	78.6
410.685	76.8
410.908	79.6
411.132	80.2
411.355	82.4
411.578	82.2
411.802	74.2
412.025	75
412.249	73
412.472	86.6
412.695	80
412.919	82.8
413.142	84.2
413.365	79
413.589	83.6
413.812	80.8
414.035	81.2
414.258	82
414.482	80.2
414.705	79.2
414.928	82.4
415.151	87
415.374	84.8
415.597	78.6
415.821	83.6
416.044	80.8
416.267	84.2
416.49	81.6
416.713	77.2
416.936	78.2
417.159	81.4
417.382	84.6
417.605	82.6
417.828	79.6
418.051	81.8
418.274	78.2
418.497	77.4
418.72	81.8
418.943	84.2
419.166	82
419.389	77
419.611	79
419.834	83.4
420.057	78.6
420.28	80.2
420.503	82.6
420.726	83.4
420.948	82.6
421.171	74.6
421.394	79.2
421.617	82.4
421.839	75.8
422.062	77.4
422.285	79.8
422.507	74.4
422.73	83.4
422.953	78.4
423.175	81.8
423.398	79.6
423.621	79.4
423.843	83.4
424.066	78.8
424.288	83.8
424.511	86.2
424.733	77.4
424.956	84.6
425.178	82.4
425.401	84.4
425.623	81.6
425.846	80
426.068	79.4
426.291	81.6
426.513	80
426.735	83
426.958	80.6
427.18	80.2
427.402	88
427.625	78.6
427.847	81.8
428.069	77.6
428.292	80.8
428.514	80.8
428.736	80
428.958	86.8
429.181	83
429.403	82
429.625	79.2
429.847	75.2
430.069	81
430.292	85.4
430.514	80
430.736	84
430.958	80.6
431.18	79
431.402	79.4
431.624	80.4
431.846	81
432.068	75.2
432.29	78.4
432.512	73.2
432.734	82
432.956	83.4
433.178	73.6
433.4	78.8
433.622	78.6
433.844	83.4
434.066	80.2
434.287	82.4
434.509	75.6
434.731	80
434.953	83.2
435.175	73.8
435.397	84.4
435.618	80.8
435.84	82.6
436.062	84.2
436.284	80.2
436.505	84
436.727	79.6
436.949	84
437.17	73
437.392	86.8
437.614	85
437.835	83
438.057	76.8
438.278	76
438.5	83.8
438.721	79.4
438.943	81.4
439.165	84.2
439.386	80.4
439.608	77.8
439.829	83.8
440.05	83.6
440.272	81.6
440.493	80.2
440.715	83.2
440.936	82
441.158	77.4
441.379	84
441.6	83.6
441.822	84.4
442.043	79.2
442.264	80.6
442.486	80.2
442.707	78
442.928	80
443.149	80
443.371	86
443.592	85.6
443.813	79
444.034	79.6
444.255	82.2
444.476	75.4
444.698	87.8
444.919	81.6
445.14	88.2
445.361	83.6
445.582	80.6
445.803	78.2
446.024	80.6
446.245	85.6
446.466	75.4
446.687	85.2
446.908	78.4
447.129	79
447.35	82
447.571	84.8
447.792	77
448.013	81
448.234	82
448.455	85.2
448.675	84
448.896	73.4
449.117	81
449.338	83.6
449.559	83.4
449.779	85.4
450	86.2
450.221	80.6
450.442	79.6
450.662	79.2
450.883	85
451.104	79.6
451.324	76.2
451.545	83.6
451.766	82.8
451.986	82.6
452.207	78.8
452.428	78.8
452.648	81.6
452.869	78.8
453.089	79.6
453.31	84.2
453.53	86
453.751	80.6
453.971	89
454.192	81.8
454.412	79.8
454.633	80.6
454.853	79.6
455.073	79
455.294	81.6
455.514	80.4
455.734	77.2
455.955	80.2
456.175	78.6
456.395	80.2
456.616	82.4
456.836	83.4
457.056	79.6
457.276	85.2
457.497	81.8
457.717	79
457.937	83.8
458.157	83.6
458.377	72.6
458.598	76
458.818	79
459.038	81.4
459.258	79.6
459.478	81.6
459.698	82.6
459.918	81.8
460.138	76.4
460.358	81.4
460.578	80.6
460.798	81.8
461.018	83.2
461.238	83
461.458	80.6
461.678	78.6
461.898	82.6
462.118	77.6
462.338	80.8
462.558	80
462.777	79.8
462.997	83.2
463.217	76.2
463.437	84.8
463.657	80.2
463.876	78.6
464.096	79
464.316	77
464.536	82.4
464.755	78.6
464.975	76.6
465.195	74
465.414	73.6
465.634	76.4
465.854	77.6
466.073	84
466.293	83.8
466.512	87.8
466.732	82.2
466.951	77.6
467.171	76.2
467.391	86
467.61	80.2
467.829	75
468.049	79.8
468.268	78.6
468.488	74.8
468.707	80.8
468.927	84
469.146	79.8
469.365	86.4
469.585	82.8
469.804	78.4
470.023	81.2
470.243	76.2
470.462	79.2
470.681	81
470.901	88.2
471.12	78
471.339	82.2
471.558	83.8
471.777	76.2
471.997	78.2
472.216	79.6
472.435	74.8
472.654	78
472.873	74.8
473.092	77.8
473.311	84.8
473.53	76.8
473.749	81
473.968	86.4
474.187	87.2
474.406	84.8
474.625	80.2
474.844	78.8
475.063	80.6
475.282	81.6
475.501	79.6
475.72	84.8
475.939	79.8
476.158	71.2
476.377	79
476.596	82.6
476.814	83
477.033	85.2
477.252	83.4
477.471	84
477.69	76
477.908	82
478.127	80
478.346	81.8
478.564	88.4
478.783	85.6
479.002	84.6
479.22	83.6
479.439	78.6
479.658	76.6
479.876	73.8
480.095	79
480.313	76.2
480.532	87.8
480.751	81
480.969	81.8
481.188	88.8
481.406	85.2
481.624	83.6
481.843	81.8
482.061	80.4
482.28	83.4
482.498	74.8
482.717	84
482.935	78.4
483.153	83.2
483.372	81.4
483.59	84
483.808	85.8
484.027	82.4
484.245	87.2
484.463	84.4
484.681	82
484.9	84.4
485.118	86.2
485.336	81.8
485.554	87
485.772	82.8
485.99	84.8
486.209	82.8
486.427	87.8
486.645	81.2
486.863	76.6
487.081	78.2
487.299	78
487.517	84.8
487.735	80.8
487.953	87
488.171	83.8
488.389	81.6
488.607	86.4
488.825	82.4
489.043	76.4
489.261	83.4
489.479	81.2
489.696	77.2
489.914	81.2
490.132	80.2
490.35	78.8
490.568	84.2
490.786	86.4
491.003	82.2
491.221	85.8
491.439	79.6
491.657	82.8
491.874	76.2
492.092	83.4
492.31	85
492.527	85.8
492.745	77.6
492.963	79
493.18	87.2
493.398	80.4
493.615	84.6
493.833	91.6
494.05	82.8
494.268	80.8
494.485	91.8
494.703	85.6
494.92	82.6
495.138	85
495.355	81
495.573	79.4
495.79	85.2
496.008	85.8
496.225	82.8
496.442	87.4
496.66	81
496.877	81.8
497.094	81
497.312	84
497.529	81.6
497.746	83
497.963	83.6
498.181	82.4
498.398	80.8
498.615	82
498.832	81.6
499.049	82.6
499.267	79
499.484	81.8
499.701	84.2
499.918	81.2
500.135	79.6
500.352	80
500.569	78.8
500.786	71.2
501.003	83.2
501.22	75
501.437	82.2
501.654	78.8
501.871	78.2
502.088	82.8
502.305	80.4
502.522	80.8
502.739	80.2
502.956	86.6
503.172	82.8
503.389	86
503.606	82.6
503.823	83.2
504.04	80.4
504.256	82.8
504.473	80.4
504.69	83
504.907	77.4
505.123	79.6
505.34	84
505.557	81.8
505.773	82.4
505.99	85
506.207	76.8
506.423	86.4
506.64	85.8
506.856	86.8
507.073	84.4
507.289	81.4
507.506	82.4
507.722	80.6
507.939	84
508.155	88
508.372	77.8
508.588	80.8
508.805	78.8
509.021	77.2
509.238	86.4
509.454	85
509.67	86.2
509.887	83.8
510.103	81.8
510.319	82.2
510.536	81.8
510.752	81
510.968	83.2
511.184	86.8
511.401	74.6
511.617	84.2
511.833	76.2
512.049	78.4
512.265	83.6
512.481	89.6
512.698	88.6
512.914	86
513.13	82.2
513.346	79.4
513.562	79.6
513.778	82.6
513.994	83.2
514.21	84.2
514.426	77.8
514.642	87.2
514.858	80.8
515.074	78.4
515.29	81.4
515.506	82.6
515.721	90.4
515.937	84.4
516.153	84.6
516.369	81.2
516.585	84.6
516.801	84.4
517.016	82
517.232	78
517.448	82.2
517.664	82.4
517.879	87
518.095	89
518.311	79.4
518.527	83.8
518.742	79.4
518.958	82.4
519.173	83
519.389	83.2
519.605	77.8
519.82	81.8
520.036	85.4
520.251	82.8
520.467	88.6
520.682	80.8
520.898	79
521.113	80.8
521.329	83.4
521.544	85.6
521.76	81.6
521.975	79.8
522.19	86.4
522.406	97.2
522.621	86.6
522.836	88.2
523.052	81.8
523.267	86.8
523.482	88.6
523.698	82
523.913	82.4
524.128	81.6
524.343	82.2
524.559	79.2
524.774	81
524.989	90.6
525.204	83
525.419	84.4
525.634	76.2
525.849	86.6
526.064	85.6
526.28	81.4
526.495	83.4
526.71	83.8
526.925	82
527.14	81.8
527.355	88.2
527.57	88.2
527.785	86.8
527.999	81.6
528.214	85.6
528.429	84.4
528.644	86.8
528.859	84.4
529.074	83.6
529.289	80.2
529.503	86.8
529.718	86.4
529.933	84.8
530.148	83.6
530.363	82.2
530.577	82.8
530.792	79
531.007	84.8
531.221	83
531.436	87.6
531.651	90
531.865	74
532.08	81.2
532.295	83.2
532.509	84.6
532.724	83.2
532.938	83.8
533.153	83.6
533.367	83.4
533.582	93.6
533.796	86
534.011	86.8
534.225	89.4
534.44	88
534.654	86.6
534.868	82.8
535.083	86.2
535.297	84.6
535.511	86
535.726	75.2
535.94	82.2
536.154	84.4
536.369	79.6
536.583	84
536.797	80.6
537.011	84.2
537.225	81.6
537.44	87.2
537.654	75
537.868	83.6
538.082	85.6
538.296	81
538.51	84.6
538.724	85.6
538.938	78.8
539.153	81
539.367	92.8
539.581	85.4
539.795	80.8
540.009	82.6
540.222	83.6
540.436	86.2
540.65	83.8
540.864	79.8
541.078	81.8
541.292	82.8
541.506	84
541.72	87.4
541.934	75.2
542.147	80.2
542.361	84.8
542.575	79
542.789	79.4
543.002	86.2
543.216	84.8
543.43	82.2
543.644	78.8
543.857	85.6
544.071	86.4
544.285	83.2
544.498	86.4
544.712	82.6
544.925	86.2
545.139	90.2
545.352	88
545.566	83
545.779	89.4
545.993	78.4
546.206	82.2
546.42	80.4
546.633	80.8
546.847	85.6
547.06	88.6
547.274	85.4
547.487	79.2
547.7	87
547.914	79
548.127	79.2
548.34	84.4
548.554	79
548.767	88.8
548.98	91.6
