Data from TenMicroDelayPb_HRD10591_00037.txt Node
Date: Mon Nov 24 14:37:06 EST 2025
User: Yrep
Spectrometer: HR+D1059
Trigger mode: 1
Integration Time (sec): 1.000000E-2
Scans to average: 5
Electric dark correction enabled: true
Nonlinearity correction enabled: false
Boxcar width: 0
XAxis mode: Wavelengths
Number of Pixels in Spectrum: 2048
>>>>>Begin Spectral Data<<<<<
223.165	-16.67
223.4	-16.67
223.635	-16.67
223.869	-15.67
224.104	-16.47
224.338	-15.87
224.573	-17.47
224.808	-14.47
225.042	-16.07
225.277	-4.27
225.511	1.93
225.746	1.53
225.98	8.73
226.215	15.53
226.449	17.73
226.683	22.33
226.918	20.33
227.152	28.93
227.387	36.93
227.621	36.13
227.856	45.93
228.09	42.93
228.324	51.33
228.559	55.33
228.793	57.73
229.027	63.13
229.262	61.93
229.496	63.33
229.73	67.53
229.964	68.93
230.199	73.73
230.433	68.33
230.667	67.93
230.901	76.33
231.136	73.53
231.37	74.73
231.604	77.53
231.838	78.93
232.072	82.73
232.306	79.93
232.541	75.33
232.775	79.53
233.009	75.13
233.243	80.73
233.477	85.53
233.711	81.93
233.945	81.53
234.179	76.13
234.413	77.93
234.647	80.93
234.881	74.53
235.115	74.93
235.349	81.13
235.583	79.73
235.817	76.93
236.051	79.93
236.285	81.73
236.519	79.53
236.753	75.73
236.987	73.93
237.221	72.53
237.455	73.93
237.689	76.13
237.922	70.53
238.156	74.33
238.39	74.53
238.624	76.13
238.858	74.53
239.091	74.73
239.325	71.53
239.559	66.73
239.793	71.93
240.027	74.33
240.26	80.13
240.494	75.53
240.728	77.13
240.961	69.73
241.195	73.33
241.429	71.73
241.662	65.73
241.896	78.53
242.13	76.13
242.363	79.73
242.597	76.13
242.83	76.33
243.064	78.73
243.298	82.53
243.531	74.33
243.765	76.33
243.998	75.93
244.232	73.33
244.465	75.53
244.699	77.73
244.932	75.73
245.166	72.13
245.399	76.73
245.633	75.13
245.866	70.73
246.099	79.93
246.333	75.73
246.566	78.73
246.8	80.93
247.033	75.33
247.266	78.53
247.5	77.93
247.733	80.33
247.966	74.13
248.2	77.53
248.433	83.13
248.666	70.73
248.899	76.53
249.133	74.33
249.366	71.33
249.599	75.93
249.832	71.33
250.066	75.53
250.299	77.93
250.532	74.33
250.765	69.73
250.998	70.93
251.231	78.73
251.465	78.13
251.698	74.73
251.931	81.73
252.164	83.13
252.397	77.33
252.63	78.13
252.863	73.53
253.096	82.73
253.329	80.93
253.562	80.93
253.795	74.53
254.028	77.13
254.261	75.53
254.494	83.73
254.727	77.53
254.96	81.53
255.193	70.73
255.426	73.73
255.659	83.73
255.892	82.33
256.124	80.13
256.357	73.13
256.59	81.53
256.823	78.33
257.056	78.93
257.289	77.33
257.521	76.53
257.754	76.73
257.987	85.53
258.22	75.73
258.452	79.13
258.685	76.93
258.918	76.73
259.151	78.33
259.383	75.53
259.616	70.13
259.849	78.13
260.081	75.93
260.314	81.13
260.547	83.53
260.779	79.73
261.012	81.53
261.244	81.13
261.477	87.13
261.71	92.73
261.942	82.13
262.175	72.93
262.407	77.93
262.64	77.13
262.872	73.53
263.105	83.93
263.337	79.53
263.57	88.73
263.802	83.13
264.035	74.73
264.267	78.73
264.499	80.93
264.732	84.33
264.964	79.93
265.197	83.53
265.429	83.33
265.661	75.13
265.894	80.73
266.126	82.33
266.358	86.53
266.591	92.13
266.823	81.53
267.055	76.53
267.287	80.33
267.52	78.53
267.752	73.53
267.984	78.93
268.216	81.33
268.448	89.93
268.681	86.93
268.913	77.53
269.145	82.33
269.377	80.53
269.609	78.73
269.841	74.93
270.073	82.53
270.306	77.93
270.538	79.53
270.77	79.93
271.002	87.93
271.234	81.53
271.466	84.53
271.698	79.53
271.93	79.13
272.162	84.13
272.394	83.33
272.626	82.93
272.858	82.93
273.09	78.93
273.322	83.13
273.553	74.13
273.785	81.33
274.017	77.13
274.249	77.53
274.481	84.33
274.713	78.13
274.945	81.33
275.176	76.33
275.408	80.73
275.64	78.13
275.872	82.93
276.104	83.93
276.335	85.33
276.567	78.73
276.799	83.13
277.031	76.93
277.262	81.13
277.494	80.33
277.726	77.33
277.957	80.73
278.189	82.33
278.421	74.13
278.652	84.53
278.884	79.13
279.115	84.93
279.347	82.73
279.579	88.33
279.81	85.93
280.042	92.13
280.273	98.33
280.505	100.13
280.736	86.53
280.968	87.13
281.199	80.93
281.431	81.73
281.662	83.33
281.894	84.93
282.125	84.73
282.356	86.53
282.588	90.13
282.819	85.33
283.051	84.93
283.282	89.53
283.513	91.73
283.745	89.53
283.976	80.53
284.207	82.13
284.439	81.13
284.67	87.13
284.901	74.93
285.132	82.93
285.364	87.93
285.595	83.93
285.826	80.13
286.057	82.33
286.288	77.53
286.52	82.13
286.751	78.13
286.982	79.13
287.213	88.53
287.444	94.33
287.675	89.73
287.906	83.33
288.138	86.13
288.369	86.93
288.6	80.33
288.831	80.93
289.062	79.53
289.293	71.73
289.524	86.73
289.755	87.33
289.986	79.33
290.217	81.73
290.448	73.73
290.679	83.53
290.91	87.73
291.141	82.93
291.371	81.93
291.602	82.73
291.833	83.93
292.064	77.13
292.295	83.93
292.526	83.53
292.757	81.53
292.987	85.13
293.218	71.93
293.449	86.93
293.68	81.13
293.91	85.13
294.141	86.33
294.372	84.13
294.603	83.13
294.833	88.73
295.064	82.13
295.295	75.73
295.525	80.53
295.756	90.53
295.987	90.13
296.217	80.33
296.448	81.33
296.679	91.93
296.909	81.73
297.14	88.73
297.37	87.13
297.601	83.53
297.831	84.73
298.062	89.33
298.292	85.13
298.523	87.73
298.753	85.53
298.984	82.53
299.214	76.33
299.445	85.73
299.675	84.53
299.905	84.53
300.136	79.53
300.366	78.33
300.597	77.33
300.827	90.13
301.057	82.73
301.288	86.53
301.518	82.73
301.748	85.33
301.979	85.53
302.209	88.53
302.439	84.93
302.669	86.13
302.9	86.53
303.13	83.93
303.36	78.53
303.59	81.73
303.82	79.93
304.051	87.53
304.281	86.93
304.511	84.13
304.741	86.13
304.971	88.53
305.201	84.73
305.431	88.53
305.661	88.93
305.891	87.73
306.121	78.13
306.352	80.73
306.582	81.33
306.812	79.93
307.042	81.93
307.272	83.33
307.502	87.53
307.731	88.73
307.961	82.53
308.191	86.33
308.421	85.33
308.651	81.73
308.881	82.93
309.111	85.93
309.341	84.33
309.571	77.33
309.8	81.53
310.03	85.93
310.26	82.93
310.49	80.33
310.72	84.73
310.949	80.53
311.179	76.33
311.409	81.73
311.639	83.13
311.868	82.73
312.098	86.73
312.328	79.13
312.557	82.73
312.787	82.73
313.017	83.73
313.246	82.13
313.476	86.93
313.706	78.73
313.935	81.13
314.165	85.73
314.394	81.33
314.624	82.73
314.853	86.53
315.083	82.93
315.312	83.13
315.542	80.33
315.771	83.33
316.001	83.73
316.23	80.73
316.46	83.53
316.689	79.53
316.919	84.13
317.148	87.73
317.377	82.13
317.607	87.33
317.836	84.73
318.065	81.93
318.295	81.93
318.524	78.13
318.753	80.73
318.983	82.33
319.212	77.73
319.441	79.93
319.67	85.73
319.9	81.53
320.129	88.53
320.358	76.93
320.587	83.13
320.816	81.13
321.046	83.33
321.275	84.73
321.504	81.13
321.733	84.33
321.962	77.13
322.191	81.33
322.42	80.33
322.649	86.33
322.878	84.53
323.108	81.53
323.337	79.13
323.566	86.93
323.795	79.93
324.024	85.53
324.253	84.33
324.482	81.53
324.71	74.33
324.939	82.93
325.168	82.33
325.397	81.13
325.626	83.93
325.855	80.93
326.084	79.53
326.313	89.13
326.542	83.93
326.77	80.93
326.999	82.93
327.228	82.53
327.457	83.53
327.686	77.33
327.914	78.53
328.143	78.73
328.372	83.33
328.6	85.93
328.829	84.13
329.058	84.13
329.287	80.93
329.515	77.93
329.744	82.73
329.972	85.33
330.201	84.53
330.43	81.53
330.658	85.93
330.887	83.73
331.115	80.93
331.344	84.33
331.572	85.53
331.801	76.33
332.03	89.33
332.258	89.73
332.486	77.53
332.715	81.93
332.943	79.53
333.172	80.33
333.4	85.53
333.629	86.33
333.857	79.93
334.085	81.73
334.314	81.73
334.542	88.53
334.771	77.93
334.999	82.53
335.227	80.73
335.455	83.33
335.684	76.73
335.912	86.53
336.14	85.33
336.369	85.53
336.597	83.33
336.825	79.33
337.053	83.13
337.281	83.13
337.51	86.33
337.738	88.53
337.966	89.13
338.194	85.73
338.422	82.53
338.65	79.93
338.878	85.13
339.106	83.93
339.334	80.93
339.562	82.53
339.79	82.93
340.018	82.73
340.246	84.13
340.474	88.53
340.702	79.53
340.93	79.73
341.158	82.33
341.386	87.13
341.614	81.93
341.842	82.53
342.07	85.93
342.298	79.53
342.526	81.73
342.754	88.33
342.981	81.33
343.209	81.73
343.437	82.13
343.665	83.33
343.893	82.73
344.12	83.53
344.348	80.13
344.576	80.53
344.804	78.13
345.031	85.53
345.259	82.53
345.487	83.73
345.714	83.93
345.942	76.13
346.17	77.33
346.397	78.13
346.625	83.53
346.853	86.93
347.08	81.93
347.308	78.13
347.535	83.73
347.763	79.53
347.99	85.33
348.218	80.93
348.445	80.13
348.673	84.13
348.9	86.73
349.128	85.53
349.355	83.53
349.583	74.13
349.81	82.33
350.037	78.13
350.265	91.13
350.492	80.33
350.72	81.53
350.947	79.53
351.174	81.13
351.402	82.53
351.629	83.93
351.856	79.93
352.083	80.73
352.311	81.73
352.538	86.73
352.765	78.93
352.992	77.93
353.22	80.93
353.447	81.93
353.674	88.13
353.901	77.93
354.128	84.53
354.355	86.53
354.583	81.53
354.81	89.13
355.037	83.33
355.264	84.33
355.491	87.33
355.718	85.33
355.945	81.53
356.172	81.93
356.399	85.93
356.626	92.53
356.853	90.73
357.08	104.33
357.307	112.33
357.534	101.93
357.761	87.53
357.988	81.73
358.215	81.33
358.441	84.93
358.668	76.33
358.895	85.33
359.122	76.53
359.349	78.13
359.576	82.73
359.802	85.93
360.029	82.53
360.256	82.73
360.483	79.53
360.709	81.73
360.936	82.93
361.163	80.33
361.39	75.33
361.616	82.93
361.843	78.73
362.07	80.53
362.296	79.13
362.523	84.93
362.749	85.13
362.976	86.53
363.203	86.53
363.429	90.93
363.656	103.33
363.882	126.33
364.109	138.13
364.335	95.93
364.562	90.53
364.788	80.53
365.015	91.93
365.241	84.13
365.468	81.13
365.694	80.73
365.92	82.93
366.147	79.13
366.373	83.93
366.599	86.33
366.826	87.53
367.052	93.73
367.278	101.93
367.505	92.53
367.731	88.33
367.957	102.13
368.184	132.53
368.41	165.13
368.636	134.93
368.862	94.33
369.089	83.93
369.315	83.53
369.541	83.93
369.767	90.13
369.993	90.93
370.219	82.93
370.445	83.13
370.672	75.53
370.898	81.93
371.124	83.33
371.35	81.13
371.576	85.53
371.802	87.33
372.028	84.13
372.254	78.53
372.48	77.53
372.706	80.53
372.932	80.73
373.158	81.13
373.384	85.73
373.61	91.53
373.835	98.53
374.061	114.13
374.287	101.13
374.513	78.93
374.739	82.33
374.965	85.73
375.191	77.93
375.416	80.13
375.642	83.73
375.868	76.73
376.094	80.53
376.319	80.73
376.545	81.93
376.771	81.53
376.997	82.33
377.222	72.93
377.448	84.93
377.674	81.93
377.899	80.93
378.125	75.33
378.35	81.13
378.576	83.73
378.802	85.13
379.027	79.13
379.253	76.73
379.478	81.53
379.704	86.33
379.929	84.33
380.155	80.13
380.38	86.13
380.606	80.13
380.831	84.33
381.057	76.33
381.282	74.93
381.507	83.93
381.733	76.93
381.958	79.93
382.184	83.53
382.409	83.93
382.634	75.93
382.86	77.33
383.085	75.33
383.31	83.33
383.535	81.13
383.761	84.13
383.986	85.13
384.211	83.53
384.436	73.13
384.662	78.13
384.887	80.73
385.112	78.73
385.337	80.93
385.562	85.53
385.787	81.33
386.013	77.73
386.238	80.33
386.463	75.93
386.688	75.13
386.913	78.53
387.138	79.13
387.363	79.93
387.588	81.53
387.813	79.13
388.038	79.73
388.263	82.53
388.488	79.13
388.713	73.73
388.938	77.73
389.163	83.13
389.387	81.93
389.612	79.33
389.837	79.33
390.062	85.13
390.287	76.13
390.512	86.13
390.736	78.93
390.961	79.93
391.186	76.33
391.411	77.33
391.636	83.13
391.86	82.13
392.085	76.33
392.31	82.33
392.534	82.93
392.759	82.53
392.984	78.13
393.208	83.53
393.433	77.33
393.658	75.53
393.882	85.33
394.107	79.93
394.331	81.33
394.556	83.73
394.78	81.33
395.005	78.53
395.229	73.73
395.454	76.13
395.678	83.93
395.903	76.13
396.127	78.73
396.352	82.73
396.576	80.93
396.801	83.53
397.025	81.53
397.249	79.53
397.474	79.73
397.698	73.93
397.922	77.33
398.147	82.33
398.371	79.13
398.595	78.73
398.82	71.13
399.044	82.33
399.268	80.73
399.492	82.93
399.717	80.73
399.941	79.13
400.165	87.13
400.389	81.93
400.613	77.13
400.837	80.93
401.062	78.73
401.286	80.73
401.51	83.13
401.734	82.53
401.958	87.73
402.182	96.53
402.406	80.13
402.63	82.93
402.854	80.73
403.078	83.33
403.302	81.73
403.526	82.33
403.75	77.73
403.974	78.93
404.198	81.53
404.422	87.13
404.645	82.33
404.869	88.73
405.093	90.73
405.317	97.93
405.541	150.33
405.765	220.73
405.988	241.53
406.212	145.73
406.436	105.93
406.66	91.33
406.883	79.73
407.107	83.33
407.331	85.53
407.555	84.53
407.778	79.33
408.002	84.93
408.226	75.93
408.449	80.33
408.673	82.33
408.896	84.93
409.12	81.53
409.344	83.53
409.567	85.13
409.791	71.53
410.014	80.93
410.238	80.93
410.461	83.53
410.685	84.93
410.908	79.33
411.132	78.93
411.355	77.93
411.578	82.53
411.802	76.73
412.025	73.33
412.249	83.93
412.472	75.33
412.695	77.53
412.919	81.93
413.142	78.13
413.365	76.53
413.589	76.93
413.812	78.53
414.035	84.93
414.258	80.73
414.482	78.73
414.705	78.53
414.928	78.73
415.151	77.73
415.374	81.13
415.597	79.73
415.821	80.73
416.044	81.13
416.267	76.53
416.49	84.93
416.713	81.93
416.936	85.33
417.159	79.53
417.382	77.13
417.605	85.53
417.828	80.33
418.051	76.53
418.274	79.33
418.497	72.73
418.72	77.53
418.943	78.73
419.166	79.13
419.389	78.53
419.611	82.13
419.834	82.33
420.057	76.93
420.28	84.53
420.503	80.33
420.726	78.13
420.948	77.93
421.171	82.93
421.394	75.33
421.617	80.93
421.839	83.93
422.062	75.93
422.285	77.53
422.507	85.53
422.73	79.13
422.953	85.13
423.175	81.13
423.398	81.13
423.621	82.33
423.843	86.73
424.066	80.93
424.288	74.13
424.511	81.13
424.733	81.13
424.956	77.33
425.178	80.53
425.401	74.93
425.623	80.73
425.846	79.33
426.068	73.73
426.291	82.13
426.513	77.73
426.735	78.53
426.958	82.33
427.18	78.33
427.402	80.73
427.625	81.53
427.847	84.53
428.069	82.13
428.292	80.33
428.514	79.73
428.736	83.33
428.958	81.93
429.181	79.53
429.403	76.33
429.625	81.13
429.847	71.73
430.069	80.13
430.292	82.73
430.514	79.53
430.736	82.33
430.958	77.13
431.18	79.93
431.402	77.33
431.624	81.13
431.846	76.13
432.068	83.13
432.29	78.73
432.512	77.13
432.734	80.53
432.956	80.13
433.178	83.73
433.4	78.13
433.622	82.93
433.844	75.73
434.066	79.73
434.287	78.33
434.509	80.93
434.731	81.53
434.953	82.93
435.175	78.73
435.397	81.13
435.618	80.33
435.84	81.53
436.062	82.93
436.284	78.93
436.505	82.13
436.727	79.33
436.949	80.33
437.17	79.53
437.392	75.53
437.614	83.13
437.835	90.13
438.057	80.93
438.278	75.73
438.5	79.93
438.721	80.93
438.943	81.53
439.165	83.13
439.386	85.73
439.608	80.73
439.829	83.13
440.05	80.53
440.272	82.53
440.493	77.93
440.715	80.33
440.936	83.93
441.158	83.53
441.379	83.33
441.6	79.93
441.822	80.93
442.043	77.33
442.264	81.53
442.486	82.93
442.707	80.73
442.928	81.13
443.149	71.53
443.371	81.53
443.592	76.73
443.813	80.93
444.034	81.93
444.255	78.73
444.476	78.53
444.698	77.93
444.919	81.73
445.14	92.73
445.361	87.33
445.582	79.33
445.803	76.93
446.024	79.53
446.245	80.93
446.466	81.13
446.687	78.13
446.908	85.73
447.129	79.13
447.35	85.73
447.571	84.13
447.792	83.73
448.013	78.33
448.234	83.13
448.455	81.93
448.675	83.73
448.896	76.33
449.117	81.33
449.338	84.53
449.559	75.73
449.779	78.13
450	80.33
450.221	80.13
450.442	80.73
450.662	79.13
450.883	82.73
451.104	81.53
451.324	87.93
451.545	77.93
451.766	80.93
451.986	78.73
452.207	80.33
452.428	77.33
452.648	78.53
452.869	80.13
453.089	82.13
453.31	82.33
453.53	84.13
453.751	79.13
453.971	78.13
454.192	87.53
454.412	82.33
454.633	82.93
454.853	84.73
455.073	85.93
455.294	81.13
455.514	81.33
455.734	80.53
455.955	82.93
456.175	84.33
456.395	78.33
456.616	79.33
456.836	79.73
457.056	81.13
457.276	78.33
457.497	78.13
457.717	80.13
457.937	78.53
458.157	81.73
458.377	81.13
458.598	79.73
458.818	83.73
459.038	77.93
459.258	72.73
459.478	77.33
459.698	81.33
459.918	66.13
460.138	77.53
460.358	84.73
460.578	75.53
460.798	78.33
461.018	80.53
461.238	81.73
461.458	83.53
461.678	79.33
461.898	81.33
462.118	78.73
462.338	86.13
462.558	76.53
462.777	80.13
462.997	80.93
463.217	84.13
463.437	81.33
463.657	78.33
463.876	80.13
464.096	81.13
464.316	81.93
464.536	81.33
464.755	86.73
464.975	83.93
465.195	81.13
465.414	84.33
465.634	79.93
465.854	76.93
466.073	79.93
466.293	81.13
466.512	83.53
466.732	84.13
466.951	87.93
467.171	84.93
467.391	86.13
467.61	80.93
467.829	88.53
468.049	79.13
468.268	78.73
468.488	78.53
468.707	85.33
468.927	83.13
469.146	82.93
469.365	85.33
469.585	78.33
469.804	80.13
470.023	83.73
470.243	83.73
470.462	88.73
470.681	78.53
470.901	80.73
471.12	77.73
471.339	81.13
471.558	78.13
471.777	84.13
471.997	82.33
472.216	81.73
472.435	84.73
472.654	77.13
472.873	83.13
473.092	79.33
473.311	87.33
473.53	91.33
473.749	80.93
473.968	78.13
474.187	79.13
474.406	81.73
474.625	85.13
474.844	85.93
475.063	81.33
475.282	82.13
475.501	76.93
475.72	84.93
475.939	84.13
476.158	76.73
476.377	80.53
476.596	78.73
476.814	74.13
477.033	72.53
477.252	90.73
477.471	75.53
477.69	73.73
477.908	79.33
478.127	77.53
478.346	79.93
478.564	71.13
478.783	83.33
479.002	84.93
479.22	88.33
479.439	79.93
479.658	80.93
479.876	84.13
480.095	81.53
480.313	82.13
480.532	79.13
480.751	77.13
480.969	79.33
481.188	83.73
481.406	79.93
481.624	76.53
481.843	79.13
482.061	85.13
482.28	87.53
482.498	79.53
482.717	82.73
482.935	82.13
483.153	84.93
483.372	74.73
483.59	86.53
483.808	81.93
484.027	78.93
484.245	83.33
484.463	82.73
484.681	80.93
484.9	80.33
485.118	84.53
485.336	76.93
485.554	79.73
485.772	81.33
485.99	77.33
486.209	85.73
486.427	77.93
486.645	84.73
486.863	82.93
487.081	83.33
487.299	79.13
487.517	80.53
487.735	79.33
487.953	75.53
488.171	80.53
488.389	86.33
488.607	85.13
488.825	81.53
489.043	78.53
489.261	77.33
489.479	77.73
489.696	80.53
489.914	80.53
490.132	79.93
490.35	78.13
490.568	80.13
490.786	79.33
491.003	79.33
491.221	76.93
491.439	77.33
491.657	81.73
491.874	86.13
492.092	80.73
492.31	83.93
492.527	89.33
492.745	85.13
492.963	86.93
493.18	80.33
493.398	79.53
493.615	87.93
493.833	91.33
494.05	82.73
494.268	77.73
494.485	83.33
494.703	90.13
494.92	85.93
495.138	87.73
495.355	83.73
495.573	83.93
495.79	82.13
496.008	80.53
496.225	84.33
496.442	81.93
496.66	87.33
496.877	84.13
497.094	79.53
497.312	80.13
497.529	85.33
497.746	84.53
497.963	82.93
498.181	78.33
498.398	83.53
498.615	86.13
498.832	81.53
499.049	82.13
499.267	83.33
499.484	81.33
499.701	83.93
499.918	82.33
500.135	80.73
500.352	90.73
500.569	102.33
500.786	110.33
501.003	86.13
501.22	78.73
501.437	75.33
501.654	73.93
501.871	83.53
502.088	83.53
502.305	81.73
502.522	84.53
502.739	86.33
502.956	83.13
503.172	75.33
503.389	83.33
503.606	78.13
503.823	85.13
504.04	84.13
504.256	87.73
504.473	84.73
504.69	83.73
504.907	79.33
505.123	85.33
505.34	88.13
505.557	85.33
505.773	78.33
505.99	83.73
506.207	83.33
506.423	85.93
506.64	80.13
506.856	84.13
507.073	83.93
507.289	73.53
507.506	85.93
507.722	91.33
507.939	83.13
508.155	78.33
508.372	83.33
508.588	82.73
508.805	80.93
509.021	77.33
509.238	81.53
509.454	81.33
509.67	88.33
509.887	85.33
510.103	84.93
510.319	82.53
510.536	80.53
510.752	84.73
510.968	87.73
511.184	77.13
511.401	77.13
511.617	80.13
511.833	76.93
512.049	81.13
512.265	82.93
512.481	82.13
512.698	85.13
512.914	82.93
513.13	83.33
513.346	83.73
513.562	82.13
513.778	84.13
513.994	75.93
514.21	78.93
514.426	81.33
514.642	81.73
514.858	82.93
515.074	75.73
515.29	82.33
515.506	80.73
515.721	84.93
515.937	81.53
516.153	82.33
516.369	79.73
516.585	80.33
516.801	82.33
517.016	89.53
517.232	82.73
517.448	79.73
517.664	82.93
517.879	88.93
518.095	85.33
518.311	81.13
518.527	80.73
518.742	83.13
518.958	84.73
519.173	84.93
519.389	87.93
519.605	83.33
519.82	85.93
