Data from TenMicroDelayPb_HRD10591_00013.txt Node
Date: Mon Nov 24 14:34:24 EST 2025
User: Yrep
Spectrometer: HR+D1059
Trigger mode: 0
Integration Time (sec): 1.000000E-2
Scans to average: 5
Electric dark correction enabled: true
Nonlinearity correction enabled: false
Boxcar width: 0
XAxis mode: Wavelengths
Number of Pixels in Spectrum: 2048
>>>>>Begin Spectral Data<<<<<
223.165	-11.64
223.4	-11.64
223.635	-11.64
223.869	-18.84
224.104	-20.44
224.338	-10.64
224.573	-18.44
224.808	-11.64
225.042	-13.04
225.277	-5.84
225.511	-3.04
225.746	-1.64
225.98	5.76
226.215	10.16
226.449	17.36
226.683	18.76
226.918	29.96
227.152	33.16
227.387	33.76
227.621	35.56
227.856	43.16
228.09	41.76
228.324	50.76
228.559	53.36
228.793	53.96
229.027	62.16
229.262	64.96
229.496	67.96
229.73	71.96
229.964	77.16
230.199	75.16
230.433	69.36
230.667	65.56
230.901	67.76
231.136	77.96
231.37	81.96
231.604	79.36
231.838	77.36
232.072	79.56
232.306	82.56
232.541	81.96
232.775	77.56
233.009	77.76
233.243	77.16
233.477	83.76
233.711	79.36
233.945	81.96
234.179	79.96
234.413	79.96
234.647	84.36
234.881	75.76
235.115	79.16
235.349	77.96
235.583	78.36
235.817	89.76
236.051	75.16
236.285	76.56
236.519	70.76
236.753	78.16
236.987	77.16
237.221	79.56
237.455	70.36
237.689	72.36
237.922	74.36
238.156	70.96
238.39	82.36
238.624	78.96
238.858	76.16
239.091	74.96
239.325	70.96
239.559	75.56
239.793	73.16
240.027	69.16
240.26	77.36
240.494	70.16
240.728	75.96
240.961	82.76
241.195	81.16
241.429	72.36
241.662	71.56
241.896	70.16
242.13	77.76
242.363	77.36
242.597	77.76
242.83	74.16
243.064	74.16
243.298	72.76
243.531	73.56
243.765	68.36
243.998	79.16
244.232	74.16
244.465	76.76
244.699	74.56
244.932	79.96
245.166	73.76
245.399	75.16
245.633	74.76
245.866	79.76
246.099	80.96
246.333	78.36
246.566	78.36
246.8	77.96
247.033	77.16
247.266	73.16
247.5	69.76
247.733	75.16
247.966	76.56
248.2	78.96
248.433	81.36
248.666	80.36
248.899	83.36
249.133	76.76
249.366	83.76
249.599	80.36
249.832	79.56
250.066	74.36
250.299	77.56
250.532	75.36
250.765	77.36
250.998	80.56
251.231	78.16
251.465	72.96
251.698	81.36
251.931	78.56
252.164	74.96
252.397	78.16
252.63	79.16
252.863	74.96
253.096	75.36
253.329	76.16
253.562	75.76
253.795	75.56
254.028	77.96
254.261	75.96
254.494	67.56
254.727	83.36
254.96	81.36
255.193	78.96
255.426	79.56
255.659	76.16
255.892	74.16
256.124	78.36
256.357	80.76
256.59	81.76
256.823	79.36
257.056	79.56
257.289	78.96
257.521	76.36
257.754	75.16
257.987	79.36
258.22	77.56
258.452	72.56
258.685	77.36
258.918	77.36
259.151	78.36
259.383	72.56
259.616	83.36
259.849	80.36
260.081	74.36
260.314	74.56
260.547	76.96
260.779	79.16
261.012	80.56
261.244	83.56
261.477	75.76
261.71	82.16
261.942	78.36
262.175	79.96
262.407	78.76
262.64	83.36
262.872	79.96
263.105	83.56
263.337	75.96
263.57	76.56
263.802	83.16
264.035	80.56
264.267	76.56
264.499	74.16
264.732	79.76
264.964	82.16
265.197	79.16
265.429	84.36
265.661	81.96
265.894	80.36
266.126	81.36
266.358	80.36
266.591	75.36
266.823	78.56
267.055	84.96
267.287	79.76
267.52	85.56
267.752	79.76
267.984	76.96
268.216	74.36
268.448	80.96
268.681	76.56
268.913	81.16
269.145	76.36
269.377	81.56
269.609	80.56
269.841	83.16
270.073	76.56
270.306	83.76
270.538	84.96
270.77	82.76
271.002	79.76
271.234	75.96
271.466	83.36
271.698	77.96
271.93	83.16
272.162	84.96
272.394	78.56
272.626	85.76
272.858	81.76
273.09	82.36
273.322	81.36
273.553	80.36
273.785	83.76
274.017	82.16
274.249	84.56
274.481	79.56
274.713	83.56
274.945	73.76
275.176	79.16
275.408	83.56
275.64	78.36
275.872	85.76
276.104	76.56
276.335	81.96
276.567	78.76
276.799	81.56
277.031	79.76
277.262	74.16
277.494	78.96
277.726	80.96
277.957	83.56
278.189	81.56
278.421	75.76
278.652	76.56
278.884	79.56
279.115	78.76
279.347	82.16
279.579	83.76
279.81	81.76
280.042	77.96
280.273	79.96
280.505	77.76
280.736	79.76
280.968	78.16
281.199	85.16
281.431	78.96
281.662	88.36
281.894	82.56
282.125	86.16
282.356	87.96
282.588	82.96
282.819	85.56
283.051	82.16
283.282	76.16
283.513	84.16
283.745	85.56
283.976	85.56
284.207	86.96
284.439	87.36
284.67	78.36
284.901	83.16
285.132	84.96
285.364	79.76
285.595	83.76
285.826	84.56
286.057	84.96
286.288	84.96
286.52	83.16
286.751	81.96
286.982	78.16
287.213	87.36
287.444	78.96
287.675	78.76
287.906	85.76
288.138	81.16
288.369	82.96
288.6	84.16
288.831	79.56
289.062	81.76
289.293	83.96
289.524	83.36
289.755	79.56
289.986	92.16
290.217	85.56
290.448	83.96
290.679	88.56
290.91	86.36
291.141	78.56
291.371	79.96
291.602	83.16
291.833	82.36
292.064	92.36
292.295	88.56
292.526	84.16
292.757	84.76
292.987	81.16
293.218	81.56
293.449	83.76
293.68	81.76
293.91	85.96
294.141	87.36
294.372	89.96
294.603	86.56
294.833	81.76
295.064	82.56
295.295	82.36
295.525	81.36
295.756	81.76
295.987	83.56
296.217	86.36
296.448	85.36
296.679	80.76
296.909	82.76
297.14	82.76
297.37	82.16
297.601	85.56
297.831	83.76
298.062	86.96
298.292	85.16
298.523	84.36
298.753	77.56
298.984	84.16
299.214	84.76
299.445	86.76
299.675	82.96
299.905	86.56
300.136	77.56
300.366	79.56
300.597	84.36
300.827	76.96
301.057	79.16
301.288	89.76
301.518	81.96
301.748	82.36
301.979	85.96
302.209	81.96
302.439	80.56
302.669	86.76
302.9	87.16
303.13	85.76
303.36	84.36
303.59	82.16
303.82	77.76
304.051	78.16
304.281	82.56
304.511	82.36
304.741	85.36
304.971	82.76
305.201	86.56
305.431	82.96
305.661	84.56
305.891	84.36
306.121	84.56
306.352	88.36
306.582	75.36
306.812	90.76
307.042	81.76
307.272	80.16
307.502	84.16
307.731	79.56
307.961	82.96
308.191	84.96
308.421	87.96
308.651	82.96
308.881	85.56
309.111	85.36
309.341	83.96
309.571	85.76
309.8	83.76
310.03	86.76
310.26	81.56
310.49	82.76
310.72	83.36
310.949	85.16
311.179	85.96
311.409	80.96
311.639	84.76
311.868	84.16
312.098	81.36
312.328	84.16
312.557	84.36
312.787	81.56
313.017	85.56
313.246	86.36
313.476	82.76
313.706	81.56
313.935	77.16
314.165	80.56
314.394	86.36
314.624	89.76
314.853	81.76
315.083	84.36
315.312	80.76
315.542	80.96
315.771	84.36
316.001	82.96
316.23	80.36
316.46	83.76
316.689	84.76
316.919	89.36
317.148	83.76
317.377	85.76
317.607	86.56
317.836	80.56
318.065	81.16
318.295	78.16
318.524	88.56
318.753	85.16
318.983	84.56
319.212	80.36
319.441	82.96
319.67	83.36
319.9	82.56
320.129	82.76
320.358	87.56
320.587	90.56
320.816	86.36
321.046	86.36
321.275	87.16
321.504	82.56
321.733	83.56
321.962	88.36
322.191	79.56
322.42	80.36
322.649	84.36
322.878	77.76
323.108	88.36
323.337	85.76
323.566	90.96
323.795	83.96
324.024	85.96
324.253	83.36
324.482	88.16
324.71	85.16
324.939	84.96
325.168	81.56
325.397	89.16
325.626	89.36
325.855	80.16
326.084	79.16
326.313	84.56
326.542	83.36
326.77	88.76
326.999	87.76
327.228	82.16
327.457	80.76
327.686	84.36
327.914	81.16
328.143	82.56
328.372	81.76
328.6	81.76
328.829	82.36
329.058	80.36
329.287	80.76
329.515	83.16
329.744	85.96
329.972	81.96
330.201	85.16
330.43	80.96
330.658	73.36
330.887	82.96
331.115	82.56
331.344	79.96
331.572	85.16
331.801	83.76
332.03	83.16
332.258	82.16
332.486	82.16
332.715	83.16
332.943	82.76
333.172	85.56
333.4	85.96
333.629	86.56
333.857	84.36
334.085	79.36
334.314	82.96
334.542	82.16
334.771	84.36
334.999	76.36
335.227	84.16
335.455	79.76
335.684	77.16
335.912	82.56
336.14	87.56
336.369	80.36
336.597	82.76
336.825	85.16
337.053	82.96
337.281	87.96
337.51	85.16
337.738	84.96
337.966	78.36
338.194	84.16
338.422	80.76
338.65	79.36
338.878	87.16
339.106	86.16
339.334	86.36
339.562	83.96
339.79	78.56
340.018	89.96
340.246	83.36
340.474	82.36
340.702	80.96
340.93	81.36
341.158	82.56
341.386	79.56
341.614	85.16
341.842	77.36
342.07	84.96
342.298	80.76
342.526	79.56
342.754	89.36
342.981	81.36
343.209	79.96
343.437	77.56
343.665	76.96
343.893	88.16
344.12	89.36
344.348	81.16
344.576	82.76
344.804	78.16
345.031	82.96
345.259	79.76
345.487	83.96
345.714	85.56
345.942	75.96
346.17	82.16
346.397	80.36
346.625	82.16
346.853	73.16
347.08	78.96
347.308	84.16
347.535	80.96
347.763	79.96
347.99	79.96
348.218	77.56
348.445	78.56
348.673	87.96
348.9	91.36
349.128	85.36
349.355	81.16
349.583	85.36
349.81	81.76
350.037	83.36
350.265	87.36
350.492	83.96
350.72	81.56
350.947	77.96
351.174	78.16
351.402	86.76
351.629	85.16
351.856	76.16
352.083	83.36
352.311	77.96
352.538	83.36
352.765	81.56
352.992	83.36
353.22	85.16
353.447	81.16
353.674	78.56
353.901	79.16
354.128	79.96
354.355	94.36
354.583	89.96
354.81	84.96
355.037	86.16
355.264	78.16
355.491	81.56
355.718	76.56
355.945	84.36
356.172	81.16
356.399	79.56
356.626	85.56
356.853	84.56
357.08	82.56
357.307	79.96
357.534	83.36
357.761	77.96
357.988	78.36
358.215	80.16
358.441	76.56
358.668	82.16
358.895	79.16
359.122	79.96
359.349	78.96
359.576	79.76
359.802	80.16
360.029	82.16
360.256	86.36
360.483	85.16
360.709	76.96
360.936	80.16
361.163	84.36
361.39	78.56
361.616	84.56
361.843	78.56
362.07	85.96
362.296	87.16
362.523	84.96
362.749	82.76
362.976	85.16
363.203	86.96
363.429	79.96
363.656	79.16
363.882	83.96
364.109	78.56
364.335	79.76
364.562	85.36
364.788	77.36
365.015	77.76
365.241	88.76
365.468	81.16
365.694	83.76
365.92	76.16
366.147	84.56
366.373	81.16
366.599	91.16
366.826	74.56
367.052	79.36
367.278	80.36
367.505	78.76
367.731	79.16
367.957	81.36
368.184	88.36
368.41	83.76
368.636	77.96
368.862	86.36
369.089	83.16
369.315	78.16
369.541	81.16
369.767	81.56
369.993	85.96
370.219	79.76
370.445	79.56
370.672	83.56
370.898	83.36
371.124	76.16
371.35	77.56
371.576	74.16
371.802	79.76
372.028	80.36
372.254	81.56
372.48	81.76
372.706	79.16
372.932	82.16
373.158	78.96
373.384	74.56
373.61	83.16
373.835	79.76
374.061	83.96
374.287	77.36
374.513	76.96
374.739	83.96
374.965	79.36
375.191	85.56
375.416	88.76
375.642	85.76
375.868	81.56
376.094	79.96
376.319	85.56
376.545	78.76
376.771	81.96
376.997	81.36
377.222	81.16
377.448	74.16
377.674	91.36
377.899	79.36
378.125	78.56
378.35	77.56
378.576	81.96
378.802	79.36
379.027	79.56
379.253	81.96
379.478	82.76
379.704	83.96
379.929	83.96
380.155	81.76
380.38	85.36
380.606	74.16
380.831	83.76
381.057	83.56
381.282	82.56
381.507	75.16
381.733	81.56
381.958	83.56
382.184	83.56
382.409	79.16
382.634	76.36
382.86	79.76
383.085	81.56
383.31	82.36
383.535	78.56
383.761	85.96
383.986	80.36
384.211	83.16
384.436	82.36
384.662	74.36
384.887	82.36
385.112	79.56
385.337	85.56
385.562	85.76
385.787	79.56
386.013	82.56
386.238	82.96
386.463	81.76
386.688	85.16
386.913	83.76
387.138	79.36
387.363	79.16
387.588	80.76
387.813	82.56
388.038	71.16
388.263	84.36
388.488	80.36
388.713	73.76
388.938	81.16
389.163	76.76
389.387	83.96
389.612	79.96
389.837	84.96
390.062	82.96
390.287	81.96
390.512	81.16
390.736	81.76
390.961	78.16
391.186	80.76
391.411	70.36
391.636	79.56
391.86	82.56
392.085	75.36
392.31	79.96
392.534	81.56
392.759	81.16
392.984	86.16
393.208	81.36
393.433	86.56
393.658	81.16
393.882	77.76
394.107	79.76
394.331	87.96
394.556	78.56
394.78	76.96
395.005	84.16
395.229	80.36
395.454	84.16
395.678	78.56
395.903	83.36
396.127	76.16
396.352	75.96
396.576	85.76
396.801	80.56
397.025	76.36
397.249	79.36
397.474	83.96
397.698	80.36
397.922	80.56
398.147	78.56
398.371	80.96
398.595	83.16
398.82	77.16
399.044	79.76
399.268	80.36
399.492	78.36
399.717	81.76
399.941	78.36
400.165	77.76
400.389	74.56
400.613	76.76
400.837	73.56
401.062	81.76
401.286	73.56
401.51	80.96
401.734	70.76
401.958	80.16
402.182	79.76
402.406	78.56
402.63	78.96
402.854	79.76
403.078	78.56
403.302	77.96
403.526	79.56
403.75	74.76
403.974	79.76
404.198	77.56
404.422	78.76
404.645	80.36
404.869	85.16
405.093	74.76
405.317	79.76
405.541	77.16
405.765	83.16
405.988	78.36
406.212	85.16
406.436	77.76
406.66	83.76
406.883	77.76
407.107	85.96
407.331	86.56
407.555	87.36
407.778	73.96
408.002	84.56
408.226	73.76
408.449	79.36
408.673	82.96
408.896	77.16
409.12	80.56
409.344	85.16
409.567	80.96
409.791	83.36
410.014	73.76
410.238	77.96
410.461	79.16
410.685	80.36
410.908	79.16
411.132	86.76
411.355	82.36
411.578	79.76
411.802	79.96
412.025	82.56
412.249	75.16
412.472	79.96
412.695	81.76
412.919	77.96
413.142	80.96
413.365	81.96
413.589	75.56
413.812	86.96
414.035	71.96
414.258	80.36
414.482	77.96
414.705	79.96
414.928	77.56
415.151	76.76
415.374	80.56
415.597	79.36
415.821	79.76
416.044	77.36
416.267	76.56
416.49	76.36
416.713	72.96
416.936	77.36
417.159	78.16
417.382	75.56
417.605	81.76
417.828	80.56
418.051	79.16
418.274	79.36
418.497	75.76
418.72	79.36
418.943	74.96
419.166	80.36
419.389	71.76
419.611	83.96
419.834	77.16
420.057	82.76
420.28	80.56
420.503	75.36
420.726	77.16
420.948	84.16
421.171	75.36
421.394	78.56
421.617	86.16
421.839	82.76
422.062	85.96
422.285	81.76
422.507	82.36
422.73	78.76
422.953	80.96
423.175	75.16
423.398	77.96
423.621	79.36
423.843	81.96
424.066	79.56
424.288	76.96
424.511	77.76
424.733	76.76
424.956	77.56
425.178	82.76
425.401	83.76
425.623	79.36
425.846	81.16
426.068	76.56
426.291	75.16
426.513	81.96
426.735	82.36
426.958	73.36
427.18	77.96
427.402	78.36
427.625	79.16
427.847	71.36
428.069	84.56
428.292	77.96
428.514	83.76
428.736	73.56
428.958	81.16
429.181	76.96
429.403	82.56
429.625	76.16
429.847	77.36
430.069	78.16
430.292	77.56
430.514	75.36
430.736	86.36
430.958	78.56
431.18	82.16
431.402	80.16
431.624	81.16
431.846	79.96
432.068	80.16
432.29	78.36
432.512	76.16
432.734	75.76
432.956	79.16
433.178	81.36
433.4	79.76
433.622	78.16
433.844	74.96
434.066	81.76
434.287	77.36
434.509	73.96
434.731	78.56
434.953	83.16
435.175	78.96
435.397	80.96
435.618	91.76
435.84	75.36
436.062	76.36
436.284	80.36
436.505	73.36
436.727	81.76
436.949	83.36
437.17	84.16
437.392	71.16
437.614	82.16
437.835	75.16
438.057	75.56
438.278	78.76
438.5	76.76
438.721	80.36
438.943	77.96
439.165	78.56
439.386	79.16
439.608	82.96
439.829	82.36
440.05	76.16
440.272	74.16
440.493	81.76
440.715	82.56
440.936	80.96
441.158	79.96
441.379	74.56
441.6	79.36
441.822	78.16
442.043	69.76
442.264	73.56
442.486	81.96
442.707	78.36
442.928	79.76
443.149	79.96
443.371	79.76
443.592	81.76
443.813	77.16
444.034	76.76
444.255	79.36
444.476	74.56
444.698	75.56
444.919	77.76
445.14	86.36
445.361	81.96
445.582	74.76
445.803	83.56
446.024	82.36
446.245	78.76
446.466	75.96
446.687	76.76
446.908	80.56
447.129	77.76
447.35	77.96
447.571	77.96
447.792	79.96
448.013	76.96
448.234	79.36
448.455	75.76
448.675	76.36
448.896	76.56
449.117	78.16
449.338	85.16
449.559	82.16
449.779	79.96
450	79.96
450.221	81.56
450.442	72.76
450.662	78.56
450.883	80.16
451.104	79.16
451.324	76.16
451.545	75.96
451.766	77.76
451.986	77.16
452.207	82.36
452.428	78.36
452.648	80.16
452.869	80.16
453.089	81.96
453.31	79.96
453.53	84.96
453.751	78.76
453.971	78.56
454.192	81.96
454.412	80.56
454.633	74.76
454.853	81.96
455.073	78.16
455.294	81.36
455.514	79.76
455.734	81.96
455.955	77.36
456.175	79.76
456.395	79.16
456.616	79.36
456.836	80.56
457.056	78.96
457.276	76.76
457.497	80.76
457.717	79.36
457.937	76.96
458.157	83.56
458.377	76.96
458.598	79.56
458.818	76.36
459.038	79.56
459.258	81.76
459.478	82.56
459.698	83.16
459.918	79.56
460.138	75.96
460.358	78.76
460.578	74.96
460.798	80.96
461.018	84.16
461.238	79.56
461.458	78.56
461.678	85.56
461.898	74.36
462.118	73.16
462.338	73.96
462.558	77.76
462.777	78.56
462.997	83.96
463.217	81.96
463.437	71.96
463.657	80.36
463.876	79.96
464.096	77.36
464.316	86.56
464.536	80.36
464.755	80.76
464.975	75.16
465.195	81.76
465.414	80.36
465.634	76.36
465.854	84.76
466.073	78.76
466.293	77.36
466.512	82.16
466.732	81.56
466.951	75.36
467.171	84.16
467.391	77.96
467.61	77.56
467.829	76.56
468.049	77.96
468.268	78.96
468.488	73.76
468.707	81.36
468.927	79.16
469.146	77.16
469.365	77.96
469.585	72.96
469.804	75.16
470.023	78.36
470.243	74.56
470.462	77.16
470.681	81.36
470.901	81.36
471.12	75.96
471.339	79.96
471.558	74.56
471.777	81.96
471.997	78.96
472.216	78.96
472.435	82.16
472.654	80.96
472.873	82.36
473.092	81.76
473.311	82.76
473.53	80.56
473.749	73.96
473.968	76.16
474.187	76.16
474.406	82.16
474.625	85.96
474.844	78.76
475.063	77.76
475.282	79.56
475.501	75.76
475.72	77.16
475.939	76.36
476.158	76.56
476.377	79.36
476.596	80.56
476.814	84.16
477.033	74.16
477.252	79.76
477.471	75.76
477.69	80.36
477.908	74.16
478.127	80.96
478.346	83.16
478.564	82.36
478.783	78.96
479.002	87.36
479.22	77.76
479.439	78.36
479.658	81.16
479.876	80.36
480.095	83.56
480.313	85.96
480.532	86.16
480.751	83.16
480.969	79.36
481.188	77.76
481.406	80.96
481.624	77.56
481.843	75.36
482.061	73.76
482.28	75.96
482.498	74.36
482.717	78.96
482.935	73.16
483.153	73.36
483.372	80.56
483.59	84.96
483.808	79.56
484.027	78.96
484.245	75.36
484.463	86.16
484.681	87.76
484.9	82.96
485.118	77.96
485.336	78.56
485.554	81.76
485.772	80.56
485.99	81.16
486.209	77.76
486.427	74.76
486.645	77.56
486.863	72.96
487.081	76.16
487.299	86.36
487.517	81.16
487.735	84.96
487.953	78.36
488.171	80.76
488.389	79.56
488.607	76.36
488.825	84.76
489.043	81.96
489.261	79.76
489.479	77.56
489.696	70.76
489.914	72.16
490.132	80.96
490.35	80.36
490.568	77.56
490.786	70.56
491.003	79.16
491.221	86.36
491.439	80.96
491.657	78.36
491.874	83.76
492.092	78.16
492.31	83.36
492.527	80.56
492.745	79.16
492.963	88.16
493.18	79.16
493.398	81.56
493.615	80.36
493.833	78.76
494.05	77.56
494.268	79.16
494.485	80.76
494.703	79.16
494.92	74.36
495.138	79.96
495.355	82.16
495.573	83.16
495.79	81.76
496.008	76.16
496.225	76.96
496.442	86.16
496.66	79.76
496.877	77.36
497.094	85.16
497.312	83.76
497.529	85.36
497.746	81.36
497.963	84.76
498.181	80.56
498.398	83.16
498.615	83.16
498.832	79.56
499.049	81.36
499.267	76.36
499.484	79.76
499.701	72.56
499.918	84.56
500.135	80.36
500.352	84.96
500.569	86.16
500.786	81.96
501.003	79.36
501.22	72.76
501.437	76.96
501.654	76.96
501.871	76.96
502.088	77.16
502.305	76.76
502.522	75.56
502.739	80.36
502.956	75.36
503.172	79.76
503.389	77.16
503.606	83.36
503.823	75.76
504.04	79.76
504.256	87.36
504.473	78.36
504.69	83.96
504.907	80.76
505.123	84.36
505.34	75.36
505.557	77.76
505.773	83.76
505.99	78.76
506.207	79.96
506.423	80.36
506.64	72.56
506.856	81.56
507.073	87.56
507.289	82.76
507.506	83.36
507.722	75.76
507.939	81.56
508.155	79.56
508.372	84.56
508.588	79.76
508.805	82.96
509.021	81.36
509.238	76.76
509.454	79.16
509.67	82.76
509.887	81.36
510.103	86.16
510.319	71.96
510.536	75.16
510.752	83.56
510.968	81.76
511.184	83.16
511.401	82.96
511.617	72.76
511.833	74.96
512.049	80.96
512.265	83.36
512.481	78.36
512.698	79.16
512.914	84.76
513.13	80.16
513.346	77.76
513.562	88.76
513.778	77.56
513.994	82.36
514.21	86.16
514.426	83.96
514.642	81.16
514.858	77.56
515.074	77.16
515.29	81.16
515.506	81.56
515.721	80.96
515.937	86.96
516.153	83.36
516.369	77.76
516.585	85.36
516.801	75.56
517.016	80.96
517.232	77.96
517.448	77.76
517.664	81.56
517.879	78.56
518.095	84.96
518.311	77.56
518.527	74.36
518.742	73.56
518.958	85.36
519.173	84.56
519.389	85.76
519.605	84.96
519.82	86.56
520.036	80.76
520.251	85.36
