Data from TenMicroDelayPb_HRD10591_00039.txt Node
Date: Mon Nov 24 14:37:11 EST 2025
User: Yrep
Spectrometer: HR+D1059
Trigger mode: 1
Integration Time (sec): 1.000000E-2
Scans to average: 5
Electric dark correction enabled: true
Nonlinearity correction enabled: false
Boxcar width: 0
XAxis mode: Wavelengths
Number of Pixels in Spectrum: 2048
>>>>>Begin Spectral Data<<<<<
223.165	-11.28
223.4	-11.28
223.635	-11.28
223.869	-13.88
224.104	-17.08
224.338	-13.68
224.573	-15.88
224.808	-18.88
225.042	-5.68
225.277	-5.28
225.511	2.12
225.746	-0.88
225.98	2.92
226.215	11.92
226.449	14.72
226.683	17.52
226.918	24.32
227.152	28.92
227.387	36.92
227.621	40.52
227.856	40.52
228.09	41.72
228.324	60.92
228.559	49.72
228.793	64.32
229.027	66.12
229.262	62.52
229.496	71.12
229.73	76.12
229.964	67.72
230.199	75.52
230.433	82.92
230.667	77.72
230.901	79.52
231.136	82.32
231.37	73.52
231.604	79.52
231.838	87.32
232.072	85.52
232.306	83.52
232.541	82.72
232.775	78.92
233.009	81.12
233.243	85.32
233.477	77.12
233.711	76.12
233.945	84.72
234.179	75.92
234.413	83.92
234.647	83.32
234.881	85.52
235.115	77.52
235.349	80.52
235.583	80.52
235.817	76.12
236.051	81.32
236.285	77.72
236.519	76.52
236.753	84.72
236.987	79.32
237.221	78.72
237.455	82.52
237.689	77.72
237.922	78.52
238.156	77.12
238.39	83.12
238.624	79.92
238.858	77.12
239.091	77.52
239.325	80.12
239.559	80.52
239.793	76.32
240.027	74.32
240.26	68.32
240.494	76.32
240.728	77.72
240.961	74.12
241.195	75.32
241.429	77.72
241.662	81.12
241.896	76.72
242.13	70.92
242.363	73.92
242.597	78.52
242.83	82.92
243.064	83.12
243.298	77.32
243.531	75.72
243.765	77.32
243.998	88.52
244.232	80.92
244.465	80.12
244.699	80.32
244.932	83.32
245.166	82.32
245.399	82.52
245.633	73.12
245.866	78.92
246.099	75.72
246.333	78.32
246.566	71.12
246.8	77.12
247.033	82.32
247.266	81.92
247.5	83.12
247.733	77.32
247.966	79.72
248.2	73.52
248.433	78.72
248.666	80.92
248.899	78.72
249.133	80.92
249.366	79.52
249.599	80.52
249.832	75.92
250.066	85.32
250.299	75.52
250.532	83.52
250.765	83.92
250.998	83.32
251.231	80.72
251.465	85.92
251.698	79.52
251.931	83.12
252.164	80.92
252.397	82.12
252.63	83.72
252.863	86.52
253.096	78.72
253.329	81.92
253.562	79.12
253.795	78.32
254.028	79.52
254.261	81.32
254.494	83.92
254.727	84.12
254.96	87.72
255.193	77.12
255.426	79.72
255.659	81.52
255.892	83.92
256.124	78.72
256.357	78.92
256.59	78.92
256.823	76.92
257.056	74.52
257.289	75.12
257.521	84.12
257.754	78.72
257.987	81.12
258.22	86.32
258.452	83.72
258.685	88.32
258.918	83.12
259.151	82.32
259.383	81.92
259.616	84.72
259.849	85.92
260.081	87.12
260.314	83.72
260.547	85.52
260.779	83.92
261.012	81.72
261.244	88.72
261.477	84.12
261.71	91.12
261.942	80.32
262.175	77.92
262.407	76.92
262.64	81.32
262.872	86.72
263.105	78.32
263.337	92.12
263.57	81.32
263.802	83.32
264.035	81.92
264.267	83.52
264.499	82.92
264.732	82.12
264.964	85.32
265.197	89.52
265.429	89.92
265.661	87.32
265.894	83.92
266.126	92.72
266.358	86.52
266.591	87.12
266.823	77.12
267.055	81.92
267.287	82.12
267.52	75.72
267.752	77.92
267.984	82.12
268.216	84.32
268.448	82.52
268.681	85.52
268.913	86.72
269.145	80.92
269.377	83.72
269.609	84.72
269.841	87.32
270.073	80.92
270.306	77.92
270.538	81.12
270.77	85.32
271.002	80.32
271.234	76.92
271.466	84.92
271.698	80.72
271.93	79.72
272.162	80.92
272.394	91.72
272.626	79.12
272.858	84.32
273.09	80.12
273.322	83.52
273.553	87.12
273.785	85.92
274.017	85.52
274.249	81.72
274.481	79.52
274.713	84.72
274.945	83.92
275.176	85.92
275.408	79.72
275.64	77.12
275.872	81.92
276.104	89.92
276.335	83.72
276.567	88.92
276.799	82.72
277.031	83.32
277.262	84.72
277.494	87.72
277.726	81.72
277.957	83.72
278.189	89.12
278.421	84.72
278.652	88.12
278.884	83.52
279.115	84.52
279.347	86.92
279.579	90.32
279.81	78.72
280.042	96.32
280.273	100.32
280.505	98.52
280.736	90.12
280.968	91.32
281.199	84.32
281.431	92.52
281.662	86.52
281.894	85.92
282.125	86.92
282.356	95.72
282.588	96.72
282.819	91.92
283.051	88.52
283.282	92.72
283.513	98.32
283.745	91.12
283.976	87.72
284.207	81.72
284.439	86.12
284.67	86.12
284.901	85.92
285.132	82.12
285.364	88.92
285.595	89.12
285.826	90.92
286.057	87.32
286.288	85.72
286.52	90.12
286.751	84.92
286.982	85.92
287.213	91.52
287.444	89.72
287.675	93.32
287.906	86.52
288.138	80.12
288.369	81.32
288.6	86.32
288.831	89.72
289.062	90.52
289.293	86.92
289.524	80.32
289.755	80.72
289.986	91.32
290.217	83.92
290.448	85.12
290.679	85.32
290.91	85.12
291.141	89.72
291.371	83.12
291.602	87.12
291.833	83.12
292.064	84.92
292.295	85.92
292.526	90.72
292.757	85.92
292.987	84.12
293.218	84.52
293.449	82.72
293.68	87.32
293.91	84.92
294.141	83.72
294.372	83.72
294.603	84.12
294.833	85.92
295.064	87.92
295.295	81.52
295.525	79.12
295.756	85.12
295.987	87.32
296.217	85.92
296.448	82.12
296.679	90.52
296.909	81.92
297.14	88.92
297.37	89.72
297.601	89.52
297.831	88.52
298.062	85.32
298.292	86.92
298.523	84.12
298.753	83.92
298.984	89.92
299.214	89.12
299.445	81.72
299.675	83.12
299.905	85.72
300.136	82.92
300.366	82.72
300.597	81.12
300.827	91.72
301.057	90.12
301.288	84.92
301.518	84.92
301.748	83.92
301.979	84.72
302.209	86.32
302.439	80.92
302.669	86.72
302.9	84.72
303.13	84.12
303.36	84.12
303.59	83.32
303.82	87.52
304.051	86.92
304.281	85.52
304.511	88.92
304.741	88.52
304.971	87.52
305.201	81.52
305.431	82.72
305.661	87.32
305.891	83.52
306.121	83.92
306.352	89.92
306.582	79.52
306.812	82.52
307.042	82.52
307.272	79.32
307.502	86.12
307.731	80.52
307.961	85.12
308.191	85.72
308.421	85.92
308.651	84.32
308.881	86.12
309.111	86.12
309.341	89.32
309.571	96.32
309.8	88.12
310.03	84.72
310.26	84.92
310.49	86.32
310.72	83.72
310.949	83.32
311.179	82.72
311.409	88.92
311.639	83.32
311.868	88.92
312.098	89.92
312.328	75.32
312.557	84.32
312.787	83.32
313.017	90.12
313.246	81.52
313.476	84.92
313.706	78.72
313.935	85.72
314.165	86.92
314.394	92.52
314.624	91.32
314.853	81.72
315.083	81.12
315.312	84.12
315.542	83.92
315.771	88.32
316.001	88.32
316.23	89.52
316.46	83.72
316.689	81.12
316.919	84.52
317.148	89.12
317.377	88.12
317.607	90.92
317.836	86.52
318.065	87.72
318.295	87.52
318.524	84.92
318.753	87.92
318.983	88.32
319.212	81.32
319.441	89.12
319.67	88.52
319.9	87.12
320.129	85.12
320.358	83.32
320.587	86.12
320.816	88.32
321.046	88.92
321.275	88.52
321.504	86.32
321.733	86.52
321.962	87.72
322.191	86.12
322.42	86.92
322.649	82.92
322.878	77.72
323.108	85.92
323.337	85.52
323.566	84.12
323.795	88.92
324.024	82.72
324.253	85.52
324.482	83.32
324.71	85.92
324.939	80.72
325.168	85.92
325.397	85.32
325.626	79.72
325.855	85.32
326.084	84.52
326.313	82.12
326.542	83.32
326.77	86.12
326.999	84.12
327.228	78.92
327.457	84.12
327.686	88.52
327.914	87.72
328.143	85.12
328.372	86.12
328.6	92.32
328.829	79.92
329.058	90.72
329.287	81.92
329.515	84.52
329.744	83.72
329.972	82.32
330.201	86.32
330.43	86.32
330.658	88.32
330.887	95.32
331.115	81.72
331.344	81.92
331.572	90.72
331.801	84.52
332.03	82.12
332.258	87.92
332.486	83.52
332.715	89.92
332.943	85.72
333.172	88.12
333.4	86.72
333.629	81.12
333.857	80.52
334.085	90.52
334.314	79.52
334.542	84.92
334.771	84.92
334.999	85.72
335.227	86.12
335.455	86.92
335.684	86.52
335.912	81.32
336.14	82.52
336.369	84.32
336.597	90.72
336.825	83.52
337.053	82.72
337.281	88.72
337.51	82.52
337.738	83.12
337.966	83.52
338.194	89.72
338.422	82.72
338.65	83.32
338.878	84.32
339.106	88.72
339.334	85.92
339.562	88.12
339.79	87.12
340.018	84.52
340.246	88.32
340.474	89.72
340.702	87.12
340.93	84.12
341.158	90.32
341.386	81.12
341.614	84.92
341.842	86.72
342.07	85.32
342.298	87.52
342.526	86.72
342.754	84.32
342.981	86.72
343.209	86.92
343.437	85.52
343.665	81.92
343.893	87.52
344.12	88.72
344.348	81.12
344.576	85.52
344.804	84.32
345.031	86.52
345.259	87.32
345.487	80.32
345.714	83.72
345.942	85.12
346.17	84.92
346.397	88.52
346.625	84.72
346.853	95.32
347.08	84.12
347.308	82.52
347.535	89.12
347.763	85.12
347.99	88.12
348.218	81.52
348.445	83.92
348.673	87.12
348.9	88.12
349.128	87.32
349.355	81.12
349.583	81.52
349.81	88.32
350.037	90.12
350.265	83.52
350.492	84.32
350.72	88.52
350.947	88.12
351.174	81.92
351.402	86.92
351.629	82.72
351.856	82.32
352.083	86.32
352.311	82.72
352.538	79.92
352.765	87.32
352.992	83.52
353.22	85.72
353.447	83.92
353.674	93.92
353.901	86.72
354.128	89.12
354.355	92.12
354.583	87.32
354.81	90.12
355.037	89.32
355.264	89.12
355.491	83.12
355.718	82.12
355.945	87.92
356.172	85.52
356.399	88.52
356.626	86.12
356.853	93.32
357.08	104.72
357.307	113.32
357.534	114.32
357.761	94.32
357.988	79.92
358.215	89.32
358.441	81.52
358.668	83.32
358.895	81.52
359.122	84.12
359.349	88.52
359.576	88.32
359.802	87.52
360.029	81.52
360.256	84.92
360.483	82.12
360.709	83.32
360.936	85.32
361.163	87.52
361.39	82.52
361.616	81.72
361.843	83.92
362.07	94.32
362.296	85.72
362.523	86.32
362.749	86.52
362.976	85.72
363.203	86.52
363.429	95.72
363.656	107.52
363.882	130.52
364.109	133.32
364.335	105.12
364.562	89.92
364.788	88.72
365.015	90.12
365.241	91.72
365.468	80.32
365.694	79.12
365.92	89.32
366.147	85.52
366.373	92.72
366.599	89.92
366.826	87.52
367.052	105.52
367.278	110.12
367.505	99.32
367.731	94.12
367.957	113.12
368.184	138.52
368.41	168.32
368.636	133.72
368.862	100.12
369.089	89.52
369.315	82.92
369.541	84.52
369.767	93.32
369.993	82.52
370.219	83.92
370.445	91.12
370.672	92.92
370.898	82.32
371.124	77.92
371.35	81.52
371.576	83.52
371.802	77.52
372.028	85.52
372.254	84.52
372.48	88.92
372.706	89.92
372.932	84.72
373.158	77.12
373.384	85.32
373.61	94.32
373.835	107.12
374.061	115.92
374.287	99.52
374.513	88.52
374.739	87.12
374.965	84.32
375.191	80.72
375.416	81.32
375.642	87.52
375.868	81.12
376.094	88.92
376.319	76.92
376.545	83.72
376.771	84.12
376.997	78.72
377.222	85.72
377.448	86.72
377.674	82.92
377.899	88.12
378.125	82.12
378.35	81.32
378.576	85.12
378.802	80.52
379.027	82.12
379.253	85.32
379.478	83.52
379.704	77.72
379.929	82.52
380.155	83.12
380.38	83.92
380.606	83.12
380.831	81.92
381.057	80.32
381.282	88.32
381.507	81.92
381.733	81.52
381.958	87.92
382.184	81.52
382.409	80.52
382.634	88.32
382.86	77.92
383.085	83.52
383.31	80.92
383.535	80.92
383.761	83.12
383.986	82.12
384.211	86.12
384.436	84.92
384.662	80.32
384.887	83.12
385.112	87.52
385.337	78.12
385.562	86.32
385.787	82.52
386.013	88.32
386.238	82.72
386.463	82.32
386.688	82.72
386.913	85.92
387.138	82.92
387.363	79.72
387.588	82.92
387.813	82.92
388.038	78.92
388.263	79.12
388.488	79.92
388.713	84.52
388.938	86.52
389.163	84.92
389.387	78.12
389.612	81.72
389.837	79.72
390.062	83.52
390.287	90.32
390.512	83.92
390.736	84.12
390.961	84.92
391.186	84.92
391.411	76.92
391.636	85.52
391.86	80.72
392.085	82.52
392.31	92.52
392.534	88.52
392.759	85.72
392.984	92.52
393.208	81.92
393.433	83.12
393.658	83.12
393.882	80.12
394.107	81.92
394.331	82.12
394.556	84.92
394.78	84.72
395.005	89.72
395.229	86.72
395.454	85.52
395.678	87.52
395.903	85.12
396.127	81.12
396.352	83.92
396.576	84.52
396.801	80.92
397.025	83.72
397.249	90.32
397.474	79.92
397.698	79.52
397.922	85.52
398.147	84.32
398.371	78.72
398.595	84.72
398.82	81.72
399.044	86.52
399.268	84.92
399.492	79.92
399.717	84.52
399.941	84.92
400.165	87.32
400.389	82.72
400.613	85.12
400.837	91.32
401.062	82.52
401.286	84.52
401.51	87.72
401.734	86.12
401.958	100.32
402.182	95.72
402.406	84.32
402.63	79.52
402.854	84.92
403.078	83.72
403.302	88.52
403.526	85.92
403.75	77.92
403.974	81.52
404.198	86.52
404.422	80.52
404.645	88.12
404.869	92.72
405.093	94.12
405.317	106.12
405.541	155.72
405.765	237.72
405.988	244.12
406.212	148.52
406.436	117.72
406.66	90.12
406.883	88.32
407.107	81.32
407.331	83.92
407.555	83.32
407.778	81.92
408.002	76.52
408.226	84.12
408.449	85.12
408.673	77.12
408.896	83.72
409.12	82.52
409.344	82.92
409.567	91.12
409.791	83.32
410.014	86.32
410.238	79.12
410.461	77.32
410.685	86.32
410.908	75.92
411.132	83.72
411.355	87.52
411.578	80.52
411.802	80.32
412.025	83.32
412.249	78.52
412.472	79.52
412.695	79.12
412.919	89.92
413.142	82.32
413.365	82.52
413.589	91.92
413.812	83.32
414.035	83.72
414.258	87.72
414.482	82.52
414.705	84.92
414.928	78.52
415.151	79.12
415.374	83.12
415.597	82.92
415.821	84.72
416.044	78.72
416.267	87.32
416.49	88.12
416.713	85.72
416.936	91.32
417.159	85.72
417.382	84.52
417.605	81.72
417.828	87.32
418.051	83.52
418.274	82.72
418.497	80.72
418.72	86.72
418.943	82.52
419.166	84.92
419.389	87.32
419.611	84.72
419.834	85.52
420.057	86.52
420.28	86.52
420.503	88.92
420.726	81.32
420.948	83.32
421.171	84.72
421.394	86.72
421.617	80.32
421.839	89.72
422.062	72.32
422.285	80.92
422.507	83.92
422.73	82.92
422.953	84.12
423.175	80.32
423.398	81.72
423.621	81.52
423.843	85.92
424.066	83.72
424.288	84.32
424.511	81.92
424.733	83.92
424.956	85.52
425.178	88.12
425.401	85.72
425.623	83.52
425.846	83.72
426.068	82.72
426.291	74.72
426.513	84.32
426.735	85.92
426.958	85.72
427.18	78.12
427.402	84.72
427.625	81.32
427.847	82.32
428.069	83.52
428.292	81.72
428.514	79.92
428.736	84.32
428.958	78.32
429.181	75.52
429.403	86.32
429.625	80.72
429.847	86.12
430.069	82.92
430.292	84.32
430.514	80.72
430.736	82.52
430.958	92.32
431.18	83.92
431.402	85.72
431.624	78.12
431.846	88.32
432.068	85.32
432.29	87.92
432.512	83.32
432.734	81.72
432.956	85.12
433.178	84.12
433.4	87.52
433.622	86.72
433.844	80.32
434.066	82.52
434.287	77.52
434.509	82.32
434.731	82.72
434.953	83.92
435.175	83.72
435.397	81.32
435.618	81.32
435.84	87.92
436.062	80.52
436.284	84.52
436.505	80.72
436.727	84.32
436.949	85.72
437.17	86.12
437.392	83.32
437.614	83.32
437.835	80.92
438.057	79.32
438.278	79.52
438.5	82.52
438.721	83.12
438.943	88.32
439.165	81.32
439.386	90.32
439.608	87.72
439.829	87.72
440.05	85.52
440.272	83.92
440.493	77.32
440.715	81.92
440.936	82.92
441.158	82.32
441.379	80.72
441.6	74.32
441.822	79.12
442.043	86.12
442.264	82.92
442.486	81.12
442.707	83.52
442.928	83.72
443.149	86.72
443.371	84.92
443.592	83.12
443.813	87.12
444.034	90.72
444.255	85.32
444.476	82.32
444.698	87.12
444.919	84.72
445.14	85.92
445.361	82.32
445.582	85.92
445.803	85.92
446.024	79.32
446.245	87.72
446.466	84.52
446.687	82.92
446.908	81.92
447.129	85.72
447.35	86.32
447.571	80.92
447.792	84.52
448.013	88.72
448.234	85.32
448.455	88.92
448.675	90.92
448.896	87.52
449.117	78.92
449.338	89.92
449.559	88.52
449.779	86.52
450	85.12
450.221	77.32
450.442	90.72
450.662	81.32
450.883	85.72
451.104	84.12
451.324	85.12
451.545	90.12
451.766	83.52
451.986	81.12
452.207	84.32
452.428	88.72
452.648	78.32
452.869	84.72
453.089	84.12
453.31	90.72
453.53	82.52
453.751	84.72
453.971	82.12
454.192	81.92
454.412	86.92
454.633	83.72
454.853	83.52
455.073	88.32
455.294	86.92
455.514	90.32
455.734	85.52
455.955	81.72
456.175	83.32
456.395	78.12
456.616	84.52
456.836	84.52
457.056	85.92
457.276	81.72
457.497	86.12
457.717	89.12
457.937	80.92
458.157	89.72
458.377	80.92
458.598	90.52
458.818	84.52
459.038	79.12
459.258	84.12
459.478	78.12
459.698	80.32
459.918	88.72
460.138	84.12
460.358	83.72
460.578	86.92
460.798	83.72
461.018	81.52
461.238	87.92
461.458	82.52
461.678	82.12
461.898	88.72
462.118	89.72
462.338	82.32
462.558	84.52
462.777	91.12
462.997	78.32
463.217	81.72
463.437	81.92
463.657	80.12
463.876	83.12
464.096	81.32
464.316	78.92
464.536	84.12
464.755	77.72
464.975	85.72
465.195	77.32
465.414	77.72
465.634	82.12
465.854	88.52
466.073	83.12
466.293	82.32
466.512	84.12
466.732	90.12
466.951	85.52
467.171	87.12
467.391	89.32
467.61	78.32
467.829	90.32
468.049	86.52
468.268	84.72
468.488	83.12
468.707	82.12
468.927	77.12
469.146	84.12
469.365	80.52
469.585	91.72
469.804	85.92
470.023	84.52
470.243	87.32
470.462	82.72
470.681	88.32
470.901	86.32
471.12	90.12
471.339	89.92
471.558	84.72
471.777	79.32
471.997	93.52
472.216	82.72
472.435	78.72
472.654	84.52
472.873	84.32
473.092	78.92
473.311	83.12
473.53	81.72
473.749	86.72
473.968	82.32
474.187	83.32
474.406	80.92
474.625	82.32
474.844	85.12
475.063	83.72
475.282	80.32
475.501	81.92
475.72	84.72
475.939	84.52
476.158	84.92
476.377	89.72
476.596	87.92
476.814	83.72
477.033	83.32
477.252	84.72
477.471	85.92
477.69	84.92
477.908	86.52
478.127	79.12
478.346	85.32
478.564	84.12
478.783	89.32
479.002	87.72
479.22	85.92
479.439	86.32
479.658	82.32
479.876	83.12
480.095	87.52
480.313	81.72
480.532	87.12
480.751	84.32
480.969	84.72
481.188	84.72
481.406	86.12
481.624	78.92
481.843	86.92
482.061	87.32
482.28	86.52
482.498	88.72
482.717	82.32
482.935	81.92
483.153	84.12
483.372	88.12
483.59	88.92
483.808	77.92
484.027	87.72
484.245	87.72
484.463	80.32
484.681	83.92
484.9	84.52
485.118	86.72
485.336	85.32
485.554	85.32
485.772	85.72
485.99	88.12
486.209	86.32
486.427	80.72
486.645	87.52
486.863	89.32
487.081	81.52
487.299	87.52
487.517	87.72
487.735	88.72
487.953	84.32
488.171	82.72
488.389	85.12
488.607	87.52
488.825	90.12
489.043	90.52
489.261	83.12
489.479	81.12
489.696	87.72
489.914	82.72
490.132	86.52
490.35	83.32
490.568	78.72
490.786	86.52
491.003	87.72
491.221	78.52
491.439	89.72
491.657	81.32
491.874	83.52
492.092	79.52
492.31	83.32
492.527	86.92
492.745	86.72
492.963	94.32
493.18	88.52
493.398	83.12
493.615	82.12
493.833	83.92
494.05	83.92
494.268	83.52
494.485	84.92
494.703	85.72
494.92	88.12
495.138	85.72
495.355	88.12
495.573	83.92
495.79	86.52
496.008	80.92
496.225	84.12
496.442	80.52
496.66	86.92
496.877	87.12
497.094	86.32
497.312	95.12
497.529	87.92
497.746	85.92
497.963	82.72
498.181	78.12
498.398	79.52
498.615	88.12
498.832	79.32
499.049	83.72
499.267	83.92
499.484	78.72
499.701	92.52
499.918	86.72
500.135	85.52
500.352	88.92
500.569	102.72
500.786	113.52
501.003	92.32
501.22	85.52
501.437	79.92
501.654	92.72
501.871	83.12
502.088	82.52
502.305	86.52
502.522	80.92
502.739	81.72
502.956	86.32
503.172	89.52
503.389	86.72
503.606	88.12
503.823	85.72
504.04	82.52
504.256	82.32
504.473	85.52
504.69	85.32
504.907	84.72
505.123	85.32
505.34	85.32
505.557	80.72
505.773	84.12
505.99	90.12
506.207	89.32
506.423	83.32
506.64	81.72
506.856	88.12
507.073	79.12
507.289	82.72
507.506	90.12
507.722	83.52
507.939	83.92
508.155	89.72
508.372	85.32
508.588	85.32
508.805	79.32
509.021	90.12
509.238	83.92
509.454	86.32
509.67	81.32
509.887	81.12
510.103	88.32
510.319	88.52
510.536	84.92
510.752	87.52
510.968	89.92
511.184	86.12
511.401	86.32
511.617	83.92
511.833	86.12
512.049	81.92
512.265	80.32
512.481	88.52
512.698	85.52
512.914	85.12
513.13	78.52
513.346	88.52
513.562	84.12
513.778	88.32
513.994	78.52
514.21	81.32
514.426	91.52
514.642	78.72
514.858	86.52
515.074	85.72
515.29	83.52
515.506	86.32
515.721	82.72
515.937	84.92
516.153	82.32
516.369	89.12
516.585	80.72
516.801	85.12
517.016	80.52
517.232	83.32
517.448	87.92
517.664	83.92
517.879	80.32
518.095	85.12
518.311	85.52
518.527	83.12
518.742	83.92
518.958	85.32
519.173	89.72
519.389	83.92
519.605	87.92
519.82	87.52
