Data from TenMicroDelayPb_HRD10591_00034.txt Node
Date: Mon Nov 24 14:36:59 EST 2025
User: Yrep
Spectrometer: HR+D1059
Trigger mode: 1
Integration Time (sec): 1.000000E-2
Scans to average: 5
Electric dark correction enabled: true
Nonlinearity correction enabled: false
Boxcar width: 0
XAxis mode: Wavelengths
Number of Pixels in Spectrum: 2048
>>>>>Begin Spectral Data<<<<<
223.165	-13.44
223.4	-13.44
223.635	-13.44
223.869	-14.24
224.104	-18.44
224.338	-16.64
224.573	-17.64
224.808	-17.84
225.042	-12.64
225.277	-1.44
225.511	-1.64
225.746	4.36
225.98	11.56
226.215	15.16
226.449	18.36
226.683	17.56
226.918	22.96
227.152	23.96
227.387	33.76
227.621	40.96
227.856	50.76
228.09	48.76
228.324	52.76
228.559	57.16
228.793	56.36
229.027	63.76
229.262	63.76
229.496	65.76
229.73	68.96
229.964	71.16
230.199	69.96
230.433	74.16
230.667	77.36
230.901	76.36
231.136	82.16
231.37	72.56
231.604	81.76
231.838	82.56
232.072	83.16
232.306	79.96
232.541	81.56
232.775	81.96
233.009	80.16
233.243	80.36
233.477	78.76
233.711	81.16
233.945	81.16
234.179	75.96
234.413	82.96
234.647	81.76
234.881	79.96
235.115	79.36
235.349	83.56
235.583	74.56
235.817	79.16
236.051	78.76
236.285	77.16
236.519	77.56
236.753	78.16
236.987	75.16
237.221	76.36
237.455	74.36
237.689	79.76
237.922	77.96
238.156	81.36
238.39	74.56
238.624	72.16
238.858	80.76
239.091	77.16
239.325	77.36
239.559	78.96
239.793	75.36
240.027	71.56
240.26	78.16
240.494	83.16
240.728	77.96
240.961	76.76
241.195	71.56
241.429	75.56
241.662	75.96
241.896	80.96
242.13	78.16
242.363	71.96
242.597	72.36
242.83	76.36
243.064	80.36
243.298	76.56
243.531	70.36
243.765	75.56
243.998	81.96
244.232	79.16
244.465	77.16
244.699	82.16
244.932	77.56
245.166	79.76
245.399	72.96
245.633	76.56
245.866	79.96
246.099	77.76
246.333	77.96
246.566	82.76
246.8	82.76
247.033	77.76
247.266	83.96
247.5	79.16
247.733	81.56
247.966	82.56
248.2	84.56
248.433	80.76
248.666	80.16
248.899	80.36
249.133	80.56
249.366	75.16
249.599	78.56
249.832	79.36
250.066	88.36
250.299	79.36
250.532	79.76
250.765	83.56
250.998	81.76
251.231	79.96
251.465	83.96
251.698	80.56
251.931	80.96
252.164	83.36
252.397	83.56
252.63	74.96
252.863	84.96
253.096	81.76
253.329	83.56
253.562	87.76
253.795	80.16
254.028	79.56
254.261	80.96
254.494	83.16
254.727	77.36
254.96	80.76
255.193	80.56
255.426	79.16
255.659	81.16
255.892	78.56
256.124	82.96
256.357	85.76
256.59	79.96
256.823	82.36
257.056	81.16
257.289	81.36
257.521	80.76
257.754	79.76
257.987	85.16
258.22	79.16
258.452	79.76
258.685	83.16
258.918	83.16
259.151	85.16
259.383	86.96
259.616	86.16
259.849	84.96
260.081	79.76
260.314	83.16
260.547	85.56
260.779	75.96
261.012	77.96
261.244	84.16
261.477	91.96
261.71	87.56
261.942	85.36
262.175	80.16
262.407	77.96
262.64	81.96
262.872	83.16
263.105	84.16
263.337	88.16
263.57	83.16
263.802	86.56
264.035	85.36
264.267	81.96
264.499	81.36
264.732	88.16
264.964	86.76
265.197	90.96
265.429	88.96
265.661	84.96
265.894	80.16
266.126	85.16
266.358	83.96
266.591	85.56
266.823	86.76
267.055	84.56
267.287	78.96
267.52	85.76
267.752	83.56
267.984	75.36
268.216	84.16
268.448	86.16
268.681	80.76
268.913	85.96
269.145	78.76
269.377	83.36
269.609	84.96
269.841	85.76
270.073	82.36
270.306	86.36
270.538	78.36
270.77	78.36
271.002	78.36
271.234	84.56
271.466	83.96
271.698	85.96
271.93	86.16
272.162	83.56
272.394	78.36
272.626	81.56
272.858	83.76
273.09	86.56
273.322	78.16
273.553	79.56
273.785	75.36
274.017	87.36
274.249	88.36
274.481	77.56
274.713	81.96
274.945	88.16
275.176	84.16
275.408	80.96
275.64	88.76
275.872	76.36
276.104	80.96
276.335	83.36
276.567	82.76
276.799	82.36
277.031	79.96
277.262	82.76
277.494	89.16
277.726	81.16
277.957	82.56
278.189	82.36
278.421	96.56
278.652	88.76
278.884	91.36
279.115	84.16
279.347	85.36
279.579	86.56
279.81	87.36
280.042	94.96
280.273	103.96
280.505	103.96
280.736	97.16
280.968	89.96
281.199	86.36
281.431	86.36
281.662	83.76
281.894	92.96
282.125	84.16
282.356	89.56
282.588	94.76
282.819	87.76
283.051	92.76
283.282	93.76
283.513	97.56
283.745	99.76
283.976	87.76
284.207	83.56
284.439	82.36
284.67	81.76
284.901	79.96
285.132	88.56
285.364	85.96
285.595	85.76
285.826	80.56
286.057	86.96
286.288	79.96
286.52	84.96
286.751	83.36
286.982	85.96
287.213	97.56
287.444	96.36
287.675	90.96
287.906	89.96
288.138	88.16
288.369	83.76
288.6	78.36
288.831	78.56
289.062	86.36
289.293	88.56
289.524	83.16
289.755	79.56
289.986	86.16
290.217	87.36
290.448	79.56
290.679	73.76
290.91	85.76
291.141	79.36
291.371	86.36
291.602	86.16
291.833	86.96
292.064	83.96
292.295	84.36
292.526	84.76
292.757	88.96
292.987	91.36
293.218	82.16
293.449	84.36
293.68	92.16
293.91	88.76
294.141	80.96
294.372	86.36
294.603	79.96
294.833	86.16
295.064	90.36
295.295	85.56
295.525	83.56
295.756	84.76
295.987	83.56
296.217	83.76
296.448	80.76
296.679	83.96
296.909	85.36
297.14	86.96
297.37	85.56
297.601	86.16
297.831	81.76
298.062	80.16
298.292	78.16
298.523	92.36
298.753	81.36
298.984	89.76
299.214	76.96
299.445	82.96
299.675	87.56
299.905	86.96
300.136	83.36
300.366	86.16
300.597	87.96
300.827	85.16
301.057	77.76
301.288	83.96
301.518	79.76
301.748	78.36
301.979	81.36
302.209	86.96
302.439	89.16
302.669	90.36
302.9	86.76
303.13	83.56
303.36	81.56
303.59	80.56
303.82	86.16
304.051	88.56
304.281	85.16
304.511	83.76
304.741	85.96
304.971	85.96
305.201	83.56
305.431	86.56
305.661	74.16
305.891	85.36
306.121	85.36
306.352	84.56
306.582	86.16
306.812	85.56
307.042	83.76
307.272	81.76
307.502	85.76
307.731	84.56
307.961	89.96
308.191	83.56
308.421	85.16
308.651	86.56
308.881	85.56
309.111	89.96
309.341	91.76
309.571	87.16
309.8	87.16
310.03	78.96
310.26	82.56
310.49	84.96
310.72	86.16
310.949	89.36
311.179	81.96
311.409	84.96
311.639	85.96
311.868	88.36
312.098	89.36
312.328	89.96
312.557	88.96
312.787	80.36
313.017	90.96
313.246	82.16
313.476	85.76
313.706	85.96
313.935	79.76
314.165	83.76
314.394	85.56
314.624	89.56
314.853	91.16
315.083	88.56
315.312	87.36
315.542	89.36
315.771	92.56
316.001	88.56
316.23	82.96
316.46	87.36
316.689	87.96
316.919	83.76
317.148	89.36
317.377	78.56
317.607	85.56
317.836	82.76
318.065	81.96
318.295	85.76
318.524	79.56
318.753	86.16
318.983	88.16
319.212	84.96
319.441	84.36
319.67	83.36
319.9	80.56
320.129	78.76
320.358	82.96
320.587	83.16
320.816	87.96
321.046	88.36
321.275	84.36
321.504	84.76
321.733	80.16
321.962	87.96
322.191	82.36
322.42	87.36
322.649	85.56
322.878	88.56
323.108	87.56
323.337	85.36
323.566	79.16
323.795	85.16
324.024	86.56
324.253	87.56
324.482	80.56
324.71	90.76
324.939	86.56
325.168	77.56
325.397	85.56
325.626	83.16
325.855	80.76
326.084	89.36
326.313	82.36
326.542	86.36
326.77	87.56
326.999	87.76
327.228	83.36
327.457	88.36
327.686	86.16
327.914	86.36
328.143	85.76
328.372	76.36
328.6	88.56
328.829	82.56
329.058	87.96
329.287	86.16
329.515	84.76
329.744	87.76
329.972	78.76
330.201	87.96
330.43	86.76
330.658	82.76
330.887	89.36
331.115	83.56
331.344	85.76
331.572	82.16
331.801	74.16
332.03	86.96
332.258	88.76
332.486	82.96
332.715	91.16
332.943	86.96
333.172	85.76
333.4	84.16
333.629	91.56
333.857	86.16
334.085	80.76
334.314	88.56
334.542	87.76
334.771	85.76
334.999	89.36
335.227	83.56
335.455	82.36
335.684	83.76
335.912	80.96
336.14	86.96
336.369	89.16
336.597	80.36
336.825	90.16
337.053	76.56
337.281	84.36
337.51	84.36
337.738	90.96
337.966	90.16
338.194	86.76
338.422	89.96
338.65	82.96
338.878	85.96
339.106	89.76
339.334	86.56
339.562	82.36
339.79	88.36
340.018	85.76
340.246	78.16
340.474	81.76
340.702	83.96
340.93	84.16
341.158	80.36
341.386	81.76
341.614	77.56
341.842	81.96
342.07	83.36
342.298	82.36
342.526	83.56
342.754	78.96
342.981	84.16
343.209	89.36
343.437	78.36
343.665	83.16
343.893	90.96
344.12	89.36
344.348	85.56
344.576	86.96
344.804	86.36
345.031	81.96
345.259	83.76
345.487	90.36
345.714	83.36
345.942	83.36
346.17	91.56
346.397	82.56
346.625	83.56
346.853	83.76
347.08	84.16
347.308	88.16
347.535	84.16
347.763	83.56
347.99	87.76
348.218	84.76
348.445	84.76
348.673	84.16
348.9	84.16
349.128	82.76
349.355	80.16
349.583	84.16
349.81	90.16
350.037	85.96
350.265	81.36
350.492	75.16
350.72	78.36
350.947	88.36
351.174	76.56
351.402	82.76
351.629	85.96
351.856	87.16
352.083	83.36
352.311	81.56
352.538	79.96
352.765	79.56
352.992	85.16
353.22	81.16
353.447	82.56
353.674	86.76
353.901	79.96
354.128	87.16
354.355	80.16
354.583	86.96
354.81	77.96
355.037	81.76
355.264	85.56
355.491	79.96
355.718	82.56
355.945	81.16
356.172	75.96
356.399	83.96
356.626	72.96
356.853	96.16
357.08	105.16
357.307	119.96
357.534	106.56
357.761	88.76
357.988	82.76
358.215	87.56
358.441	84.36
358.668	86.56
358.895	90.36
359.122	78.56
359.349	84.56
359.576	88.36
359.802	77.96
360.029	84.96
360.256	73.16
360.483	80.16
360.709	79.96
360.936	82.36
361.163	78.36
361.39	86.56
361.616	81.96
361.843	81.56
362.07	84.76
362.296	78.56
362.523	85.16
362.749	82.76
362.976	89.56
363.203	84.16
363.429	94.56
363.656	120.36
363.882	131.16
364.109	138.36
364.335	104.16
364.562	88.56
364.788	89.16
365.015	85.56
365.241	91.76
365.468	79.56
365.694	83.76
365.92	83.76
366.147	76.36
366.373	80.36
366.599	85.76
366.826	86.76
367.052	98.36
367.278	101.96
367.505	92.76
367.731	94.56
367.957	104.96
368.184	142.36
368.41	166.36
368.636	134.36
368.862	91.76
369.089	90.36
369.315	81.16
369.541	82.96
369.767	92.96
369.993	86.76
370.219	82.36
370.445	84.76
370.672	84.76
370.898	82.76
371.124	86.56
371.35	78.56
371.576	89.56
371.802	86.96
372.028	92.76
372.254	87.96
372.48	83.96
372.706	85.56
372.932	85.96
373.158	89.76
373.384	83.96
373.61	93.96
373.835	100.36
374.061	113.56
374.287	101.16
374.513	86.76
374.739	84.16
374.965	83.16
375.191	82.36
375.416	85.56
375.642	81.36
375.868	85.96
376.094	86.16
376.319	78.16
376.545	82.16
376.771	79.96
376.997	76.76
377.222	81.36
377.448	80.76
377.674	84.76
377.899	80.96
378.125	84.56
378.35	78.16
378.576	80.96
378.802	86.36
379.027	73.96
379.253	77.16
379.478	82.36
379.704	89.16
379.929	83.36
380.155	81.56
380.38	87.36
380.606	79.36
380.831	83.56
381.057	83.16
381.282	78.96
381.507	80.76
381.733	79.76
381.958	83.76
382.184	86.76
382.409	80.56
382.634	93.36
382.86	87.76
383.085	82.96
383.31	86.36
383.535	81.36
383.761	86.36
383.986	81.16
384.211	79.76
384.436	83.56
384.662	88.76
384.887	86.36
385.112	84.76
385.337	81.96
385.562	79.56
385.787	85.16
386.013	79.96
386.238	85.16
386.463	83.56
386.688	82.76
386.913	83.56
387.138	77.96
387.363	85.76
387.588	85.76
387.813	88.16
388.038	82.76
388.263	81.36
388.488	86.36
388.713	80.56
388.938	82.76
389.163	80.96
389.387	80.56
389.612	80.56
389.837	88.76
390.062	79.96
390.287	83.56
390.512	82.96
390.736	85.76
390.961	88.76
391.186	86.96
391.411	87.16
391.636	81.16
391.86	79.76
392.085	79.96
392.31	73.16
392.534	81.36
392.759	80.96
392.984	84.36
393.208	87.36
393.433	76.76
393.658	82.96
393.882	83.56
394.107	83.96
394.331	85.76
394.556	79.36
394.78	76.36
395.005	83.76
395.229	89.16
395.454	81.76
395.678	81.76
395.903	87.76
396.127	83.76
396.352	81.56
396.576	77.16
396.801	82.76
397.025	81.56
397.249	83.16
397.474	80.36
397.698	87.36
397.922	82.56
398.147	85.16
398.371	85.16
398.595	81.36
398.82	80.56
399.044	82.36
399.268	81.16
399.492	82.96
399.717	80.96
399.941	83.96
400.165	87.96
400.389	83.76
400.613	78.56
400.837	74.96
401.062	80.16
401.286	86.56
401.51	85.16
401.734	88.96
401.958	95.76
402.182	95.96
402.406	88.36
402.63	84.56
402.854	85.16
403.078	82.76
403.302	80.96
403.526	85.96
403.75	80.76
403.974	80.16
404.198	83.16
404.422	83.56
404.645	83.56
404.869	85.96
405.093	92.76
405.317	102.76
405.541	158.36
405.765	246.96
405.988	248.96
406.212	146.36
406.436	113.76
406.66	86.56
406.883	83.16
407.107	88.76
407.331	84.16
407.555	86.16
407.778	81.36
408.002	85.36
408.226	91.96
408.449	85.16
408.673	85.96
408.896	86.96
409.12	90.96
409.344	77.36
409.567	87.96
409.791	87.96
410.014	84.56
410.238	87.96
410.461	84.56
410.685	83.76
410.908	83.76
411.132	82.36
411.355	79.16
411.578	83.36
411.802	79.36
412.025	86.96
412.249	84.96
412.472	82.76
412.695	86.36
412.919	83.96
413.142	80.96
413.365	81.56
413.589	79.76
413.812	82.76
414.035	83.16
414.258	77.36
414.482	85.96
414.705	81.56
414.928	81.76
415.151	82.96
415.374	78.56
415.597	79.16
415.821	81.16
416.044	81.16
416.267	85.76
416.49	83.16
416.713	88.96
416.936	88.76
417.159	84.36
417.382	83.76
417.605	85.76
417.828	79.96
418.051	88.76
418.274	80.36
418.497	87.76
418.72	82.16
418.943	79.16
419.166	84.16
419.389	82.76
419.611	82.16
419.834	76.36
420.057	85.36
420.28	84.16
420.503	81.96
420.726	79.16
420.948	82.56
421.171	84.36
421.394	76.36
421.617	79.56
421.839	79.76
422.062	88.56
422.285	83.76
422.507	84.96
422.73	79.76
422.953	83.56
423.175	86.16
423.398	89.16
423.621	78.76
423.843	81.76
424.066	80.16
424.288	84.76
424.511	81.16
424.733	82.96
424.956	79.36
425.178	81.76
425.401	84.16
425.623	83.96
425.846	86.56
426.068	82.76
426.291	84.16
426.513	73.36
426.735	84.56
426.958	87.96
427.18	83.56
427.402	84.76
427.625	81.36
427.847	84.76
428.069	84.36
428.292	78.36
428.514	80.96
428.736	84.56
428.958	77.36
429.181	84.36
429.403	76.56
429.625	79.76
429.847	85.76
430.069	83.56
430.292	82.16
430.514	79.76
430.736	79.96
430.958	80.76
431.18	83.76
431.402	86.16
431.624	81.76
431.846	78.76
432.068	76.76
432.29	79.56
432.512	80.76
432.734	83.56
432.956	83.96
433.178	83.16
433.4	82.76
433.622	80.36
433.844	83.76
434.066	86.16
434.287	83.56
434.509	80.16
434.731	85.76
434.953	75.36
435.175	80.16
435.397	78.36
435.618	79.36
435.84	81.36
436.062	82.96
436.284	80.36
436.505	79.76
436.727	84.36
436.949	86.56
437.17	79.56
437.392	84.16
437.614	85.36
437.835	78.96
438.057	79.96
438.278	83.96
438.5	79.76
438.721	88.56
438.943	81.76
439.165	83.56
439.386	81.36
439.608	82.96
439.829	79.56
440.05	83.36
440.272	85.76
440.493	73.36
440.715	81.96
440.936	83.76
441.158	82.16
441.379	81.96
441.6	86.96
441.822	83.56
442.043	84.16
442.264	89.16
442.486	80.76
442.707	82.96
442.928	80.96
443.149	80.76
443.371	86.96
443.592	84.76
443.813	88.56
444.034	81.76
444.255	79.96
444.476	77.16
444.698	84.96
444.919	83.96
445.14	89.96
445.361	87.56
445.582	84.96
445.803	78.56
446.024	81.96
446.245	81.96
446.466	79.96
446.687	85.16
446.908	87.76
447.129	81.96
447.35	78.56
447.571	83.16
447.792	80.96
448.013	80.96
448.234	84.16
448.455	72.96
448.675	84.96
448.896	85.56
449.117	89.96
449.338	81.76
449.559	91.36
449.779	77.56
450	87.16
450.221	82.96
450.442	83.76
450.662	84.76
450.883	86.56
451.104	84.76
451.324	85.56
451.545	82.36
451.766	79.36
451.986	81.16
452.207	79.16
452.428	86.16
452.648	82.96
452.869	83.56
453.089	79.56
453.31	80.96
453.53	82.56
453.751	85.96
453.971	82.96
454.192	76.76
454.412	84.56
454.633	72.36
454.853	83.76
455.073	84.96
455.294	85.76
455.514	84.16
455.734	79.56
455.955	78.16
456.175	80.16
456.395	82.76
456.616	78.36
456.836	85.16
457.056	76.56
457.276	85.76
457.497	86.76
457.717	93.76
457.937	82.16
458.157	82.36
458.377	79.36
458.598	84.36
458.818	81.36
459.038	83.16
459.258	81.36
459.478	84.36
459.698	74.76
459.918	82.36
460.138	84.96
460.358	85.96
460.578	89.76
460.798	83.76
461.018	74.96
461.238	82.96
461.458	85.76
461.678	85.56
461.898	82.76
462.118	84.56
462.338	84.16
462.558	84.16
462.777	79.16
462.997	76.56
463.217	84.36
463.437	83.36
463.657	83.56
463.876	79.96
464.096	81.36
464.316	77.16
464.536	86.56
464.755	90.76
464.975	81.76
465.195	78.36
465.414	82.36
465.634	81.96
465.854	77.16
466.073	79.16
466.293	75.56
466.512	79.96
466.732	85.36
466.951	79.56
467.171	83.56
467.391	79.76
467.61	85.56
467.829	85.76
468.049	85.76
468.268	81.36
468.488	83.36
468.707	83.76
468.927	84.16
469.146	80.96
469.365	83.56
469.585	89.16
469.804	86.16
470.023	79.36
470.243	79.96
470.462	81.16
470.681	84.16
470.901	83.56
471.12	85.16
471.339	91.96
471.558	85.76
471.777	84.76
471.997	80.36
472.216	82.36
472.435	90.76
472.654	87.76
472.873	86.76
473.092	81.76
473.311	87.76
473.53	88.16
473.749	82.96
473.968	84.76
474.187	82.56
474.406	87.56
474.625	85.96
474.844	79.76
475.063	78.76
475.282	87.56
475.501	79.56
475.72	82.96
475.939	88.56
476.158	76.76
476.377	81.56
476.596	79.36
476.814	82.96
477.033	89.76
477.252	77.56
477.471	80.96
477.69	83.36
477.908	81.16
478.127	80.76
478.346	77.96
478.564	83.96
478.783	84.96
479.002	83.16
479.22	84.16
479.439	79.76
479.658	77.76
479.876	81.96
480.095	75.36
480.313	79.56
480.532	88.16
480.751	83.36
480.969	80.96
481.188	81.36
481.406	88.56
481.624	80.56
481.843	83.56
482.061	80.56
482.28	80.96
482.498	79.96
482.717	77.36
482.935	76.16
483.153	84.36
483.372	82.56
483.59	82.36
483.808	80.96
484.027	86.76
484.245	77.56
484.463	83.36
484.681	86.56
484.9	79.76
485.118	82.36
485.336	84.56
485.554	82.16
485.772	85.96
485.99	86.16
486.209	82.76
486.427	84.16
486.645	86.16
486.863	83.36
487.081	85.56
487.299	85.76
487.517	83.96
487.735	83.96
487.953	81.56
488.171	80.36
488.389	81.96
488.607	83.16
488.825	78.16
489.043	79.76
489.261	80.36
489.479	80.16
489.696	80.16
489.914	88.16
490.132	86.96
490.35	83.56
490.568	80.76
490.786	84.96
491.003	87.36
491.221	88.96
491.439	78.96
491.657	86.16
491.874	92.76
492.092	83.16
492.31	87.36
492.527	89.16
492.745	80.36
492.963	80.96
493.18	86.16
493.398	86.16
493.615	85.36
493.833	87.36
494.05	89.36
494.268	85.96
494.485	88.16
494.703	82.96
494.92	89.36
495.138	82.96
495.355	84.76
495.573	86.36
495.79	85.36
496.008	85.96
496.225	85.96
496.442	89.16
496.66	88.56
496.877	79.36
497.094	84.56
497.312	79.56
497.529	85.96
497.746	80.16
497.963	90.76
498.181	91.56
498.398	80.36
498.615	77.96
498.832	81.36
499.049	83.96
499.267	77.76
499.484	87.76
499.701	80.56
499.918	89.76
500.135	78.76
500.352	88.16
500.569	99.56
500.786	107.16
501.003	89.36
501.22	85.36
501.437	87.76
501.654	83.96
501.871	85.56
502.088	91.36
502.305	81.96
502.522	87.16
502.739	86.76
502.956	79.36
503.172	86.96
503.389	82.96
503.606	88.36
503.823	79.16
504.04	86.56
504.256	86.36
504.473	83.96
504.69	84.96
504.907	83.16
505.123	87.16
505.34	87.76
505.557	81.56
505.773	82.36
505.99	84.76
506.207	92.96
506.423	85.16
506.64	92.76
506.856	77.96
507.073	76.36
507.289	81.36
507.506	81.36
507.722	84.96
507.939	86.96
508.155	83.56
508.372	88.56
508.588	84.36
508.805	82.76
509.021	81.16
509.238	85.76
509.454	88.76
509.67	88.16
509.887	78.36
510.103	85.76
510.319	89.76
510.536	78.76
510.752	85.36
510.968	83.16
511.184	87.56
511.401	80.76
511.617	74.76
511.833	84.96
512.049	85.16
512.265	80.36
512.481	84.36
512.698	86.16
512.914	81.36
513.13	78.16
513.346	86.96
513.562	85.16
513.778	88.76
513.994	81.16
514.21	84.36
514.426	81.96
514.642	84.16
514.858	86.56
515.074	86.16
515.29	88.56
515.506	86.36
515.721	81.36
515.937	90.36
516.153	87.56
516.369	79.36
516.585	85.36
516.801	87.16
517.016	88.16
517.232	79.56
517.448	89.56
517.664	82.56
517.879	79.16
518.095	83.16
518.311	79.16
518.527	93.16
518.742	83.56
518.958	84.16
519.173	90.96
519.389	88.96
519.605	84.16
519.82	87.56
