Data from TenMicroDelayPb_HRD10591_00001.txt Node
Date: Mon Nov 24 14:34:24 EST 2025
User: Yrep
Spectrometer: HR+D1059
Trigger mode: 0
Integration Time (sec): 1.000000E-2
Scans to average: 5
Electric dark correction enabled: true
Nonlinearity correction enabled: false
Boxcar width: 0
XAxis mode: Wavelengths
Number of Pixels in Spectrum: 2048
>>>>>Begin Spectral Data<<<<<
223.165	-6.42
223.4	-6.42
223.635	-6.42
223.869	-13.62
224.104	-20.82
224.338	-15.22
224.573	-16.22
224.808	-11.02
225.042	-6.82
225.277	-11.22
225.511	-5.42
225.746	-2.62
225.98	5.98
226.215	7.38
226.449	10.98
226.683	24.18
226.918	30.58
227.152	30.38
227.387	33.98
227.621	41.18
227.856	50.78
228.09	47.58
228.324	51.98
228.559	54.98
228.793	57.58
229.027	53.78
229.262	62.98
229.496	68.98
229.73	63.38
229.964	66.58
230.199	61.38
230.433	71.78
230.667	71.98
230.901	75.18
231.136	74.38
231.37	78.18
231.604	77.38
231.838	81.78
232.072	83.18
232.306	77.18
232.541	78.18
232.775	80.78
233.009	76.18
233.243	74.98
233.477	85.58
233.711	80.38
233.945	79.58
234.179	71.98
234.413	76.78
234.647	79.18
234.881	76.98
235.115	73.58
235.349	74.78
235.583	77.58
235.817	77.38
236.051	73.18
236.285	80.18
236.519	67.78
236.753	76.38
236.987	79.18
237.221	77.98
237.455	69.18
237.689	72.78
237.922	78.38
238.156	75.18
238.39	69.38
238.624	75.98
238.858	80.98
239.091	77.78
239.325	79.38
239.559	71.58
239.793	70.98
240.027	77.58
240.26	79.58
240.494	76.38
240.728	74.98
240.961	72.38
241.195	64.18
241.429	73.58
241.662	78.98
241.896	81.18
242.13	73.18
242.363	73.38
242.597	82.18
242.83	75.58
243.064	72.58
243.298	77.58
243.531	74.38
243.765	71.58
243.998	75.38
244.232	77.18
244.465	77.58
244.699	79.58
244.932	71.18
245.166	77.58
245.399	79.38
245.633	81.18
245.866	84.98
246.099	76.38
246.333	69.58
246.566	72.38
246.8	77.78
247.033	73.78
247.266	75.38
247.5	68.58
247.733	74.98
247.966	81.38
248.2	81.58
248.433	74.18
248.666	77.98
248.899	75.78
249.133	73.58
249.366	73.98
249.599	74.18
249.832	78.38
250.066	75.58
250.299	82.18
250.532	74.38
250.765	83.98
250.998	77.58
251.231	73.38
251.465	81.18
251.698	77.38
251.931	80.18
252.164	80.18
252.397	77.38
252.63	76.38
252.863	77.38
253.096	79.98
253.329	77.38
253.562	77.38
253.795	78.18
254.028	75.58
254.261	73.78
254.494	75.18
254.727	77.38
254.96	82.18
255.193	76.78
255.426	77.38
255.659	77.38
255.892	78.58
256.124	80.18
256.357	76.38
256.59	81.38
256.823	75.78
257.056	80.98
257.289	78.18
257.521	76.38
257.754	82.78
257.987	76.18
258.22	77.78
258.452	78.98
258.685	84.38
258.918	84.98
259.151	74.38
259.383	79.18
259.616	73.78
259.849	78.78
260.081	81.38
260.314	82.78
260.547	77.38
260.779	82.18
261.012	80.78
261.244	79.98
261.477	85.78
261.71	75.98
261.942	82.58
262.175	73.78
262.407	80.38
262.64	79.78
262.872	78.78
263.105	77.98
263.337	82.78
263.57	78.98
263.802	79.98
264.035	80.98
264.267	81.58
264.499	73.98
264.732	76.38
264.964	78.98
265.197	77.18
265.429	80.58
265.661	77.98
265.894	75.58
266.126	81.98
266.358	77.58
266.591	79.38
266.823	77.38
267.055	83.38
267.287	79.38
267.52	78.18
267.752	79.78
267.984	82.18
268.216	82.38
268.448	84.18
268.681	81.78
268.913	76.98
269.145	84.18
269.377	79.18
269.609	86.38
269.841	77.98
270.073	76.58
270.306	74.58
270.538	80.78
270.77	79.78
271.002	84.18
271.234	80.18
271.466	89.58
271.698	85.38
271.93	76.78
272.162	71.38
272.394	79.18
272.626	80.78
272.858	77.98
273.09	74.38
273.322	77.58
273.553	82.58
273.785	77.18
274.017	86.38
274.249	83.98
274.481	74.58
274.713	81.38
274.945	78.38
275.176	83.38
275.408	81.78
275.64	76.38
275.872	81.38
276.104	77.98
276.335	85.98
276.567	83.98
276.799	83.18
277.031	81.38
277.262	81.78
277.494	86.18
277.726	84.58
277.957	78.78
278.189	81.38
278.421	81.58
278.652	73.58
278.884	79.58
279.115	87.58
279.347	80.58
279.579	81.98
279.81	79.98
280.042	74.38
280.273	84.18
280.505	79.38
280.736	79.78
280.968	82.78
281.199	81.98
281.431	82.98
281.662	80.78
281.894	86.78
282.125	86.98
282.356	88.98
282.588	81.58
282.819	80.18
283.051	79.18
283.282	76.38
283.513	80.38
283.745	83.98
283.976	77.58
284.207	85.38
284.439	82.78
284.67	84.38
284.901	79.58
285.132	83.38
285.364	83.38
285.595	84.78
285.826	82.38
286.057	82.98
286.288	85.18
286.52	84.18
286.751	79.98
286.982	80.18
287.213	90.58
287.444	86.38
287.675	82.18
287.906	77.78
288.138	83.38
288.369	81.78
288.6	75.98
288.831	77.38
289.062	80.78
289.293	79.58
289.524	81.78
289.755	82.78
289.986	81.98
290.217	76.98
290.448	79.18
290.679	77.18
290.91	77.38
291.141	76.78
291.371	79.58
291.602	80.18
291.833	84.38
292.064	77.58
292.295	81.18
292.526	82.18
292.757	79.98
292.987	80.58
293.218	82.58
293.449	87.38
293.68	81.38
293.91	77.78
294.141	80.38
294.372	87.58
294.603	80.58
294.833	76.78
295.064	78.18
295.295	75.98
295.525	75.38
295.756	78.38
295.987	82.78
296.217	82.38
296.448	86.18
296.679	74.58
296.909	77.98
297.14	87.98
297.37	89.78
297.601	84.98
297.831	82.38
298.062	84.98
298.292	85.98
298.523	83.38
298.753	81.78
298.984	76.78
299.214	79.38
299.445	79.58
299.675	84.38
299.905	85.18
300.136	78.58
300.366	88.18
300.597	77.78
300.827	74.58
301.057	83.58
301.288	83.98
301.518	83.58
301.748	84.58
301.979	85.38
302.209	84.58
302.439	85.38
302.669	85.98
302.9	85.78
303.13	81.58
303.36	81.58
303.59	83.58
303.82	80.98
304.051	82.58
304.281	78.38
304.511	79.58
304.741	81.38
304.971	80.38
305.201	85.58
305.431	83.58
305.661	77.78
305.891	86.38
306.121	83.38
306.352	84.38
306.582	83.38
306.812	80.98
307.042	75.98
307.272	82.18
307.502	83.38
307.731	81.78
307.961	81.18
308.191	78.78
308.421	75.78
308.651	85.18
308.881	80.18
309.111	79.18
309.341	82.18
309.571	75.78
309.8	83.78
310.03	83.78
310.26	79.58
310.49	73.18
310.72	80.58
310.949	78.98
311.179	87.38
311.409	83.78
311.639	80.98
311.868	80.38
312.098	80.78
312.328	80.18
312.557	85.58
312.787	78.98
313.017	82.38
313.246	82.58
313.476	76.18
313.706	81.78
313.935	82.58
314.165	78.58
314.394	83.38
314.624	87.98
314.853	80.58
315.083	81.98
315.312	80.18
315.542	80.98
315.771	81.98
316.001	86.18
316.23	75.98
316.46	86.78
316.689	88.98
316.919	84.18
317.148	81.78
317.377	82.38
317.607	81.98
317.836	81.78
318.065	82.98
318.295	84.78
318.524	82.38
318.753	81.58
318.983	84.18
319.212	76.58
319.441	80.18
319.67	77.58
319.9	79.58
320.129	81.58
320.358	82.38
320.587	80.98
320.816	79.38
321.046	82.18
321.275	80.18
321.504	82.38
321.733	80.38
321.962	83.78
322.191	82.98
322.42	78.38
322.649	80.58
322.878	82.38
323.108	79.58
323.337	80.98
323.566	82.18
323.795	78.58
324.024	81.98
324.253	87.78
324.482	83.38
324.71	81.58
324.939	86.78
325.168	84.58
325.397	83.98
325.626	83.78
325.855	79.58
326.084	86.78
326.313	80.98
326.542	81.38
326.77	85.38
326.999	81.18
327.228	78.98
327.457	80.78
327.686	77.58
327.914	83.38
328.143	82.78
328.372	84.38
328.6	79.78
328.829	82.58
329.058	75.98
329.287	81.18
329.515	81.38
329.744	84.78
329.972	82.98
330.201	78.98
330.43	82.78
330.658	83.58
330.887	84.18
331.115	80.78
331.344	81.78
331.572	82.98
331.801	78.58
332.03	83.58
332.258	83.78
332.486	80.38
332.715	81.18
332.943	83.78
333.172	85.38
333.4	88.18
333.629	81.38
333.857	76.38
334.085	83.78
334.314	83.38
334.542	83.58
334.771	83.18
334.999	76.18
335.227	79.38
335.455	77.98
335.684	81.78
335.912	85.58
336.14	85.58
336.369	84.98
336.597	80.78
336.825	79.38
337.053	83.38
337.281	81.38
337.51	90.38
337.738	81.78
337.966	82.58
338.194	74.98
338.422	87.78
338.65	87.18
338.878	83.98
339.106	80.78
339.334	86.78
339.562	84.58
339.79	78.98
340.018	79.58
340.246	79.58
340.474	85.98
340.702	82.78
340.93	77.58
341.158	81.98
341.386	81.38
341.614	83.18
341.842	85.78
342.07	88.38
342.298	83.58
342.526	78.18
342.754	78.18
342.981	81.78
343.209	89.18
343.437	89.98
343.665	79.58
343.893	83.38
344.12	86.58
344.348	79.38
344.576	87.78
344.804	83.98
345.031	81.58
345.259	81.18
345.487	77.58
345.714	76.78
345.942	83.58
346.17	82.38
346.397	78.38
346.625	81.38
346.853	78.98
347.08	83.98
347.308	80.78
347.535	82.58
347.763	79.38
347.99	78.78
348.218	78.78
348.445	81.78
348.673	85.38
348.9	80.78
349.128	78.38
349.355	86.58
349.583	82.78
349.81	79.78
350.037	89.58
350.265	82.38
350.492	86.98
350.72	76.18
350.947	80.38
351.174	77.38
351.402	82.98
351.629	83.38
351.856	75.38
352.083	82.78
352.311	80.98
352.538	83.58
352.765	89.18
352.992	82.18
353.22	82.58
353.447	81.18
353.674	88.38
353.901	80.98
354.128	77.18
354.355	80.38
354.583	75.18
354.81	82.18
355.037	81.58
355.264	77.78
355.491	80.78
355.718	76.58
355.945	78.78
356.172	82.58
356.399	80.38
356.626	85.98
356.853	83.58
357.08	80.58
357.307	86.78
357.534	81.58
357.761	77.78
357.988	77.98
358.215	82.18
358.441	84.78
358.668	76.78
358.895	81.18
359.122	82.18
359.349	81.98
359.576	87.58
359.802	82.18
360.029	77.98
360.256	82.98
360.483	86.78
360.709	86.98
360.936	81.38
361.163	81.78
361.39	81.78
361.616	79.98
361.843	82.38
362.07	76.78
362.296	81.38
362.523	78.78
362.749	81.58
362.976	86.58
363.203	79.98
363.429	79.18
363.656	79.78
363.882	88.18
364.109	81.18
364.335	78.38
364.562	80.78
364.788	76.18
365.015	80.78
365.241	82.78
365.468	93.38
365.694	85.18
365.92	81.58
366.147	80.38
366.373	78.18
366.599	81.58
366.826	81.98
367.052	79.78
367.278	78.78
367.505	79.78
367.731	77.58
367.957	83.18
368.184	84.98
368.41	80.58
368.636	78.78
368.862	86.78
369.089	73.18
369.315	82.38
369.541	78.98
369.767	80.98
369.993	79.58
370.219	77.38
370.445	80.98
370.672	81.18
370.898	75.78
371.124	75.98
371.35	81.18
371.576	84.38
371.802	77.58
372.028	84.58
372.254	79.38
372.48	80.78
372.706	80.98
372.932	78.78
373.158	84.78
373.384	78.18
373.61	74.38
373.835	79.18
374.061	80.58
374.287	85.78
374.513	78.98
374.739	80.78
374.965	80.98
375.191	73.78
375.416	75.58
375.642	80.38
375.868	79.38
376.094	79.18
376.319	79.18
376.545	80.78
376.771	82.98
376.997	81.58
377.222	79.38
377.448	83.78
377.674	79.18
377.899	83.58
378.125	86.98
378.35	78.18
378.576	77.78
378.802	81.98
379.027	78.38
379.253	77.58
379.478	86.58
379.704	75.98
379.929	78.78
380.155	82.98
380.38	79.78
380.606	76.58
380.831	77.78
381.057	83.18
381.282	77.78
381.507	82.38
381.733	79.98
381.958	73.78
382.184	79.18
382.409	80.98
382.634	78.98
382.86	79.18
383.085	82.78
383.31	72.18
383.535	79.98
383.761	81.98
383.986	77.98
384.211	81.58
384.436	79.78
384.662	72.58
384.887	82.38
385.112	82.18
385.337	78.78
385.562	70.78
385.787	77.78
386.013	82.78
386.238	81.18
386.463	82.58
386.688	77.38
386.913	82.58
387.138	81.78
387.363	79.58
387.588	80.38
387.813	78.18
388.038	78.98
388.263	83.78
388.488	82.58
388.713	83.38
388.938	81.58
389.163	81.58
389.387	79.18
389.612	80.78
389.837	80.18
390.062	79.38
390.287	75.38
390.512	79.18
390.736	81.98
390.961	85.78
391.186	85.18
391.411	78.38
391.636	73.98
391.86	78.38
392.085	82.78
392.31	87.38
392.534	86.58
392.759	79.18
392.984	81.58
393.208	82.78
393.433	78.18
393.658	79.18
393.882	80.78
394.107	75.38
394.331	79.58
394.556	76.18
394.78	77.18
395.005	78.98
395.229	78.18
395.454	86.18
395.678	79.58
395.903	86.58
396.127	81.18
396.352	85.18
396.576	84.38
396.801	79.98
397.025	81.98
397.249	81.78
397.474	80.58
397.698	84.58
397.922	83.98
398.147	77.78
398.371	76.98
398.595	78.38
398.82	77.58
399.044	80.98
399.268	81.98
399.492	75.18
399.717	75.98
399.941	79.58
400.165	78.18
400.389	75.78
400.613	75.98
400.837	76.58
401.062	85.58
401.286	84.18
401.51	81.98
401.734	79.58
401.958	78.38
402.182	74.58
402.406	80.18
402.63	87.18
402.854	72.98
403.078	85.18
403.302	85.58
403.526	80.78
403.75	87.78
403.974	84.58
404.198	76.58
404.422	79.38
404.645	73.18
404.869	75.38
405.093	82.38
405.317	81.38
405.541	76.78
405.765	75.38
405.988	82.98
406.212	78.78
406.436	80.98
406.66	79.38
406.883	79.58
407.107	81.78
407.331	83.18
407.555	78.98
407.778	82.58
408.002	80.58
408.226	77.38
408.449	76.58
408.673	78.98
408.896	81.18
409.12	76.98
409.344	85.38
409.567	76.18
409.791	82.58
410.014	80.58
410.238	78.98
410.461	78.38
410.685	81.18
410.908	81.78
411.132	79.18
411.355	80.58
411.578	79.58
411.802	76.78
412.025	75.98
412.249	78.78
412.472	84.78
412.695	81.58
412.919	78.58
413.142	80.38
413.365	82.78
413.589	81.98
413.812	76.38
414.035	78.18
414.258	80.98
414.482	76.38
414.705	84.18
414.928	79.58
415.151	79.18
415.374	76.38
415.597	75.18
415.821	75.78
416.044	78.78
416.267	82.98
416.49	77.78
416.713	73.78
416.936	72.58
417.159	73.38
417.382	79.18
417.605	79.98
417.828	82.38
418.051	80.78
418.274	79.18
418.497	76.78
418.72	81.18
418.943	81.18
419.166	81.58
419.389	83.78
419.611	80.18
419.834	78.58
420.057	79.98
420.28	80.18
420.503	83.58
420.726	76.98
420.948	78.38
421.171	74.58
421.394	76.18
421.617	75.98
421.839	76.78
422.062	86.18
422.285	74.58
422.507	84.78
422.73	72.58
422.953	79.18
423.175	72.98
423.398	78.98
423.621	74.38
423.843	76.18
424.066	78.58
424.288	74.58
424.511	81.98
424.733	80.38
424.956	82.38
425.178	84.98
425.401	77.98
425.623	81.18
425.846	76.18
426.068	80.18
426.291	82.18
426.513	73.98
426.735	81.78
426.958	73.98
427.18	74.18
427.402	79.78
427.625	72.38
427.847	73.38
428.069	82.18
428.292	75.78
428.514	82.38
428.736	78.38
428.958	78.58
429.181	80.58
429.403	81.38
429.625	80.58
429.847	73.38
430.069	85.18
430.292	74.38
430.514	75.38
430.736	79.38
430.958	79.78
431.18	80.78
431.402	83.38
431.624	78.38
431.846	75.98
432.068	76.78
432.29	83.98
432.512	76.38
432.734	76.58
432.956	74.58
433.178	77.58
433.4	84.38
433.622	83.98
433.844	75.18
434.066	80.58
434.287	75.78
434.509	77.58
434.731	87.58
434.953	75.98
435.175	84.58
435.397	79.58
435.618	82.78
435.84	80.58
436.062	77.78
436.284	71.58
436.505	78.58
436.727	83.98
436.949	74.58
437.17	74.78
437.392	80.38
437.614	76.78
437.835	77.58
438.057	73.38
438.278	75.98
438.5	72.98
438.721	76.38
438.943	80.18
439.165	80.78
439.386	81.78
439.608	80.98
439.829	76.78
440.05	81.18
440.272	76.78
440.493	80.38
440.715	81.98
440.936	84.58
441.158	76.98
441.379	76.58
441.6	75.78
441.822	78.58
442.043	78.38
442.264	79.38
442.486	79.18
442.707	81.18
442.928	73.18
443.149	82.78
443.371	75.58
443.592	82.38
443.813	71.98
444.034	74.98
444.255	80.78
444.476	81.38
444.698	74.78
444.919	75.98
445.14	93.18
445.361	79.98
445.582	80.78
445.803	71.38
446.024	76.98
446.245	82.78
446.466	78.98
446.687	81.58
446.908	78.58
447.129	74.98
447.35	77.18
447.571	80.98
447.792	76.58
448.013	76.38
448.234	84.78
448.455	75.78
448.675	80.58
448.896	81.78
449.117	74.38
449.338	83.18
449.559	80.58
449.779	74.18
450	81.18
450.221	78.98
450.442	77.18
450.662	77.58
450.883	81.18
451.104	75.78
451.324	76.18
451.545	75.38
451.766	78.38
451.986	79.98
452.207	76.18
452.428	77.98
452.648	78.38
452.869	84.78
453.089	74.98
453.31	83.38
453.53	83.38
453.751	79.78
453.971	85.58
454.192	83.38
454.412	79.58
454.633	78.18
454.853	81.58
455.073	74.98
455.294	82.98
455.514	88.98
455.734	81.58
455.955	69.78
456.175	79.38
456.395	77.78
456.616	82.78
456.836	77.38
457.056	72.78
457.276	80.18
457.497	84.58
457.717	78.78
457.937	83.18
458.157	81.58
458.377	82.98
458.598	77.38
458.818	71.98
459.038	80.18
459.258	80.18
459.478	78.98
459.698	83.18
459.918	74.18
460.138	81.78
460.358	75.58
460.578	78.18
460.798	77.38
461.018	81.38
461.238	76.58
461.458	74.58
461.678	79.38
461.898	81.58
462.118	86.58
462.338	81.18
462.558	79.78
462.777	78.58
462.997	74.38
463.217	73.38
463.437	82.38
463.657	76.18
463.876	77.98
464.096	76.98
464.316	76.78
464.536	75.98
464.755	86.58
464.975	79.78
465.195	83.98
465.414	80.58
465.634	80.58
465.854	84.38
466.073	82.78
466.293	79.98
466.512	76.58
466.732	78.38
466.951	75.58
467.171	76.58
467.391	79.58
467.61	75.18
467.829	79.98
468.049	80.18
468.268	84.18
468.488	81.98
468.707	79.58
468.927	81.58
469.146	78.38
469.365	81.38
469.585	77.38
469.804	85.18
470.023	78.58
470.243	86.58
470.462	81.78
470.681	79.18
470.901	86.18
471.12	81.98
471.339	83.38
471.558	78.58
471.777	75.58
471.997	76.38
472.216	84.58
472.435	76.18
472.654	82.58
472.873	74.98
473.092	83.38
473.311	81.18
473.53	81.58
473.749	75.38
473.968	83.78
474.187	83.58
474.406	80.18
474.625	80.98
474.844	79.58
475.063	78.38
475.282	79.78
475.501	81.38
475.72	79.98
475.939	84.58
476.158	83.18
476.377	75.78
476.596	78.18
476.814	80.18
477.033	81.98
477.252	81.98
477.471	79.98
477.69	85.18
477.908	77.58
478.127	82.18
478.346	83.18
478.564	71.18
478.783	77.38
479.002	83.98
479.22	78.18
479.439	76.58
479.658	80.58
479.876	81.38
480.095	83.58
480.313	83.58
480.532	73.98
480.751	76.18
480.969	73.98
481.188	79.38
481.406	78.18
481.624	83.98
481.843	79.98
482.061	84.58
482.28	79.78
482.498	85.18
482.717	80.98
482.935	83.38
483.153	83.18
483.372	83.98
483.59	79.18
483.808	79.38
484.027	76.58
484.245	80.98
484.463	84.58
484.681	81.98
484.9	77.18
485.118	81.18
485.336	76.58
485.554	80.38
485.772	79.78
485.99	77.98
486.209	84.58
486.427	81.98
486.645	82.58
486.863	81.98
487.081	82.18
487.299	82.58
487.517	76.78
487.735	82.98
487.953	82.18
488.171	74.38
488.389	85.38
488.607	79.18
488.825	72.58
489.043	77.98
489.261	83.98
489.479	74.18
489.696	82.18
489.914	74.98
490.132	81.78
490.35	75.78
490.568	82.38
490.786	75.98
491.003	77.98
491.221	70.18
491.439	78.58
491.657	81.78
491.874	78.18
492.092	76.78
492.31	82.98
492.527	76.18
492.745	78.58
492.963	79.18
493.18	85.78
493.398	86.18
493.615	82.38
493.833	82.98
494.05	80.38
494.268	77.98
494.485	83.38
494.703	80.58
494.92	76.98
495.138	85.58
495.355	81.98
495.573	80.98
495.79	81.98
496.008	86.18
496.225	86.98
496.442	81.58
496.66	81.78
496.877	81.58
497.094	81.98
497.312	74.78
497.529	83.58
497.746	87.78
497.963	85.98
498.181	81.58
498.398	87.58
498.615	84.78
498.832	79.58
499.049	83.58
499.267	77.78
499.484	87.18
499.701	77.78
499.918	79.78
500.135	81.58
500.352	87.18
500.569	80.38
500.786	82.58
501.003	79.38
501.22	77.98
501.437	82.38
501.654	82.38
501.871	79.38
502.088	82.18
502.305	86.58
502.522	83.58
502.739	83.58
502.956	73.78
503.172	82.98
503.389	80.38
503.606	82.38
503.823	82.58
504.04	83.18
504.256	85.18
504.473	73.78
504.69	75.38
504.907	80.58
505.123	75.58
505.34	82.18
505.557	79.58
505.773	77.98
505.99	77.98
506.207	83.18
506.423	79.18
506.64	77.58
506.856	81.78
507.073	78.18
507.289	76.38
507.506	79.98
507.722	80.18
507.939	86.78
508.155	85.98
508.372	83.98
508.588	84.58
508.805	78.58
509.021	82.78
509.238	83.78
509.454	83.98
509.67	80.18
509.887	80.98
510.103	81.58
510.319	78.58
510.536	81.38
510.752	78.38
510.968	80.78
511.184	74.18
511.401	81.18
511.617	79.18
511.833	85.58
512.049	83.18
512.265	80.78
512.481	83.38
512.698	86.18
512.914	81.38
513.13	83.78
513.346	82.18
513.562	84.58
513.778	73.58
513.994	85.58
514.21	77.58
514.426	79.38
514.642	82.98
514.858	79.58
515.074	80.18
515.29	75.38
515.506	80.18
515.721	79.58
515.937	85.18
516.153	75.18
516.369	81.78
516.585	85.18
516.801	79.18
517.016	76.78
517.232	85.38
517.448	78.38
517.664	80.98
517.879	77.98
518.095	84.98
518.311	80.78
518.527	79.78
518.742	78.98
518.958	80.38
519.173	80.18
519.389	76.78
519.605	83.58
519.82	82.18
520.036	82.38
520.251	85.78
