Data from TenMicroDelayPb_HRD10591_00023.txt Node
Date: Mon Nov 24 14:34:29 EST 2025
User: Yrep
Spectrometer: HR+D1059
Trigger mode: 0
Integration Time (sec): 1.000000E-2
Scans to average: 5
Electric dark correction enabled: true
Nonlinearity correction enabled: false
Boxcar width: 0
XAxis mode: Wavelengths
Number of Pixels in Spectrum: 2048
>>>>>Begin Spectral Data<<<<<
223.165	-8.12
223.4	-8.12
223.635	-8.12
223.869	-14.73
224.104	-15.53
224.338	-18.93
224.573	-18.73
224.808	-12.73
225.042	-9.73
225.277	-4.53
225.511	-1.73
225.746	1.88
225.98	7.67
226.215	9.07
226.449	14.67
226.683	19.88
226.918	23.47
227.152	28.07
227.387	33.27
227.621	45.27
227.856	39.67
228.09	42.67
228.324	50.27
228.559	54.27
228.793	50.88
229.027	57.88
229.262	65.07
229.496	70.07
229.73	73.27
229.964	68.47
230.199	70.67
230.433	68.88
230.667	75.27
230.901	80.47
231.136	76.07
231.37	78.27
231.604	80.27
231.838	80.27
232.072	80.67
232.306	81.27
232.541	82.47
232.775	79.27
233.009	82.88
233.243	80.67
233.477	83.88
233.711	86.07
233.945	77.27
234.179	83.27
234.413	79.07
234.647	77.27
234.881	78.67
235.115	78.47
235.349	75.07
235.583	77.07
235.817	75.27
236.051	75.07
236.285	79.47
236.519	75.47
236.753	72.47
236.987	75.47
237.221	70.27
237.455	77.88
237.689	77.47
237.922	80.88
238.156	74.47
238.39	79.47
238.624	70.88
238.858	71.67
239.091	73.88
239.325	75.27
239.559	75.27
239.793	70.47
240.027	71.27
240.26	74.47
240.494	78.07
240.728	83.47
240.961	71.47
241.195	76.27
241.429	75.27
241.662	75.07
241.896	74.27
242.13	74.47
242.363	72.88
242.597	80.07
242.83	80.88
243.064	77.67
243.298	81.27
243.531	81.88
243.765	78.88
243.998	73.88
244.232	85.67
244.465	77.67
244.699	72.67
244.932	81.27
245.166	71.07
245.399	72.07
245.633	75.27
245.866	79.07
246.099	76.27
246.333	77.88
246.566	74.88
246.8	73.88
247.033	81.47
247.266	76.47
247.5	76.27
247.733	80.67
247.966	77.88
248.2	74.88
248.433	76.07
248.666	79.47
248.899	80.88
249.133	82.07
249.366	81.67
249.599	73.47
249.832	75.27
250.066	79.47
250.299	74.27
250.532	80.67
250.765	79.47
250.998	79.07
251.231	76.88
251.465	75.27
251.698	81.67
251.931	76.67
252.164	85.47
252.397	74.27
252.63	77.88
252.863	80.47
253.096	77.07
253.329	81.07
253.562	83.07
253.795	78.47
254.028	76.27
254.261	82.67
254.494	74.07
254.727	90.88
254.96	84.47
255.193	78.67
255.426	81.67
255.659	78.67
255.892	87.88
256.124	77.47
256.357	81.27
256.59	77.88
256.823	76.27
257.056	77.88
257.289	80.47
257.521	77.88
257.754	82.88
257.987	82.47
258.22	79.67
258.452	80.67
258.685	80.27
258.918	79.27
259.151	82.47
259.383	80.07
259.616	78.07
259.849	82.27
260.081	81.07
260.314	84.47
260.547	78.27
260.779	78.07
261.012	77.88
261.244	74.27
261.477	90.27
261.71	80.88
261.942	80.47
262.175	81.07
262.407	79.47
262.64	72.88
262.872	83.88
263.105	81.47
263.337	78.67
263.57	79.27
263.802	80.07
264.035	82.47
264.267	78.27
264.499	74.88
264.732	86.27
264.964	84.27
265.197	82.07
265.429	86.27
265.661	76.67
265.894	81.88
266.126	73.27
266.358	74.88
266.591	77.27
266.823	78.07
267.055	80.07
267.287	84.27
267.52	86.07
267.752	78.07
267.984	79.88
268.216	80.67
268.448	80.88
268.681	82.88
268.913	81.47
269.145	76.88
269.377	75.67
269.609	82.88
269.841	82.88
270.073	84.07
270.306	80.27
270.538	82.88
270.77	86.27
271.002	78.27
271.234	76.88
271.466	80.47
271.698	83.88
271.93	76.67
272.162	79.88
272.394	76.88
272.626	77.47
272.858	83.67
273.09	73.67
273.322	77.47
273.553	85.88
273.785	82.07
274.017	79.67
274.249	85.07
274.481	82.07
274.713	82.27
274.945	84.07
275.176	88.07
275.408	80.47
275.64	84.47
275.872	87.27
276.104	86.27
276.335	77.67
276.567	78.27
276.799	78.07
277.031	82.07
277.262	85.27
277.494	82.27
277.726	80.07
277.957	81.67
278.189	86.27
278.421	81.67
278.652	85.47
278.884	88.88
279.115	87.67
279.347	82.07
279.579	79.47
279.81	78.47
280.042	82.07
280.273	82.67
280.505	84.27
280.736	84.07
280.968	85.67
281.199	79.47
281.431	82.67
281.662	81.88
281.894	80.88
282.125	83.88
282.356	83.07
282.588	87.67
282.819	87.47
283.051	83.88
283.282	86.07
283.513	86.67
283.745	79.47
283.976	84.47
284.207	84.67
284.439	83.88
284.67	75.47
284.901	80.47
285.132	81.27
285.364	79.88
285.595	85.07
285.826	80.07
286.057	84.47
286.288	83.47
286.52	86.07
286.751	81.27
286.982	82.47
287.213	82.88
287.444	82.27
287.675	83.88
287.906	76.88
288.138	80.07
288.369	86.47
288.6	84.67
288.831	82.47
289.062	83.47
289.293	80.07
289.524	80.07
289.755	85.67
289.986	81.47
290.217	85.07
290.448	83.47
290.679	78.67
290.91	82.67
291.141	82.47
291.371	79.47
291.602	75.88
291.833	86.67
292.064	82.07
292.295	86.88
292.526	87.88
292.757	73.67
292.987	81.67
293.218	76.67
293.449	87.27
293.68	80.07
293.91	89.67
294.141	82.27
294.372	77.27
294.603	81.07
294.833	82.67
295.064	86.47
295.295	82.47
295.525	82.67
295.756	85.47
295.987	86.47
296.217	76.47
296.448	82.47
296.679	82.27
296.909	80.27
297.14	87.07
297.37	84.47
297.601	74.88
297.831	84.67
298.062	87.27
298.292	82.07
298.523	84.88
298.753	83.67
298.984	85.67
299.214	86.67
299.445	80.88
299.675	86.67
299.905	84.88
300.136	81.07
300.366	89.67
300.597	83.67
300.827	83.27
301.057	79.67
301.288	86.27
301.518	85.27
301.748	89.27
301.979	84.88
302.209	83.67
302.439	82.88
302.669	77.07
302.9	87.27
303.13	86.67
303.36	82.67
303.59	87.07
303.82	81.47
304.051	77.27
304.281	86.88
304.511	82.67
304.741	97.47
304.971	90.67
305.201	85.67
305.431	79.07
305.661	82.67
305.891	82.67
306.121	86.67
306.352	89.47
306.582	85.88
306.812	80.88
307.042	81.27
307.272	84.47
307.502	82.27
307.731	74.67
307.961	83.27
308.191	86.07
308.421	81.47
308.651	80.47
308.881	88.88
309.111	84.27
309.341	86.47
309.571	84.27
309.8	84.47
310.03	85.47
310.26	83.47
310.49	81.27
310.72	77.27
310.949	82.67
311.179	86.07
311.409	80.88
311.639	82.07
311.868	76.67
312.098	88.07
312.328	80.27
312.557	80.88
312.787	84.88
313.017	89.67
313.246	86.07
313.476	83.47
313.706	82.47
313.935	85.47
314.165	86.88
314.394	85.07
314.624	86.27
314.853	92.67
315.083	84.47
315.312	81.27
315.542	84.47
315.771	90.67
316.001	83.67
316.23	86.07
316.46	91.47
316.689	81.67
316.919	86.67
317.148	85.07
317.377	82.67
317.607	83.88
317.836	86.88
318.065	83.88
318.295	89.07
318.524	87.67
318.753	91.47
318.983	83.27
319.212	82.67
319.441	84.47
319.67	83.07
319.9	81.07
320.129	83.88
320.358	88.07
320.587	82.07
320.816	82.07
321.046	82.88
321.275	87.67
321.504	86.47
321.733	81.07
321.962	85.27
322.191	85.47
322.42	81.27
322.649	86.47
322.878	81.67
323.108	82.47
323.337	87.07
323.566	84.88
323.795	76.07
324.024	84.27
324.253	85.27
324.482	82.88
324.71	80.47
324.939	90.27
325.168	85.27
325.397	86.47
325.626	87.88
325.855	86.27
326.084	90.07
326.313	80.47
326.542	84.67
326.77	85.07
326.999	82.88
327.228	80.47
327.457	81.07
327.686	87.27
327.914	84.47
328.143	83.47
328.372	84.27
328.6	82.67
328.829	82.07
329.058	81.88
329.287	84.07
329.515	80.88
329.744	86.88
329.972	80.88
330.201	83.27
330.43	88.27
330.658	85.47
330.887	82.27
331.115	81.27
331.344	84.27
331.572	81.27
331.801	86.07
332.03	87.88
332.258	86.07
332.486	84.67
332.715	85.27
332.943	94.07
333.172	84.67
333.4	75.27
333.629	82.67
333.857	83.27
334.085	84.27
334.314	83.67
334.542	84.88
334.771	79.47
334.999	82.88
335.227	78.27
335.455	84.47
335.684	86.88
335.912	85.07
336.14	81.67
336.369	86.07
336.597	83.07
336.825	87.47
337.053	83.67
337.281	84.47
337.51	91.07
337.738	85.07
337.966	82.47
338.194	84.27
338.422	89.47
338.65	79.47
338.878	84.67
339.106	89.47
339.334	87.27
339.562	84.07
339.79	82.88
340.018	81.88
340.246	84.07
340.474	89.27
340.702	82.88
340.93	90.47
341.158	87.47
341.386	81.07
341.614	90.88
341.842	95.27
342.07	82.47
342.298	79.07
342.526	87.67
342.754	79.27
342.981	90.88
343.209	80.27
343.437	85.67
343.665	84.27
343.893	79.07
344.12	85.07
344.348	87.88
344.576	82.47
344.804	77.67
345.031	90.88
345.259	86.88
345.487	85.27
345.714	81.88
345.942	85.67
346.17	82.27
346.397	85.67
346.625	77.67
346.853	84.07
347.08	84.67
347.308	75.27
347.535	77.47
347.763	91.67
347.99	79.47
348.218	78.07
348.445	79.47
348.673	89.27
348.9	84.88
349.128	82.07
349.355	83.88
349.583	84.07
349.81	78.88
350.037	84.47
350.265	88.88
350.492	82.27
350.72	90.88
350.947	76.27
351.174	83.67
351.402	80.27
351.629	83.88
351.856	85.27
352.083	89.07
352.311	85.27
352.538	85.07
352.765	82.47
352.992	84.67
353.22	87.67
353.447	86.07
353.674	83.88
353.901	83.07
354.128	85.88
354.355	83.88
354.583	81.47
354.81	82.27
355.037	75.47
355.264	83.27
355.491	85.88
355.718	83.27
355.945	88.47
356.172	87.27
356.399	79.88
356.626	76.47
356.853	83.67
357.08	89.27
357.307	86.67
357.534	85.47
357.761	82.88
357.988	81.27
358.215	81.27
358.441	83.47
358.668	85.88
358.895	83.67
359.122	84.07
359.349	87.27
359.576	82.88
359.802	86.47
360.029	87.88
360.256	85.07
360.483	83.27
360.709	85.88
360.936	79.27
361.163	82.27
361.39	87.07
361.616	82.27
361.843	82.27
362.07	77.27
362.296	83.67
362.523	84.88
362.749	85.47
362.976	82.67
363.203	85.07
363.429	81.88
363.656	81.27
363.882	81.88
364.109	90.67
364.335	84.88
364.562	88.27
364.788	83.27
365.015	83.88
365.241	84.47
365.468	85.27
365.694	84.07
365.92	81.88
366.147	83.67
366.373	78.07
366.599	83.88
366.826	79.47
367.052	84.88
367.278	82.07
367.505	87.47
367.731	85.27
367.957	83.07
368.184	81.47
368.41	84.88
368.636	84.88
368.862	82.67
369.089	86.07
369.315	85.67
369.541	84.88
369.767	77.88
369.993	80.27
370.219	84.27
370.445	82.07
370.672	81.07
370.898	83.88
371.124	79.27
371.35	79.27
371.576	84.67
371.802	82.27
372.028	80.47
372.254	77.67
372.48	88.27
372.706	81.67
372.932	90.67
373.158	81.47
373.384	81.88
373.61	76.88
373.835	79.67
374.061	80.67
374.287	81.47
374.513	80.07
374.739	80.27
374.965	81.47
375.191	80.07
375.416	78.47
375.642	84.47
375.868	84.88
376.094	81.27
376.319	81.67
376.545	79.88
376.771	77.88
376.997	85.27
377.222	81.67
377.448	77.67
377.674	84.07
377.899	80.47
378.125	89.67
378.35	85.07
378.576	81.67
378.802	73.27
379.027	86.07
379.253	82.47
379.478	82.07
379.704	79.88
379.929	84.27
380.155	80.07
380.38	83.88
380.606	81.67
380.831	73.07
381.057	78.67
381.282	82.27
381.507	77.47
381.733	80.47
381.958	83.88
382.184	82.27
382.409	78.07
382.634	84.27
382.86	82.88
383.085	88.07
383.31	91.27
383.535	80.07
383.761	79.27
383.986	80.27
384.211	82.07
384.436	82.47
384.662	85.47
384.887	79.47
385.112	85.07
385.337	84.47
385.562	85.67
385.787	82.27
386.013	81.27
386.238	83.67
386.463	82.47
386.688	83.27
386.913	82.47
387.138	79.67
387.363	83.07
387.588	79.07
387.813	80.47
388.038	80.88
388.263	81.27
388.488	79.27
388.713	84.07
388.938	86.07
389.163	77.07
389.387	81.47
389.612	79.67
389.837	86.47
390.062	85.47
390.287	81.27
390.512	85.88
390.736	75.27
390.961	86.67
391.186	78.47
391.411	84.88
391.636	83.07
391.86	80.67
392.085	84.88
392.31	82.07
392.534	75.27
392.759	85.07
392.984	88.27
393.208	80.67
393.433	80.47
393.658	86.27
393.882	78.07
394.107	80.07
394.331	89.27
394.556	91.07
394.78	78.88
395.005	84.67
395.229	82.07
395.454	80.88
395.678	78.47
395.903	85.07
396.127	78.07
396.352	82.07
396.576	86.88
396.801	81.27
397.025	79.67
397.249	82.47
397.474	79.07
397.698	81.07
397.922	82.88
398.147	83.67
398.371	88.47
398.595	88.47
398.82	80.07
399.044	83.47
399.268	80.47
399.492	84.07
399.717	77.88
399.941	81.47
400.165	79.47
400.389	80.27
400.613	80.67
400.837	82.47
401.062	85.47
401.286	81.47
401.51	79.27
401.734	82.67
401.958	79.88
402.182	81.88
402.406	80.27
402.63	80.88
402.854	76.67
403.078	84.07
403.302	79.47
403.526	85.07
403.75	76.88
403.974	77.88
404.198	76.47
404.422	80.27
404.645	89.27
404.869	80.07
405.093	79.47
405.317	82.27
405.541	80.27
405.765	86.47
405.988	81.88
406.212	81.67
406.436	82.47
406.66	83.88
406.883	86.27
407.107	85.88
407.331	84.47
407.555	80.88
407.778	80.88
408.002	78.88
408.226	83.67
408.449	79.67
408.673	81.07
408.896	84.27
409.12	76.88
409.344	74.07
409.567	76.07
409.791	79.47
410.014	85.27
410.238	79.88
410.461	79.67
410.685	77.67
410.908	83.88
411.132	80.27
411.355	82.67
411.578	82.27
411.802	82.27
412.025	79.07
412.249	79.27
412.472	78.88
412.695	80.07
412.919	77.47
413.142	78.88
413.365	80.27
413.589	78.07
413.812	83.67
414.035	77.67
414.258	83.67
414.482	82.27
414.705	77.07
414.928	80.67
415.151	77.67
415.374	82.27
415.597	80.27
415.821	83.27
416.044	79.27
416.267	83.27
416.49	82.47
416.713	78.47
416.936	78.67
417.159	82.67
417.382	82.88
417.605	80.07
417.828	79.27
418.051	79.47
418.274	83.88
418.497	81.67
418.72	83.88
418.943	83.27
419.166	75.67
419.389	80.07
419.611	85.27
419.834	79.47
420.057	76.67
420.28	79.67
420.503	80.07
420.726	81.07
420.948	80.67
421.171	79.27
421.394	79.47
421.617	84.27
421.839	77.88
422.062	82.27
422.285	84.88
422.507	75.27
422.73	76.88
422.953	83.88
423.175	82.67
423.398	79.47
423.621	83.07
423.843	82.88
424.066	77.88
424.288	81.47
424.511	79.88
424.733	83.27
424.956	80.07
425.178	79.47
425.401	79.67
425.623	80.07
425.846	82.47
426.068	85.88
426.291	86.47
426.513	86.27
426.735	79.47
426.958	81.67
427.18	81.27
427.402	83.47
427.625	79.67
427.847	84.07
428.069	74.47
428.292	75.27
428.514	77.27
428.736	84.47
428.958	76.88
429.181	83.27
429.403	82.88
429.625	77.67
429.847	87.47
430.069	74.88
430.292	79.07
430.514	77.27
430.736	81.07
430.958	82.67
431.18	77.47
431.402	78.67
431.624	83.27
431.846	80.27
432.068	80.47
432.29	75.47
432.512	83.88
432.734	83.67
432.956	79.67
433.178	81.07
433.4	84.67
433.622	81.27
433.844	83.07
434.066	80.67
434.287	80.88
434.509	85.07
434.731	82.67
434.953	81.07
435.175	86.27
435.397	82.47
435.618	82.88
435.84	84.27
436.062	79.27
436.284	77.88
436.505	84.47
436.727	81.47
436.949	78.07
437.17	81.27
437.392	76.27
437.614	76.27
437.835	83.67
438.057	80.67
438.278	86.88
438.5	84.07
438.721	83.67
438.943	84.07
439.165	81.67
439.386	79.88
439.608	84.47
439.829	79.67
440.05	77.07
440.272	80.07
440.493	82.88
440.715	73.67
440.936	86.88
441.158	79.47
441.379	78.67
441.6	80.27
441.822	83.47
442.043	80.67
442.264	81.07
442.486	79.67
442.707	82.47
442.928	78.07
443.149	82.67
443.371	81.67
443.592	80.67
443.813	76.67
444.034	81.07
444.255	81.47
444.476	81.47
444.698	85.88
444.919	78.07
445.14	88.67
445.361	74.88
445.582	80.27
445.803	82.47
446.024	83.07
446.245	81.27
446.466	79.07
446.687	84.47
446.908	78.07
447.129	83.07
447.35	79.67
447.571	80.27
447.792	77.67
448.013	76.67
448.234	82.67
448.455	82.47
448.675	80.27
448.896	82.67
449.117	81.47
449.338	81.88
449.559	77.47
449.779	85.27
450	78.07
450.221	83.67
450.442	81.07
450.662	79.27
450.883	78.88
451.104	80.67
451.324	78.67
451.545	79.47
451.766	84.27
451.986	82.07
452.207	80.27
452.428	86.88
452.648	74.47
452.869	73.88
453.089	78.47
453.31	85.67
453.53	80.88
453.751	73.47
453.971	83.88
454.192	77.88
454.412	77.67
454.633	82.67
454.853	75.27
455.073	79.27
455.294	76.47
455.514	81.67
455.734	79.88
455.955	82.47
456.175	86.67
456.395	77.47
456.616	80.07
456.836	80.27
457.056	87.27
457.276	76.27
457.497	75.07
457.717	73.88
457.937	83.88
458.157	83.47
458.377	80.27
458.598	79.07
458.818	84.47
459.038	80.27
459.258	85.07
459.478	84.88
459.698	76.47
459.918	81.88
460.138	82.27
460.358	84.07
460.578	81.27
460.798	83.07
461.018	80.07
461.238	85.88
461.458	74.07
461.678	84.67
461.898	84.27
462.118	77.88
462.338	80.27
462.558	78.07
462.777	82.27
462.997	77.88
463.217	84.07
463.437	81.27
463.657	85.88
463.876	84.07
464.096	77.27
464.316	75.27
464.536	82.67
464.755	81.07
464.975	81.67
465.195	80.67
465.414	79.07
465.634	77.88
465.854	77.27
466.073	83.88
466.293	82.47
466.512	80.88
466.732	76.67
466.951	80.27
467.171	74.27
467.391	74.27
467.61	84.27
467.829	79.47
468.049	82.88
468.268	82.47
468.488	82.07
468.707	86.47
468.927	83.47
469.146	78.07
469.365	76.47
469.585	78.47
469.804	76.07
470.023	85.67
470.243	79.07
470.462	86.88
470.681	81.07
470.901	80.88
471.12	79.47
471.339	76.67
471.558	74.67
471.777	83.07
471.997	82.47
472.216	77.67
472.435	72.67
472.654	82.47
472.873	87.07
473.092	83.88
473.311	79.47
473.53	81.47
473.749	82.07
473.968	87.67
474.187	78.88
474.406	79.27
474.625	83.47
474.844	82.88
475.063	82.07
475.282	76.67
475.501	75.07
475.72	79.07
475.939	78.07
476.158	82.07
476.377	84.27
476.596	79.07
476.814	87.07
477.033	84.88
477.252	77.47
477.471	78.47
477.69	80.07
477.908	82.47
478.127	79.07
478.346	76.88
478.564	84.88
478.783	79.47
479.002	79.47
479.22	83.07
479.439	80.67
479.658	83.88
479.876	75.47
480.095	82.67
480.313	83.07
480.532	76.27
480.751	85.88
480.969	73.88
481.188	79.67
481.406	79.47
481.624	82.27
481.843	80.27
482.061	78.88
482.28	80.67
482.498	81.88
482.717	79.67
482.935	87.27
483.153	83.47
483.372	83.07
483.59	82.67
483.808	87.67
484.027	73.88
484.245	79.88
484.463	77.47
484.681	76.88
484.9	81.27
485.118	84.88
485.336	83.88
485.554	77.27
485.772	81.47
485.99	77.67
486.209	80.47
486.427	75.67
486.645	82.47
486.863	86.67
487.081	83.67
487.299	82.67
487.517	79.27
487.735	83.67
487.953	76.07
488.171	81.88
488.389	78.88
488.607	82.47
488.825	81.07
489.043	83.47
489.261	85.27
489.479	84.47
489.696	84.47
489.914	85.67
490.132	87.07
490.35	72.47
490.568	80.88
490.786	77.88
491.003	78.07
491.221	77.07
491.439	78.07
491.657	78.47
491.874	87.47
492.092	85.27
492.31	81.47
492.527	84.27
492.745	87.07
492.963	80.47
493.18	83.07
493.398	86.88
493.615	82.67
493.833	81.88
494.05	82.67
494.268	78.88
494.485	80.47
494.703	87.07
494.92	81.47
495.138	80.88
495.355	81.88
495.573	85.67
495.79	76.47
496.008	88.67
496.225	79.27
496.442	82.88
496.66	88.07
496.877	81.88
497.094	85.67
497.312	84.67
497.529	90.88
497.746	83.07
497.963	80.27
498.181	80.27
498.398	83.88
498.615	81.47
498.832	78.07
499.049	88.88
499.267	87.47
499.484	85.27
499.701	82.27
499.918	85.88
500.135	79.27
500.352	83.07
500.569	82.07
500.786	79.27
501.003	83.07
501.22	84.67
501.437	76.07
501.654	78.67
501.871	84.27
502.088	77.07
502.305	81.47
502.522	74.67
502.739	79.07
502.956	83.88
503.172	81.47
503.389	85.67
503.606	77.67
503.823	78.27
504.04	77.27
504.256	81.47
504.473	83.27
504.69	79.47
504.907	81.47
505.123	83.88
505.34	86.67
505.557	83.47
505.773	84.07
505.99	81.47
506.207	77.07
506.423	74.88
506.64	80.27
506.856	80.88
507.073	82.88
507.289	81.67
507.506	79.88
507.722	78.67
507.939	80.88
508.155	80.67
508.372	87.07
508.588	85.07
508.805	87.88
509.021	75.07
509.238	80.67
509.454	82.27
509.67	82.67
509.887	82.88
510.103	83.67
510.319	84.67
510.536	81.47
510.752	79.67
510.968	80.88
511.184	81.88
511.401	83.27
511.617	87.27
511.833	84.27
512.049	80.07
512.265	88.27
512.481	80.47
512.698	80.07
512.914	81.07
513.13	82.47
513.346	88.27
513.562	80.07
513.778	82.88
513.994	78.88
514.21	84.67
514.426	80.07
514.642	85.67
514.858	78.07
515.074	87.27
515.29	86.88
515.506	89.47
515.721	80.67
515.937	86.67
516.153	82.47
516.369	86.88
516.585	82.67
516.801	80.07
517.016	77.27
517.232	83.67
517.448	85.67
517.664	82.88
517.879	85.07
518.095	79.07
518.311	82.07
518.527	83.67
518.742	76.47
518.958	85.47
519.173	79.47
519.389	78.67
519.605	84.07
519.82	84.67
520.036	85.67
520.251	81.47
