Data from TenMicroDelayPb_HRD10591_00003.txt Node
Date: Mon Nov 24 14:34:24 EST 2025
User: Yrep
Spectrometer: HR+D1059
Trigger mode: 0
Integration Time (sec): 1.000000E-2
Scans to average: 5
Electric dark correction enabled: true
Nonlinearity correction enabled: false
Boxcar width: 0
XAxis mode: Wavelengths
Number of Pixels in Spectrum: 2048
>>>>>Begin Spectral Data<<<<<
223.165	-13.1
223.4	-13.1
223.635	-13.1
223.869	-13.9
224.104	-10.9
224.338	-13.3
224.573	-16.9
224.808	-12.7
225.042	-14.7
225.277	-3.3
225.511	-5.7
225.746	-1.5
225.98	3.7
226.215	13.7
226.449	15.9
226.683	17.3
226.918	21.3
227.152	34.1
227.387	32.3
227.621	38.9
227.856	42.1
228.09	53.7
228.324	51.1
228.559	57.7
228.793	56.7
229.027	60.5
229.262	65.3
229.496	65.9
229.73	68.7
229.964	72.5
230.199	72.3
230.433	77.1
230.667	75.9
230.901	78.9
231.136	77.7
231.37	79.5
231.604	79.3
231.838	78.3
232.072	77.3
232.306	86.7
232.541	83.7
232.775	82.3
233.009	80.5
233.243	81.3
233.477	85.9
233.711	85.1
233.945	77.5
234.179	83.7
234.413	78.5
234.647	78.5
234.881	81.3
235.115	78.1
235.349	75.3
235.583	77.9
235.817	76.7
236.051	72.5
236.285	76.9
236.519	81.1
236.753	80.1
236.987	78.9
237.221	73.7
237.455	73.9
237.689	76.5
237.922	82.3
238.156	72.9
238.39	75.1
238.624	70.1
238.858	76.9
239.091	77.3
239.325	73.7
239.559	73.1
239.793	69.5
240.027	76.9
240.26	74.7
240.494	75.3
240.728	76.5
240.961	74.9
241.195	75.3
241.429	70.5
241.662	79.5
241.896	82.5
242.13	77.9
242.363	80.1
242.597	75.3
242.83	75.3
243.064	80.9
243.298	74.9
243.531	79.3
243.765	72.1
243.998	73.9
244.232	78.1
244.465	75.7
244.699	76.9
244.932	80.5
245.166	75.1
245.399	79.9
245.633	77.3
245.866	76.1
246.099	79.3
246.333	79.7
246.566	86.3
246.8	77.5
247.033	81.5
247.266	78.3
247.5	78.3
247.733	77.5
247.966	77.9
248.2	78.3
248.433	82.7
248.666	78.5
248.899	79.3
249.133	81.9
249.366	79.3
249.599	78.1
249.832	71.5
250.066	75.7
250.299	76.5
250.532	78.7
250.765	82.3
250.998	78.1
251.231	81.7
251.465	75.5
251.698	78.7
251.931	77.7
252.164	82.5
252.397	78.3
252.63	80.5
252.863	73.7
253.096	80.7
253.329	74.1
253.562	84.7
253.795	80.1
254.028	79.1
254.261	80.3
254.494	81.1
254.727	75.5
254.96	83.1
255.193	81.1
255.426	79.3
255.659	80.7
255.892	78.3
256.124	79.5
256.357	76.1
256.59	89.9
256.823	79.3
257.056	74.1
257.289	86.7
257.521	82.1
257.754	76.5
257.987	79.7
258.22	84.3
258.452	78.3
258.685	87.7
258.918	84.1
259.151	78.3
259.383	83.3
259.616	81.3
259.849	77.7
260.081	81.9
260.314	75.5
260.547	80.9
260.779	81.3
261.012	77.9
261.244	76.9
261.477	78.9
261.71	84.9
261.942	78.7
262.175	83.7
262.407	77.3
262.64	83.5
262.872	79.9
263.105	91.3
263.337	84.7
263.57	79.3
263.802	84.7
264.035	77.5
264.267	75.1
264.499	88.1
264.732	74.7
264.964	89.9
265.197	84.9
265.429	83.5
265.661	82.7
265.894	81.5
266.126	83.9
266.358	84.9
266.591	83.9
266.823	84.5
267.055	92.3
267.287	85.5
267.52	80.1
267.752	79.5
267.984	82.1
268.216	81.9
268.448	80.5
268.681	80.3
268.913	79.3
269.145	82.3
269.377	88.5
269.609	83.3
269.841	88.3
270.073	80.9
270.306	85.5
270.538	82.9
270.77	84.5
271.002	83.9
271.234	76.3
271.466	87.1
271.698	81.5
271.93	78.3
272.162	82.3
272.394	79.7
272.626	80.7
272.858	84.9
273.09	86.5
273.322	85.5
273.553	82.9
273.785	79.1
274.017	73.5
274.249	82.9
274.481	82.1
274.713	82.1
274.945	83.9
275.176	83.3
275.408	82.1
275.64	91.5
275.872	82.3
276.104	83.7
276.335	79.5
276.567	79.9
276.799	85.7
277.031	87.1
277.262	86.7
277.494	84.3
277.726	88.5
277.957	87.1
278.189	82.5
278.421	84.9
278.652	86.1
278.884	82.7
279.115	80.5
279.347	81.5
279.579	80.3
279.81	78.7
280.042	86.5
280.273	79.9
280.505	76.7
280.736	85.7
280.968	83.3
281.199	82.9
281.431	76.7
281.662	86.3
281.894	84.1
282.125	86.3
282.356	89.1
282.588	79.9
282.819	79.1
283.051	82.9
283.282	83.5
283.513	86.9
283.745	80.9
283.976	84.7
284.207	87.7
284.439	85.9
284.67	79.9
284.901	81.7
285.132	84.1
285.364	88.1
285.595	85.1
285.826	79.5
286.057	86.5
286.288	77.3
286.52	84.7
286.751	83.3
286.982	82.3
287.213	80.5
287.444	86.9
287.675	82.7
287.906	88.3
288.138	86.7
288.369	85.5
288.6	85.9
288.831	80.7
289.062	83.5
289.293	85.5
289.524	78.5
289.755	83.3
289.986	85.7
290.217	90.5
290.448	85.7
290.679	88.7
290.91	83.1
291.141	85.9
291.371	88.9
291.602	80.7
291.833	76.7
292.064	86.9
292.295	81.5
292.526	84.3
292.757	82.7
292.987	88.5
293.218	84.1
293.449	79.5
293.68	80.7
293.91	81.7
294.141	86.3
294.372	84.7
294.603	84.7
294.833	86.5
295.064	88.1
295.295	78.7
295.525	84.7
295.756	87.9
295.987	85.3
296.217	81.9
296.448	82.5
296.679	82.3
296.909	81.3
297.14	81.9
297.37	78.5
297.601	84.9
297.831	83.7
298.062	82.1
298.292	83.3
298.523	86.1
298.753	86.1
298.984	79.7
299.214	86.7
299.445	82.9
299.675	83.1
299.905	89.1
300.136	79.5
300.366	91.1
300.597	84.3
300.827	81.3
301.057	86.7
301.288	81.5
301.518	85.9
301.748	80.1
301.979	86.5
302.209	81.1
302.439	80.1
302.669	80.5
302.9	82.7
303.13	85.1
303.36	89.3
303.59	90.5
303.82	85.1
304.051	77.7
304.281	85.9
304.511	85.1
304.741	83.9
304.971	79.9
305.201	83.7
305.431	81.5
305.661	79.5
305.891	87.9
306.121	85.1
306.352	85.7
306.582	82.3
306.812	85.7
307.042	88.3
307.272	85.1
307.502	79.7
307.731	87.3
307.961	92.9
308.191	86.1
308.421	88.5
308.651	86.5
308.881	80.3
309.111	82.3
309.341	87.7
309.571	85.3
309.8	77.5
310.03	84.5
310.26	77.1
310.49	84.3
310.72	83.7
310.949	88.7
311.179	83.9
311.409	86.9
311.639	82.1
311.868	88.1
312.098	84.7
312.328	81.9
312.557	80.1
312.787	86.3
313.017	85.3
313.246	84.5
313.476	85.7
313.706	84.7
313.935	84.7
314.165	84.7
314.394	85.5
314.624	85.9
314.853	83.5
315.083	91.5
315.312	83.7
315.542	78.7
315.771	79.1
316.001	90.7
316.23	80.7
316.46	83.1
316.689	87.7
316.919	84.9
317.148	84.5
317.377	87.9
317.607	85.5
317.836	83.7
318.065	84.3
318.295	85.3
318.524	86.5
318.753	83.7
318.983	88.1
319.212	83.7
319.441	87.5
319.67	86.7
319.9	88.7
320.129	87.5
320.358	84.9
320.587	87.7
320.816	84.5
321.046	84.9
321.275	82.9
321.504	74.5
321.733	83.5
321.962	85.3
322.191	78.9
322.42	80.3
322.649	85.7
322.878	84.9
323.108	83.9
323.337	85.1
323.566	76.9
323.795	80.9
324.024	85.5
324.253	86.3
324.482	91.5
324.71	80.9
324.939	84.3
325.168	80.5
325.397	79.7
325.626	82.7
325.855	83.3
326.084	86.1
326.313	84.9
326.542	86.9
326.77	90.1
326.999	80.1
327.228	77.9
327.457	78.7
327.686	84.3
327.914	77.7
328.143	78.3
328.372	81.3
328.6	78.5
328.829	83.3
329.058	81.3
329.287	80.1
329.515	75.5
329.744	82.7
329.972	83.5
330.201	82.5
330.43	84.5
330.658	83.1
330.887	81.7
331.115	83.1
331.344	88.5
331.572	89.3
331.801	79.7
332.03	88.5
332.258	86.5
332.486	83.5
332.715	93.7
332.943	85.3
333.172	87.1
333.4	86.9
333.629	86.7
333.857	87.3
334.085	83.9
334.314	86.7
334.542	88.7
334.771	89.7
334.999	84.5
335.227	83.1
335.455	81.5
335.684	84.3
335.912	82.7
336.14	82.9
336.369	75.7
336.597	85.9
336.825	84.3
337.053	85.5
337.281	81.7
337.51	87.9
337.738	86.1
337.966	80.3
338.194	86.1
338.422	83.9
338.65	84.3
338.878	90.7
339.106	77.7
339.334	88.3
339.562	82.9
339.79	79.3
340.018	89.1
340.246	81.5
340.474	89.7
340.702	83.5
340.93	83.3
341.158	83.5
341.386	85.1
341.614	91.1
341.842	82.7
342.07	90.3
342.298	77.9
342.526	80.7
342.754	86.1
342.981	81.7
343.209	77.7
343.437	90.5
343.665	88.7
343.893	89.3
344.12	84.7
344.348	78.1
344.576	83.9
344.804	88.1
345.031	79.5
345.259	85.5
345.487	81.1
345.714	73.9
345.942	82.3
346.17	81.5
346.397	86.9
346.625	83.9
346.853	77.7
347.08	78.9
347.308	88.5
347.535	82.9
347.763	79.3
347.99	77.3
348.218	83.3
348.445	89.9
348.673	78.1
348.9	81.3
349.128	78.9
349.355	89.3
349.583	81.1
349.81	85.3
350.037	80.3
350.265	89.7
350.492	82.5
350.72	84.5
350.947	78.3
351.174	79.3
351.402	83.3
351.629	88.5
351.856	82.3
352.083	85.3
352.311	79.3
352.538	87.7
352.765	82.1
352.992	86.5
353.22	88.9
353.447	78.9
353.674	82.9
353.901	78.7
354.128	77.5
354.355	85.3
354.583	81.9
354.81	79.1
355.037	79.3
355.264	81.1
355.491	81.9
355.718	90.1
355.945	85.5
356.172	84.1
356.399	82.5
356.626	82.9
356.853	81.9
357.08	80.1
357.307	83.7
357.534	82.9
357.761	80.3
357.988	87.1
358.215	81.3
358.441	79.9
358.668	85.7
358.895	90.3
359.122	82.9
359.349	79.5
359.576	82.1
359.802	85.3
360.029	84.1
360.256	78.7
360.483	83.5
360.709	80.7
360.936	85.9
361.163	82.7
361.39	87.3
361.616	80.9
361.843	79.3
362.07	87.9
362.296	84.7
362.523	77.1
362.749	81.7
362.976	85.9
363.203	85.1
363.429	88.7
363.656	80.7
363.882	76.1
364.109	80.1
364.335	77.7
364.562	82.5
364.788	83.5
365.015	84.9
365.241	83.1
365.468	82.7
365.694	82.5
365.92	84.3
366.147	80.3
366.373	79.5
366.599	82.5
366.826	79.9
367.052	78.9
367.278	84.7
367.505	82.5
367.731	87.1
367.957	79.5
368.184	85.3
368.41	81.9
368.636	89.7
368.862	78.3
369.089	85.7
369.315	81.1
369.541	81.7
369.767	84.9
369.993	83.7
370.219	87.7
370.445	80.1
370.672	81.1
370.898	83.1
371.124	83.1
371.35	80.1
371.576	89.3
371.802	81.9
372.028	79.1
372.254	82.1
372.48	80.7
372.706	84.5
372.932	82.7
373.158	88.7
373.384	77.7
373.61	85.5
373.835	85.9
374.061	80.3
374.287	74.3
374.513	77.7
374.739	81.1
374.965	79.3
375.191	77.5
375.416	88.9
375.642	77.7
375.868	75.3
376.094	81.1
376.319	78.3
376.545	79.9
376.771	78.7
376.997	78.1
377.222	82.3
377.448	82.9
377.674	83.7
377.899	78.1
378.125	83.5
378.35	77.3
378.576	85.5
378.802	84.7
379.027	83.5
379.253	80.9
379.478	86.1
379.704	76.1
379.929	77.9
380.155	81.9
380.38	80.1
380.606	78.5
380.831	84.5
381.057	83.5
381.282	85.3
381.507	78.3
381.733	82.9
381.958	84.5
382.184	82.7
382.409	76.1
382.634	77.1
382.86	83.7
383.085	84.5
383.31	80.1
383.535	78.3
383.761	81.7
383.986	80.9
384.211	83.3
384.436	83.1
384.662	76.5
384.887	82.5
385.112	81.1
385.337	81.9
385.562	87.7
385.787	75.3
386.013	85.1
386.238	80.9
386.463	81.3
386.688	82.7
386.913	87.7
387.138	80.7
387.363	78.3
387.588	76.3
387.813	83.3
388.038	86.9
388.263	76.1
388.488	81.5
388.713	77.1
388.938	79.9
389.163	78.5
389.387	81.3
389.612	81.5
389.837	75.5
390.062	85.1
390.287	78.5
390.512	82.7
390.736	82.3
390.961	80.5
391.186	80.5
391.411	86.1
391.636	82.3
391.86	81.7
392.085	80.9
392.31	80.9
392.534	85.3
392.759	78.9
392.984	84.7
393.208	88.9
393.433	88.5
393.658	80.5
393.882	84.5
394.107	81.7
394.331	77.7
394.556	83.7
394.78	76.1
395.005	86.5
395.229	88.3
395.454	88.9
395.678	78.7
395.903	80.3
396.127	78.1
396.352	80.9
396.576	79.5
396.801	76.7
397.025	80.7
397.249	82.1
397.474	80.5
397.698	83.5
397.922	81.5
398.147	84.3
398.371	84.7
398.595	76.9
398.82	77.1
399.044	84.5
399.268	78.5
399.492	90.1
399.717	88.3
399.941	77.5
400.165	80.5
400.389	81.5
400.613	85.3
400.837	85.7
401.062	88.1
401.286	81.3
401.51	83.3
401.734	78.1
401.958	77.5
402.182	75.9
402.406	76.7
402.63	85.1
402.854	76.3
403.078	74.3
403.302	76.3
403.526	82.1
403.75	81.7
403.974	79.7
404.198	83.3
404.422	80.3
404.645	87.5
404.869	81.3
405.093	83.9
405.317	84.1
405.541	82.3
405.765	76.5
405.988	79.1
406.212	82.7
406.436	78.5
406.66	80.9
406.883	81.3
407.107	77.7
407.331	80.5
407.555	80.9
407.778	77.7
408.002	75.9
408.226	85.7
408.449	79.5
408.673	81.3
408.896	82.1
409.12	84.1
409.344	85.5
409.567	81.1
409.791	79.1
410.014	81.9
410.238	81.7
410.461	82.3
410.685	80.9
410.908	84.3
411.132	81.5
411.355	83.3
411.578	81.9
411.802	79.1
412.025	84.5
412.249	79.9
412.472	77.5
412.695	78.1
412.919	80.5
413.142	78.5
413.365	85.5
413.589	81.5
413.812	82.1
414.035	78.1
414.258	80.7
414.482	79.9
414.705	82.3
414.928	78.5
415.151	86.9
415.374	79.7
415.597	80.7
415.821	74.5
416.044	78.3
416.267	77.1
416.49	80.1
416.713	78.3
416.936	72.5
417.159	82.1
417.382	76.5
417.605	77.9
417.828	79.9
418.051	74.3
418.274	80.5
418.497	82.3
418.72	79.7
418.943	83.5
419.166	80.9
419.389	78.3
419.611	77.3
419.834	77.5
420.057	79.5
420.28	79.9
420.503	79.7
420.726	76.3
420.948	81.7
421.171	80.3
421.394	79.7
421.617	81.7
421.839	76.3
422.062	78.7
422.285	85.7
422.507	85.3
422.73	86.3
422.953	83.5
423.175	87.1
423.398	83.9
423.621	84.5
423.843	84.1
424.066	76.5
424.288	79.3
424.511	78.5
424.733	79.3
424.956	77.1
425.178	81.5
425.401	80.1
425.623	80.9
425.846	83.1
426.068	78.5
426.291	83.9
426.513	81.3
426.735	79.5
426.958	86.1
427.18	87.7
427.402	72.9
427.625	76.7
427.847	80.1
428.069	81.3
428.292	76.5
428.514	78.7
428.736	78.5
428.958	76.7
429.181	82.7
429.403	81.9
429.625	78.1
429.847	76.1
430.069	73.9
430.292	78.7
430.514	73.1
430.736	76.7
430.958	81.5
431.18	80.5
431.402	81.7
431.624	77.3
431.846	76.7
432.068	87.3
432.29	78.7
432.512	81.3
432.734	82.3
432.956	76.9
433.178	83.1
433.4	83.9
433.622	88.5
433.844	84.7
434.066	77.5
434.287	78.7
434.509	83.7
434.731	81.3
434.953	76.1
435.175	77.1
435.397	80.3
435.618	83.9
435.84	82.3
436.062	78.9
436.284	82.5
436.505	75.3
436.727	79.3
436.949	81.7
437.17	81.3
437.392	75.5
437.614	84.1
437.835	79.3
438.057	79.5
438.278	77.5
438.5	71.9
438.721	80.1
438.943	83.9
439.165	81.9
439.386	81.3
439.608	81.7
439.829	79.7
440.05	82.1
440.272	77.3
440.493	80.9
440.715	76.7
440.936	79.3
441.158	86.9
441.379	83.7
441.6	80.9
441.822	81.9
442.043	83.7
442.264	80.7
442.486	85.7
442.707	78.7
442.928	76.3
443.149	83.1
443.371	82.1
443.592	82.7
443.813	80.5
444.034	84.5
444.255	79.3
444.476	76.1
444.698	79.9
444.919	80.9
445.14	88.3
445.361	78.7
445.582	84.7
445.803	75.7
446.024	84.3
446.245	75.7
446.466	78.5
446.687	83.7
446.908	85.1
447.129	75.9
447.35	77.9
447.571	85.7
447.792	78.5
448.013	76.9
448.234	80.9
448.455	76.7
448.675	74.9
448.896	81.1
449.117	76.5
449.338	77.7
449.559	86.1
449.779	80.9
450	83.5
450.221	75.3
450.442	76.3
450.662	82.3
450.883	73.9
451.104	76.9
451.324	77.5
451.545	78.9
451.766	79.3
451.986	85.5
452.207	82.7
452.428	80.7
452.648	80.3
452.869	76.3
453.089	81.1
453.31	83.7
453.53	79.3
453.751	84.5
453.971	77.3
454.192	78.3
454.412	80.5
454.633	75.7
454.853	81.3
455.073	79.7
455.294	81.7
455.514	81.1
455.734	78.3
455.955	84.5
456.175	83.7
456.395	81.7
456.616	75.7
456.836	83.7
457.056	90.5
457.276	81.7
457.497	76.5
457.717	83.7
457.937	87.1
458.157	77.1
458.377	80.1
458.598	83.9
458.818	83.3
459.038	87.7
459.258	83.9
459.478	81.3
459.698	84.7
459.918	80.5
460.138	82.1
460.358	82.3
460.578	79.5
460.798	81.3
461.018	87.1
461.238	82.1
461.458	86.1
461.678	85.7
461.898	86.5
462.118	78.9
462.338	85.3
462.558	82.9
462.777	78.9
462.997	81.3
463.217	80.1
463.437	81.1
463.657	78.5
463.876	75.1
464.096	74.1
464.316	78.9
464.536	81.9
464.755	80.3
464.975	76.3
465.195	74.9
465.414	74.9
465.634	77.5
465.854	81.5
466.073	83.1
466.293	81.3
466.512	84.9
466.732	81.1
466.951	83.9
467.171	80.5
467.391	78.9
467.61	85.1
467.829	76.1
468.049	77.5
468.268	80.5
468.488	83.1
468.707	83.7
468.927	89.5
469.146	75.3
469.365	87.7
469.585	81.5
469.804	80.7
470.023	77.1
470.243	79.9
470.462	83.3
470.681	82.7
470.901	83.5
471.12	79.1
471.339	70.7
471.558	77.3
471.777	77.9
471.997	82.9
472.216	88.5
472.435	78.9
472.654	76.9
472.873	81.5
473.092	80.3
473.311	82.5
473.53	81.5
473.749	81.7
473.968	78.5
474.187	81.3
474.406	81.9
474.625	80.9
474.844	85.3
475.063	84.3
475.282	82.5
475.501	82.3
475.72	74.7
475.939	83.1
476.158	84.1
476.377	78.1
476.596	87.9
476.814	83.9
477.033	81.9
477.252	87.3
477.471	78.7
477.69	82.7
477.908	81.3
478.127	86.3
478.346	84.9
478.564	89.5
478.783	80.5
479.002	83.9
479.22	77.1
479.439	76.3
479.658	86.5
479.876	86.5
480.095	84.7
480.313	83.5
480.532	87.9
480.751	85.1
480.969	86.9
481.188	81.5
481.406	75.5
481.624	85.3
481.843	79.7
482.061	80.1
482.28	83.9
482.498	87.5
482.717	92.5
482.935	81.1
483.153	91.3
483.372	84.5
483.59	79.5
483.808	80.5
484.027	90.5
484.245	78.3
484.463	77.1
484.681	74.3
484.9	78.5
485.118	83.7
485.336	75.7
485.554	83.5
485.772	80.7
485.99	78.3
486.209	82.5
486.427	80.5
486.645	78.7
486.863	82.3
487.081	84.1
487.299	75.7
487.517	80.3
487.735	82.5
487.953	79.1
488.171	83.9
488.389	77.7
488.607	83.9
488.825	75.9
489.043	79.5
489.261	84.7
489.479	80.9
489.696	86.1
489.914	84.7
490.132	81.1
490.35	84.1
490.568	79.5
490.786	78.7
491.003	84.7
491.221	85.7
491.439	89.1
491.657	81.3
491.874	84.3
492.092	79.9
492.31	83.7
492.527	79.3
492.745	87.1
492.963	84.1
493.18	85.5
493.398	75.1
493.615	82.9
493.833	79.9
494.05	80.1
494.268	82.9
494.485	83.3
494.703	84.7
494.92	77.9
495.138	79.3
495.355	83.1
495.573	85.1
495.79	83.5
496.008	80.9
496.225	79.9
496.442	85.3
496.66	83.3
496.877	78.3
497.094	83.9
497.312	75.5
497.529	80.3
497.746	82.5
497.963	83.3
498.181	84.1
498.398	78.9
498.615	80.5
498.832	78.9
499.049	80.3
499.267	84.1
499.484	84.1
499.701	82.1
499.918	85.1
500.135	81.1
500.352	74.7
500.569	81.5
500.786	81.9
501.003	81.7
501.22	79.5
501.437	74.7
501.654	81.5
501.871	87.3
502.088	80.9
502.305	80.3
502.522	80.1
502.739	82.3
502.956	82.9
503.172	84.7
503.389	85.3
503.606	87.9
503.823	84.5
504.04	79.7
504.256	85.5
504.473	78.1
504.69	73.5
504.907	86.9
505.123	81.9
505.34	80.3
505.557	78.7
505.773	90.3
505.99	86.3
506.207	89.1
506.423	80.9
506.64	81.3
506.856	83.3
507.073	84.3
507.289	84.1
507.506	84.1
507.722	83.1
507.939	83.3
508.155	83.1
508.372	78.7
508.588	82.7
508.805	78.1
509.021	81.3
509.238	82.5
509.454	81.5
509.67	89.5
509.887	85.9
510.103	79.7
510.319	89.5
510.536	84.5
510.752	79.7
510.968	85.9
511.184	81.3
511.401	79.7
511.617	81.7
511.833	79.5
512.049	82.5
512.265	83.5
512.481	81.5
512.698	85.3
512.914	84.1
513.13	87.9
513.346	79.7
513.562	85.5
513.778	88.3
513.994	82.3
514.21	84.1
514.426	89.1
514.642	77.1
514.858	83.9
515.074	83.5
515.29	84.9
515.506	85.3
515.721	81.7
515.937	82.9
516.153	85.1
516.369	85.9
516.585	86.5
516.801	84.3
517.016	84.5
517.232	88.5
517.448	87.1
517.664	85.3
517.879	81.7
518.095	82.1
518.311	86.7
518.527	77.3
518.742	79.9
518.958	82.5
519.173	80.5
519.389	80.5
519.605	85.9
519.82	78.3
520.036	83.3
520.251	90.7
520.467	83.3
520.682	87.7
520.898	75.9
521.113	82.5
521.329	82.9
521.544	79.3
521.76	81.7
521.975	79.1
522.19	85.5
522.406	84.9
522.621	76.3
522.836	82.7
523.052	83.3
523.267	86.1
523.482	80.9
523.698	82.3
523.913	81.7
524.128	79.9
524.343	81.9
524.559	80.7
524.774	81.1
524.989	80.3
525.204	77.9
525.419	80.1
525.634	84.3
525.849	77.5
526.064	78.1
526.28	82.5
526.495	85.9
526.71	82.9
526.925	88.1
527.14	81.1
527.355	82.1
527.57	80.7
527.785	82.9
527.999	85.5
528.214	80.5
528.429	87.1
528.644	87.1
528.859	89.5
529.074	84.9
529.289	79.1
529.503	81.7
529.718	82.1
529.933	85.1
530.148	83.9
530.363	82.1
530.577	79.3
530.792	76.5
531.007	86.7
531.221	83.1
531.436	83.9
531.651	77.5
531.865	85.7
532.08	77.7
532.295	87.5
532.509	89.3
532.724	78.3
532.938	88.3
533.153	83.5
533.367	82.1
533.582	84.7
533.796	92.5
534.011	83.5
534.225	82.5
534.44	82.5
534.654	89.3
534.868	87.1
535.083	78.3
535.297	83.1
535.511	82.5
535.726	80.3
535.94	79.7
536.154	88.5
536.369	83.9
536.583	90.3
536.797	87.9
537.011	84.7
537.225	79.9
537.44	85.5
537.654	85.9
537.868	84.9
538.082	75.1
538.296	82.9
538.51	80.1
538.724	89.1
538.938	79.5
539.153	81.5
539.367	81.1
539.581	81.9
539.795	74.9
540.009	85.3
540.222	82.7
540.436	83.1
540.65	85.5
