Data from TenMicroDelayPb_HRD10591_00032.txt Node
Date: Mon Nov 24 14:36:54 EST 2025
User: Yrep
Spectrometer: HR+D1059
Trigger mode: 1
Integration Time (sec): 1.000000E-2
Scans to average: 5
Electric dark correction enabled: true
Nonlinearity correction enabled: false
Boxcar width: 0
XAxis mode: Wavelengths
Number of Pixels in Spectrum: 2048
>>>>>Begin Spectral Data<<<<<
223.165	-16.49
223.4	-16.49
223.635	-16.49
223.869	-12.29
224.104	-11.69
224.338	-12.29
224.573	-10.09
224.808	-14.49
225.042	-10.49
225.277	-14.09
225.511	5.71
225.746	0.71
225.98	1.31
226.215	10.71
226.449	19.71
226.683	20.31
226.918	18.91
227.152	24.51
227.387	31.91
227.621	32.91
227.856	42.11
228.09	49.51
228.324	53.31
228.559	56.31
228.793	59.31
229.027	59.91
229.262	60.71
229.496	67.91
229.73	67.31
229.964	69.71
230.199	75.71
230.433	73.91
230.667	74.91
230.901	75.91
231.136	82.31
231.37	76.91
231.604	80.31
231.838	81.71
232.072	79.51
232.306	78.11
232.541	78.51
232.775	76.11
233.009	80.31
233.243	78.31
233.477	82.71
233.711	83.31
233.945	84.51
234.179	78.91
234.413	81.31
234.647	79.51
234.881	76.11
235.115	75.91
235.349	76.31
235.583	86.51
235.817	72.51
236.051	68.31
236.285	80.11
236.519	78.71
236.753	75.11
236.987	76.31
237.221	79.31
237.455	75.51
237.689	78.11
237.922	77.91
238.156	82.91
238.39	73.31
238.624	76.11
238.858	77.71
239.091	74.31
239.325	76.91
239.559	74.51
239.793	75.11
240.027	73.71
240.26	73.91
240.494	73.31
240.728	77.31
240.961	76.31
241.195	79.91
241.429	75.11
241.662	73.51
241.896	78.31
242.13	81.71
242.363	82.11
242.597	79.51
242.83	72.31
243.064	79.51
243.298	71.91
243.531	81.11
243.765	75.71
243.998	79.31
244.232	81.51
244.465	75.31
244.699	79.91
244.932	83.91
245.166	76.91
245.399	72.71
245.633	76.11
245.866	78.71
246.099	75.91
246.333	79.11
246.566	78.91
246.8	79.51
247.033	71.71
247.266	79.71
247.5	76.71
247.733	77.31
247.966	78.91
248.2	80.91
248.433	71.31
248.666	78.91
248.899	81.31
249.133	74.11
249.366	81.91
249.599	79.31
249.832	78.11
250.066	78.71
250.299	75.71
250.532	81.71
250.765	75.91
250.998	71.11
251.231	69.71
251.465	76.51
251.698	70.91
251.931	79.51
252.164	75.11
252.397	81.11
252.63	80.71
252.863	78.11
253.096	79.91
253.329	79.11
253.562	81.71
253.795	78.11
254.028	82.91
254.261	78.91
254.494	77.71
254.727	83.11
254.96	73.11
255.193	84.51
255.426	72.91
255.659	81.11
255.892	75.91
256.124	81.31
256.357	77.11
256.59	81.11
256.823	76.91
257.056	84.31
257.289	83.11
257.521	80.31
257.754	81.91
257.987	76.91
258.22	76.71
258.452	76.91
258.685	84.71
258.918	76.71
259.151	83.91
259.383	89.51
259.616	77.11
259.849	76.11
260.081	84.31
260.314	76.31
260.547	81.51
260.779	81.71
261.012	82.11
261.244	81.71
261.477	84.71
261.71	83.11
261.942	87.11
262.175	82.31
262.407	82.51
262.64	79.91
262.872	79.11
263.105	89.71
263.337	85.31
263.57	84.11
263.802	75.71
264.035	80.51
264.267	79.11
264.499	88.71
264.732	84.91
264.964	75.91
265.197	85.31
265.429	86.31
265.661	83.11
265.894	83.51
266.126	83.31
266.358	82.11
266.591	82.31
266.823	80.11
267.055	77.51
267.287	85.31
267.52	78.91
267.752	77.91
267.984	78.31
268.216	80.91
268.448	71.91
268.681	83.91
268.913	83.51
269.145	85.91
269.377	82.51
269.609	85.91
269.841	81.91
270.073	88.31
270.306	80.71
270.538	84.31
270.77	86.91
271.002	85.91
271.234	80.91
271.466	85.11
271.698	76.91
271.93	80.91
272.162	77.51
272.394	76.71
272.626	75.11
272.858	79.51
273.09	77.31
273.322	75.11
273.553	85.51
273.785	84.11
274.017	85.71
274.249	82.11
274.481	83.51
274.713	77.51
274.945	86.91
275.176	80.31
275.408	72.71
275.64	85.91
275.872	86.51
276.104	89.91
276.335	75.71
276.567	80.51
276.799	80.71
277.031	79.51
277.262	81.31
277.494	77.51
277.726	79.11
277.957	81.91
278.189	81.11
278.421	82.11
278.652	83.91
278.884	86.51
279.115	87.91
279.347	91.11
279.579	85.91
279.81	87.11
280.042	94.91
280.273	95.11
280.505	98.51
280.736	91.11
280.968	79.31
281.199	84.71
281.431	82.71
281.662	89.91
281.894	91.31
282.125	80.71
282.356	90.71
282.588	94.11
282.819	83.51
283.051	91.11
283.282	98.91
283.513	101.91
283.745	90.71
283.976	86.31
284.207	85.11
284.439	86.71
284.67	88.31
284.901	82.11
285.132	79.71
285.364	84.11
285.595	81.31
285.826	79.11
286.057	91.71
286.288	84.11
286.52	84.31
286.751	85.91
286.982	83.31
287.213	93.31
287.444	90.71
287.675	85.31
287.906	86.51
288.138	84.31
288.369	81.91
288.6	83.91
288.831	86.91
289.062	84.31
289.293	78.91
289.524	85.91
289.755	83.91
289.986	84.11
290.217	88.11
290.448	85.91
290.679	85.71
290.91	85.31
291.141	86.11
291.371	79.31
291.602	81.51
291.833	84.71
292.064	84.51
292.295	78.91
292.526	89.31
292.757	81.71
292.987	84.31
293.218	81.71
293.449	81.31
293.68	85.91
293.91	81.11
294.141	78.31
294.372	83.71
294.603	83.11
294.833	83.31
295.064	81.91
295.295	80.91
295.525	80.51
295.756	90.11
295.987	90.11
296.217	85.11
296.448	86.91
296.679	83.51
296.909	84.51
297.14	79.71
297.37	80.31
297.601	79.51
297.831	83.91
298.062	84.71
298.292	82.11
298.523	81.31
298.753	82.91
298.984	79.71
299.214	88.91
299.445	84.31
299.675	85.11
299.905	88.11
300.136	81.71
300.366	80.91
300.597	82.91
300.827	85.51
301.057	86.31
301.288	81.91
301.518	85.71
301.748	80.31
301.979	87.31
302.209	81.11
302.439	80.91
302.669	89.51
302.9	91.71
303.13	90.31
303.36	79.51
303.59	83.51
303.82	84.51
304.051	80.91
304.281	88.71
304.511	79.71
304.741	86.91
304.971	90.51
305.201	88.91
305.431	85.51
305.661	82.91
305.891	83.91
306.121	79.71
306.352	82.31
306.582	86.71
306.812	77.91
307.042	89.11
307.272	85.71
307.502	80.71
307.731	84.51
307.961	85.11
308.191	86.31
308.421	83.51
308.651	84.11
308.881	84.31
309.111	82.71
309.341	84.31
309.571	78.11
309.8	84.51
310.03	87.11
310.26	84.91
310.49	85.71
310.72	89.31
310.949	84.11
311.179	84.11
311.409	83.51
311.639	81.11
311.868	78.51
312.098	88.11
312.328	83.31
312.557	85.31
312.787	79.91
313.017	88.91
313.246	82.71
313.476	82.91
313.706	86.51
313.935	86.31
314.165	81.91
314.394	90.31
314.624	95.31
314.853	88.31
315.083	87.11
315.312	78.11
315.542	84.71
315.771	79.91
316.001	86.51
316.23	83.91
316.46	80.31
316.689	84.71
316.919	88.31
317.148	79.91
317.377	80.11
317.607	84.51
317.836	82.31
318.065	80.71
318.295	74.91
318.524	84.11
318.753	84.31
318.983	87.71
319.212	81.71
319.441	82.11
319.67	77.71
319.9	80.71
320.129	81.71
320.358	91.51
320.587	88.31
320.816	83.31
321.046	84.11
321.275	86.91
321.504	89.51
321.733	78.51
321.962	85.91
322.191	85.91
322.42	84.51
322.649	85.11
322.878	84.71
323.108	82.91
323.337	87.91
323.566	80.11
323.795	86.91
324.024	81.51
324.253	87.11
324.482	86.31
324.71	89.11
324.939	85.51
325.168	85.31
325.397	85.51
325.626	86.31
325.855	76.31
326.084	87.31
326.313	84.31
326.542	87.71
326.77	84.91
326.999	85.31
327.228	84.11
327.457	85.71
327.686	84.31
327.914	84.91
328.143	89.31
328.372	82.51
328.6	82.11
328.829	86.51
329.058	81.71
329.287	83.71
329.515	86.51
329.744	87.91
329.972	88.51
330.201	86.91
330.43	82.51
330.658	86.51
330.887	85.71
331.115	80.91
331.344	81.91
331.572	83.31
331.801	77.31
332.03	83.31
332.258	84.91
332.486	83.91
332.715	77.91
332.943	89.11
333.172	84.31
333.4	85.91
333.629	83.51
333.857	83.51
334.085	78.91
334.314	85.71
334.542	78.91
334.771	85.51
334.999	85.31
335.227	84.51
335.455	80.91
335.684	81.51
335.912	84.51
336.14	76.71
336.369	81.91
336.597	81.91
336.825	85.91
337.053	82.11
337.281	76.71
337.51	87.51
337.738	75.91
337.966	87.11
338.194	80.71
338.422	79.11
338.65	79.91
338.878	83.51
339.106	86.11
339.334	85.31
339.562	86.51
339.79	83.51
340.018	86.51
340.246	82.71
340.474	87.51
340.702	82.71
340.93	83.31
341.158	84.51
341.386	82.31
341.614	83.51
341.842	82.11
342.07	86.11
342.298	74.51
342.526	76.11
342.754	85.11
342.981	82.51
343.209	82.11
343.437	84.51
343.665	83.11
343.893	86.51
344.12	85.51
344.348	82.51
344.576	77.51
344.804	86.31
345.031	81.91
345.259	83.11
345.487	86.31
345.714	77.91
345.942	84.51
346.17	77.11
346.397	80.51
346.625	85.71
346.853	85.11
347.08	76.71
347.308	82.31
347.535	87.51
347.763	79.91
347.99	79.31
348.218	79.51
348.445	85.71
348.673	77.11
348.9	77.51
349.128	83.91
349.355	89.31
349.583	91.71
349.81	83.91
350.037	79.71
350.265	79.91
350.492	86.11
350.72	82.71
350.947	87.51
351.174	88.71
351.402	78.51
351.629	82.71
351.856	83.11
352.083	78.11
352.311	85.71
352.538	80.11
352.765	76.11
352.992	85.11
353.22	81.71
353.447	82.71
353.674	81.71
353.901	87.71
354.128	85.71
354.355	82.31
354.583	83.11
354.81	86.71
355.037	80.51
355.264	82.51
355.491	85.91
355.718	74.11
355.945	82.91
356.172	84.31
356.399	88.31
356.626	82.31
356.853	97.31
357.08	100.71
357.307	121.11
357.534	101.31
357.761	91.31
357.988	85.71
358.215	75.11
358.441	78.91
358.668	78.71
358.895	80.11
359.122	89.71
359.349	87.71
359.576	83.11
359.802	83.51
360.029	80.11
360.256	83.31
360.483	85.11
360.709	80.71
360.936	86.51
361.163	82.51
361.39	85.91
361.616	85.71
361.843	86.71
362.07	82.31
362.296	78.11
362.523	78.31
362.749	86.91
362.976	84.11
363.203	91.91
363.429	88.11
363.656	112.91
363.882	135.91
364.109	138.91
364.335	102.71
364.562	88.31
364.788	82.11
365.015	83.51
365.241	80.51
365.468	85.71
365.694	87.71
365.92	79.91
366.147	90.51
366.373	84.91
366.599	80.51
366.826	88.71
367.052	97.91
367.278	95.71
367.505	95.51
367.731	87.91
367.957	107.51
368.184	140.71
368.41	162.51
368.636	132.31
368.862	102.91
369.089	84.51
369.315	80.11
369.541	82.71
369.767	86.91
369.993	87.11
370.219	80.11
370.445	78.71
370.672	74.91
370.898	86.91
371.124	77.31
371.35	81.11
371.576	83.51
371.802	86.91
372.028	86.91
372.254	84.51
372.48	84.31
372.706	81.91
372.932	86.91
373.158	85.11
373.384	84.91
373.61	96.51
373.835	103.71
374.061	120.51
374.287	100.91
374.513	84.91
374.739	79.71
374.965	82.71
375.191	80.31
375.416	80.11
375.642	80.51
375.868	76.91
376.094	87.11
376.319	88.11
376.545	82.71
376.771	81.11
376.997	87.11
377.222	83.31
377.448	80.11
377.674	82.51
377.899	86.91
378.125	86.11
378.35	84.51
378.576	75.31
378.802	82.51
379.027	82.11
379.253	81.91
379.478	82.71
379.704	83.91
379.929	80.71
380.155	84.31
380.38	80.71
380.606	79.11
380.831	85.91
381.057	85.91
381.282	84.51
381.507	84.51
381.733	78.91
381.958	76.71
382.184	78.71
382.409	78.51
382.634	81.91
382.86	79.31
383.085	82.91
383.31	77.71
383.535	81.71
383.761	83.91
383.986	79.91
384.211	77.91
384.436	82.91
384.662	77.11
384.887	76.31
385.112	81.11
385.337	83.51
385.562	83.51
385.787	78.71
386.013	84.51
386.238	81.31
386.463	81.11
386.688	84.91
386.913	75.91
387.138	82.51
387.363	77.51
387.588	83.31
387.813	75.51
388.038	81.71
388.263	79.71
388.488	79.91
388.713	78.31
388.938	85.31
389.163	86.11
389.387	78.11
389.612	81.11
389.837	83.11
390.062	82.91
390.287	78.91
390.512	85.71
390.736	77.51
390.961	75.11
391.186	75.31
391.411	85.51
391.636	87.31
391.86	80.31
392.085	84.51
392.31	80.91
392.534	80.91
392.759	81.71
392.984	79.91
393.208	81.31
393.433	80.11
393.658	80.91
393.882	80.91
394.107	80.11
394.331	83.11
394.556	73.11
394.78	86.51
395.005	78.51
395.229	82.71
395.454	82.91
395.678	75.51
395.903	83.71
396.127	78.71
396.352	83.51
396.576	84.11
396.801	79.11
397.025	84.31
397.249	84.51
397.474	81.31
397.698	82.71
397.922	84.91
398.147	77.91
398.371	82.51
398.595	77.91
398.82	77.51
399.044	84.31
399.268	79.71
399.492	85.31
399.717	80.71
399.941	80.51
400.165	83.11
400.389	78.71
400.613	81.11
400.837	79.31
401.062	80.11
401.286	81.71
401.51	84.51
401.734	85.51
401.958	96.51
402.182	92.11
402.406	79.91
402.63	83.11
402.854	83.71
403.078	80.31
403.302	79.71
403.526	88.11
403.75	84.71
403.974	89.31
404.198	80.11
404.422	85.51
404.645	82.11
404.869	89.71
405.093	94.91
405.317	99.91
405.541	154.91
405.765	240.11
405.988	253.51
406.212	150.91
406.436	118.31
406.66	84.31
406.883	83.71
407.107	87.71
407.331	85.11
407.555	78.91
407.778	85.31
408.002	76.31
408.226	78.11
408.449	80.11
408.673	79.11
408.896	79.31
409.12	81.51
409.344	90.11
409.567	87.51
409.791	78.71
410.014	86.31
410.238	81.91
410.461	81.51
410.685	77.31
410.908	77.91
411.132	81.71
411.355	82.31
411.578	79.31
411.802	80.51
412.025	86.51
412.249	78.31
412.472	79.71
412.695	77.91
412.919	84.11
413.142	85.11
413.365	83.71
413.589	79.51
413.812	80.31
414.035	80.71
414.258	78.51
414.482	79.71
414.705	79.31
414.928	81.11
415.151	82.51
415.374	82.71
415.597	77.11
415.821	82.71
416.044	82.51
416.267	80.71
416.49	79.11
416.713	85.11
416.936	87.91
417.159	82.11
417.382	79.71
417.605	85.71
417.828	84.71
418.051	83.51
418.274	82.11
418.497	79.71
418.72	82.91
418.943	83.11
419.166	80.51
419.389	87.31
419.611	83.51
419.834	85.71
420.057	81.91
420.28	83.31
420.503	74.71
420.726	83.51
420.948	76.11
421.171	77.31
421.394	80.71
421.617	78.51
421.839	72.71
422.062	79.71
422.285	77.11
422.507	76.31
422.73	85.51
422.953	79.51
423.175	82.51
423.398	84.31
423.621	83.51
423.843	83.91
424.066	83.11
424.288	84.91
424.511	73.71
424.733	78.91
424.956	83.11
425.178	82.71
425.401	81.11
425.623	79.51
425.846	85.31
426.068	79.11
426.291	82.91
426.513	86.51
426.735	74.91
426.958	81.11
427.18	78.71
427.402	78.91
427.625	84.11
427.847	83.51
428.069	77.11
428.292	81.91
428.514	75.51
428.736	82.31
428.958	83.71
429.181	81.31
429.403	86.71
429.625	81.31
429.847	80.51
430.069	77.11
430.292	85.91
430.514	74.31
430.736	81.31
430.958	80.71
431.18	77.51
431.402	85.31
431.624	78.91
431.846	83.71
432.068	80.51
432.29	76.91
432.512	76.31
432.734	76.51
432.956	84.71
433.178	80.51
433.4	81.71
433.622	87.91
433.844	76.11
434.066	77.31
434.287	78.51
434.509	78.71
434.731	80.51
434.953	75.31
435.175	79.51
435.397	84.71
435.618	80.11
435.84	84.71
436.062	85.51
436.284	80.31
436.505	75.51
436.727	78.71
436.949	85.11
437.17	78.31
437.392	83.91
437.614	76.91
437.835	84.31
438.057	74.71
438.278	80.31
438.5	83.31
438.721	85.31
438.943	90.51
439.165	79.11
439.386	80.31
439.608	87.11
439.829	86.71
440.05	81.31
440.272	81.91
440.493	83.11
440.715	87.11
440.936	84.31
441.158	85.11
441.379	81.11
441.6	87.51
441.822	83.71
442.043	79.71
442.264	81.31
442.486	82.91
442.707	81.31
442.928	83.91
443.149	87.51
443.371	77.31
443.592	80.91
443.813	88.51
444.034	78.31
444.255	78.31
444.476	72.91
444.698	83.31
444.919	76.31
445.14	94.51
445.361	86.71
445.582	75.91
445.803	82.51
446.024	80.51
446.245	73.31
446.466	85.11
446.687	83.91
446.908	87.31
447.129	83.91
447.35	82.91
447.571	78.11
447.792	77.91
448.013	88.91
448.234	79.51
448.455	78.71
448.675	87.71
448.896	79.11
449.117	82.31
449.338	84.31
449.559	83.91
449.779	84.31
450	83.31
450.221	81.11
450.442	81.71
450.662	81.11
450.883	81.51
451.104	87.71
451.324	79.31
451.545	79.31
451.766	77.51
451.986	83.91
452.207	89.11
452.428	80.91
452.648	84.51
452.869	78.91
453.089	82.71
453.31	83.71
453.53	81.31
453.751	87.11
453.971	84.11
454.192	79.71
454.412	79.31
454.633	82.11
454.853	77.71
455.073	76.11
455.294	77.31
455.514	85.71
455.734	81.51
455.955	86.51
456.175	85.51
456.395	86.31
456.616	83.51
456.836	75.51
457.056	81.11
457.276	81.91
457.497	83.71
457.717	79.31
457.937	83.71
458.157	80.11
458.377	83.31
458.598	80.11
458.818	83.31
459.038	82.51
459.258	82.51
459.478	76.51
459.698	81.51
459.918	82.71
460.138	75.91
460.358	84.71
460.578	82.31
460.798	79.71
461.018	80.71
461.238	84.71
461.458	81.51
461.678	75.71
461.898	80.31
462.118	84.51
462.338	80.71
462.558	78.91
462.777	80.11
462.997	81.71
463.217	83.31
463.437	81.11
463.657	78.31
463.876	87.31
464.096	71.51
464.316	78.31
464.536	85.71
464.755	79.11
464.975	82.11
465.195	80.11
465.414	82.91
465.634	81.71
465.854	83.11
466.073	80.71
466.293	79.11
466.512	81.11
466.732	83.51
466.951	77.31
467.171	77.71
467.391	79.11
467.61	82.51
467.829	88.11
468.049	79.91
468.268	87.11
468.488	83.31
468.707	80.71
468.927	74.51
469.146	79.51
469.365	84.11
469.585	78.31
469.804	71.71
470.023	77.91
470.243	86.11
470.462	81.51
470.681	83.51
470.901	79.71
471.12	82.91
471.339	74.91
471.558	75.51
471.777	88.51
471.997	82.31
472.216	83.71
472.435	82.31
472.654	78.11
472.873	82.31
473.092	77.31
473.311	84.31
473.53	88.11
473.749	80.51
473.968	78.11
474.187	88.31
474.406	81.11
474.625	80.31
474.844	87.71
475.063	91.91
475.282	83.71
475.501	83.11
475.72	79.91
475.939	84.71
476.158	77.91
476.377	79.51
476.596	80.11
476.814	81.91
477.033	85.91
477.252	84.91
477.471	84.31
477.69	79.91
477.908	82.31
478.127	79.31
478.346	85.51
478.564	87.51
478.783	85.51
479.002	87.91
479.22	86.91
479.439	81.51
479.658	83.31
479.876	86.31
480.095	79.91
480.313	84.91
480.532	84.31
480.751	82.11
480.969	79.11
481.188	80.71
481.406	82.51
481.624	81.51
481.843	80.91
482.061	75.11
482.28	84.51
482.498	87.11
482.717	80.71
482.935	80.31
483.153	79.11
483.372	85.91
483.59	84.91
483.808	86.11
484.027	78.11
484.245	85.31
484.463	81.91
484.681	78.71
484.9	86.31
485.118	81.11
485.336	86.11
485.554	88.51
485.772	76.31
485.99	82.71
486.209	84.31
486.427	83.51
486.645	84.11
486.863	77.91
487.081	73.51
487.299	78.11
487.517	88.91
487.735	79.71
487.953	82.51
488.171	85.71
488.389	85.91
488.607	81.91
488.825	85.11
489.043	78.51
489.261	86.51
489.479	86.11
489.696	84.11
489.914	83.31
490.132	83.71
490.35	87.91
490.568	89.51
490.786	81.51
491.003	87.11
491.221	83.31
491.439	85.31
491.657	89.11
491.874	85.91
492.092	77.91
492.31	81.51
492.527	83.51
492.745	84.31
492.963	83.91
493.18	79.11
493.398	81.11
493.615	84.31
493.833	82.31
494.05	85.91
494.268	84.31
494.485	85.91
494.703	86.31
494.92	82.11
495.138	84.71
495.355	86.91
495.573	81.71
495.79	84.11
496.008	85.51
496.225	77.91
496.442	79.51
496.66	82.11
496.877	87.71
497.094	83.71
497.312	80.11
497.529	86.31
497.746	82.71
497.963	91.11
498.181	86.11
498.398	83.11
498.615	78.71
498.832	80.11
499.049	83.51
499.267	80.91
499.484	82.11
499.701	81.31
499.918	85.31
500.135	84.71
500.352	89.71
500.569	100.31
500.786	110.91
501.003	82.91
501.22	80.91
501.437	75.31
501.654	81.51
501.871	82.71
502.088	85.71
502.305	84.91
502.522	84.51
502.739	85.31
502.956	79.71
503.172	86.11
503.389	87.51
503.606	80.91
503.823	85.51
504.04	88.71
504.256	78.31
504.473	84.91
504.69	82.11
504.907	81.51
505.123	83.51
505.34	86.11
505.557	83.71
505.773	84.11
505.99	81.51
506.207	89.11
506.423	80.11
506.64	84.51
506.856	82.71
507.073	84.91
507.289	85.91
507.506	82.51
507.722	77.91
507.939	82.51
508.155	88.51
508.372	86.51
508.588	85.71
508.805	88.31
509.021	82.51
509.238	88.31
509.454	83.51
509.67	80.51
509.887	82.91
510.103	82.91
510.319	77.51
510.536	83.71
510.752	79.11
510.968	85.11
511.184	77.91
511.401	82.71
511.617	79.91
511.833	85.11
512.049	85.71
512.265	83.11
512.481	81.71
512.698	80.71
512.914	78.31
513.13	88.91
513.346	81.91
513.562	88.11
513.778	85.91
513.994	80.91
514.21	83.71
514.426	80.11
514.642	77.71
514.858	87.51
515.074	83.71
515.29	82.31
515.506	82.71
515.721	81.51
515.937	87.91
516.153	79.31
516.369	75.31
516.585	77.11
516.801	84.51
517.016	81.31
517.232	81.71
517.448	86.31
517.664	85.31
517.879	81.51
518.095	80.11
518.311	80.31
518.527	77.51
518.742	79.31
518.958	77.91
519.173	89.11
519.389	82.31
519.605	86.51
519.82	80.11
