Data from Circ_1996_H10_HRD10591_00009.txt Node
Date: Wed Jan 03 11:33:07 EST 2024
User: Yrep
Spectrometer: HR+D1059
Trigger mode: 1
Integration Time (sec): 1.000000E-1
Scans to average: 1
Electric dark correction enabled: true
Nonlinearity correction enabled: false
Boxcar width: 0
XAxis mode: Wavelengths
Number of Pixels in Spectrum: 2048
>>>>>Begin Spectral Data<<<<<
223.165	-12.88
223.4	-12.88
223.635	-12.88
223.869	-11.88
224.104	-14.88
224.338	-3.88
224.573	-7.88
224.808	-36.88
225.042	-3.88
225.277	-10.88
225.511	-5.88
225.746	0.12
225.98	-0.88
226.215	16.12
226.449	18.12
226.683	16.12
226.918	26.12
227.152	33.12
227.387	36.12
227.621	40.12
227.856	46.12
228.09	49.12
228.324	51.12
228.559	62.12
228.793	49.12
229.027	52.12
229.262	52.12
229.496	81.12
229.73	72.12
229.964	74.12
230.199	71.12
230.433	60.12
230.667	70.12
230.901	83.12
231.136	86.12
231.37	87.12
231.604	90.12
231.838	76.12
232.072	79.12
232.306	81.12
232.541	91.12
232.775	77.12
233.009	80.12
233.243	90.12
233.477	77.12
233.711	79.12
233.945	89.12
234.179	73.12
234.413	76.12
234.647	63.12
234.881	70.12
235.115	74.12
235.349	68.12
235.583	80.12
235.817	82.12
236.051	71.12
236.285	81.12
236.519	89.12
236.753	83.12
236.987	81.12
237.221	76.12
237.455	88.12
237.689	71.12
237.922	77.12
238.156	73.12
238.39	89.12
238.624	73.12
238.858	70.12
239.091	72.12
239.325	67.12
239.559	75.12
239.793	87.12
240.027	76.12
240.26	82.12
240.494	92.12
240.728	79.12
240.961	67.12
241.195	80.12
241.429	80.12
241.662	78.12
241.896	81.12
242.13	82.12
242.363	72.12
242.597	70.12
242.83	87.12
243.064	83.12
243.298	75.12
243.531	73.12
243.765	75.12
243.998	84.12
244.232	80.12
244.465	78.12
244.699	63.12
244.932	80.12
245.166	75.12
245.399	91.12
245.633	90.12
245.866	64.12
246.099	75.12
246.333	85.12
246.566	72.12
246.8	75.12
247.033	74.12
247.266	74.12
247.5	84.12
247.733	73.12
247.966	69.12
248.2	81.12
248.433	79.12
248.666	79.12
248.899	75.12
249.133	94.12
249.366	78.12
249.599	101.12
249.832	72.12
250.066	91.12
250.299	75.12
250.532	96.12
250.765	79.12
250.998	71.12
251.231	78.12
251.465	88.12
251.698	76.12
251.931	81.12
252.164	77.12
252.397	83.12
252.63	74.12
252.863	80.12
253.096	69.12
253.329	75.12
253.562	82.12
253.795	79.12
254.028	86.12
254.261	87.12
254.494	71.12
254.727	77.12
254.96	86.12
255.193	79.12
255.426	90.12
255.659	82.12
255.892	81.12
256.124	76.12
256.357	96.12
256.59	79.12
256.823	80.12
257.056	82.12
257.289	87.12
257.521	94.12
257.754	95.12
257.987	76.12
258.22	84.12
258.452	73.12
258.685	90.12
258.918	86.12
259.151	79.12
259.383	79.12
259.616	83.12
259.849	74.12
260.081	104.12
260.314	80.12
260.547	95.12
260.779	86.12
261.012	79.12
261.244	96.12
261.477	81.12
261.71	89.12
261.942	95.12
262.175	110.12
262.407	87.12
262.64	74.12
262.872	80.12
263.105	78.12
263.337	82.12
263.57	73.12
263.802	79.12
264.035	89.12
264.267	77.12
264.499	89.12
264.732	87.12
264.964	76.12
265.197	78.12
265.429	80.12
265.661	89.12
265.894	77.12
266.126	81.12
266.358	83.12
266.591	75.12
266.823	83.12
267.055	82.12
267.287	72.12
267.52	82.12
267.752	92.12
267.984	93.12
268.216	87.12
268.448	86.12
268.681	85.12
268.913	105.12
269.145	82.12
269.377	72.12
269.609	82.12
269.841	91.12
270.073	82.12
270.306	88.12
270.538	91.12
270.77	84.12
271.002	78.12
271.234	77.12
271.466	87.12
271.698	78.12
271.93	82.12
272.162	90.12
272.394	90.12
272.626	90.12
272.858	84.12
273.09	84.12
273.322	78.12
273.553	78.12
273.785	84.12
274.017	59.12
274.249	91.12
274.481	83.12
274.713	93.12
274.945	88.12
275.176	90.12
275.408	76.12
275.64	84.12
275.872	82.12
276.104	83.12
276.335	95.12
276.567	92.12
276.799	100.12
277.031	96.12
277.262	103.12
277.494	99.12
277.726	76.12
277.957	86.12
278.189	93.12
278.421	86.12
278.652	68.12
278.884	86.12
279.115	82.12
279.347	91.12
279.579	77.12
279.81	86.12
280.042	91.12
280.273	105.12
280.505	87.12
280.736	72.12
280.968	79.12
281.199	71.12
281.431	83.12
281.662	88.12
281.894	87.12
282.125	95.12
282.356	115.12
282.588	135.12
282.819	102.12
283.051	104.12
283.282	92.12
283.513	87.12
283.745	76.12
283.976	79.12
284.207	85.12
284.439	98.12
284.67	91.12
284.901	92.12
285.132	98.12
285.364	82.12
285.595	66.12
285.826	89.12
286.057	79.12
286.288	94.12
286.52	78.12
286.751	95.12
286.982	97.12
287.213	88.12
287.444	83.12
287.675	78.12
287.906	99.12
288.138	83.12
288.369	77.12
288.6	79.12
288.831	83.12
289.062	83.12
289.293	96.12
289.524	91.12
289.755	73.12
289.986	91.12
290.217	78.12
290.448	87.12
290.679	93.12
290.91	96.12
291.141	85.12
291.371	89.12
291.602	97.12
291.833	87.12
292.064	92.12
292.295	91.12
292.526	92.12
292.757	76.12
292.987	91.12
293.218	79.12
293.449	102.12
293.68	92.12
293.91	74.12
294.141	88.12
294.372	111.12
294.603	83.12
294.833	91.12
295.064	78.12
295.295	72.12
295.525	95.12
295.756	92.12
295.987	107.12
296.217	137.12
296.448	113.12
296.679	72.12
296.909	99.12
297.14	85.12
297.37	88.12
297.601	90.12
297.831	100.12
298.062	102.12
298.292	90.12
298.523	90.12
298.753	92.12
298.984	100.12
299.214	99.12
299.445	99.12
299.675	95.12
299.905	86.12
300.136	89.12
300.366	104.12
300.597	95.12
300.827	97.12
301.057	99.12
301.288	91.12
301.518	97.12
301.748	89.12
301.979	100.12
302.209	100.12
302.439	93.12
302.669	88.12
302.9	90.12
303.13	98.12
303.36	99.12
303.59	98.12
303.82	99.12
304.051	97.12
304.281	85.12
304.511	89.12
304.741	87.12
304.971	91.12
305.201	94.12
305.431	73.12
305.661	80.12
305.891	100.12
306.121	95.12
306.352	88.12
306.582	109.12
306.812	87.12
307.042	93.12
307.272	111.12
307.502	95.12
307.731	106.12
307.961	107.12
308.191	87.12
308.421	93.12
308.651	95.12
308.881	90.12
309.111	100.12
309.341	102.12
309.571	103.12
309.8	99.12
310.03	86.12
310.26	86.12
310.49	86.12
310.72	97.12
310.949	89.12
311.179	100.12
311.409	92.12
311.639	95.12
311.868	103.12
312.098	111.12
312.328	84.12
312.557	117.12
312.787	103.12
313.017	97.12
313.246	96.12
313.476	89.12
313.706	87.12
313.935	92.12
314.165	96.12
314.394	92.12
314.624	75.12
314.853	98.12
315.083	95.12
315.312	98.12
315.542	88.12
315.771	97.12
316.001	94.12
316.23	85.12
316.46	91.12
316.689	98.12
316.919	99.12
317.148	94.12
317.377	94.12
317.607	82.12
317.836	91.12
318.065	83.12
318.295	76.12
318.524	91.12
318.753	98.12
318.983	82.12
319.212	93.12
319.441	98.12
319.67	106.12
319.9	88.12
320.129	92.12
320.358	92.12
320.587	94.12
320.816	96.12
321.046	106.12
321.275	90.12
321.504	96.12
321.733	97.12
321.962	99.12
322.191	105.12
322.42	105.12
322.649	101.12
322.878	103.12
323.108	106.12
323.337	109.12
323.566	109.12
323.795	137.12
324.024	162.12
324.253	287.12
324.482	569.12
324.71	1111.12
324.939	1460.12
325.168	568.12
325.397	187.12
325.626	134.12
325.855	121.12
326.084	127.12
326.313	98.12
326.542	128.12
326.77	175.12
326.999	303.12
327.228	620.12
327.457	1066.12
327.686	864.12
327.914	266.12
328.143	184.12
328.372	164.12
328.6	120.12
328.829	118.12
329.058	113.12
329.287	108.12
329.515	104.12
329.744	104.12
329.972	125.12
330.201	175.12
330.43	214.12
330.658	157.12
330.887	128.12
331.115	124.12
331.344	104.12
331.572	85.12
331.801	76.12
332.03	107.12
332.258	95.12
332.486	106.12
332.715	94.12
332.943	94.12
333.172	94.12
333.4	79.12
333.629	99.12
333.857	111.12
334.085	131.12
334.314	175.12
334.542	222.12
334.771	210.12
334.999	119.12
335.227	94.12
335.455	90.12
335.684	104.12
335.912	103.12
336.14	85.12
336.369	98.12
336.597	99.12
336.825	92.12
337.053	86.12
337.281	92.12
337.51	93.12
337.738	93.12
337.966	85.12
338.194	100.12
338.422	94.12
338.65	98.12
338.878	81.12
339.106	100.12
339.334	102.12
339.562	89.12
339.79	88.12
340.018	90.12
340.246	103.12
340.474	88.12
340.702	92.12
340.93	106.12
341.158	79.12
341.386	87.12
341.614	82.12
341.842	89.12
342.07	82.12
342.298	93.12
342.526	81.12
342.754	81.12
342.981	91.12
343.209	77.12
343.437	98.12
343.665	98.12
343.893	97.12
344.12	96.12
344.348	81.12
344.576	99.12
344.804	92.12
345.031	92.12
345.259	93.12
345.487	87.12
345.714	93.12
345.942	109.12
346.17	91.12
346.397	112.12
346.625	98.12
346.853	80.12
347.08	91.12
347.308	112.12
347.535	99.12
347.763	113.12
347.99	106.12
348.218	106.12
348.445	115.12
348.673	101.12
348.9	92.12
349.128	93.12
349.355	88.12
349.583	84.12
349.81	79.12
350.037	86.12
350.265	93.12
350.492	93.12
350.72	86.12
350.947	102.12
351.174	105.12
351.402	112.12
351.629	105.12
351.856	110.12
352.083	102.12
352.311	107.12
352.538	98.12
352.765	105.12
352.992	97.12
353.22	102.12
353.447	120.12
353.674	106.12
353.901	99.12
354.128	95.12
354.355	97.12
354.583	108.12
354.81	104.12
355.037	98.12
355.264	94.12
355.491	94.12
355.718	103.12
355.945	79.12
356.172	97.12
356.399	104.12
356.626	101.12
356.853	87.12
357.08	88.12
357.307	93.12
357.534	93.12
357.761	87.12
357.988	96.12
358.215	104.12
358.441	92.12
358.668	98.12
358.895	92.12
359.122	97.12
359.349	79.12
359.576	84.12
359.802	91.12
360.029	97.12
360.256	106.12
360.483	98.12
360.709	80.12
360.936	89.12
361.163	87.12
361.39	95.12
361.616	91.12
361.843	78.12
362.07	93.12
362.296	87.12
362.523	105.12
362.749	96.12
362.976	89.12
363.203	106.12
363.429	84.12
363.656	82.12
363.882	94.12
364.109	88.12
364.335	81.12
364.562	79.12
364.788	84.12
365.015	95.12
365.241	93.12
365.468	93.12
365.694	99.12
365.92	90.12
366.147	90.12
366.373	99.12
366.599	86.12
366.826	80.12
367.052	100.12
367.278	96.12
367.505	89.12
367.731	86.12
367.957	91.12
368.184	87.12
368.41	100.12
368.636	120.12
368.862	126.12
369.089	93.12
369.315	98.12
369.541	89.12
369.767	99.12
369.993	76.12
370.219	112.12
370.445	84.12
370.672	92.12
370.898	93.12
371.124	75.12
371.35	78.12
371.576	68.12
371.802	91.12
372.028	86.12
372.254	94.12
372.48	90.12
372.706	86.12
372.932	93.12
373.158	83.12
373.384	89.12
373.61	92.12
373.835	93.12
374.061	90.12
374.287	91.12
374.513	100.12
374.739	88.12
374.965	81.12
375.191	91.12
375.416	76.12
375.642	89.12
375.868	101.12
376.094	84.12
376.319	100.12
376.545	103.12
376.771	88.12
376.997	104.12
377.222	89.12
377.448	100.12
377.674	90.12
377.899	86.12
378.125	86.12
378.35	103.12
378.576	70.12
378.802	89.12
379.027	102.12
379.253	93.12
379.478	96.12
379.704	98.12
379.929	93.12
380.155	81.12
380.38	99.12
380.606	104.12
380.831	106.12
381.057	95.12
381.282	93.12
381.507	95.12
381.733	115.12
381.958	99.12
382.184	100.12
382.409	94.12
382.634	119.12
382.86	106.12
383.085	93.12
383.31	103.12
383.535	115.12
383.761	109.12
383.986	109.12
384.211	112.12
384.436	112.12
384.662	99.12
384.887	109.12
385.112	115.12
385.337	138.12
385.562	99.12
385.787	110.12
386.013	134.12
386.238	123.12
386.463	118.12
386.688	113.12
386.913	102.12
387.138	115.12
387.363	114.12
387.588	100.12
387.813	123.12
388.038	129.12
388.263	139.12
388.488	126.12
388.713	104.12
388.938	103.12
389.163	98.12
389.387	92.12
389.612	88.12
389.837	92.12
390.062	90.12
390.287	92.12
390.512	83.12
390.736	86.12
390.961	98.12
391.186	92.12
391.411	120.12
391.636	97.12
391.86	83.12
392.085	82.12
392.31	90.12
392.534	103.12
392.759	85.12
392.984	91.12
393.208	93.12
393.433	116.12
393.658	122.12
393.882	90.12
394.107	99.12
394.331	102.12
394.556	90.12
394.78	69.12
395.005	97.12
395.229	86.12
395.454	93.12
395.678	87.12
395.903	88.12
396.127	85.12
396.352	87.12
396.576	99.12
396.801	79.12
397.025	105.12
397.249	94.12
397.474	87.12
397.698	82.12
397.922	99.12
398.147	82.12
398.371	96.12
398.595	95.12
398.82	93.12
399.044	94.12
399.268	78.12
399.492	81.12
399.717	91.12
399.941	90.12
400.165	90.12
400.389	83.12
400.613	96.12
400.837	98.12
401.062	91.12
401.286	86.12
401.51	95.12
401.734	106.12
401.958	92.12
402.182	109.12
402.406	138.12
402.63	119.12
402.854	102.12
403.078	99.12
403.302	86.12
403.526	94.12
403.75	91.12
403.974	92.12
404.198	99.12
404.422	96.12
404.645	88.12
404.869	101.12
405.093	92.12
405.317	87.12
405.541	113.12
405.765	102.12
405.988	107.12
406.212	158.12
406.436	204.12
406.66	119.12
406.883	91.12
407.107	91.12
407.331	89.12
407.555	98.12
407.778	89.12
408.002	95.12
408.226	94.12
408.449	75.12
408.673	92.12
408.896	96.12
409.12	104.12
409.344	90.12
409.567	92.12
409.791	100.12
410.014	101.12
410.238	86.12
410.461	90.12
410.685	94.12
410.908	99.12
411.132	94.12
411.355	111.12
411.578	98.12
411.802	102.12
412.025	90.12
412.249	92.12
412.472	82.12
412.695	107.12
412.919	108.12
413.142	94.12
413.365	88.12
413.589	99.12
413.812	97.12
414.035	99.12
414.258	90.12
414.482	77.12
414.705	88.12
414.928	88.12
415.151	98.12
415.374	101.12
415.597	100.12
415.821	83.12
416.044	86.12
416.267	82.12
416.49	87.12
416.713	87.12
416.936	82.12
417.159	85.12
417.382	84.12
417.605	94.12
417.828	95.12
418.051	100.12
418.274	89.12
418.497	80.12
418.72	88.12
418.943	91.12
419.166	91.12
419.389	94.12
419.611	93.12
419.834	86.12
420.057	96.12
420.28	78.12
420.503	96.12
420.726	93.12
420.948	98.12
421.171	92.12
421.394	77.12
421.617	89.12
421.839	82.12
422.062	83.12
422.285	99.12
422.507	86.12
422.73	115.12
422.953	101.12
423.175	70.12
423.398	82.12
423.621	99.12
423.843	77.12
424.066	102.12
424.288	90.12
424.511	81.12
424.733	95.12
424.956	87.12
425.178	110.12
425.401	93.12
425.623	96.12
425.846	87.12
426.068	97.12
426.291	95.12
426.513	87.12
426.735	86.12
426.958	94.12
427.18	106.12
427.402	125.12
427.625	139.12
427.847	123.12
428.069	113.12
428.292	73.12
428.514	85.12
428.736	87.12
428.958	86.12
429.181	96.12
429.403	94.12
429.625	89.12
429.847	82.12
430.069	88.12
430.292	90.12
430.514	80.12
430.736	78.12
430.958	91.12
431.18	92.12
431.402	87.12
431.624	84.12
431.846	60.12
432.068	70.12
432.29	88.12
432.512	82.12
432.734	74.12
432.956	94.12
433.178	97.12
433.4	94.12
433.622	95.12
433.844	81.12
434.066	81.12
434.287	102.12
434.509	106.12
434.731	90.12
434.953	95.12
435.175	96.12
435.397	90.12
435.618	87.12
435.84	86.12
436.062	90.12
436.284	111.12
436.505	91.12
436.727	94.12
436.949	90.12
437.17	95.12
437.392	75.12
437.614	93.12
437.835	98.12
438.057	88.12
438.278	110.12
438.5	104.12
438.721	104.12
438.943	86.12
439.165	89.12
439.386	82.12
439.608	86.12
439.829	90.12
440.05	109.12
440.272	106.12
440.493	105.12
440.715	82.12
440.936	90.12
441.158	92.12
441.379	65.12
441.6	86.12
441.822	90.12
442.043	92.12
442.264	85.12
442.486	91.12
442.707	80.12
442.928	92.12
443.149	123.12
443.371	130.12
443.592	90.12
443.813	100.12
444.034	94.12
444.255	89.12
444.476	97.12
444.698	87.12
444.919	86.12
445.14	131.12
445.361	106.12
445.582	90.12
445.803	116.12
446.024	131.12
446.245	106.12
446.466	105.12
446.687	87.12
446.908	89.12
447.129	96.12
447.35	70.12
447.571	97.12
447.792	72.12
448.013	88.12
448.234	114.12
448.455	94.12
448.675	104.12
448.896	118.12
449.117	92.12
449.338	110.12
449.559	102.12
449.779	100.12
450	80.12
450.221	86.12
450.442	94.12
450.662	91.12
450.883	103.12
451.104	103.12
451.324	92.12
451.545	90.12
451.766	83.12
451.986	76.12
452.207	84.12
452.428	92.12
452.648	97.12
452.869	107.12
453.089	106.12
453.31	107.12
453.53	80.12
453.751	95.12
453.971	92.12
454.192	102.12
454.412	91.12
454.633	75.12
454.853	77.12
455.073	90.12
455.294	91.12
455.514	90.12
455.734	90.12
455.955	84.12
456.175	83.12
456.395	83.12
456.616	85.12
456.836	94.12
457.056	90.12
457.276	80.12
457.497	84.12
457.717	90.12
457.937	84.12
458.157	83.12
458.377	78.12
458.598	103.12
458.818	130.12
459.038	131.12
459.258	105.12
459.478	81.12
459.698	81.12
459.918	79.12
460.138	85.12
460.358	80.12
460.578	91.12
460.798	96.12
461.018	83.12
461.238	93.12
461.458	88.12
461.678	76.12
461.898	85.12
462.118	96.12
462.338	87.12
462.558	94.12
462.777	91.12
462.997	79.12
463.217	83.12
463.437	92.12
463.657	87.12
463.876	96.12
464.096	77.12
464.316	92.12
464.536	95.12
464.755	81.12
464.975	112.12
465.195	151.12
465.414	139.12
465.634	90.12
465.854	99.12
466.073	83.12
466.293	87.12
466.512	91.12
466.732	80.12
466.951	82.12
467.171	99.12
467.391	83.12
467.61	110.12
467.829	112.12
468.049	121.12
468.268	145.12
468.488	88.12
468.707	91.12
468.927	99.12
469.146	89.12
469.365	83.12
469.585	92.12
469.804	84.12
470.023	92.12
470.243	97.12
470.462	95.12
470.681	98.12
470.901	91.12
471.12	82.12
471.339	85.12
471.558	86.12
471.777	84.12
471.997	103.12
472.216	175.12
472.435	310.12
472.654	127.12
472.873	86.12
473.092	98.12
473.311	86.12
473.53	84.12
473.749	89.12
473.968	106.12
474.187	99.12
474.406	90.12
474.625	82.12
474.844	98.12
475.063	83.12
475.282	84.12
475.501	87.12
475.72	94.12
475.939	81.12
476.158	96.12
476.377	87.12
476.596	83.12
476.814	82.12
477.033	89.12
477.252	95.12
477.471	85.12
477.69	91.12
477.908	94.12
478.127	88.12
478.346	92.12
478.564	90.12
478.783	94.12
479.002	71.12
479.22	89.12
479.439	89.12
479.658	88.12
479.876	79.12
480.095	85.12
480.313	88.12
480.532	97.12
480.751	104.12
480.969	177.12
481.188	493.12
481.406	310.12
481.624	107.12
481.843	75.12
482.061	82.12
482.28	94.12
482.498	89.12
482.717	95.12
482.935	82.12
483.153	96.12
483.372	86.12
483.59	88.12
483.808	94.12
484.027	90.12
484.245	97.12
484.463	105.12
484.681	86.12
484.9	96.12
485.118	90.12
485.336	85.12
485.554	102.12
485.772	103.12
485.99	108.12
486.209	99.12
486.427	112.12
486.645	107.12
486.863	121.12
487.081	90.12
487.299	99.12
487.517	93.12
487.735	96.12
487.953	94.12
488.171	83.12
488.389	94.12
488.607	98.12
488.825	92.12
489.043	88.12
489.261	88.12
489.479	91.12
489.696	86.12
489.914	89.12
490.132	74.12
490.35	86.12
490.568	92.12
490.786	88.12
491.003	82.12
491.221	97.12
491.439	86.12
491.657	76.12
491.874	94.12
492.092	89.12
492.31	80.12
492.527	104.12
492.745	89.12
492.963	93.12
493.18	88.12
493.398	98.12
493.615	99.12
493.833	84.12
494.05	86.12
494.268	88.12
494.485	96.12
494.703	76.12
494.92	83.12
495.138	93.12
495.355	82.12
495.573	92.12
495.79	90.12
496.008	94.12
496.225	83.12
496.442	95.12
496.66	80.12
496.877	78.12
497.094	89.12
497.312	90.12
497.529	90.12
497.746	85.12
497.963	92.12
498.181	89.12
498.398	104.12
498.615	121.12
498.832	90.12
499.049	86.12
499.267	96.12
499.484	89.12
499.701	82.12
499.918	104.12
500.135	82.12
500.352	76.12
500.569	86.12
500.786	89.12
501.003	80.12
501.22	103.12
501.437	84.12
501.654	78.12
501.871	103.12
502.088	98.12
502.305	91.12
502.522	90.12
502.739	81.12
502.956	93.12
503.172	83.12
503.389	98.12
503.606	111.12
503.823	95.12
504.04	95.12
504.256	89.12
504.473	94.12
504.69	95.12
504.907	88.12
505.123	91.12
505.34	82.12
505.557	89.12
505.773	76.12
505.99	82.12
506.207	90.12
506.423	74.12
506.64	80.12
506.856	89.12
507.073	109.12
507.289	98.12
507.506	83.12
507.722	91.12
507.939	102.12
508.155	88.12
508.372	82.12
508.588	88.12
508.805	110.12
509.021	95.12
509.238	99.12
509.454	92.12
509.67	118.12
509.887	95.12
510.103	113.12
510.319	203.12
510.536	664.12
510.752	2122.12
510.968	602.12
511.184	150.12
511.401	106.12
511.617	100.12
511.833	97.12
512.049	91.12
512.265	84.12
512.481	99.12
512.698	86.12
512.914	92.12
513.13	84.12
513.346	74.12
513.562	93.12
513.778	87.12
513.994	99.12
514.21	98.12
514.426	90.12
514.642	131.12
514.858	120.12
515.074	147.12
515.29	360.12
515.506	1196.12
515.721	432.12
515.937	135.12
