Data from Circ_1996_H10_HRD10591_00098.txt Node
Date: Wed Jan 03 11:33:25 EST 2024
User: Yrep
Spectrometer: HR+D1059
Trigger mode: 1
Integration Time (sec): 1.000000E-1
Scans to average: 1
Electric dark correction enabled: true
Nonlinearity correction enabled: false
Boxcar width: 0
XAxis mode: Wavelengths
Number of Pixels in Spectrum: 2048
>>>>>Begin Spectral Data<<<<<
223.165	-16.12
223.4	-16.12
223.635	-16.12
223.869	-18.12
224.104	-18.12
224.338	-10.12
224.573	-24.12
224.808	-20.12
225.042	-20.12
225.277	-21.12
225.511	6.88
225.746	-2.12
225.98	5.88
226.215	23.88
226.449	21.88
226.683	23.88
226.918	28.88
227.152	38.88
227.387	47.88
227.621	40.88
227.856	35.88
228.09	43.88
228.324	53.88
228.559	56.88
228.793	64.88
229.027	63.88
229.262	69.88
229.496	75.88
229.73	87.88
229.964	77.88
230.199	67.88
230.433	83.88
230.667	76.88
230.901	73.88
231.136	82.88
231.37	82.88
231.604	85.88
231.838	76.88
232.072	78.88
232.306	97.88
232.541	87.88
232.775	74.88
233.009	86.88
233.243	81.88
233.477	78.88
233.711	89.88
233.945	100.88
234.179	89.88
234.413	83.88
234.647	79.88
234.881	76.88
235.115	76.88
235.349	63.88
235.583	79.88
235.817	64.88
236.051	88.88
236.285	82.88
236.519	73.88
236.753	71.88
236.987	78.88
237.221	80.88
237.455	84.88
237.689	97.88
237.922	75.88
238.156	78.88
238.39	80.88
238.624	71.88
238.858	68.88
239.091	74.88
239.325	67.88
239.559	79.88
239.793	80.88
240.027	94.88
240.26	80.88
240.494	82.88
240.728	82.88
240.961	66.88
241.195	78.88
241.429	81.88
241.662	71.88
241.896	80.88
242.13	80.88
242.363	80.88
242.597	82.88
242.83	79.88
243.064	79.88
243.298	94.88
243.531	74.88
243.765	73.88
243.998	87.88
244.232	80.88
244.465	97.88
244.699	94.88
244.932	87.88
245.166	87.88
245.399	89.88
245.633	68.88
245.866	88.88
246.099	79.88
246.333	83.88
246.566	52.88
246.8	77.88
247.033	84.88
247.266	77.88
247.5	74.88
247.733	86.88
247.966	87.88
248.2	80.88
248.433	87.88
248.666	79.88
248.899	90.88
249.133	85.88
249.366	103.88
249.599	95.88
249.832	68.88
250.066	77.88
250.299	79.88
250.532	82.88
250.765	75.88
250.998	87.88
251.231	77.88
251.465	89.88
251.698	76.88
251.931	71.88
252.164	82.88
252.397	76.88
252.63	87.88
252.863	89.88
253.096	85.88
253.329	93.88
253.562	77.88
253.795	88.88
254.028	80.88
254.261	90.88
254.494	81.88
254.727	80.88
254.96	85.88
255.193	85.88
255.426	76.88
255.659	85.88
255.892	95.88
256.124	63.88
256.357	82.88
256.59	74.88
256.823	91.88
257.056	92.88
257.289	83.88
257.521	93.88
257.754	91.88
257.987	80.88
258.22	95.88
258.452	80.88
258.685	94.88
258.918	80.88
259.151	88.88
259.383	78.88
259.616	79.88
259.849	95.88
260.081	81.88
260.314	95.88
260.547	81.88
260.779	88.88
261.012	110.88
261.244	88.88
261.477	88.88
261.71	109.88
261.942	104.88
262.175	131.88
262.407	94.88
262.64	79.88
262.872	73.88
263.105	89.88
263.337	100.88
263.57	86.88
263.802	91.88
264.035	80.88
264.267	83.88
264.499	85.88
264.732	89.88
264.964	80.88
265.197	98.88
265.429	78.88
265.661	85.88
265.894	83.88
266.126	81.88
266.358	76.88
266.591	80.88
266.823	85.88
267.055	77.88
267.287	79.88
267.52	87.88
267.752	90.88
267.984	74.88
268.216	85.88
268.448	69.88
268.681	80.88
268.913	92.88
269.145	83.88
269.377	87.88
269.609	82.88
269.841	82.88
270.073	93.88
270.306	91.88
270.538	84.88
270.77	83.88
271.002	95.88
271.234	95.88
271.466	85.88
271.698	87.88
271.93	79.88
272.162	71.88
272.394	90.88
272.626	92.88
272.858	92.88
273.09	91.88
273.322	81.88
273.553	80.88
273.785	86.88
274.017	97.88
274.249	78.88
274.481	84.88
274.713	82.88
274.945	84.88
275.176	74.88
275.408	91.88
275.64	93.88
275.872	86.88
276.104	99.88
276.335	92.88
276.567	101.88
276.799	111.88
277.031	101.88
277.262	102.88
277.494	94.88
277.726	93.88
277.957	75.88
278.189	86.88
278.421	91.88
278.652	83.88
278.884	86.88
279.115	79.88
279.347	88.88
279.579	96.88
279.81	83.88
280.042	87.88
280.273	100.88
280.505	95.88
280.736	91.88
280.968	88.88
281.199	105.88
281.431	78.88
281.662	91.88
281.894	110.88
282.125	101.88
282.356	126.88
282.588	128.88
282.819	119.88
283.051	98.88
283.282	85.88
283.513	88.88
283.745	84.88
283.976	83.88
284.207	87.88
284.439	79.88
284.67	86.88
284.901	89.88
285.132	83.88
285.364	80.88
285.595	86.88
285.826	81.88
286.057	91.88
286.288	80.88
286.52	91.88
286.751	81.88
286.982	93.88
287.213	91.88
287.444	73.88
287.675	88.88
287.906	81.88
288.138	93.88
288.369	89.88
288.6	74.88
288.831	89.88
289.062	97.88
289.293	90.88
289.524	91.88
289.755	86.88
289.986	84.88
290.217	75.88
290.448	83.88
290.679	93.88
290.91	87.88
291.141	98.88
291.371	93.88
291.602	84.88
291.833	75.88
292.064	86.88
292.295	83.88
292.526	74.88
292.757	80.88
292.987	90.88
293.218	79.88
293.449	91.88
293.68	67.88
293.91	97.88
294.141	75.88
294.372	95.88
294.603	93.88
294.833	82.88
295.064	99.88
295.295	100.88
295.525	77.88
295.756	108.88
295.987	101.88
296.217	137.88
296.448	131.88
296.679	99.88
296.909	94.88
297.14	91.88
297.37	77.88
297.601	87.88
297.831	107.88
298.062	85.88
298.292	103.88
298.523	79.88
298.753	88.88
298.984	79.88
299.214	83.88
299.445	90.88
299.675	90.88
299.905	91.88
300.136	105.88
300.366	73.88
300.597	90.88
300.827	98.88
301.057	101.88
301.288	93.88
301.518	92.88
301.748	99.88
301.979	115.88
302.209	81.88
302.439	98.88
302.669	95.88
302.9	77.88
303.13	88.88
303.36	96.88
303.59	102.88
303.82	84.88
304.051	83.88
304.281	85.88
304.511	89.88
304.741	95.88
304.971	95.88
305.201	83.88
305.431	92.88
305.661	86.88
305.891	89.88
306.121	84.88
306.352	93.88
306.582	97.88
306.812	106.88
307.042	97.88
307.272	96.88
307.502	105.88
307.731	102.88
307.961	109.88
308.191	87.88
308.421	80.88
308.651	90.88
308.881	89.88
309.111	98.88
309.341	93.88
309.571	94.88
309.8	94.88
310.03	105.88
310.26	97.88
310.49	92.88
310.72	109.88
310.949	108.88
311.179	94.88
311.409	100.88
311.639	98.88
311.868	97.88
312.098	95.88
312.328	110.88
312.557	100.88
312.787	99.88
313.017	112.88
313.246	102.88
313.476	101.88
313.706	93.88
313.935	105.88
314.165	87.88
314.394	95.88
314.624	81.88
314.853	99.88
315.083	90.88
315.312	109.88
315.542	90.88
315.771	86.88
316.001	93.88
316.23	89.88
316.46	85.88
316.689	85.88
316.919	100.88
317.148	82.88
317.377	108.88
317.607	93.88
317.836	98.88
318.065	87.88
318.295	81.88
318.524	89.88
318.753	80.88
318.983	93.88
319.212	94.88
319.441	98.88
319.67	109.88
319.9	92.88
320.129	101.88
320.358	91.88
320.587	105.88
320.816	94.88
321.046	96.88
321.275	90.88
321.504	101.88
321.733	101.88
321.962	96.88
322.191	111.88
322.42	88.88
322.649	97.88
322.878	109.88
323.108	103.88
323.337	119.88
323.566	128.88
323.795	139.88
324.024	168.88
324.253	315.88
324.482	622.88
324.71	1255.88
324.939	1642.88
325.168	650.88
325.397	222.88
325.626	145.88
325.855	131.88
326.084	122.88
326.313	121.88
326.542	146.88
326.77	193.88
326.999	338.88
327.228	669.88
327.457	1201.88
327.686	960.88
327.914	303.88
328.143	201.88
328.372	177.88
328.6	117.88
328.829	115.88
329.058	118.88
329.287	137.88
329.515	116.88
329.744	109.88
329.972	124.88
330.201	207.88
330.43	221.88
330.658	169.88
330.887	137.88
331.115	122.88
331.344	105.88
331.572	98.88
331.801	107.88
332.03	101.88
332.258	97.88
332.486	98.88
332.715	98.88
332.943	93.88
333.172	107.88
333.4	100.88
333.629	111.88
333.857	109.88
334.085	137.88
334.314	190.88
334.542	276.88
334.771	259.88
334.999	140.88
335.227	100.88
335.455	96.88
335.684	90.88
335.912	80.88
336.14	99.88
336.369	96.88
336.597	108.88
336.825	116.88
337.053	76.88
337.281	92.88
337.51	106.88
337.738	95.88
337.966	87.88
338.194	88.88
338.422	100.88
338.65	103.88
338.878	94.88
339.106	104.88
339.334	103.88
339.562	93.88
339.79	91.88
340.018	87.88
340.246	86.88
340.474	99.88
340.702	85.88
340.93	102.88
341.158	94.88
341.386	91.88
341.614	92.88
341.842	104.88
342.07	83.88
342.298	97.88
342.526	103.88
342.754	95.88
342.981	104.88
343.209	97.88
343.437	105.88
343.665	84.88
343.893	87.88
344.12	81.88
344.348	77.88
344.576	92.88
344.804	92.88
345.031	79.88
345.259	105.88
345.487	107.88
345.714	89.88
345.942	97.88
346.17	92.88
346.397	90.88
346.625	95.88
346.853	87.88
347.08	104.88
347.308	94.88
347.535	97.88
347.763	100.88
347.99	103.88
348.218	85.88
348.445	100.88
348.673	98.88
348.9	92.88
349.128	90.88
349.355	92.88
349.583	93.88
349.81	81.88
350.037	86.88
350.265	87.88
350.492	96.88
350.72	112.88
350.947	94.88
351.174	117.88
351.402	118.88
351.629	84.88
351.856	102.88
352.083	100.88
352.311	99.88
352.538	109.88
352.765	109.88
352.992	111.88
353.22	107.88
353.447	109.88
353.674	111.88
353.901	104.88
354.128	100.88
354.355	100.88
354.583	94.88
354.81	78.88
355.037	100.88
355.264	95.88
355.491	93.88
355.718	91.88
355.945	91.88
356.172	107.88
356.399	83.88
356.626	92.88
356.853	106.88
357.08	112.88
357.307	85.88
357.534	94.88
357.761	88.88
357.988	95.88
358.215	89.88
358.441	102.88
358.668	85.88
358.895	92.88
359.122	80.88
359.349	89.88
359.576	106.88
359.802	94.88
360.029	103.88
360.256	116.88
360.483	87.88
360.709	85.88
360.936	91.88
361.163	102.88
361.39	99.88
361.616	92.88
361.843	90.88
362.07	88.88
362.296	97.88
362.523	95.88
362.749	85.88
362.976	78.88
363.203	97.88
363.429	80.88
363.656	92.88
363.882	93.88
364.109	109.88
364.335	85.88
364.562	96.88
364.788	108.88
365.015	80.88
365.241	101.88
365.468	94.88
365.694	97.88
365.92	99.88
366.147	100.88
366.373	86.88
366.599	79.88
366.826	98.88
367.052	97.88
367.278	85.88
367.505	91.88
367.731	88.88
367.957	94.88
368.184	94.88
368.41	106.88
368.636	117.88
368.862	117.88
369.089	112.88
369.315	91.88
369.541	81.88
369.767	95.88
369.993	106.88
370.219	94.88
370.445	97.88
370.672	89.88
370.898	92.88
371.124	95.88
371.35	83.88
371.576	90.88
371.802	89.88
372.028	88.88
372.254	86.88
372.48	75.88
372.706	84.88
372.932	109.88
373.158	90.88
373.384	94.88
373.61	78.88
373.835	98.88
374.061	94.88
374.287	90.88
374.513	82.88
374.739	90.88
374.965	83.88
375.191	84.88
375.416	94.88
375.642	86.88
375.868	87.88
376.094	85.88
376.319	79.88
376.545	94.88
376.771	89.88
376.997	77.88
377.222	92.88
377.448	85.88
377.674	88.88
377.899	94.88
378.125	89.88
378.35	78.88
378.576	107.88
378.802	87.88
379.027	96.88
379.253	67.88
379.478	79.88
379.704	88.88
379.929	96.88
380.155	99.88
380.38	83.88
380.606	91.88
380.831	85.88
381.057	98.88
381.282	95.88
381.507	99.88
381.733	100.88
381.958	96.88
382.184	94.88
382.409	104.88
382.634	110.88
382.86	101.88
383.085	104.88
383.31	101.88
383.535	101.88
383.761	100.88
383.986	93.88
384.211	92.88
384.436	95.88
384.662	105.88
384.887	100.88
385.112	107.88
385.337	112.88
385.562	103.88
385.787	113.88
386.013	102.88
386.238	91.88
386.463	91.88
386.688	112.88
386.913	93.88
387.138	109.88
387.363	107.88
387.588	104.88
387.813	96.88
388.038	97.88
388.263	109.88
388.488	98.88
388.713	85.88
388.938	97.88
389.163	104.88
389.387	91.88
389.612	84.88
389.837	84.88
390.062	91.88
390.287	106.88
390.512	96.88
390.736	84.88
390.961	84.88
391.186	81.88
391.411	85.88
391.636	90.88
391.86	74.88
392.085	91.88
392.31	85.88
392.534	81.88
392.759	79.88
392.984	84.88
393.208	88.88
393.433	95.88
393.658	93.88
393.882	93.88
394.107	91.88
394.331	88.88
394.556	84.88
394.78	83.88
395.005	75.88
395.229	88.88
395.454	97.88
395.678	91.88
395.903	87.88
396.127	100.88
396.352	95.88
396.576	88.88
396.801	87.88
397.025	104.88
397.249	91.88
397.474	91.88
397.698	98.88
397.922	88.88
398.147	88.88
398.371	88.88
398.595	112.88
398.82	92.88
399.044	92.88
399.268	90.88
399.492	89.88
399.717	81.88
399.941	87.88
400.165	100.88
400.389	101.88
400.613	79.88
400.837	80.88
401.062	94.88
401.286	77.88
401.51	89.88
401.734	89.88
401.958	94.88
402.182	121.88
402.406	164.88
402.63	113.88
402.854	100.88
403.078	87.88
403.302	97.88
403.526	81.88
403.75	82.88
403.974	81.88
404.198	89.88
404.422	110.88
404.645	81.88
404.869	105.88
405.093	96.88
405.317	101.88
405.541	93.88
405.765	104.88
405.988	119.88
406.212	164.88
406.436	229.88
406.66	133.88
406.883	92.88
407.107	90.88
407.331	106.88
407.555	96.88
407.778	89.88
408.002	77.88
408.226	90.88
408.449	100.88
408.673	78.88
408.896	91.88
409.12	98.88
409.344	85.88
409.567	88.88
409.791	83.88
410.014	89.88
410.238	89.88
410.461	84.88
410.685	104.88
410.908	79.88
411.132	99.88
411.355	90.88
411.578	97.88
411.802	98.88
412.025	101.88
412.249	102.88
412.472	93.88
412.695	106.88
412.919	85.88
413.142	86.88
413.365	82.88
413.589	98.88
413.812	95.88
414.035	85.88
414.258	86.88
414.482	87.88
414.705	103.88
414.928	88.88
415.151	78.88
415.374	92.88
415.597	97.88
415.821	88.88
416.044	89.88
416.267	92.88
416.49	94.88
416.713	71.88
416.936	79.88
417.159	92.88
417.382	106.88
417.605	100.88
417.828	100.88
418.051	97.88
418.274	91.88
418.497	82.88
418.72	85.88
418.943	84.88
419.166	84.88
419.389	77.88
419.611	85.88
419.834	88.88
420.057	81.88
420.28	83.88
420.503	85.88
420.726	87.88
420.948	84.88
421.171	91.88
421.394	89.88
421.617	78.88
421.839	93.88
422.062	90.88
422.285	95.88
422.507	92.88
422.73	89.88
422.953	88.88
423.175	90.88
423.398	98.88
423.621	88.88
423.843	88.88
424.066	101.88
424.288	86.88
424.511	82.88
424.733	87.88
424.956	89.88
425.178	88.88
425.401	105.88
425.623	108.88
425.846	83.88
426.068	85.88
426.291	82.88
426.513	98.88
426.735	94.88
426.958	103.88
427.18	108.88
427.402	133.88
427.625	161.88
427.847	136.88
428.069	116.88
428.292	102.88
428.514	83.88
428.736	72.88
428.958	84.88
429.181	89.88
429.403	81.88
429.625	93.88
429.847	91.88
430.069	104.88
430.292	110.88
430.514	73.88
430.736	88.88
430.958	80.88
431.18	88.88
431.402	67.88
431.624	84.88
431.846	74.88
432.068	69.88
432.29	91.88
432.512	94.88
432.734	85.88
432.956	97.88
433.178	96.88
433.4	99.88
433.622	87.88
433.844	87.88
434.066	89.88
434.287	81.88
434.509	100.88
434.731	88.88
434.953	83.88
435.175	79.88
435.397	89.88
435.618	94.88
435.84	81.88
436.062	98.88
436.284	95.88
436.505	101.88
436.727	95.88
436.949	92.88
437.17	91.88
437.392	88.88
437.614	92.88
437.835	92.88
438.057	105.88
438.278	113.88
438.5	107.88
438.721	113.88
438.943	101.88
439.165	86.88
439.386	84.88
439.608	88.88
439.829	103.88
440.05	112.88
440.272	118.88
440.493	88.88
440.715	86.88
440.936	89.88
441.158	92.88
441.379	90.88
441.6	91.88
441.822	106.88
442.043	98.88
442.264	111.88
442.486	96.88
442.707	102.88
442.928	104.88
443.149	111.88
443.371	116.88
443.592	108.88
443.813	112.88
444.034	109.88
444.255	93.88
444.476	92.88
444.698	91.88
444.919	88.88
445.14	123.88
445.361	110.88
445.582	100.88
445.803	131.88
446.024	116.88
446.245	116.88
446.466	113.88
446.687	94.88
446.908	93.88
447.129	89.88
447.35	88.88
447.571	93.88
447.792	87.88
448.013	106.88
448.234	104.88
448.455	106.88
448.675	93.88
448.896	112.88
449.117	98.88
449.338	107.88
449.559	112.88
449.779	107.88
450	89.88
450.221	96.88
450.442	99.88
450.662	106.88
450.883	98.88
451.104	108.88
451.324	96.88
451.545	107.88
451.766	93.88
451.986	94.88
452.207	95.88
452.428	84.88
452.648	101.88
452.869	99.88
453.089	116.88
453.31	120.88
453.53	103.88
453.751	98.88
453.971	111.88
454.192	100.88
454.412	108.88
454.633	103.88
454.853	90.88
455.073	87.88
455.294	91.88
455.514	100.88
455.734	91.88
455.955	92.88
456.175	89.88
456.395	101.88
456.616	90.88
456.836	88.88
457.056	91.88
457.276	87.88
457.497	83.88
457.717	94.88
457.937	95.88
458.157	85.88
458.377	107.88
458.598	114.88
458.818	148.88
459.038	155.88
459.258	114.88
459.478	85.88
459.698	89.88
459.918	77.88
460.138	82.88
460.358	88.88
460.578	90.88
460.798	74.88
461.018	91.88
461.238	78.88
461.458	83.88
461.678	85.88
461.898	74.88
462.118	91.88
462.338	95.88
462.558	109.88
462.777	85.88
462.997	112.88
463.217	87.88
463.437	95.88
463.657	90.88
463.876	89.88
464.096	102.88
464.316	108.88
464.536	104.88
464.755	85.88
464.975	81.88
465.195	146.88
465.414	151.88
465.634	103.88
465.854	86.88
466.073	79.88
466.293	89.88
466.512	85.88
466.732	97.88
466.951	92.88
467.171	108.88
467.391	87.88
467.61	97.88
467.829	112.88
468.049	145.88
468.268	168.88
468.488	103.88
468.707	83.88
468.927	88.88
469.146	80.88
469.365	92.88
469.585	84.88
469.804	97.88
470.023	93.88
470.243	88.88
470.462	106.88
470.681	105.88
470.901	91.88
471.12	91.88
471.339	95.88
471.558	82.88
471.777	102.88
471.997	113.88
472.216	225.88
472.435	356.88
472.654	146.88
472.873	100.88
473.092	87.88
473.311	83.88
473.53	93.88
473.749	81.88
473.968	93.88
474.187	103.88
474.406	92.88
474.625	92.88
474.844	100.88
475.063	84.88
475.282	85.88
475.501	92.88
475.72	76.88
475.939	98.88
476.158	82.88
476.377	92.88
476.596	58.88
476.814	91.88
477.033	83.88
477.252	86.88
477.471	88.88
477.69	89.88
477.908	91.88
478.127	84.88
478.346	95.88
478.564	87.88
478.783	104.88
479.002	89.88
479.22	81.88
479.439	109.88
479.658	96.88
479.876	98.88
480.095	80.88
480.313	92.88
480.532	105.88
480.751	112.88
480.969	203.88
481.188	576.88
481.406	365.88
481.624	116.88
481.843	91.88
482.061	87.88
482.28	88.88
482.498	87.88
482.717	96.88
482.935	93.88
483.153	90.88
483.372	100.88
483.59	80.88
483.808	83.88
484.027	92.88
484.245	100.88
484.463	91.88
484.681	101.88
484.9	87.88
485.118	91.88
485.336	90.88
485.554	106.88
485.772	104.88
485.99	119.88
486.209	105.88
486.427	106.88
486.645	103.88
486.863	103.88
487.081	89.88
487.299	97.88
487.517	86.88
487.735	101.88
487.953	90.88
488.171	97.88
488.389	96.88
488.607	102.88
488.825	101.88
489.043	94.88
489.261	88.88
489.479	89.88
489.696	100.88
489.914	83.88
490.132	93.88
490.35	83.88
490.568	100.88
490.786	84.88
491.003	90.88
491.221	97.88
491.439	91.88
491.657	83.88
491.874	88.88
492.092	95.88
492.31	69.88
492.527	85.88
492.745	90.88
492.963	81.88
493.18	79.88
493.398	108.88
493.615	91.88
493.833	96.88
494.05	96.88
494.268	86.88
494.485	89.88
494.703	88.88
494.92	94.88
495.138	91.88
495.355	79.88
495.573	101.88
495.79	95.88
496.008	91.88
496.225	85.88
496.442	92.88
496.66	87.88
496.877	91.88
497.094	100.88
497.312	106.88
497.529	91.88
497.746	93.88
497.963	95.88
498.181	90.88
498.398	106.88
498.615	117.88
498.832	100.88
499.049	79.88
499.267	93.88
499.484	92.88
499.701	92.88
499.918	80.88
500.135	101.88
500.352	98.88
500.569	104.88
500.786	92.88
501.003	92.88
501.22	102.88
501.437	89.88
501.654	93.88
501.871	107.88
502.088	98.88
502.305	97.88
502.522	111.88
502.739	92.88
502.956	96.88
503.172	89.88
503.389	82.88
503.606	103.88
503.823	97.88
504.04	89.88
504.256	90.88
504.473	96.88
504.69	92.88
504.907	98.88
505.123	114.88
505.34	83.88
505.557	77.88
505.773	90.88
505.99	96.88
506.207	78.88
506.423	88.88
506.64	96.88
506.856	95.88
507.073	108.88
507.289	107.88
507.506	97.88
507.722	113.88
507.939	101.88
508.155	98.88
508.372	83.88
508.588	100.88
508.805	90.88
509.021	101.88
509.238	98.88
509.454	104.88
509.67	109.88
509.887	122.88
510.103	138.88
510.319	234.88
510.536	804.88
510.752	2592.88
510.968	701.88
511.184	157.88
511.401	91.88
511.617	100.88
511.833	100.88
512.049	90.88
512.265	102.88
512.481	95.88
512.698	83.88
512.914	87.88
513.13	96.88
513.346	91.88
513.562	102.88
513.778	95.88
513.994	100.88
514.21	89.88
514.426	115.88
514.642	131.88
514.858	135.88
515.074	177.88
