Data from Circ_1996_H10_HRD10591_00018.txt Node
Date: Wed Jan 03 11:33:09 EST 2024
User: Yrep
Spectrometer: HR+D1059
Trigger mode: 1
Integration Time (sec): 1.000000E-1
Scans to average: 1
Electric dark correction enabled: true
Nonlinearity correction enabled: false
Boxcar width: 0
XAxis mode: Wavelengths
Number of Pixels in Spectrum: 2048
>>>>>Begin Spectral Data<<<<<
223.165	-26.5
223.4	-26.5
223.635	-26.5
223.869	-20.5
224.104	-13.5
224.338	-5.5
224.573	-13.5
224.808	-16.5
225.042	-3.5
225.277	-7.5
225.511	-3.5
225.746	6.5
225.98	15.5
226.215	9.5
226.449	-3.5
226.683	21.5
226.918	23.5
227.152	37.5
227.387	33.5
227.621	19.5
227.856	37.5
228.09	51.5
228.324	64.5
228.559	46.5
228.793	61.5
229.027	63.5
229.262	73.5
229.496	65.5
229.73	69.5
229.964	85.5
230.199	70.5
230.433	51.5
230.667	81.5
230.901	81.5
231.136	74.5
231.37	74.5
231.604	87.5
231.838	87.5
232.072	73.5
232.306	75.5
232.541	79.5
232.775	70.5
233.009	81.5
233.243	79.5
233.477	80.5
233.711	81.5
233.945	83.5
234.179	77.5
234.413	63.5
234.647	67.5
234.881	81.5
235.115	89.5
235.349	77.5
235.583	67.5
235.817	76.5
236.051	80.5
236.285	72.5
236.519	85.5
236.753	71.5
236.987	74.5
237.221	86.5
237.455	86.5
237.689	88.5
237.922	69.5
238.156	66.5
238.39	73.5
238.624	79.5
238.858	77.5
239.091	75.5
239.325	63.5
239.559	71.5
239.793	71.5
240.027	80.5
240.26	92.5
240.494	64.5
240.728	76.5
240.961	70.5
241.195	62.5
241.429	65.5
241.662	70.5
241.896	83.5
242.13	74.5
242.363	65.5
242.597	58.5
242.83	74.5
243.064	68.5
243.298	70.5
243.531	78.5
243.765	77.5
243.998	89.5
244.232	63.5
244.465	87.5
244.699	94.5
244.932	73.5
245.166	87.5
245.399	89.5
245.633	72.5
245.866	79.5
246.099	83.5
246.333	82.5
246.566	83.5
246.8	84.5
247.033	66.5
247.266	79.5
247.5	75.5
247.733	72.5
247.966	81.5
248.2	90.5
248.433	78.5
248.666	70.5
248.899	69.5
249.133	83.5
249.366	81.5
249.599	102.5
249.832	95.5
250.066	76.5
250.299	64.5
250.532	91.5
250.765	73.5
250.998	75.5
251.231	66.5
251.465	71.5
251.698	79.5
251.931	67.5
252.164	67.5
252.397	78.5
252.63	71.5
252.863	77.5
253.096	73.5
253.329	75.5
253.562	79.5
253.795	79.5
254.028	71.5
254.261	91.5
254.494	79.5
254.727	85.5
254.96	75.5
255.193	77.5
255.426	81.5
255.659	85.5
255.892	78.5
256.124	81.5
256.357	89.5
256.59	86.5
256.823	82.5
257.056	84.5
257.289	74.5
257.521	64.5
257.754	64.5
257.987	69.5
258.22	74.5
258.452	78.5
258.685	72.5
258.918	70.5
259.151	83.5
259.383	80.5
259.616	86.5
259.849	82.5
260.081	84.5
260.314	90.5
260.547	80.5
260.779	76.5
261.012	89.5
261.244	80.5
261.477	95.5
261.71	96.5
261.942	107.5
262.175	98.5
262.407	91.5
262.64	90.5
262.872	83.5
263.105	80.5
263.337	77.5
263.57	82.5
263.802	79.5
264.035	77.5
264.267	89.5
264.499	77.5
264.732	80.5
264.964	75.5
265.197	86.5
265.429	88.5
265.661	95.5
265.894	84.5
266.126	91.5
266.358	90.5
266.591	74.5
266.823	74.5
267.055	83.5
267.287	74.5
267.52	71.5
267.752	92.5
267.984	85.5
268.216	87.5
268.448	94.5
268.681	88.5
268.913	81.5
269.145	82.5
269.377	77.5
269.609	82.5
269.841	76.5
270.073	99.5
270.306	86.5
270.538	89.5
270.77	84.5
271.002	80.5
271.234	84.5
271.466	83.5
271.698	69.5
271.93	84.5
272.162	80.5
272.394	78.5
272.626	89.5
272.858	84.5
273.09	85.5
273.322	78.5
273.553	79.5
273.785	85.5
274.017	70.5
274.249	75.5
274.481	77.5
274.713	77.5
274.945	90.5
275.176	90.5
275.408	73.5
275.64	90.5
275.872	89.5
276.104	95.5
276.335	94.5
276.567	77.5
276.799	95.5
277.031	98.5
277.262	91.5
277.494	97.5
277.726	86.5
277.957	78.5
278.189	71.5
278.421	81.5
278.652	76.5
278.884	83.5
279.115	88.5
279.347	97.5
279.579	86.5
279.81	84.5
280.042	89.5
280.273	80.5
280.505	84.5
280.736	83.5
280.968	90.5
281.199	90.5
281.431	94.5
281.662	90.5
281.894	84.5
282.125	92.5
282.356	105.5
282.588	129.5
282.819	110.5
283.051	81.5
283.282	85.5
283.513	84.5
283.745	90.5
283.976	91.5
284.207	95.5
284.439	82.5
284.67	79.5
284.901	74.5
285.132	87.5
285.364	74.5
285.595	90.5
285.826	79.5
286.057	89.5
286.288	92.5
286.52	83.5
286.751	77.5
286.982	82.5
287.213	72.5
287.444	95.5
287.675	80.5
287.906	85.5
288.138	73.5
288.369	89.5
288.6	105.5
288.831	70.5
289.062	86.5
289.293	84.5
289.524	74.5
289.755	79.5
289.986	75.5
290.217	88.5
290.448	78.5
290.679	86.5
290.91	90.5
291.141	90.5
291.371	89.5
291.602	87.5
291.833	87.5
292.064	94.5
292.295	78.5
292.526	90.5
292.757	82.5
292.987	84.5
293.218	83.5
293.449	97.5
293.68	89.5
293.91	97.5
294.141	92.5
294.372	78.5
294.603	87.5
294.833	74.5
295.064	83.5
295.295	96.5
295.525	80.5
295.756	101.5
295.987	102.5
296.217	135.5
296.448	103.5
296.679	82.5
296.909	89.5
297.14	87.5
297.37	85.5
297.601	86.5
297.831	92.5
298.062	102.5
298.292	75.5
298.523	74.5
298.753	87.5
298.984	89.5
299.214	90.5
299.445	95.5
299.675	90.5
299.905	85.5
300.136	89.5
300.366	104.5
300.597	81.5
300.827	85.5
301.057	86.5
301.288	91.5
301.518	95.5
301.748	97.5
301.979	96.5
302.209	89.5
302.439	96.5
302.669	92.5
302.9	83.5
303.13	91.5
303.36	89.5
303.59	99.5
303.82	109.5
304.051	82.5
304.281	84.5
304.511	83.5
304.741	82.5
304.971	82.5
305.201	87.5
305.431	80.5
305.661	80.5
305.891	90.5
306.121	93.5
306.352	96.5
306.582	95.5
306.812	96.5
307.042	101.5
307.272	109.5
307.502	85.5
307.731	87.5
307.961	96.5
308.191	97.5
308.421	82.5
308.651	86.5
308.881	96.5
309.111	91.5
309.341	94.5
309.571	106.5
309.8	98.5
310.03	90.5
310.26	86.5
310.49	105.5
310.72	90.5
310.949	98.5
311.179	92.5
311.409	99.5
311.639	91.5
311.868	91.5
312.098	97.5
312.328	90.5
312.557	88.5
312.787	91.5
313.017	92.5
313.246	93.5
313.476	86.5
313.706	92.5
313.935	93.5
314.165	88.5
314.394	102.5
314.624	97.5
314.853	97.5
315.083	98.5
315.312	84.5
315.542	94.5
315.771	95.5
316.001	84.5
316.23	75.5
316.46	78.5
316.689	92.5
316.919	97.5
317.148	114.5
317.377	97.5
317.607	77.5
317.836	91.5
318.065	93.5
318.295	95.5
318.524	82.5
318.753	103.5
318.983	93.5
319.212	104.5
319.441	98.5
319.67	96.5
319.9	80.5
320.129	91.5
320.358	80.5
320.587	86.5
320.816	103.5
321.046	94.5
321.275	94.5
321.504	106.5
321.733	91.5
321.962	104.5
322.191	100.5
322.42	94.5
322.649	115.5
322.878	104.5
323.108	96.5
323.337	113.5
323.566	121.5
323.795	121.5
324.024	168.5
324.253	284.5
324.482	574.5
324.71	1158.5
324.939	1516.5
325.168	604.5
325.397	199.5
325.626	137.5
325.855	93.5
326.084	113.5
326.313	107.5
326.542	124.5
326.77	177.5
326.999	323.5
327.228	635.5
327.457	1107.5
327.686	914.5
327.914	290.5
328.143	185.5
328.372	165.5
328.6	127.5
328.829	101.5
329.058	112.5
329.287	102.5
329.515	100.5
329.744	115.5
329.972	113.5
330.201	146.5
330.43	184.5
330.658	144.5
330.887	126.5
331.115	122.5
331.344	101.5
331.572	100.5
331.801	103.5
332.03	105.5
332.258	105.5
332.486	103.5
332.715	78.5
332.943	93.5
333.172	108.5
333.4	105.5
333.629	109.5
333.857	105.5
334.085	122.5
334.314	149.5
334.542	209.5
334.771	187.5
334.999	111.5
335.227	100.5
335.455	103.5
335.684	100.5
335.912	98.5
336.14	105.5
336.369	90.5
336.597	91.5
336.825	83.5
337.053	81.5
337.281	79.5
337.51	95.5
337.738	99.5
337.966	97.5
338.194	93.5
338.422	82.5
338.65	95.5
338.878	90.5
339.106	88.5
339.334	104.5
339.562	81.5
339.79	88.5
340.018	96.5
340.246	89.5
340.474	86.5
340.702	87.5
340.93	81.5
341.158	79.5
341.386	99.5
341.614	103.5
341.842	96.5
342.07	89.5
342.298	90.5
342.526	75.5
342.754	87.5
342.981	93.5
343.209	89.5
343.437	108.5
343.665	85.5
343.893	86.5
344.12	96.5
344.348	87.5
344.576	99.5
344.804	96.5
345.031	89.5
345.259	87.5
345.487	97.5
345.714	97.5
345.942	100.5
346.17	99.5
346.397	101.5
346.625	85.5
346.853	98.5
347.08	86.5
347.308	82.5
347.535	103.5
347.763	83.5
347.99	82.5
348.218	93.5
348.445	91.5
348.673	89.5
348.9	86.5
349.128	99.5
349.355	96.5
349.583	82.5
349.81	99.5
350.037	94.5
350.265	89.5
350.492	93.5
350.72	86.5
350.947	105.5
351.174	103.5
351.402	110.5
351.629	99.5
351.856	93.5
352.083	117.5
352.311	98.5
352.538	90.5
352.765	95.5
352.992	114.5
353.22	112.5
353.447	117.5
353.674	95.5
353.901	93.5
354.128	82.5
354.355	105.5
354.583	97.5
354.81	92.5
355.037	90.5
355.264	100.5
355.491	97.5
355.718	109.5
355.945	96.5
356.172	89.5
356.399	94.5
356.626	95.5
356.853	92.5
357.08	97.5
357.307	84.5
357.534	106.5
357.761	93.5
357.988	97.5
358.215	100.5
358.441	102.5
358.668	93.5
358.895	93.5
359.122	95.5
359.349	79.5
359.576	83.5
359.802	97.5
360.029	110.5
360.256	104.5
360.483	90.5
360.709	85.5
360.936	86.5
361.163	77.5
361.39	87.5
361.616	96.5
361.843	85.5
362.07	83.5
362.296	97.5
362.523	84.5
362.749	97.5
362.976	72.5
363.203	94.5
363.429	104.5
363.656	90.5
363.882	77.5
364.109	98.5
364.335	84.5
364.562	87.5
364.788	98.5
365.015	72.5
365.241	94.5
365.468	90.5
365.694	98.5
365.92	97.5
366.147	80.5
366.373	90.5
366.599	89.5
366.826	82.5
367.052	95.5
367.278	97.5
367.505	102.5
367.731	91.5
367.957	91.5
368.184	90.5
368.41	99.5
368.636	104.5
368.862	108.5
369.089	99.5
369.315	93.5
369.541	80.5
369.767	71.5
369.993	100.5
370.219	100.5
370.445	93.5
370.672	66.5
370.898	86.5
371.124	91.5
371.35	82.5
371.576	88.5
371.802	69.5
372.028	83.5
372.254	88.5
372.48	88.5
372.706	87.5
372.932	79.5
373.158	77.5
373.384	86.5
373.61	96.5
373.835	104.5
374.061	90.5
374.287	83.5
374.513	90.5
374.739	95.5
374.965	81.5
375.191	92.5
375.416	85.5
375.642	95.5
375.868	88.5
376.094	83.5
376.319	93.5
376.545	90.5
376.771	102.5
376.997	91.5
377.222	82.5
377.448	81.5
377.674	90.5
377.899	99.5
378.125	102.5
378.35	88.5
378.576	76.5
378.802	81.5
379.027	97.5
379.253	79.5
379.478	86.5
379.704	95.5
379.929	84.5
380.155	94.5
380.38	85.5
380.606	96.5
380.831	81.5
381.057	98.5
381.282	88.5
381.507	99.5
381.733	88.5
381.958	105.5
382.184	115.5
382.409	96.5
382.634	113.5
382.86	95.5
383.085	121.5
383.31	105.5
383.535	99.5
383.761	104.5
383.986	103.5
384.211	110.5
384.436	102.5
384.662	103.5
384.887	115.5
385.112	113.5
385.337	126.5
385.562	106.5
385.787	120.5
386.013	119.5
386.238	134.5
386.463	111.5
386.688	104.5
386.913	107.5
387.138	118.5
387.363	120.5
387.588	109.5
387.813	103.5
388.038	102.5
388.263	114.5
388.488	119.5
388.713	99.5
388.938	94.5
389.163	99.5
389.387	96.5
389.612	89.5
389.837	104.5
390.062	105.5
390.287	104.5
390.512	103.5
390.736	97.5
390.961	94.5
391.186	93.5
391.411	87.5
391.636	79.5
391.86	90.5
392.085	91.5
392.31	85.5
392.534	93.5
392.759	91.5
392.984	82.5
393.208	101.5
393.433	113.5
393.658	111.5
393.882	94.5
394.107	90.5
394.331	91.5
394.556	84.5
394.78	77.5
395.005	99.5
395.229	85.5
395.454	94.5
395.678	103.5
395.903	71.5
396.127	97.5
396.352	85.5
396.576	100.5
396.801	86.5
397.025	105.5
397.249	87.5
397.474	82.5
397.698	90.5
397.922	91.5
398.147	101.5
398.371	88.5
398.595	80.5
398.82	86.5
399.044	89.5
399.268	98.5
399.492	83.5
399.717	90.5
399.941	90.5
400.165	89.5
400.389	83.5
400.613	85.5
400.837	90.5
401.062	84.5
401.286	92.5
401.51	95.5
401.734	89.5
401.958	96.5
402.182	132.5
402.406	130.5
402.63	106.5
402.854	89.5
403.078	87.5
403.302	88.5
403.526	97.5
403.75	82.5
403.974	88.5
404.198	79.5
404.422	74.5
404.645	80.5
404.869	82.5
405.093	97.5
405.317	105.5
405.541	97.5
405.765	86.5
405.988	109.5
406.212	161.5
406.436	218.5
406.66	142.5
406.883	94.5
407.107	90.5
407.331	98.5
407.555	93.5
407.778	87.5
408.002	86.5
408.226	80.5
408.449	69.5
408.673	100.5
408.896	89.5
409.12	95.5
409.344	89.5
409.567	72.5
409.791	80.5
410.014	92.5
410.238	88.5
410.461	86.5
410.685	86.5
410.908	104.5
411.132	99.5
411.355	90.5
411.578	91.5
411.802	95.5
412.025	94.5
412.249	79.5
412.472	97.5
412.695	93.5
412.919	82.5
413.142	107.5
413.365	92.5
413.589	87.5
413.812	81.5
414.035	81.5
414.258	79.5
414.482	83.5
414.705	94.5
414.928	92.5
415.151	95.5
415.374	91.5
415.597	93.5
415.821	84.5
416.044	96.5
416.267	96.5
416.49	88.5
416.713	87.5
416.936	91.5
417.159	80.5
417.382	77.5
417.605	77.5
417.828	90.5
418.051	79.5
418.274	84.5
418.497	93.5
418.72	87.5
418.943	94.5
419.166	75.5
419.389	77.5
419.611	85.5
419.834	86.5
420.057	96.5
420.28	93.5
420.503	87.5
420.726	94.5
420.948	95.5
421.171	98.5
421.394	90.5
421.617	86.5
421.839	89.5
422.062	79.5
422.285	87.5
422.507	108.5
422.73	106.5
422.953	94.5
423.175	99.5
423.398	100.5
423.621	83.5
423.843	89.5
424.066	93.5
424.288	93.5
424.511	87.5
424.733	87.5
424.956	99.5
425.178	95.5
425.401	99.5
425.623	98.5
425.846	83.5
426.068	93.5
426.291	95.5
426.513	88.5
426.735	77.5
426.958	81.5
427.18	106.5
427.402	110.5
427.625	132.5
427.847	126.5
428.069	101.5
428.292	91.5
428.514	84.5
428.736	81.5
428.958	90.5
429.181	83.5
429.403	90.5
429.625	84.5
429.847	99.5
430.069	90.5
430.292	72.5
430.514	93.5
430.736	84.5
430.958	90.5
431.18	83.5
431.402	79.5
431.624	70.5
431.846	98.5
432.068	101.5
432.29	83.5
432.512	87.5
432.734	83.5
432.956	95.5
433.178	90.5
433.4	78.5
433.622	82.5
433.844	85.5
434.066	88.5
434.287	96.5
434.509	96.5
434.731	94.5
434.953	77.5
435.175	95.5
435.397	86.5
435.618	98.5
435.84	112.5
436.062	89.5
436.284	98.5
436.505	106.5
436.727	87.5
436.949	87.5
437.17	80.5
437.392	82.5
437.614	95.5
437.835	98.5
438.057	107.5
438.278	107.5
438.5	106.5
438.721	93.5
438.943	93.5
439.165	87.5
439.386	93.5
439.608	105.5
439.829	98.5
440.05	110.5
440.272	130.5
440.493	93.5
440.715	79.5
440.936	81.5
441.158	80.5
441.379	100.5
441.6	90.5
441.822	93.5
442.043	85.5
442.264	101.5
442.486	95.5
442.707	97.5
442.928	84.5
443.149	108.5
443.371	116.5
443.592	102.5
443.813	101.5
444.034	92.5
444.255	79.5
444.476	92.5
444.698	85.5
444.919	78.5
445.14	144.5
445.361	115.5
445.582	98.5
445.803	130.5
446.024	120.5
446.245	104.5
446.466	102.5
446.687	87.5
446.908	85.5
447.129	90.5
447.35	94.5
447.571	99.5
447.792	86.5
448.013	95.5
448.234	85.5
448.455	87.5
448.675	103.5
448.896	120.5
449.117	89.5
449.338	92.5
449.559	112.5
449.779	106.5
450	104.5
450.221	85.5
450.442	62.5
450.662	92.5
450.883	101.5
451.104	106.5
451.324	92.5
451.545	85.5
451.766	80.5
451.986	80.5
452.207	89.5
452.428	90.5
452.648	105.5
452.869	97.5
453.089	108.5
453.31	104.5
453.53	97.5
453.751	96.5
453.971	107.5
454.192	102.5
454.412	80.5
454.633	89.5
454.853	79.5
455.073	85.5
455.294	81.5
455.514	82.5
455.734	83.5
455.955	92.5
456.175	82.5
456.395	85.5
456.616	85.5
456.836	80.5
457.056	61.5
457.276	77.5
457.497	93.5
457.717	72.5
457.937	98.5
458.157	97.5
458.377	98.5
458.598	94.5
458.818	127.5
459.038	124.5
459.258	106.5
459.478	82.5
459.698	91.5
459.918	74.5
460.138	72.5
460.358	78.5
460.578	90.5
460.798	99.5
461.018	84.5
461.238	78.5
461.458	82.5
461.678	79.5
461.898	86.5
462.118	78.5
462.338	80.5
462.558	75.5
462.777	80.5
462.997	90.5
463.217	82.5
463.437	101.5
463.657	93.5
463.876	87.5
464.096	96.5
464.316	95.5
464.536	91.5
464.755	85.5
464.975	104.5
465.195	141.5
465.414	147.5
465.634	100.5
465.854	80.5
466.073	101.5
466.293	88.5
466.512	79.5
466.732	99.5
466.951	82.5
467.171	95.5
467.391	99.5
467.61	105.5
467.829	87.5
468.049	116.5
468.268	139.5
468.488	96.5
468.707	93.5
468.927	91.5
469.146	88.5
469.365	78.5
469.585	91.5
469.804	97.5
470.023	105.5
470.243	91.5
470.462	99.5
470.681	106.5
470.901	77.5
471.12	90.5
471.339	97.5
471.558	91.5
471.777	72.5
471.997	101.5
472.216	157.5
472.435	235.5
472.654	108.5
472.873	91.5
473.092	87.5
473.311	85.5
473.53	88.5
473.749	81.5
473.968	90.5
474.187	98.5
474.406	90.5
474.625	82.5
474.844	93.5
475.063	70.5
475.282	81.5
475.501	79.5
475.72	85.5
475.939	71.5
476.158	76.5
476.377	77.5
476.596	81.5
476.814	91.5
477.033	88.5
477.252	82.5
477.471	107.5
477.69	89.5
477.908	108.5
478.127	75.5
478.346	91.5
478.564	96.5
478.783	85.5
479.002	91.5
479.22	89.5
479.439	93.5
479.658	102.5
479.876	92.5
480.095	92.5
480.313	93.5
480.532	93.5
480.751	92.5
480.969	163.5
481.188	409.5
481.406	241.5
481.624	106.5
481.843	89.5
482.061	90.5
482.28	69.5
482.498	73.5
482.717	69.5
482.935	84.5
483.153	83.5
483.372	100.5
483.59	85.5
483.808	98.5
484.027	89.5
484.245	92.5
484.463	93.5
484.681	102.5
484.9	113.5
485.118	96.5
485.336	81.5
485.554	94.5
485.772	105.5
485.99	106.5
486.209	89.5
486.427	101.5
486.645	111.5
486.863	106.5
487.081	98.5
487.299	83.5
487.517	95.5
487.735	94.5
487.953	88.5
488.171	99.5
488.389	105.5
488.607	83.5
488.825	77.5
489.043	78.5
489.261	85.5
489.479	94.5
489.696	84.5
489.914	96.5
490.132	97.5
490.35	102.5
490.568	81.5
490.786	84.5
491.003	88.5
491.221	78.5
491.439	76.5
491.657	95.5
491.874	108.5
492.092	93.5
492.31	97.5
492.527	96.5
492.745	75.5
492.963	83.5
493.18	80.5
493.398	95.5
493.615	98.5
493.833	83.5
494.05	85.5
494.268	86.5
494.485	73.5
494.703	87.5
494.92	74.5
495.138	89.5
495.355	80.5
495.573	102.5
495.79	92.5
496.008	107.5
496.225	87.5
496.442	73.5
496.66	92.5
496.877	83.5
497.094	88.5
497.312	79.5
497.529	101.5
497.746	89.5
497.963	96.5
498.181	88.5
498.398	82.5
498.615	104.5
498.832	90.5
499.049	93.5
499.267	88.5
499.484	95.5
499.701	86.5
499.918	86.5
500.135	96.5
500.352	98.5
500.569	93.5
500.786	99.5
501.003	91.5
501.22	89.5
501.437	94.5
501.654	105.5
501.871	98.5
502.088	91.5
502.305	85.5
502.522	75.5
502.739	78.5
502.956	88.5
503.172	103.5
503.389	87.5
503.606	99.5
503.823	101.5
504.04	97.5
504.256	93.5
504.473	85.5
504.69	88.5
504.907	91.5
505.123	109.5
505.34	89.5
505.557	85.5
505.773	104.5
505.99	85.5
506.207	81.5
506.423	72.5
506.64	86.5
506.856	77.5
507.073	91.5
507.289	81.5
507.506	101.5
507.722	99.5
507.939	98.5
508.155	87.5
508.372	85.5
508.588	98.5
508.805	102.5
509.021	104.5
509.238	98.5
509.454	110.5
509.67	102.5
509.887	107.5
510.103	127.5
510.319	210.5
510.536	735.5
510.752	2410.5
510.968	654.5
511.184	151.5
511.401	134.5
511.617	99.5
511.833	93.5
512.049	75.5
512.265	86.5
512.481	94.5
512.698	91.5
512.914	90.5
513.13	80.5
513.346	90.5
513.562	92.5
513.778	99.5
513.994	100.5
514.21	91.5
514.426	107.5
514.642	118.5
514.858	123.5
515.074	149.5
515.29	399.5
515.506	1333.5
515.721	473.5
515.937	146.5
516.153	104.5
516.369	98.5
516.585	82.5
516.801	81.5
517.016	93.5
517.232	88.5
517.448	94.5
517.664	90.5
517.879	78.5
518.095	105.5
518.311	97.5
518.527	87.5
518.742	82.5
518.958	102.5
519.173	103.5
519.389	106.5
519.605	97.5
519.82	92.5
520.036	116.5
520.251	112.5
520.467	103.5
520.682	99.5
520.898	106.5
521.113	111.5
521.329	128.5
521.544	164.5
521.76	493.5
521.975	2200.5
522.19	1325.5
522.406	285.5
522.621	114.5
522.836	103.5
523.052	96.5
523.267	99.5
523.482	94.5
523.698	106.5
523.913	128.5
524.128	93.5
524.343	90.5
524.559	90.5
524.774	95.5
524.989	90.5
525.204	106.5
525.419	96.5
525.634	94.5
525.849	99.5
526.064	85.5
526.28	69.5
526.495	87.5
526.71	86.5
526.925	86.5
527.14	96.5
527.355	102.5
527.57	91.5
527.785	94.5
527.999	105.5
528.214	87.5
528.429	87.5
528.644	92.5
528.859	80.5
529.074	103.5
529.289	115.5
529.503	157.5
529.718	110.5
529.933	89.5
530.148	73.5
530.363	82.5
530.577	86.5
530.792	81.5
531.007	96.5
531.221	90.5
531.436	84.5
531.651	84.5
531.865	95.5
532.08	88.5
532.295	89.5
532.509	87.5
532.724	92.5
532.938	97.5
533.153	99.5
533.367	96.5
533.582	82.5
533.796	98.5
534.011	90.5
534.225	91.5
534.44	95.5
534.654	82.5
534.868	89.5
535.083	93.5
535.297	99.5
535.511	97.5
535.726	107.5
535.94	90.5
