Data from Circ_1996_H10_HRD10591_00090.txt Node
Date: Wed Jan 03 11:33:24 EST 2024
User: Yrep
Spectrometer: HR+D1059
Trigger mode: 1
Integration Time (sec): 1.000000E-1
Scans to average: 1
Electric dark correction enabled: true
Nonlinearity correction enabled: false
Boxcar width: 0
XAxis mode: Wavelengths
Number of Pixels in Spectrum: 2048
>>>>>Begin Spectral Data<<<<<
223.165	-8.31
223.4	-8.31
223.635	-8.31
223.869	-25.31
224.104	-14.31
224.338	-19.31
224.573	-6.31
224.808	-18.31
225.042	-19.31
225.277	-10.31
225.511	-5.31
225.746	11.69
225.98	13.69
226.215	19.69
226.449	28.69
226.683	5.69
226.918	25.69
227.152	21.69
227.387	34.69
227.621	38.69
227.856	34.69
228.09	43.69
228.324	49.69
228.559	64.69
228.793	69.69
229.027	55.69
229.262	64.69
229.496	63.69
229.73	80.69
229.964	83.69
230.199	72.69
230.433	92.69
230.667	68.69
230.901	64.69
231.136	77.69
231.37	86.69
231.604	59.69
231.838	76.69
232.072	71.69
232.306	81.69
232.541	88.69
232.775	93.69
233.009	67.69
233.243	82.69
233.477	67.69
233.711	86.69
233.945	81.69
234.179	75.69
234.413	72.69
234.647	79.69
234.881	89.69
235.115	82.69
235.349	78.69
235.583	83.69
235.817	82.69
236.051	69.69
236.285	72.69
236.519	59.69
236.753	75.69
236.987	79.69
237.221	97.69
237.455	59.69
237.689	67.69
237.922	76.69
238.156	71.69
238.39	79.69
238.624	81.69
238.858	72.69
239.091	82.69
239.325	81.69
239.559	80.69
239.793	85.69
240.027	62.69
240.26	70.69
240.494	74.69
240.728	87.69
240.961	73.69
241.195	86.69
241.429	75.69
241.662	86.69
241.896	93.69
242.13	81.69
242.363	73.69
242.597	64.69
242.83	75.69
243.064	87.69
243.298	69.69
243.531	67.69
243.765	77.69
243.998	72.69
244.232	81.69
244.465	80.69
244.699	78.69
244.932	81.69
245.166	77.69
245.399	65.69
245.633	71.69
245.866	77.69
246.099	78.69
246.333	71.69
246.566	83.69
246.8	74.69
247.033	71.69
247.266	74.69
247.5	85.69
247.733	87.69
247.966	88.69
248.2	85.69
248.433	82.69
248.666	83.69
248.899	91.69
249.133	92.69
249.366	100.69
249.599	85.69
249.832	80.69
250.066	74.69
250.299	85.69
250.532	88.69
250.765	77.69
250.998	75.69
251.231	85.69
251.465	87.69
251.698	66.69
251.931	85.69
252.164	82.69
252.397	78.69
252.63	89.69
252.863	92.69
253.096	83.69
253.329	85.69
253.562	74.69
253.795	70.69
254.028	83.69
254.261	69.69
254.494	78.69
254.727	89.69
254.96	78.69
255.193	81.69
255.426	87.69
255.659	83.69
255.892	83.69
256.124	78.69
256.357	95.69
256.59	78.69
256.823	70.69
257.056	86.69
257.289	93.69
257.521	79.69
257.754	80.69
257.987	81.69
258.22	91.69
258.452	72.69
258.685	73.69
258.918	78.69
259.151	85.69
259.383	81.69
259.616	85.69
259.849	90.69
260.081	79.69
260.314	89.69
260.547	88.69
260.779	88.69
261.012	78.69
261.244	74.69
261.477	80.69
261.71	89.69
261.942	106.69
262.175	111.69
262.407	98.69
262.64	73.69
262.872	82.69
263.105	98.69
263.337	76.69
263.57	80.69
263.802	86.69
264.035	85.69
264.267	88.69
264.499	90.69
264.732	74.69
264.964	69.69
265.197	83.69
265.429	74.69
265.661	86.69
265.894	80.69
266.126	94.69
266.358	88.69
266.591	90.69
266.823	85.69
267.055	74.69
267.287	77.69
267.52	89.69
267.752	85.69
267.984	75.69
268.216	79.69
268.448	89.69
268.681	73.69
268.913	83.69
269.145	81.69
269.377	81.69
269.609	88.69
269.841	77.69
270.073	85.69
270.306	85.69
270.538	78.69
270.77	81.69
271.002	78.69
271.234	83.69
271.466	82.69
271.698	67.69
271.93	80.69
272.162	80.69
272.394	87.69
272.626	82.69
272.858	82.69
273.09	79.69
273.322	75.69
273.553	79.69
273.785	92.69
274.017	90.69
274.249	79.69
274.481	91.69
274.713	84.69
274.945	86.69
275.176	74.69
275.408	88.69
275.64	84.69
275.872	82.69
276.104	96.69
276.335	94.69
276.567	97.69
276.799	110.69
277.031	100.69
277.262	108.69
277.494	90.69
277.726	77.69
277.957	87.69
278.189	83.69
278.421	77.69
278.652	94.69
278.884	70.69
279.115	81.69
279.347	68.69
279.579	78.69
279.81	88.69
280.042	98.69
280.273	97.69
280.505	87.69
280.736	89.69
280.968	84.69
281.199	71.69
281.431	66.69
281.662	91.69
281.894	109.69
282.125	89.69
282.356	127.69
282.588	135.69
282.819	121.69
283.051	84.69
283.282	77.69
283.513	91.69
283.745	85.69
283.976	74.69
284.207	76.69
284.439	81.69
284.67	87.69
284.901	84.69
285.132	84.69
285.364	77.69
285.595	91.69
285.826	83.69
286.057	86.69
286.288	83.69
286.52	73.69
286.751	79.69
286.982	79.69
287.213	83.69
287.444	78.69
287.675	86.69
287.906	81.69
288.138	101.69
288.369	103.69
288.6	98.69
288.831	83.69
289.062	91.69
289.293	87.69
289.524	78.69
289.755	83.69
289.986	94.69
290.217	89.69
290.448	86.69
290.679	77.69
290.91	94.69
291.141	92.69
291.371	81.69
291.602	91.69
291.833	93.69
292.064	93.69
292.295	87.69
292.526	83.69
292.757	95.69
292.987	82.69
293.218	76.69
293.449	76.69
293.68	86.69
293.91	88.69
294.141	82.69
294.372	91.69
294.603	87.69
294.833	85.69
295.064	83.69
295.295	94.69
295.525	94.69
295.756	92.69
295.987	115.69
296.217	144.69
296.448	140.69
296.679	91.69
296.909	96.69
297.14	77.69
297.37	88.69
297.601	75.69
297.831	82.69
298.062	92.69
298.292	75.69
298.523	85.69
298.753	81.69
298.984	98.69
299.214	89.69
299.445	78.69
299.675	90.69
299.905	92.69
300.136	81.69
300.366	81.69
300.597	83.69
300.827	88.69
301.057	111.69
301.288	102.69
301.518	99.69
301.748	71.69
301.979	114.69
302.209	89.69
302.439	89.69
302.669	84.69
302.9	91.69
303.13	85.69
303.36	97.69
303.59	115.69
303.82	101.69
304.051	83.69
304.281	85.69
304.511	87.69
304.741	93.69
304.971	90.69
305.201	88.69
305.431	95.69
305.661	89.69
305.891	93.69
306.121	95.69
306.352	98.69
306.582	100.69
306.812	90.69
307.042	96.69
307.272	86.69
307.502	103.69
307.731	81.69
307.961	90.69
308.191	90.69
308.421	78.69
308.651	91.69
308.881	86.69
309.111	91.69
309.341	90.69
309.571	86.69
309.8	99.69
310.03	103.69
310.26	92.69
310.49	83.69
310.72	96.69
310.949	97.69
311.179	89.69
311.409	88.69
311.639	84.69
311.868	106.69
312.098	97.69
312.328	93.69
312.557	100.69
312.787	100.69
313.017	95.69
313.246	101.69
313.476	80.69
313.706	79.69
313.935	95.69
314.165	103.69
314.394	95.69
314.624	89.69
314.853	76.69
315.083	104.69
315.312	93.69
315.542	89.69
315.771	59.69
316.001	80.69
316.23	90.69
316.46	91.69
316.689	95.69
316.919	93.69
317.148	106.69
317.377	90.69
317.607	89.69
317.836	90.69
318.065	97.69
318.295	90.69
318.524	81.69
318.753	80.69
318.983	91.69
319.212	93.69
319.441	94.69
319.67	107.69
319.9	89.69
320.129	95.69
320.358	93.69
320.587	83.69
320.816	87.69
321.046	89.69
321.275	82.69
321.504	98.69
321.733	105.69
321.962	101.69
322.191	90.69
322.42	96.69
322.649	102.69
322.878	99.69
323.108	94.69
323.337	112.69
323.566	131.69
323.795	129.69
324.024	162.69
324.253	297.69
324.482	603.69
324.71	1173.69
324.939	1523.69
325.168	581.69
325.397	201.69
325.626	125.69
325.855	111.69
326.084	127.69
326.313	125.69
326.542	128.69
326.77	189.69
326.999	332.69
327.228	637.69
327.457	1103.69
327.686	893.69
327.914	287.69
328.143	189.69
328.372	166.69
328.6	121.69
328.829	93.69
329.058	124.69
329.287	118.69
329.515	113.69
329.744	105.69
329.972	132.69
330.201	179.69
330.43	214.69
330.658	155.69
330.887	148.69
331.115	120.69
331.344	97.69
331.572	98.69
331.801	102.69
332.03	98.69
332.258	90.69
332.486	84.69
332.715	87.69
332.943	93.69
333.172	94.69
333.4	85.69
333.629	94.69
333.857	115.69
334.085	126.69
334.314	174.69
334.542	236.69
334.771	226.69
334.999	102.69
335.227	91.69
335.455	96.69
335.684	77.69
335.912	96.69
336.14	98.69
336.369	81.69
336.597	79.69
336.825	98.69
337.053	86.69
337.281	80.69
337.51	92.69
337.738	97.69
337.966	80.69
338.194	81.69
338.422	98.69
338.65	86.69
338.878	83.69
339.106	94.69
339.334	90.69
339.562	81.69
339.79	93.69
340.018	84.69
340.246	101.69
340.474	96.69
340.702	81.69
340.93	88.69
341.158	85.69
341.386	81.69
341.614	102.69
341.842	88.69
342.07	81.69
342.298	82.69
342.526	87.69
342.754	87.69
342.981	85.69
343.209	89.69
343.437	93.69
343.665	88.69
343.893	93.69
344.12	91.69
344.348	84.69
344.576	73.69
344.804	84.69
345.031	97.69
345.259	91.69
345.487	85.69
345.714	99.69
345.942	92.69
346.17	75.69
346.397	91.69
346.625	79.69
346.853	95.69
347.08	86.69
347.308	106.69
347.535	87.69
347.763	98.69
347.99	98.69
348.218	104.69
348.445	92.69
348.673	95.69
348.9	88.69
349.128	106.69
349.355	85.69
349.583	93.69
349.81	82.69
350.037	84.69
350.265	95.69
350.492	83.69
350.72	89.69
350.947	89.69
351.174	102.69
351.402	116.69
351.629	89.69
351.856	82.69
352.083	96.69
352.311	111.69
352.538	109.69
352.765	106.69
352.992	118.69
353.22	93.69
353.447	92.69
353.674	87.69
353.901	104.69
354.128	92.69
354.355	83.69
354.583	89.69
354.81	96.69
355.037	102.69
355.264	94.69
355.491	102.69
355.718	80.69
355.945	92.69
356.172	83.69
356.399	105.69
356.626	88.69
356.853	98.69
357.08	90.69
357.307	79.69
357.534	93.69
357.761	86.69
357.988	85.69
358.215	87.69
358.441	99.69
358.668	87.69
358.895	80.69
359.122	86.69
359.349	89.69
359.576	93.69
359.802	87.69
360.029	113.69
360.256	112.69
360.483	98.69
360.709	102.69
360.936	93.69
361.163	98.69
361.39	88.69
361.616	81.69
361.843	94.69
362.07	80.69
362.296	90.69
362.523	74.69
362.749	87.69
362.976	83.69
363.203	83.69
363.429	88.69
363.656	76.69
363.882	90.69
364.109	103.69
364.335	81.69
364.562	87.69
364.788	88.69
365.015	91.69
365.241	91.69
365.468	108.69
365.694	90.69
365.92	83.69
366.147	88.69
366.373	74.69
366.599	79.69
366.826	79.69
367.052	82.69
367.278	90.69
367.505	94.69
367.731	94.69
367.957	98.69
368.184	78.69
368.41	98.69
368.636	117.69
368.862	109.69
369.089	90.69
369.315	94.69
369.541	99.69
369.767	90.69
369.993	92.69
370.219	73.69
370.445	82.69
370.672	89.69
370.898	85.69
371.124	75.69
371.35	77.69
371.576	98.69
371.802	91.69
372.028	87.69
372.254	99.69
372.48	99.69
372.706	89.69
372.932	92.69
373.158	86.69
373.384	101.69
373.61	83.69
373.835	82.69
374.061	94.69
374.287	83.69
374.513	105.69
374.739	72.69
374.965	80.69
375.191	86.69
375.416	80.69
375.642	82.69
375.868	85.69
376.094	77.69
376.319	97.69
376.545	82.69
376.771	91.69
376.997	84.69
377.222	86.69
377.448	82.69
377.674	89.69
377.899	75.69
378.125	81.69
378.35	82.69
378.576	87.69
378.802	81.69
379.027	87.69
379.253	78.69
379.478	88.69
379.704	82.69
379.929	86.69
380.155	76.69
380.38	91.69
380.606	105.69
380.831	112.69
381.057	93.69
381.282	95.69
381.507	97.69
381.733	90.69
381.958	93.69
382.184	92.69
382.409	108.69
382.634	98.69
382.86	97.69
383.085	85.69
383.31	83.69
383.535	92.69
383.761	97.69
383.986	107.69
384.211	93.69
384.436	93.69
384.662	94.69
384.887	95.69
385.112	93.69
385.337	100.69
385.562	95.69
385.787	109.69
386.013	106.69
386.238	95.69
386.463	108.69
386.688	111.69
386.913	97.69
387.138	94.69
387.363	104.69
387.588	99.69
387.813	103.69
388.038	93.69
388.263	98.69
388.488	95.69
388.713	98.69
388.938	62.69
389.163	76.69
389.387	97.69
389.612	83.69
389.837	92.69
390.062	94.69
390.287	83.69
390.512	83.69
390.736	87.69
390.961	98.69
391.186	107.69
391.411	105.69
391.636	86.69
391.86	81.69
392.085	69.69
392.31	85.69
392.534	92.69
392.759	85.69
392.984	79.69
393.208	83.69
393.433	93.69
393.658	88.69
393.882	74.69
394.107	98.69
394.331	91.69
394.556	78.69
394.78	75.69
395.005	75.69
395.229	84.69
395.454	85.69
395.678	74.69
395.903	82.69
396.127	86.69
396.352	87.69
396.576	77.69
396.801	81.69
397.025	83.69
397.249	94.69
397.474	81.69
397.698	78.69
397.922	69.69
398.147	77.69
398.371	90.69
398.595	83.69
398.82	93.69
399.044	88.69
399.268	84.69
399.492	85.69
399.717	85.69
399.941	67.69
400.165	91.69
400.389	93.69
400.613	91.69
400.837	87.69
401.062	101.69
401.286	89.69
401.51	93.69
401.734	95.69
401.958	82.69
402.182	123.69
402.406	140.69
402.63	99.69
402.854	97.69
403.078	79.69
403.302	89.69
403.526	95.69
403.75	80.69
403.974	81.69
404.198	79.69
404.422	87.69
404.645	105.69
404.869	86.69
405.093	88.69
405.317	95.69
405.541	81.69
405.765	94.69
405.988	108.69
406.212	153.69
406.436	222.69
406.66	136.69
406.883	101.69
407.107	98.69
407.331	91.69
407.555	100.69
407.778	85.69
408.002	86.69
408.226	94.69
408.449	68.69
408.673	76.69
408.896	86.69
409.12	89.69
409.344	97.69
409.567	79.69
409.791	86.69
410.014	89.69
410.238	88.69
410.461	98.69
410.685	86.69
410.908	84.69
411.132	116.69
411.355	97.69
411.578	96.69
411.802	85.69
412.025	100.69
412.249	89.69
412.472	93.69
412.695	91.69
412.919	81.69
413.142	80.69
413.365	90.69
413.589	98.69
413.812	80.69
414.035	98.69
414.258	88.69
414.482	90.69
414.705	102.69
414.928	81.69
415.151	93.69
415.374	93.69
415.597	91.69
415.821	84.69
416.044	84.69
416.267	107.69
416.49	91.69
416.713	97.69
416.936	93.69
417.159	81.69
417.382	89.69
417.605	73.69
417.828	77.69
418.051	80.69
418.274	93.69
418.497	80.69
418.72	83.69
418.943	87.69
419.166	84.69
419.389	87.69
419.611	98.69
419.834	89.69
420.057	85.69
420.28	69.69
420.503	89.69
420.726	84.69
420.948	87.69
421.171	87.69
421.394	83.69
421.617	70.69
421.839	95.69
422.062	93.69
422.285	80.69
422.507	88.69
422.73	99.69
422.953	101.69
423.175	85.69
423.398	87.69
423.621	78.69
423.843	90.69
424.066	88.69
424.288	74.69
424.511	90.69
424.733	105.69
424.956	111.69
425.178	100.69
425.401	101.69
425.623	93.69
425.846	87.69
426.068	85.69
426.291	73.69
426.513	94.69
426.735	84.69
426.958	85.69
427.18	94.69
427.402	117.69
427.625	138.69
427.847	125.69
428.069	110.69
428.292	83.69
428.514	86.69
428.736	73.69
428.958	83.69
429.181	91.69
429.403	90.69
429.625	86.69
429.847	89.69
430.069	85.69
430.292	94.69
430.514	78.69
430.736	68.69
430.958	92.69
431.18	83.69
431.402	89.69
431.624	80.69
431.846	72.69
432.068	91.69
432.29	93.69
432.512	79.69
432.734	77.69
432.956	83.69
433.178	101.69
433.4	101.69
433.622	83.69
433.844	85.69
434.066	88.69
434.287	101.69
434.509	96.69
434.731	86.69
434.953	95.69
435.175	77.69
435.397	90.69
435.618	96.69
435.84	86.69
436.062	93.69
436.284	101.69
436.505	77.69
436.727	90.69
436.949	90.69
437.17	74.69
437.392	91.69
437.614	94.69
437.835	98.69
438.057	80.69
438.278	95.69
438.5	76.69
438.721	106.69
438.943	90.69
439.165	70.69
439.386	83.69
439.608	86.69
439.829	87.69
440.05	96.69
440.272	116.69
440.493	87.69
440.715	83.69
440.936	85.69
441.158	92.69
441.379	81.69
441.6	92.69
441.822	90.69
442.043	77.69
442.264	89.69
442.486	105.69
442.707	96.69
442.928	98.69
443.149	118.69
443.371	119.69
443.592	109.69
443.813	98.69
444.034	98.69
444.255	92.69
444.476	80.69
444.698	82.69
444.919	86.69
445.14	114.69
445.361	106.69
445.582	109.69
445.803	121.69
446.024	113.69
446.245	110.69
446.466	94.69
446.687	89.69
446.908	80.69
447.129	83.69
447.35	67.69
447.571	101.69
447.792	85.69
448.013	86.69
448.234	104.69
448.455	88.69
448.675	80.69
448.896	118.69
449.117	83.69
449.338	81.69
449.559	103.69
449.779	101.69
450	89.69
450.221	82.69
450.442	74.69
450.662	87.69
450.883	101.69
451.104	101.69
451.324	90.69
451.545	92.69
451.766	101.69
451.986	90.69
452.207	93.69
452.428	82.69
452.648	97.69
452.869	103.69
453.089	112.69
453.31	114.69
453.53	97.69
453.751	87.69
453.971	97.69
454.192	98.69
454.412	91.69
454.633	83.69
454.853	97.69
455.073	87.69
455.294	75.69
455.514	87.69
455.734	81.69
455.955	72.69
456.175	79.69
456.395	87.69
456.616	66.69
456.836	84.69
457.056	87.69
457.276	91.69
457.497	88.69
457.717	83.69
457.937	74.69
458.157	79.69
458.377	80.69
458.598	106.69
458.818	131.69
459.038	147.69
459.258	99.69
459.478	78.69
459.698	84.69
459.918	81.69
460.138	73.69
460.358	88.69
460.578	81.69
460.798	79.69
461.018	92.69
461.238	78.69
461.458	77.69
461.678	89.69
461.898	78.69
462.118	79.69
462.338	99.69
462.558	81.69
462.777	76.69
462.997	82.69
463.217	75.69
463.437	90.69
463.657	82.69
463.876	100.69
464.096	81.69
464.316	91.69
464.536	86.69
464.755	86.69
464.975	106.69
465.195	153.69
465.414	138.69
465.634	96.69
465.854	98.69
466.073	89.69
466.293	91.69
466.512	75.69
466.732	82.69
466.951	91.69
467.171	102.69
467.391	93.69
467.61	95.69
467.829	100.69
468.049	141.69
468.268	160.69
468.488	94.69
468.707	97.69
468.927	92.69
469.146	81.69
469.365	81.69
469.585	83.69
469.804	99.69
470.023	89.69
470.243	99.69
470.462	92.69
470.681	107.69
470.901	75.69
471.12	92.69
471.339	105.69
471.558	86.69
471.777	96.69
471.997	110.69
472.216	193.69
472.435	314.69
472.654	115.69
472.873	109.69
473.092	105.69
473.311	92.69
473.53	79.69
473.749	90.69
473.968	95.69
474.187	97.69
474.406	89.69
474.625	80.69
474.844	67.69
475.063	93.69
475.282	97.69
475.501	94.69
475.72	103.69
475.939	89.69
476.158	78.69
476.377	82.69
476.596	80.69
476.814	94.69
477.033	75.69
477.252	87.69
477.471	85.69
477.69	88.69
477.908	94.69
478.127	79.69
478.346	84.69
478.564	80.69
478.783	78.69
479.002	83.69
479.22	83.69
479.439	96.69
479.658	110.69
479.876	90.69
480.095	105.69
480.313	110.69
480.532	97.69
480.751	118.69
480.969	192.69
481.188	525.69
481.406	320.69
481.624	108.69
481.843	91.69
482.061	84.69
482.28	73.69
482.498	82.69
482.717	91.69
482.935	83.69
483.153	87.69
483.372	84.69
483.59	87.69
483.808	80.69
484.027	86.69
484.245	95.69
484.463	92.69
484.681	88.69
484.9	84.69
485.118	101.69
485.336	90.69
485.554	89.69
485.772	90.69
485.99	104.69
486.209	101.69
486.427	99.69
486.645	103.69
486.863	105.69
487.081	95.69
487.299	93.69
487.517	73.69
487.735	87.69
487.953	78.69
488.171	83.69
488.389	85.69
488.607	88.69
488.825	87.69
489.043	89.69
489.261	86.69
489.479	87.69
489.696	93.69
489.914	87.69
490.132	96.69
490.35	91.69
490.568	93.69
490.786	95.69
491.003	90.69
491.221	89.69
491.439	76.69
491.657	95.69
491.874	89.69
492.092	85.69
492.31	82.69
492.527	87.69
492.745	105.69
492.963	88.69
493.18	101.69
493.398	73.69
493.615	102.69
493.833	89.69
494.05	88.69
494.268	81.69
494.485	86.69
494.703	93.69
494.92	83.69
495.138	76.69
495.355	82.69
495.573	94.69
495.79	60.69
496.008	90.69
496.225	87.69
496.442	92.69
496.66	87.69
496.877	90.69
497.094	96.69
497.312	87.69
497.529	83.69
497.746	93.69
497.963	104.69
498.181	75.69
498.398	87.69
498.615	98.69
498.832	105.69
499.049	100.69
499.267	90.69
499.484	86.69
499.701	88.69
499.918	85.69
500.135	87.69
500.352	90.69
500.569	82.69
500.786	99.69
501.003	94.69
501.22	77.69
501.437	82.69
501.654	79.69
501.871	89.69
502.088	82.69
502.305	89.69
502.522	93.69
502.739	83.69
502.956	93.69
503.172	98.69
503.389	98.69
503.606	98.69
503.823	93.69
504.04	82.69
504.256	104.69
504.473	84.69
504.69	80.69
504.907	107.69
505.123	93.69
505.34	90.69
505.557	90.69
505.773	96.69
505.99	77.69
506.207	89.69
506.423	91.69
506.64	82.69
506.856	97.69
507.073	85.69
507.289	95.69
507.506	90.69
507.722	118.69
507.939	112.69
508.155	103.69
508.372	90.69
508.588	83.69
508.805	103.69
509.021	85.69
509.238	95.69
509.454	98.69
509.67	108.69
509.887	111.69
510.103	144.69
510.319	205.69
510.536	766.69
510.752	2488.69
510.968	690.69
511.184	158.69
511.401	112.69
511.617	97.69
511.833	91.69
512.049	91.69
512.265	98.69
512.481	96.69
512.698	82.69
512.914	106.69
513.13	86.69
513.346	105.69
513.562	95.69
513.778	93.69
513.994	82.69
514.21	97.69
514.426	122.69
514.642	132.69
514.858	133.69
515.074	147.69
515.29	416.69
515.506	1360.69
515.721	486.69
515.937	152.69
516.153	113.69
516.369	91.69
516.585	80.69
516.801	83.69
