Data from Circ_1996_H10_HRD10591_00095.txt Node
Date: Wed Jan 03 11:33:25 EST 2024
User: Yrep
Spectrometer: HR+D1059
Trigger mode: 1
Integration Time (sec): 1.000000E-1
Scans to average: 1
Electric dark correction enabled: true
Nonlinearity correction enabled: false
Boxcar width: 0
XAxis mode: Wavelengths
Number of Pixels in Spectrum: 2048
>>>>>Begin Spectral Data<<<<<
223.165	-21.75
223.4	-21.75
223.635	-21.75
223.869	-23.75
224.104	-21.75
224.338	-18.75
224.573	-20.75
224.808	-7.75
225.042	-13.75
225.277	1.25
225.511	-1.75
225.746	7.25
225.98	-5.75
226.215	19.25
226.449	13.25
226.683	22.25
226.918	21.25
227.152	51.25
227.387	43.25
227.621	43.25
227.856	39.25
228.09	43.25
228.324	57.25
228.559	65.25
228.793	50.25
229.027	53.25
229.262	63.25
229.496	65.25
229.73	82.25
229.964	79.25
230.199	62.25
230.433	72.25
230.667	82.25
230.901	86.25
231.136	77.25
231.37	79.25
231.604	77.25
231.838	89.25
232.072	87.25
232.306	82.25
232.541	95.25
232.775	70.25
233.009	88.25
233.243	82.25
233.477	82.25
233.711	85.25
233.945	79.25
234.179	74.25
234.413	85.25
234.647	71.25
234.881	81.25
235.115	72.25
235.349	86.25
235.583	81.25
235.817	74.25
236.051	80.25
236.285	64.25
236.519	89.25
236.753	80.25
236.987	81.25
237.221	83.25
237.455	76.25
237.689	73.25
237.922	81.25
238.156	74.25
238.39	80.25
238.624	81.25
238.858	61.25
239.091	74.25
239.325	81.25
239.559	69.25
239.793	83.25
240.027	73.25
240.26	85.25
240.494	64.25
240.728	66.25
240.961	84.25
241.195	62.25
241.429	69.25
241.662	84.25
241.896	83.25
242.13	82.25
242.363	76.25
242.597	83.25
242.83	70.25
243.064	78.25
243.298	75.25
243.531	63.25
243.765	96.25
243.998	74.25
244.232	83.25
244.465	85.25
244.699	72.25
244.932	75.25
245.166	78.25
245.399	69.25
245.633	79.25
245.866	85.25
246.099	79.25
246.333	71.25
246.566	82.25
246.8	71.25
247.033	71.25
247.266	81.25
247.5	77.25
247.733	65.25
247.966	74.25
248.2	89.25
248.433	91.25
248.666	81.25
248.899	69.25
249.133	78.25
249.366	71.25
249.599	82.25
249.832	90.25
250.066	80.25
250.299	76.25
250.532	102.25
250.765	90.25
250.998	81.25
251.231	69.25
251.465	81.25
251.698	78.25
251.931	75.25
252.164	77.25
252.397	69.25
252.63	78.25
252.863	78.25
253.096	67.25
253.329	73.25
253.562	81.25
253.795	65.25
254.028	70.25
254.261	81.25
254.494	73.25
254.727	84.25
254.96	85.25
255.193	73.25
255.426	86.25
255.659	90.25
255.892	78.25
256.124	91.25
256.357	93.25
256.59	88.25
256.823	85.25
257.056	83.25
257.289	81.25
257.521	76.25
257.754	81.25
257.987	86.25
258.22	87.25
258.452	76.25
258.685	88.25
258.918	70.25
259.151	84.25
259.383	73.25
259.616	83.25
259.849	94.25
260.081	89.25
260.314	90.25
260.547	80.25
260.779	85.25
261.012	83.25
261.244	82.25
261.477	93.25
261.71	76.25
261.942	105.25
262.175	116.25
262.407	98.25
262.64	90.25
262.872	75.25
263.105	72.25
263.337	73.25
263.57	89.25
263.802	100.25
264.035	88.25
264.267	81.25
264.499	69.25
264.732	85.25
264.964	99.25
265.197	94.25
265.429	77.25
265.661	79.25
265.894	79.25
266.126	83.25
266.358	64.25
266.591	75.25
266.823	75.25
267.055	93.25
267.287	75.25
267.52	85.25
267.752	82.25
267.984	81.25
268.216	72.25
268.448	83.25
268.681	75.25
268.913	71.25
269.145	80.25
269.377	99.25
269.609	79.25
269.841	82.25
270.073	81.25
270.306	87.25
270.538	91.25
270.77	86.25
271.002	73.25
271.234	80.25
271.466	86.25
271.698	77.25
271.93	85.25
272.162	86.25
272.394	95.25
272.626	93.25
272.858	80.25
273.09	85.25
273.322	81.25
273.553	84.25
273.785	85.25
274.017	79.25
274.249	73.25
274.481	89.25
274.713	74.25
274.945	87.25
275.176	91.25
275.408	98.25
275.64	93.25
275.872	70.25
276.104	80.25
276.335	97.25
276.567	111.25
276.799	108.25
277.031	98.25
277.262	97.25
277.494	104.25
277.726	82.25
277.957	90.25
278.189	81.25
278.421	77.25
278.652	81.25
278.884	90.25
279.115	79.25
279.347	91.25
279.579	82.25
279.81	75.25
280.042	100.25
280.273	94.25
280.505	79.25
280.736	82.25
280.968	96.25
281.199	90.25
281.431	79.25
281.662	90.25
281.894	87.25
282.125	75.25
282.356	125.25
282.588	135.25
282.819	124.25
283.051	91.25
283.282	71.25
283.513	93.25
283.745	82.25
283.976	84.25
284.207	87.25
284.439	84.25
284.67	86.25
284.901	99.25
285.132	86.25
285.364	80.25
285.595	66.25
285.826	81.25
286.057	92.25
286.288	81.25
286.52	79.25
286.751	84.25
286.982	81.25
287.213	77.25
287.444	93.25
287.675	92.25
287.906	87.25
288.138	90.25
288.369	87.25
288.6	87.25
288.831	95.25
289.062	86.25
289.293	75.25
289.524	85.25
289.755	97.25
289.986	78.25
290.217	80.25
290.448	94.25
290.679	83.25
290.91	79.25
291.141	89.25
291.371	85.25
291.602	90.25
291.833	80.25
292.064	93.25
292.295	100.25
292.526	85.25
292.757	80.25
292.987	97.25
293.218	72.25
293.449	89.25
293.68	78.25
293.91	87.25
294.141	82.25
294.372	90.25
294.603	86.25
294.833	86.25
295.064	84.25
295.295	78.25
295.525	95.25
295.756	113.25
295.987	115.25
296.217	145.25
296.448	113.25
296.679	99.25
296.909	85.25
297.14	93.25
297.37	90.25
297.601	106.25
297.831	94.25
298.062	101.25
298.292	82.25
298.523	103.25
298.753	83.25
298.984	87.25
299.214	90.25
299.445	90.25
299.675	89.25
299.905	102.25
300.136	87.25
300.366	95.25
300.597	93.25
300.827	91.25
301.057	95.25
301.288	94.25
301.518	101.25
301.748	79.25
301.979	103.25
302.209	85.25
302.439	97.25
302.669	102.25
302.9	86.25
303.13	79.25
303.36	98.25
303.59	103.25
303.82	91.25
304.051	100.25
304.281	97.25
304.511	93.25
304.741	87.25
304.971	97.25
305.201	95.25
305.431	88.25
305.661	90.25
305.891	81.25
306.121	93.25
306.352	103.25
306.582	95.25
306.812	93.25
307.042	103.25
307.272	92.25
307.502	115.25
307.731	97.25
307.961	95.25
308.191	88.25
308.421	86.25
308.651	90.25
308.881	82.25
309.111	89.25
309.341	85.25
309.571	91.25
309.8	94.25
310.03	85.25
310.26	93.25
310.49	98.25
310.72	91.25
310.949	92.25
311.179	94.25
311.409	89.25
311.639	90.25
311.868	93.25
312.098	81.25
312.328	105.25
312.557	97.25
312.787	85.25
313.017	89.25
313.246	104.25
313.476	94.25
313.706	92.25
313.935	87.25
314.165	101.25
314.394	95.25
314.624	84.25
314.853	103.25
315.083	102.25
315.312	85.25
315.542	87.25
315.771	90.25
316.001	97.25
316.23	95.25
316.46	80.25
316.689	96.25
316.919	110.25
317.148	93.25
317.377	91.25
317.607	96.25
317.836	88.25
318.065	83.25
318.295	85.25
318.524	92.25
318.753	85.25
318.983	87.25
319.212	99.25
319.441	105.25
319.67	103.25
319.9	102.25
320.129	90.25
320.358	88.25
320.587	94.25
320.816	90.25
321.046	80.25
321.275	95.25
321.504	95.25
321.733	98.25
321.962	81.25
322.191	98.25
322.42	96.25
322.649	110.25
322.878	106.25
323.108	113.25
323.337	120.25
323.566	114.25
323.795	144.25
324.024	166.25
324.253	317.25
324.482	639.25
324.71	1244.25
324.939	1671.25
325.168	615.25
325.397	208.25
325.626	123.25
325.855	111.25
326.084	120.25
326.313	125.25
326.542	125.25
326.77	188.25
326.999	333.25
327.228	671.25
327.457	1183.25
327.686	995.25
327.914	299.25
328.143	192.25
328.372	162.25
328.6	138.25
328.829	114.25
329.058	103.25
329.287	118.25
329.515	105.25
329.744	102.25
329.972	150.25
330.201	193.25
330.43	238.25
330.658	160.25
330.887	130.25
331.115	116.25
331.344	89.25
331.572	93.25
331.801	98.25
332.03	90.25
332.258	110.25
332.486	89.25
332.715	84.25
332.943	99.25
333.172	96.25
333.4	103.25
333.629	109.25
333.857	118.25
334.085	130.25
334.314	179.25
334.542	261.25
334.771	262.25
334.999	128.25
335.227	122.25
335.455	99.25
335.684	107.25
335.912	104.25
336.14	104.25
336.369	96.25
336.597	115.25
336.825	84.25
337.053	81.25
337.281	97.25
337.51	84.25
337.738	101.25
337.966	89.25
338.194	97.25
338.422	96.25
338.65	88.25
338.878	89.25
339.106	88.25
339.334	94.25
339.562	80.25
339.79	92.25
340.018	88.25
340.246	87.25
340.474	94.25
340.702	92.25
340.93	72.25
341.158	83.25
341.386	107.25
341.614	88.25
341.842	92.25
342.07	98.25
342.298	90.25
342.526	89.25
342.754	104.25
342.981	91.25
343.209	99.25
343.437	102.25
343.665	75.25
343.893	88.25
344.12	83.25
344.348	91.25
344.576	84.25
344.804	87.25
345.031	85.25
345.259	83.25
345.487	93.25
345.714	94.25
345.942	80.25
346.17	97.25
346.397	97.25
346.625	96.25
346.853	84.25
347.08	91.25
347.308	80.25
347.535	96.25
347.763	94.25
347.99	90.25
348.218	89.25
348.445	113.25
348.673	91.25
348.9	98.25
349.128	90.25
349.355	86.25
349.583	97.25
349.81	103.25
350.037	77.25
350.265	97.25
350.492	90.25
350.72	92.25
350.947	101.25
351.174	89.25
351.402	105.25
351.629	101.25
351.856	93.25
352.083	89.25
352.311	118.25
352.538	101.25
352.765	89.25
352.992	107.25
353.22	118.25
353.447	96.25
353.674	86.25
353.901	111.25
354.128	106.25
354.355	100.25
354.583	74.25
354.81	99.25
355.037	89.25
355.264	103.25
355.491	80.25
355.718	89.25
355.945	85.25
356.172	86.25
356.399	82.25
356.626	103.25
356.853	86.25
357.08	81.25
357.307	113.25
357.534	93.25
357.761	86.25
357.988	82.25
358.215	99.25
358.441	85.25
358.668	87.25
358.895	97.25
359.122	92.25
359.349	93.25
359.576	81.25
359.802	106.25
360.029	94.25
360.256	95.25
360.483	90.25
360.709	82.25
360.936	89.25
361.163	83.25
361.39	91.25
361.616	89.25
361.843	86.25
362.07	94.25
362.296	105.25
362.523	81.25
362.749	92.25
362.976	87.25
363.203	99.25
363.429	99.25
363.656	108.25
363.882	78.25
364.109	92.25
364.335	82.25
364.562	106.25
364.788	98.25
365.015	89.25
365.241	96.25
365.468	106.25
365.694	105.25
365.92	94.25
366.147	83.25
366.373	93.25
366.599	87.25
366.826	89.25
367.052	86.25
367.278	77.25
367.505	77.25
367.731	78.25
367.957	89.25
368.184	88.25
368.41	101.25
368.636	91.25
368.862	110.25
369.089	104.25
369.315	93.25
369.541	92.25
369.767	91.25
369.993	69.25
370.219	95.25
370.445	88.25
370.672	101.25
370.898	87.25
371.124	102.25
371.35	91.25
371.576	73.25
371.802	75.25
372.028	91.25
372.254	79.25
372.48	102.25
372.706	96.25
372.932	90.25
373.158	91.25
373.384	108.25
373.61	87.25
373.835	106.25
374.061	84.25
374.287	88.25
374.513	109.25
374.739	82.25
374.965	70.25
375.191	85.25
375.416	90.25
375.642	79.25
375.868	92.25
376.094	82.25
376.319	87.25
376.545	85.25
376.771	82.25
376.997	96.25
377.222	97.25
377.448	106.25
377.674	94.25
377.899	87.25
378.125	84.25
378.35	81.25
378.576	99.25
378.802	99.25
379.027	95.25
379.253	91.25
379.478	94.25
379.704	82.25
379.929	75.25
380.155	88.25
380.38	98.25
380.606	95.25
380.831	105.25
381.057	100.25
381.282	90.25
381.507	89.25
381.733	86.25
381.958	96.25
382.184	104.25
382.409	100.25
382.634	95.25
382.86	90.25
383.085	111.25
383.31	87.25
383.535	106.25
383.761	97.25
383.986	95.25
384.211	99.25
384.436	90.25
384.662	104.25
384.887	109.25
385.112	101.25
385.337	90.25
385.562	98.25
385.787	93.25
386.013	107.25
386.238	109.25
386.463	97.25
386.688	112.25
386.913	108.25
387.138	105.25
387.363	95.25
387.588	98.25
387.813	87.25
388.038	115.25
388.263	103.25
388.488	107.25
388.713	91.25
388.938	81.25
389.163	95.25
389.387	90.25
389.612	92.25
389.837	90.25
390.062	82.25
390.287	91.25
390.512	84.25
390.736	87.25
390.961	81.25
391.186	96.25
391.411	84.25
391.636	106.25
391.86	90.25
392.085	92.25
392.31	94.25
392.534	94.25
392.759	87.25
392.984	92.25
393.208	91.25
393.433	91.25
393.658	93.25
393.882	88.25
394.107	83.25
394.331	86.25
394.556	87.25
394.78	86.25
395.005	87.25
395.229	70.25
395.454	73.25
395.678	83.25
395.903	91.25
396.127	91.25
396.352	91.25
396.576	99.25
396.801	87.25
397.025	99.25
397.249	90.25
397.474	88.25
397.698	87.25
397.922	87.25
398.147	78.25
398.371	76.25
398.595	79.25
398.82	73.25
399.044	79.25
399.268	88.25
399.492	98.25
399.717	86.25
399.941	97.25
400.165	103.25
400.389	90.25
400.613	92.25
400.837	79.25
401.062	91.25
401.286	89.25
401.51	97.25
401.734	94.25
401.958	97.25
402.182	120.25
402.406	149.25
402.63	105.25
402.854	87.25
403.078	86.25
403.302	87.25
403.526	79.25
403.75	97.25
403.974	86.25
404.198	88.25
404.422	88.25
404.645	91.25
404.869	94.25
405.093	87.25
405.317	99.25
405.541	100.25
405.765	86.25
405.988	124.25
406.212	177.25
406.436	204.25
406.66	139.25
406.883	112.25
407.107	93.25
407.331	91.25
407.555	81.25
407.778	87.25
408.002	83.25
408.226	81.25
408.449	105.25
408.673	98.25
408.896	98.25
409.12	91.25
409.344	91.25
409.567	88.25
409.791	95.25
410.014	89.25
410.238	89.25
410.461	89.25
410.685	93.25
410.908	95.25
411.132	86.25
411.355	88.25
411.578	83.25
411.802	83.25
412.025	92.25
412.249	88.25
412.472	113.25
412.695	82.25
412.919	86.25
413.142	74.25
413.365	87.25
413.589	83.25
413.812	86.25
414.035	94.25
414.258	83.25
414.482	95.25
414.705	86.25
414.928	93.25
415.151	93.25
415.374	98.25
415.597	95.25
415.821	78.25
416.044	79.25
416.267	86.25
416.49	82.25
416.713	92.25
416.936	83.25
417.159	83.25
417.382	95.25
417.605	92.25
417.828	89.25
418.051	91.25
418.274	87.25
418.497	82.25
418.72	95.25
418.943	94.25
419.166	89.25
419.389	81.25
419.611	87.25
419.834	90.25
420.057	93.25
420.28	87.25
420.503	82.25
420.726	96.25
420.948	96.25
421.171	99.25
421.394	83.25
421.617	89.25
421.839	88.25
422.062	83.25
422.285	91.25
422.507	85.25
422.73	102.25
422.953	98.25
423.175	93.25
423.398	88.25
423.621	87.25
423.843	80.25
424.066	85.25
424.288	87.25
424.511	92.25
424.733	87.25
424.956	97.25
425.178	92.25
425.401	99.25
425.623	97.25
425.846	88.25
426.068	86.25
426.291	86.25
426.513	91.25
426.735	81.25
426.958	101.25
427.18	88.25
427.402	128.25
427.625	131.25
427.847	131.25
428.069	126.25
428.292	76.25
428.514	82.25
428.736	81.25
428.958	77.25
429.181	90.25
429.403	79.25
429.625	86.25
429.847	92.25
430.069	104.25
430.292	91.25
430.514	90.25
430.736	95.25
430.958	90.25
431.18	88.25
431.402	98.25
431.624	76.25
431.846	84.25
432.068	85.25
432.29	83.25
432.512	89.25
432.734	71.25
432.956	81.25
433.178	98.25
433.4	96.25
433.622	89.25
433.844	79.25
434.066	104.25
434.287	82.25
434.509	89.25
434.731	103.25
434.953	85.25
435.175	66.25
435.397	83.25
435.618	90.25
435.84	87.25
436.062	110.25
436.284	105.25
436.505	93.25
436.727	85.25
436.949	89.25
437.17	87.25
437.392	88.25
437.614	96.25
437.835	100.25
438.057	111.25
438.278	92.25
438.5	85.25
438.721	101.25
438.943	78.25
439.165	93.25
439.386	85.25
439.608	87.25
439.829	93.25
440.05	119.25
440.272	130.25
440.493	84.25
440.715	82.25
440.936	88.25
441.158	87.25
441.379	78.25
441.6	71.25
441.822	80.25
442.043	92.25
442.264	101.25
442.486	106.25
442.707	96.25
442.928	99.25
443.149	117.25
443.371	138.25
443.592	94.25
443.813	106.25
444.034	94.25
444.255	93.25
444.476	98.25
444.698	92.25
444.919	92.25
445.14	126.25
445.361	121.25
445.582	115.25
445.803	117.25
446.024	114.25
446.245	118.25
446.466	102.25
446.687	99.25
446.908	77.25
447.129	82.25
447.35	93.25
447.571	81.25
447.792	85.25
448.013	98.25
448.234	95.25
448.455	107.25
448.675	106.25
448.896	108.25
449.117	109.25
449.338	106.25
449.559	118.25
449.779	113.25
450	97.25
450.221	96.25
450.442	82.25
450.662	92.25
450.883	109.25
451.104	103.25
451.324	107.25
451.545	88.25
451.766	84.25
451.986	87.25
452.207	89.25
452.428	81.25
452.648	112.25
452.869	117.25
453.089	112.25
453.31	114.25
453.53	85.25
453.751	86.25
453.971	99.25
454.192	100.25
454.412	87.25
454.633	87.25
454.853	89.25
455.073	79.25
455.294	86.25
455.514	91.25
455.734	90.25
455.955	95.25
456.175	82.25
456.395	78.25
456.616	79.25
456.836	81.25
457.056	86.25
457.276	100.25
457.497	81.25
457.717	94.25
457.937	87.25
458.157	93.25
458.377	90.25
458.598	95.25
458.818	132.25
459.038	159.25
459.258	107.25
459.478	79.25
459.698	83.25
459.918	96.25
460.138	83.25
460.358	79.25
460.578	90.25
460.798	98.25
461.018	79.25
461.238	74.25
461.458	72.25
461.678	76.25
461.898	85.25
462.118	93.25
462.338	80.25
462.558	88.25
462.777	95.25
462.997	91.25
463.217	100.25
463.437	94.25
463.657	81.25
463.876	103.25
464.096	85.25
464.316	86.25
464.536	95.25
464.755	86.25
464.975	102.25
465.195	142.25
465.414	139.25
465.634	113.25
465.854	86.25
466.073	81.25
466.293	85.25
466.512	92.25
466.732	90.25
466.951	69.25
467.171	82.25
467.391	90.25
467.61	106.25
467.829	100.25
468.049	126.25
468.268	164.25
468.488	97.25
468.707	95.25
468.927	98.25
469.146	86.25
469.365	83.25
469.585	75.25
469.804	97.25
470.023	93.25
470.243	96.25
470.462	95.25
470.681	103.25
470.901	84.25
471.12	80.25
471.339	90.25
471.558	97.25
471.777	95.25
471.997	117.25
472.216	214.25
472.435	359.25
472.654	126.25
472.873	84.25
473.092	106.25
473.311	87.25
473.53	89.25
473.749	85.25
473.968	92.25
474.187	99.25
474.406	89.25
474.625	87.25
474.844	76.25
475.063	81.25
475.282	97.25
475.501	75.25
475.72	88.25
475.939	103.25
476.158	94.25
476.377	85.25
476.596	96.25
476.814	88.25
477.033	81.25
477.252	79.25
477.471	81.25
477.69	98.25
477.908	87.25
478.127	86.25
478.346	92.25
478.564	82.25
478.783	98.25
479.002	92.25
479.22	111.25
479.439	108.25
479.658	94.25
479.876	87.25
480.095	92.25
480.313	90.25
480.532	86.25
480.751	120.25
480.969	197.25
481.188	591.25
481.406	360.25
481.624	128.25
481.843	85.25
482.061	76.25
482.28	88.25
482.498	84.25
482.717	91.25
482.935	94.25
483.153	93.25
483.372	80.25
483.59	86.25
483.808	95.25
484.027	102.25
484.245	94.25
484.463	85.25
484.681	99.25
484.9	90.25
485.118	82.25
485.336	98.25
485.554	92.25
485.772	106.25
485.99	108.25
486.209	113.25
486.427	106.25
486.645	113.25
486.863	112.25
487.081	97.25
487.299	100.25
487.517	90.25
487.735	86.25
487.953	78.25
488.171	89.25
488.389	88.25
488.607	102.25
488.825	87.25
489.043	81.25
489.261	85.25
489.479	93.25
489.696	83.25
489.914	87.25
490.132	96.25
490.35	83.25
490.568	90.25
490.786	85.25
491.003	91.25
491.221	91.25
491.439	95.25
491.657	90.25
491.874	94.25
492.092	78.25
492.31	86.25
492.527	102.25
492.745	82.25
492.963	92.25
493.18	94.25
493.398	87.25
493.615	96.25
493.833	84.25
494.05	95.25
494.268	82.25
494.485	85.25
494.703	74.25
494.92	95.25
495.138	86.25
495.355	99.25
495.573	90.25
495.79	85.25
496.008	92.25
496.225	76.25
496.442	89.25
496.66	92.25
496.877	82.25
497.094	88.25
497.312	95.25
497.529	94.25
497.746	90.25
497.963	86.25
498.181	81.25
498.398	98.25
498.615	100.25
498.832	108.25
499.049	79.25
499.267	100.25
499.484	96.25
499.701	93.25
499.918	75.25
500.135	94.25
500.352	92.25
500.569	94.25
500.786	87.25
501.003	94.25
501.22	80.25
501.437	89.25
501.654	79.25
501.871	96.25
502.088	85.25
502.305	81.25
502.522	83.25
502.739	87.25
502.956	94.25
503.172	92.25
503.389	92.25
503.606	102.25
503.823	89.25
504.04	83.25
504.256	94.25
504.473	85.25
504.69	92.25
504.907	87.25
505.123	85.25
505.34	75.25
505.557	89.25
505.773	87.25
505.99	73.25
506.207	80.25
506.423	95.25
506.64	87.25
506.856	92.25
507.073	77.25
507.289	86.25
507.506	88.25
507.722	109.25
507.939	114.25
508.155	98.25
508.372	85.25
508.588	86.25
508.805	94.25
509.021	100.25
509.238	109.25
509.454	88.25
509.67	94.25
509.887	112.25
510.103	136.25
510.319	228.25
510.536	791.25
510.752	2583.25
510.968	728.25
511.184	159.25
511.401	106.25
511.617	94.25
511.833	99.25
512.049	89.25
512.265	98.25
512.481	94.25
512.698	89.25
512.914	97.25
513.13	91.25
513.346	98.25
513.562	88.25
513.778	87.25
513.994	100.25
514.21	98.25
514.426	115.25
514.642	118.25
514.858	112.25
515.074	157.25
515.29	443.25
515.506	1466.25
515.721	534.25
515.937	153.25
516.153	111.25
516.369	106.25
