Data from Circ_1996_H10_HRD10591_00022.txt Node
Date: Wed Jan 03 11:33:10 EST 2024
User: Yrep
Spectrometer: HR+D1059
Trigger mode: 1
Integration Time (sec): 1.000000E-1
Scans to average: 1
Electric dark correction enabled: true
Nonlinearity correction enabled: false
Boxcar width: 0
XAxis mode: Wavelengths
Number of Pixels in Spectrum: 2048
>>>>>Begin Spectral Data<<<<<
223.165	-16.25
223.4	-16.25
223.635	-16.25
223.869	-11.25
224.104	-29.25
224.338	-27.25
224.573	-5.25
224.808	-11.25
225.042	-18.25
225.277	-12.25
225.511	-0.25
225.746	10.75
225.98	17.75
226.215	19.75
226.449	13.75
226.683	32.75
226.918	18.75
227.152	17.75
227.387	30.75
227.621	31.75
227.856	43.75
228.09	32.75
228.324	60.75
228.559	42.75
228.793	60.75
229.027	71.75
229.262	76.75
229.496	73.75
229.73	86.75
229.964	79.75
230.199	78.75
230.433	76.75
230.667	78.75
230.901	68.75
231.136	80.75
231.37	72.75
231.604	86.75
231.838	75.75
232.072	80.75
232.306	89.75
232.541	86.75
232.775	87.75
233.009	82.75
233.243	84.75
233.477	82.75
233.711	71.75
233.945	76.75
234.179	83.75
234.413	99.75
234.647	74.75
234.881	78.75
235.115	61.75
235.349	74.75
235.583	85.75
235.817	85.75
236.051	84.75
236.285	72.75
236.519	82.75
236.753	84.75
236.987	90.75
237.221	76.75
237.455	80.75
237.689	70.75
237.922	74.75
238.156	81.75
238.39	74.75
238.624	81.75
238.858	86.75
239.091	72.75
239.325	80.75
239.559	75.75
239.793	83.75
240.027	87.75
240.26	75.75
240.494	80.75
240.728	88.75
240.961	81.75
241.195	84.75
241.429	75.75
241.662	77.75
241.896	86.75
242.13	73.75
242.363	72.75
242.597	65.75
242.83	73.75
243.064	70.75
243.298	68.75
243.531	77.75
243.765	68.75
243.998	71.75
244.232	76.75
244.465	81.75
244.699	75.75
244.932	82.75
245.166	74.75
245.399	72.75
245.633	89.75
245.866	78.75
246.099	77.75
246.333	84.75
246.566	92.75
246.8	95.75
247.033	69.75
247.266	78.75
247.5	75.75
247.733	84.75
247.966	84.75
248.2	82.75
248.433	85.75
248.666	81.75
248.899	88.75
249.133	89.75
249.366	88.75
249.599	101.75
249.832	80.75
250.066	78.75
250.299	76.75
250.532	80.75
250.765	74.75
250.998	80.75
251.231	76.75
251.465	80.75
251.698	75.75
251.931	62.75
252.164	68.75
252.397	80.75
252.63	86.75
252.863	77.75
253.096	83.75
253.329	82.75
253.562	73.75
253.795	86.75
254.028	80.75
254.261	74.75
254.494	86.75
254.727	80.75
254.96	77.75
255.193	84.75
255.426	78.75
255.659	73.75
255.892	83.75
256.124	76.75
256.357	77.75
256.59	73.75
256.823	83.75
257.056	74.75
257.289	90.75
257.521	83.75
257.754	79.75
257.987	84.75
258.22	89.75
258.452	87.75
258.685	83.75
258.918	74.75
259.151	84.75
259.383	83.75
259.616	82.75
259.849	81.75
260.081	83.75
260.314	59.75
260.547	68.75
260.779	90.75
261.012	84.75
261.244	79.75
261.477	87.75
261.71	86.75
261.942	106.75
262.175	112.75
262.407	88.75
262.64	60.75
262.872	81.75
263.105	85.75
263.337	83.75
263.57	71.75
263.802	90.75
264.035	102.75
264.267	86.75
264.499	88.75
264.732	68.75
264.964	77.75
265.197	86.75
265.429	81.75
265.661	87.75
265.894	80.75
266.126	82.75
266.358	67.75
266.591	72.75
266.823	85.75
267.055	79.75
267.287	86.75
267.52	84.75
267.752	85.75
267.984	84.75
268.216	81.75
268.448	80.75
268.681	98.75
268.913	86.75
269.145	93.75
269.377	82.75
269.609	81.75
269.841	95.75
270.073	105.75
270.306	77.75
270.538	88.75
270.77	80.75
271.002	77.75
271.234	66.75
271.466	101.75
271.698	82.75
271.93	85.75
272.162	87.75
272.394	88.75
272.626	78.75
272.858	95.75
273.09	97.75
273.322	88.75
273.553	76.75
273.785	86.75
274.017	73.75
274.249	78.75
274.481	94.75
274.713	89.75
274.945	92.75
275.176	77.75
275.408	75.75
275.64	72.75
275.872	86.75
276.104	87.75
276.335	94.75
276.567	97.75
276.799	111.75
277.031	108.75
277.262	103.75
277.494	85.75
277.726	82.75
277.957	87.75
278.189	78.75
278.421	98.75
278.652	83.75
278.884	97.75
279.115	80.75
279.347	68.75
279.579	86.75
279.81	88.75
280.042	87.75
280.273	88.75
280.505	91.75
280.736	72.75
280.968	89.75
281.199	84.75
281.431	95.75
281.662	80.75
281.894	92.75
282.125	114.75
282.356	115.75
282.588	139.75
282.819	100.75
283.051	81.75
283.282	81.75
283.513	87.75
283.745	83.75
283.976	87.75
284.207	93.75
284.439	74.75
284.67	82.75
284.901	79.75
285.132	91.75
285.364	86.75
285.595	99.75
285.826	87.75
286.057	93.75
286.288	86.75
286.52	68.75
286.751	84.75
286.982	108.75
287.213	96.75
287.444	82.75
287.675	95.75
287.906	90.75
288.138	82.75
288.369	92.75
288.6	95.75
288.831	77.75
289.062	89.75
289.293	99.75
289.524	91.75
289.755	88.75
289.986	87.75
290.217	80.75
290.448	88.75
290.679	88.75
290.91	90.75
291.141	88.75
291.371	84.75
291.602	90.75
291.833	74.75
292.064	87.75
292.295	80.75
292.526	76.75
292.757	95.75
292.987	77.75
293.218	93.75
293.449	87.75
293.68	100.75
293.91	92.75
294.141	83.75
294.372	87.75
294.603	90.75
294.833	84.75
295.064	100.75
295.295	103.75
295.525	92.75
295.756	120.75
295.987	116.75
296.217	143.75
296.448	124.75
296.679	86.75
296.909	86.75
297.14	99.75
297.37	99.75
297.601	96.75
297.831	89.75
298.062	84.75
298.292	95.75
298.523	84.75
298.753	89.75
298.984	94.75
299.214	75.75
299.445	104.75
299.675	99.75
299.905	80.75
300.136	86.75
300.366	77.75
300.597	85.75
300.827	91.75
301.057	106.75
301.288	109.75
301.518	92.75
301.748	98.75
301.979	96.75
302.209	83.75
302.439	89.75
302.669	93.75
302.9	67.75
303.13	97.75
303.36	91.75
303.59	98.75
303.82	99.75
304.051	87.75
304.281	84.75
304.511	94.75
304.741	80.75
304.971	79.75
305.201	93.75
305.431	98.75
305.661	107.75
305.891	84.75
306.121	109.75
306.352	98.75
306.582	109.75
306.812	95.75
307.042	101.75
307.272	101.75
307.502	98.75
307.731	85.75
307.961	86.75
308.191	105.75
308.421	98.75
308.651	78.75
308.881	87.75
309.111	83.75
309.341	86.75
309.571	104.75
309.8	102.75
310.03	105.75
310.26	105.75
310.49	84.75
310.72	97.75
310.949	96.75
311.179	103.75
311.409	98.75
311.639	91.75
311.868	89.75
312.098	90.75
312.328	87.75
312.557	98.75
312.787	88.75
313.017	89.75
313.246	92.75
313.476	89.75
313.706	92.75
313.935	103.75
314.165	96.75
314.394	102.75
314.624	103.75
314.853	89.75
315.083	98.75
315.312	87.75
315.542	84.75
315.771	88.75
316.001	88.75
316.23	91.75
316.46	81.75
316.689	86.75
316.919	91.75
317.148	90.75
317.377	90.75
317.607	91.75
317.836	95.75
318.065	82.75
318.295	96.75
318.524	99.75
318.753	85.75
318.983	92.75
319.212	95.75
319.441	97.75
319.67	104.75
319.9	78.75
320.129	86.75
320.358	92.75
320.587	100.75
320.816	85.75
321.046	98.75
321.275	97.75
321.504	97.75
321.733	86.75
321.962	93.75
322.191	94.75
322.42	94.75
322.649	103.75
322.878	104.75
323.108	104.75
323.337	119.75
323.566	109.75
323.795	143.75
324.024	194.75
324.253	311.75
324.482	640.75
324.71	1272.75
324.939	1633.75
325.168	650.75
325.397	201.75
325.626	137.75
325.855	106.75
326.084	99.75
326.313	107.75
326.542	135.75
326.77	195.75
326.999	332.75
327.228	670.75
327.457	1221.75
327.686	962.75
327.914	312.75
328.143	196.75
328.372	172.75
328.6	114.75
328.829	115.75
329.058	129.75
329.287	128.75
329.515	120.75
329.744	120.75
329.972	112.75
330.201	154.75
330.43	182.75
330.658	134.75
330.887	146.75
331.115	129.75
331.344	113.75
331.572	99.75
331.801	95.75
332.03	103.75
332.258	91.75
332.486	95.75
332.715	101.75
332.943	93.75
333.172	103.75
333.4	104.75
333.629	99.75
333.857	105.75
334.085	126.75
334.314	151.75
334.542	188.75
334.771	172.75
334.999	126.75
335.227	111.75
335.455	91.75
335.684	96.75
335.912	105.75
336.14	96.75
336.369	104.75
336.597	106.75
336.825	99.75
337.053	85.75
337.281	98.75
337.51	93.75
337.738	94.75
337.966	98.75
338.194	105.75
338.422	96.75
338.65	86.75
338.878	95.75
339.106	101.75
339.334	103.75
339.562	81.75
339.79	91.75
340.018	96.75
340.246	86.75
340.474	87.75
340.702	94.75
340.93	102.75
341.158	96.75
341.386	83.75
341.614	98.75
341.842	97.75
342.07	78.75
342.298	94.75
342.526	86.75
342.754	76.75
342.981	86.75
343.209	82.75
343.437	91.75
343.665	86.75
343.893	88.75
344.12	104.75
344.348	94.75
344.576	101.75
344.804	95.75
345.031	88.75
345.259	88.75
345.487	107.75
345.714	105.75
345.942	83.75
346.17	82.75
346.397	93.75
346.625	98.75
346.853	83.75
347.08	108.75
347.308	96.75
347.535	93.75
347.763	109.75
347.99	98.75
348.218	101.75
348.445	102.75
348.673	96.75
348.9	103.75
349.128	87.75
349.355	96.75
349.583	88.75
349.81	98.75
350.037	93.75
350.265	86.75
350.492	98.75
350.72	95.75
350.947	111.75
351.174	114.75
351.402	109.75
351.629	99.75
351.856	103.75
352.083	107.75
352.311	96.75
352.538	103.75
352.765	97.75
352.992	90.75
353.22	101.75
353.447	116.75
353.674	110.75
353.901	94.75
354.128	106.75
354.355	101.75
354.583	100.75
354.81	110.75
355.037	94.75
355.264	93.75
355.491	83.75
355.718	87.75
355.945	97.75
356.172	109.75
356.399	103.75
356.626	87.75
356.853	86.75
357.08	94.75
357.307	94.75
357.534	92.75
357.761	93.75
357.988	94.75
358.215	105.75
358.441	104.75
358.668	92.75
358.895	95.75
359.122	83.75
359.349	85.75
359.576	99.75
359.802	95.75
360.029	99.75
360.256	97.75
360.483	105.75
360.709	90.75
360.936	98.75
361.163	94.75
361.39	89.75
361.616	106.75
361.843	80.75
362.07	102.75
362.296	94.75
362.523	104.75
362.749	105.75
362.976	92.75
363.203	81.75
363.429	73.75
363.656	89.75
363.882	89.75
364.109	88.75
364.335	95.75
364.562	92.75
364.788	79.75
365.015	98.75
365.241	108.75
365.468	109.75
365.694	106.75
365.92	94.75
366.147	90.75
366.373	86.75
366.599	91.75
366.826	104.75
367.052	102.75
367.278	106.75
367.505	84.75
367.731	92.75
367.957	94.75
368.184	90.75
368.41	100.75
368.636	101.75
368.862	117.75
369.089	104.75
369.315	90.75
369.541	98.75
369.767	99.75
369.993	82.75
370.219	94.75
370.445	83.75
370.672	91.75
370.898	89.75
371.124	80.75
371.35	98.75
371.576	74.75
371.802	96.75
372.028	86.75
372.254	89.75
372.48	90.75
372.706	77.75
372.932	88.75
373.158	92.75
373.384	106.75
373.61	92.75
373.835	83.75
374.061	88.75
374.287	104.75
374.513	90.75
374.739	87.75
374.965	81.75
375.191	90.75
375.416	89.75
375.642	98.75
375.868	90.75
376.094	88.75
376.319	97.75
376.545	89.75
376.771	100.75
376.997	100.75
377.222	90.75
377.448	96.75
377.674	89.75
377.899	81.75
378.125	82.75
378.35	78.75
378.576	91.75
378.802	95.75
379.027	101.75
379.253	106.75
379.478	86.75
379.704	96.75
379.929	92.75
380.155	104.75
380.38	90.75
380.606	98.75
380.831	96.75
381.057	107.75
381.282	101.75
381.507	93.75
381.733	107.75
381.958	94.75
382.184	114.75
382.409	97.75
382.634	118.75
382.86	110.75
383.085	112.75
383.31	116.75
383.535	98.75
383.761	104.75
383.986	97.75
384.211	104.75
384.436	101.75
384.662	99.75
384.887	107.75
385.112	97.75
385.337	115.75
385.562	121.75
385.787	119.75
386.013	128.75
386.238	113.75
386.463	119.75
386.688	105.75
386.913	115.75
387.138	104.75
387.363	143.75
387.588	96.75
387.813	117.75
388.038	94.75
388.263	107.75
388.488	118.75
388.713	104.75
388.938	99.75
389.163	94.75
389.387	100.75
389.612	96.75
389.837	92.75
390.062	82.75
390.287	90.75
390.512	93.75
390.736	80.75
390.961	106.75
391.186	103.75
391.411	84.75
391.636	88.75
391.86	82.75
392.085	84.75
392.31	99.75
392.534	86.75
392.759	98.75
392.984	94.75
393.208	90.75
393.433	121.75
393.658	97.75
393.882	83.75
394.107	92.75
394.331	76.75
394.556	71.75
394.78	82.75
395.005	78.75
395.229	91.75
395.454	76.75
395.678	89.75
395.903	98.75
396.127	89.75
396.352	74.75
396.576	99.75
396.801	96.75
397.025	93.75
397.249	85.75
397.474	87.75
397.698	77.75
397.922	87.75
398.147	87.75
398.371	85.75
398.595	68.75
398.82	93.75
399.044	89.75
399.268	83.75
399.492	92.75
399.717	81.75
399.941	90.75
400.165	83.75
400.389	86.75
400.613	74.75
400.837	82.75
401.062	99.75
401.286	96.75
401.51	81.75
401.734	82.75
401.958	106.75
402.182	106.75
402.406	139.75
402.63	124.75
402.854	94.75
403.078	84.75
403.302	88.75
403.526	85.75
403.75	90.75
403.974	96.75
404.198	93.75
404.422	81.75
404.645	97.75
404.869	84.75
405.093	102.75
405.317	107.75
405.541	93.75
405.765	106.75
405.988	127.75
406.212	163.75
406.436	218.75
406.66	147.75
406.883	97.75
407.107	84.75
407.331	88.75
407.555	100.75
407.778	86.75
408.002	88.75
408.226	86.75
408.449	83.75
408.673	95.75
408.896	103.75
409.12	104.75
409.344	101.75
409.567	87.75
409.791	91.75
410.014	99.75
410.238	96.75
410.461	100.75
410.685	95.75
410.908	105.75
411.132	95.75
411.355	94.75
411.578	98.75
411.802	91.75
412.025	87.75
412.249	96.75
412.472	87.75
412.695	92.75
412.919	97.75
413.142	94.75
413.365	92.75
413.589	96.75
413.812	79.75
414.035	82.75
414.258	93.75
414.482	92.75
414.705	93.75
414.928	98.75
415.151	96.75
415.374	103.75
415.597	91.75
415.821	79.75
416.044	72.75
416.267	97.75
416.49	90.75
416.713	75.75
416.936	79.75
417.159	84.75
417.382	87.75
417.605	90.75
417.828	87.75
418.051	93.75
418.274	90.75
418.497	107.75
418.72	93.75
418.943	107.75
419.166	79.75
419.389	79.75
419.611	97.75
419.834	86.75
420.057	98.75
420.28	94.75
420.503	87.75
420.726	99.75
420.948	83.75
421.171	86.75
421.394	90.75
421.617	79.75
421.839	85.75
422.062	79.75
422.285	97.75
422.507	95.75
422.73	98.75
422.953	89.75
423.175	89.75
423.398	76.75
423.621	84.75
423.843	91.75
424.066	89.75
424.288	100.75
424.511	93.75
424.733	106.75
424.956	92.75
425.178	90.75
425.401	83.75
425.623	103.75
425.846	86.75
426.068	86.75
426.291	95.75
426.513	93.75
426.735	99.75
426.958	93.75
427.18	91.75
427.402	125.75
427.625	167.75
427.847	131.75
428.069	106.75
428.292	86.75
428.514	99.75
428.736	80.75
428.958	73.75
429.181	83.75
429.403	91.75
429.625	79.75
429.847	95.75
430.069	91.75
430.292	89.75
430.514	90.75
430.736	82.75
430.958	76.75
431.18	103.75
431.402	85.75
431.624	99.75
431.846	98.75
432.068	91.75
432.29	74.75
432.512	99.75
432.734	94.75
432.956	100.75
433.178	90.75
433.4	77.75
433.622	100.75
433.844	98.75
434.066	91.75
434.287	91.75
434.509	84.75
434.731	91.75
434.953	70.75
435.175	93.75
435.397	93.75
435.618	95.75
435.84	100.75
436.062	108.75
436.284	104.75
436.505	110.75
436.727	94.75
436.949	88.75
437.17	94.75
437.392	106.75
437.614	99.75
437.835	111.75
438.057	108.75
438.278	106.75
438.5	94.75
438.721	120.75
438.943	103.75
439.165	93.75
439.386	88.75
439.608	97.75
439.829	90.75
440.05	120.75
440.272	138.75
440.493	96.75
440.715	92.75
440.936	76.75
441.158	84.75
441.379	81.75
441.6	99.75
441.822	86.75
442.043	98.75
442.264	87.75
442.486	88.75
442.707	100.75
442.928	99.75
443.149	140.75
443.371	129.75
443.592	105.75
443.813	98.75
444.034	100.75
444.255	87.75
444.476	78.75
444.698	89.75
444.919	82.75
445.14	142.75
445.361	128.75
445.582	115.75
445.803	115.75
446.024	128.75
446.245	119.75
446.466	101.75
446.687	96.75
446.908	84.75
447.129	89.75
447.35	93.75
447.571	77.75
447.792	79.75
448.013	109.75
448.234	108.75
448.455	103.75
448.675	107.75
448.896	113.75
449.117	96.75
449.338	96.75
449.559	123.75
449.779	116.75
450	96.75
450.221	92.75
450.442	98.75
450.662	93.75
450.883	110.75
451.104	113.75
451.324	88.75
451.545	93.75
451.766	94.75
451.986	89.75
452.207	80.75
452.428	90.75
452.648	99.75
452.869	99.75
453.089	125.75
453.31	105.75
453.53	92.75
453.751	75.75
453.971	105.75
454.192	111.75
454.412	88.75
454.633	89.75
454.853	92.75
455.073	95.75
455.294	97.75
455.514	99.75
455.734	100.75
455.955	74.75
456.175	75.75
456.395	82.75
456.616	93.75
456.836	75.75
457.056	85.75
457.276	88.75
457.497	85.75
457.717	94.75
457.937	84.75
458.157	97.75
458.377	96.75
458.598	113.75
458.818	142.75
459.038	142.75
459.258	100.75
459.478	78.75
459.698	84.75
459.918	80.75
460.138	94.75
460.358	83.75
460.578	83.75
460.798	93.75
461.018	87.75
461.238	76.75
461.458	76.75
461.678	96.75
461.898	72.75
462.118	76.75
462.338	92.75
462.558	97.75
462.777	96.75
462.997	85.75
463.217	94.75
463.437	89.75
463.657	83.75
463.876	79.75
464.096	86.75
464.316	94.75
464.536	100.75
464.755	110.75
464.975	101.75
465.195	171.75
465.414	145.75
465.634	117.75
465.854	81.75
466.073	88.75
466.293	94.75
466.512	90.75
466.732	87.75
466.951	94.75
467.171	92.75
467.391	111.75
467.61	104.75
467.829	110.75
468.049	125.75
468.268	123.75
468.488	98.75
468.707	100.75
468.927	79.75
469.146	81.75
469.365	78.75
469.585	102.75
469.804	104.75
470.023	97.75
470.243	74.75
470.462	105.75
470.681	118.75
470.901	76.75
471.12	98.75
471.339	82.75
471.558	83.75
471.777	99.75
471.997	121.75
472.216	149.75
472.435	234.75
472.654	121.75
472.873	89.75
473.092	88.75
473.311	81.75
473.53	90.75
473.749	100.75
473.968	94.75
474.187	115.75
474.406	99.75
474.625	79.75
474.844	100.75
475.063	86.75
475.282	78.75
475.501	83.75
475.72	92.75
475.939	92.75
476.158	80.75
476.377	79.75
476.596	93.75
476.814	98.75
477.033	91.75
477.252	81.75
477.471	83.75
477.69	86.75
477.908	76.75
478.127	98.75
478.346	88.75
478.564	97.75
478.783	81.75
479.002	86.75
479.22	82.75
479.439	112.75
479.658	100.75
479.876	106.75
480.095	84.75
480.313	89.75
480.532	100.75
480.751	117.75
480.969	165.75
481.188	393.75
481.406	246.75
481.624	110.75
481.843	91.75
482.061	90.75
482.28	98.75
482.498	87.75
482.717	82.75
482.935	91.75
483.153	87.75
483.372	98.75
483.59	94.75
483.808	83.75
484.027	98.75
484.245	96.75
484.463	89.75
484.681	91.75
484.9	90.75
485.118	91.75
485.336	95.75
485.554	94.75
485.772	95.75
485.99	100.75
486.209	110.75
486.427	103.75
486.645	103.75
486.863	113.75
487.081	98.75
487.299	94.75
487.517	98.75
487.735	98.75
487.953	99.75
488.171	84.75
488.389	99.75
488.607	89.75
488.825	89.75
489.043	87.75
489.261	90.75
489.479	83.75
489.696	84.75
489.914	97.75
490.132	90.75
490.35	77.75
490.568	80.75
490.786	88.75
491.003	88.75
491.221	80.75
491.439	92.75
491.657	81.75
491.874	83.75
492.092	87.75
492.31	90.75
492.527	73.75
492.745	82.75
492.963	88.75
493.18	98.75
493.398	84.75
493.615	103.75
493.833	86.75
494.05	94.75
494.268	82.75
494.485	81.75
494.703	80.75
494.92	86.75
495.138	86.75
495.355	83.75
495.573	93.75
495.79	91.75
496.008	90.75
496.225	88.75
496.442	101.75
496.66	83.75
496.877	83.75
497.094	95.75
497.312	101.75
497.529	97.75
497.746	91.75
497.963	89.75
498.181	104.75
498.398	97.75
498.615	117.75
498.832	98.75
499.049	86.75
499.267	91.75
499.484	96.75
499.701	84.75
499.918	71.75
500.135	82.75
500.352	75.75
500.569	90.75
500.786	99.75
501.003	83.75
501.22	83.75
501.437	100.75
501.654	96.75
501.871	106.75
502.088	94.75
502.305	74.75
502.522	85.75
502.739	86.75
502.956	73.75
503.172	102.75
503.389	94.75
503.606	102.75
503.823	91.75
504.04	90.75
504.256	82.75
504.473	86.75
504.69	99.75
504.907	98.75
505.123	83.75
505.34	82.75
505.557	95.75
505.773	89.75
505.99	91.75
506.207	91.75
506.423	90.75
506.64	90.75
506.856	79.75
507.073	104.75
507.289	94.75
507.506	95.75
507.722	113.75
507.939	109.75
508.155	94.75
508.372	88.75
508.588	93.75
508.805	80.75
509.021	97.75
509.238	94.75
509.454	91.75
509.67	104.75
509.887	100.75
510.103	124.75
510.319	212.75
510.536	780.75
510.752	2460.75
510.968	669.75
511.184	152.75
511.401	98.75
511.617	108.75
511.833	102.75
512.049	100.75
512.265	91.75
512.481	92.75
512.698	85.75
512.914	88.75
513.13	83.75
513.346	88.75
513.562	95.75
513.778	94.75
513.994	107.75
514.21	94.75
514.426	120.75
514.642	113.75
514.858	119.75
515.074	161.75
515.29	431.75
515.506	1392.75
