Data from Circ_1996_H10_HRD10591_00035.txt Node
Date: Wed Jan 03 11:33:13 EST 2024
User: Yrep
Spectrometer: HR+D1059
Trigger mode: 1
Integration Time (sec): 1.000000E-1
Scans to average: 1
Electric dark correction enabled: true
Nonlinearity correction enabled: false
Boxcar width: 0
XAxis mode: Wavelengths
Number of Pixels in Spectrum: 2048
>>>>>Begin Spectral Data<<<<<
223.165	-17.12
223.4	-17.12
223.635	-17.12
223.869	-6.12
224.104	-17.12
224.338	-12.12
224.573	-11.12
224.808	-18.12
225.042	-0.12
225.277	-7.12
225.511	-14.12
225.746	-2.12
225.98	14.88
226.215	12.88
226.449	20.88
226.683	12.88
226.918	9.88
227.152	33.88
227.387	36.88
227.621	30.88
227.856	32.88
228.09	51.88
228.324	59.88
228.559	63.88
228.793	53.88
229.027	62.88
229.262	76.88
229.496	74.88
229.73	87.88
229.964	92.88
230.199	71.88
230.433	75.88
230.667	77.88
230.901	63.88
231.136	72.88
231.37	79.88
231.604	81.88
231.838	80.88
232.072	86.88
232.306	74.88
232.541	70.88
232.775	78.88
233.009	76.88
233.243	74.88
233.477	90.88
233.711	82.88
233.945	83.88
234.179	86.88
234.413	74.88
234.647	84.88
234.881	78.88
235.115	79.88
235.349	74.88
235.583	77.88
235.817	78.88
236.051	83.88
236.285	80.88
236.519	77.88
236.753	62.88
236.987	90.88
237.221	78.88
237.455	64.88
237.689	77.88
237.922	82.88
238.156	75.88
238.39	73.88
238.624	83.88
238.858	73.88
239.091	80.88
239.325	84.88
239.559	79.88
239.793	80.88
240.027	76.88
240.26	69.88
240.494	77.88
240.728	82.88
240.961	78.88
241.195	66.88
241.429	81.88
241.662	66.88
241.896	78.88
242.13	76.88
242.363	74.88
242.597	62.88
242.83	82.88
243.064	70.88
243.298	73.88
243.531	68.88
243.765	67.88
243.998	78.88
244.232	79.88
244.465	94.88
244.699	96.88
244.932	92.88
245.166	68.88
245.399	74.88
245.633	76.88
245.866	70.88
246.099	81.88
246.333	89.88
246.566	86.88
246.8	79.88
247.033	91.88
247.266	65.88
247.5	83.88
247.733	87.88
247.966	75.88
248.2	68.88
248.433	75.88
248.666	82.88
248.899	66.88
249.133	68.88
249.366	86.88
249.599	90.88
249.832	73.88
250.066	88.88
250.299	81.88
250.532	91.88
250.765	64.88
250.998	62.88
251.231	81.88
251.465	80.88
251.698	81.88
251.931	89.88
252.164	77.88
252.397	74.88
252.63	91.88
252.863	76.88
253.096	78.88
253.329	86.88
253.562	85.88
253.795	85.88
254.028	84.88
254.261	71.88
254.494	80.88
254.727	84.88
254.96	80.88
255.193	68.88
255.426	74.88
255.659	75.88
255.892	96.88
256.124	90.88
256.357	88.88
256.59	83.88
256.823	74.88
257.056	88.88
257.289	80.88
257.521	79.88
257.754	82.88
257.987	66.88
258.22	83.88
258.452	78.88
258.685	98.88
258.918	86.88
259.151	94.88
259.383	75.88
259.616	93.88
259.849	75.88
260.081	80.88
260.314	83.88
260.547	78.88
260.779	83.88
261.012	64.88
261.244	89.88
261.477	96.88
261.71	108.88
261.942	118.88
262.175	106.88
262.407	91.88
262.64	81.88
262.872	84.88
263.105	87.88
263.337	81.88
263.57	85.88
263.802	75.88
264.035	78.88
264.267	81.88
264.499	89.88
264.732	94.88
264.964	81.88
265.197	79.88
265.429	66.88
265.661	84.88
265.894	98.88
266.126	66.88
266.358	74.88
266.591	83.88
266.823	88.88
267.055	81.88
267.287	86.88
267.52	79.88
267.752	86.88
267.984	68.88
268.216	83.88
268.448	89.88
268.681	72.88
268.913	78.88
269.145	75.88
269.377	76.88
269.609	95.88
269.841	86.88
270.073	79.88
270.306	81.88
270.538	72.88
270.77	80.88
271.002	71.88
271.234	92.88
271.466	83.88
271.698	95.88
271.93	87.88
272.162	79.88
272.394	84.88
272.626	72.88
272.858	77.88
273.09	79.88
273.322	85.88
273.553	89.88
273.785	73.88
274.017	73.88
274.249	87.88
274.481	91.88
274.713	84.88
274.945	89.88
275.176	80.88
275.408	83.88
275.64	88.88
275.872	81.88
276.104	75.88
276.335	80.88
276.567	101.88
276.799	106.88
277.031	100.88
277.262	81.88
277.494	86.88
277.726	88.88
277.957	79.88
278.189	69.88
278.421	68.88
278.652	76.88
278.884	87.88
279.115	82.88
279.347	79.88
279.579	90.88
279.81	88.88
280.042	97.88
280.273	105.88
280.505	97.88
280.736	90.88
280.968	91.88
281.199	73.88
281.431	91.88
281.662	75.88
281.894	93.88
282.125	104.88
282.356	123.88
282.588	130.88
282.819	107.88
283.051	83.88
283.282	83.88
283.513	95.88
283.745	90.88
283.976	84.88
284.207	83.88
284.439	82.88
284.67	77.88
284.901	103.88
285.132	89.88
285.364	74.88
285.595	71.88
285.826	86.88
286.057	80.88
286.288	86.88
286.52	83.88
286.751	76.88
286.982	84.88
287.213	83.88
287.444	88.88
287.675	79.88
287.906	93.88
288.138	80.88
288.369	81.88
288.6	88.88
288.831	84.88
289.062	90.88
289.293	87.88
289.524	98.88
289.755	89.88
289.986	84.88
290.217	78.88
290.448	76.88
290.679	88.88
290.91	96.88
291.141	98.88
291.371	91.88
291.602	82.88
291.833	79.88
292.064	77.88
292.295	83.88
292.526	82.88
292.757	90.88
292.987	88.88
293.218	84.88
293.449	70.88
293.68	87.88
293.91	105.88
294.141	79.88
294.372	96.88
294.603	103.88
294.833	94.88
295.064	98.88
295.295	95.88
295.525	98.88
295.756	97.88
295.987	112.88
296.217	131.88
296.448	129.88
296.679	90.88
296.909	86.88
297.14	96.88
297.37	90.88
297.601	86.88
297.831	88.88
298.062	89.88
298.292	82.88
298.523	88.88
298.753	84.88
298.984	77.88
299.214	86.88
299.445	83.88
299.675	105.88
299.905	99.88
300.136	95.88
300.366	83.88
300.597	87.88
300.827	86.88
301.057	92.88
301.288	93.88
301.518	97.88
301.748	84.88
301.979	105.88
302.209	87.88
302.439	92.88
302.669	86.88
302.9	84.88
303.13	101.88
303.36	97.88
303.59	96.88
303.82	104.88
304.051	96.88
304.281	78.88
304.511	89.88
304.741	76.88
304.971	83.88
305.201	82.88
305.431	94.88
305.661	93.88
305.891	84.88
306.121	98.88
306.352	103.88
306.582	110.88
306.812	92.88
307.042	96.88
307.272	87.88
307.502	112.88
307.731	111.88
307.961	97.88
308.191	78.88
308.421	91.88
308.651	100.88
308.881	95.88
309.111	96.88
309.341	94.88
309.571	100.88
309.8	98.88
310.03	88.88
310.26	94.88
310.49	77.88
310.72	99.88
310.949	92.88
311.179	112.88
311.409	90.88
311.639	94.88
311.868	90.88
312.098	99.88
312.328	88.88
312.557	100.88
312.787	106.88
313.017	107.88
313.246	93.88
313.476	107.88
313.706	88.88
313.935	94.88
314.165	103.88
314.394	94.88
314.624	90.88
314.853	92.88
315.083	76.88
315.312	98.88
315.542	92.88
315.771	90.88
316.001	91.88
316.23	98.88
316.46	87.88
316.689	80.88
316.919	93.88
317.148	88.88
317.377	95.88
317.607	105.88
317.836	81.88
318.065	100.88
318.295	95.88
318.524	91.88
318.753	89.88
318.983	89.88
319.212	104.88
319.441	99.88
319.67	100.88
319.9	86.88
320.129	95.88
320.358	95.88
320.587	93.88
320.816	96.88
321.046	98.88
321.275	96.88
321.504	94.88
321.733	104.88
321.962	109.88
322.191	90.88
322.42	92.88
322.649	116.88
322.878	107.88
323.108	99.88
323.337	130.88
323.566	120.88
323.795	136.88
324.024	170.88
324.253	309.88
324.482	599.88
324.71	1228.88
324.939	1571.88
325.168	607.88
325.397	202.88
325.626	123.88
325.855	110.88
326.084	111.88
326.313	121.88
326.542	133.88
326.77	183.88
326.999	332.88
327.228	642.88
327.457	1164.88
327.686	936.88
327.914	295.88
328.143	176.88
328.372	129.88
328.6	129.88
328.829	91.88
329.058	117.88
329.287	113.88
329.515	102.88
329.744	111.88
329.972	117.88
330.201	141.88
330.43	172.88
330.658	139.88
330.887	137.88
331.115	115.88
331.344	91.88
331.572	106.88
331.801	102.88
332.03	96.88
332.258	113.88
332.486	93.88
332.715	103.88
332.943	100.88
333.172	99.88
333.4	99.88
333.629	112.88
333.857	128.88
334.085	126.88
334.314	151.88
334.542	183.88
334.771	174.88
334.999	112.88
335.227	106.88
335.455	96.88
335.684	104.88
335.912	116.88
336.14	98.88
336.369	97.88
336.597	98.88
336.825	96.88
337.053	100.88
337.281	84.88
337.51	87.88
337.738	80.88
337.966	86.88
338.194	87.88
338.422	102.88
338.65	98.88
338.878	89.88
339.106	89.88
339.334	93.88
339.562	85.88
339.79	82.88
340.018	94.88
340.246	98.88
340.474	88.88
340.702	103.88
340.93	99.88
341.158	96.88
341.386	87.88
341.614	93.88
341.842	81.88
342.07	108.88
342.298	63.88
342.526	104.88
342.754	88.88
342.981	84.88
343.209	77.88
343.437	110.88
343.665	83.88
343.893	82.88
344.12	100.88
344.348	100.88
344.576	96.88
344.804	95.88
345.031	98.88
345.259	90.88
345.487	81.88
345.714	100.88
345.942	87.88
346.17	88.88
346.397	98.88
346.625	90.88
346.853	95.88
347.08	90.88
347.308	101.88
347.535	100.88
347.763	102.88
347.99	86.88
348.218	95.88
348.445	95.88
348.673	99.88
348.9	94.88
349.128	120.88
349.355	90.88
349.583	100.88
349.81	96.88
350.037	101.88
350.265	106.88
350.492	105.88
350.72	111.88
350.947	110.88
351.174	105.88
351.402	122.88
351.629	89.88
351.856	94.88
352.083	93.88
352.311	97.88
352.538	97.88
352.765	113.88
352.992	117.88
353.22	105.88
353.447	98.88
353.674	109.88
353.901	105.88
354.128	105.88
354.355	108.88
354.583	97.88
354.81	87.88
355.037	100.88
355.264	110.88
355.491	80.88
355.718	89.88
355.945	93.88
356.172	89.88
356.399	105.88
356.626	105.88
356.853	98.88
357.08	99.88
357.307	94.88
357.534	91.88
357.761	77.88
357.988	105.88
358.215	89.88
358.441	92.88
358.668	92.88
358.895	81.88
359.122	92.88
359.349	101.88
359.576	94.88
359.802	101.88
360.029	105.88
360.256	108.88
360.483	89.88
360.709	82.88
360.936	103.88
361.163	104.88
361.39	106.88
361.616	96.88
361.843	72.88
362.07	87.88
362.296	89.88
362.523	90.88
362.749	86.88
362.976	92.88
363.203	103.88
363.429	105.88
363.656	91.88
363.882	100.88
364.109	75.88
364.335	91.88
364.562	82.88
364.788	105.88
365.015	83.88
365.241	108.88
365.468	94.88
365.694	114.88
365.92	88.88
366.147	95.88
366.373	91.88
366.599	91.88
366.826	87.88
367.052	80.88
367.278	98.88
367.505	77.88
367.731	97.88
367.957	89.88
368.184	98.88
368.41	97.88
368.636	97.88
368.862	125.88
369.089	92.88
369.315	89.88
369.541	92.88
369.767	81.88
369.993	88.88
370.219	79.88
370.445	95.88
370.672	82.88
370.898	81.88
371.124	94.88
371.35	87.88
371.576	81.88
371.802	85.88
372.028	90.88
372.254	92.88
372.48	95.88
372.706	88.88
372.932	88.88
373.158	86.88
373.384	89.88
373.61	98.88
373.835	88.88
374.061	78.88
374.287	80.88
374.513	103.88
374.739	94.88
374.965	96.88
375.191	84.88
375.416	108.88
375.642	88.88
375.868	87.88
376.094	86.88
376.319	93.88
376.545	87.88
376.771	101.88
376.997	95.88
377.222	86.88
377.448	80.88
377.674	96.88
377.899	87.88
378.125	88.88
378.35	92.88
378.576	77.88
378.802	95.88
379.027	105.88
379.253	103.88
379.478	98.88
379.704	89.88
379.929	97.88
380.155	104.88
380.38	74.88
380.606	102.88
380.831	100.88
381.057	86.88
381.282	89.88
381.507	107.88
381.733	95.88
381.958	99.88
382.184	97.88
382.409	103.88
382.634	110.88
382.86	111.88
383.085	120.88
383.31	120.88
383.535	111.88
383.761	92.88
383.986	109.88
384.211	100.88
384.436	86.88
384.662	102.88
384.887	116.88
385.112	110.88
385.337	114.88
385.562	122.88
385.787	98.88
386.013	122.88
386.238	112.88
386.463	114.88
386.688	103.88
386.913	126.88
387.138	118.88
387.363	120.88
387.588	107.88
387.813	114.88
388.038	99.88
388.263	123.88
388.488	115.88
388.713	96.88
388.938	103.88
389.163	73.88
389.387	93.88
389.612	80.88
389.837	87.88
390.062	96.88
390.287	101.88
390.512	98.88
390.736	90.88
390.961	101.88
391.186	86.88
391.411	84.88
391.636	95.88
391.86	88.88
392.085	97.88
392.31	91.88
392.534	90.88
392.759	99.88
392.984	100.88
393.208	95.88
393.433	96.88
393.658	90.88
393.882	87.88
394.107	88.88
394.331	89.88
394.556	79.88
394.78	87.88
395.005	87.88
395.229	84.88
395.454	75.88
395.678	83.88
395.903	99.88
396.127	74.88
396.352	86.88
396.576	91.88
396.801	104.88
397.025	100.88
397.249	84.88
397.474	65.88
397.698	86.88
397.922	92.88
398.147	95.88
398.371	91.88
398.595	92.88
398.82	94.88
399.044	80.88
399.268	85.88
399.492	86.88
399.717	96.88
399.941	72.88
400.165	96.88
400.389	80.88
400.613	82.88
400.837	91.88
401.062	84.88
401.286	88.88
401.51	77.88
401.734	86.88
401.958	90.88
402.182	118.88
402.406	137.88
402.63	112.88
402.854	88.88
403.078	90.88
403.302	92.88
403.526	86.88
403.75	99.88
403.974	92.88
404.198	79.88
404.422	77.88
404.645	88.88
404.869	98.88
405.093	94.88
405.317	108.88
405.541	96.88
405.765	89.88
405.988	125.88
406.212	169.88
406.436	222.88
406.66	138.88
406.883	97.88
407.107	97.88
407.331	89.88
407.555	103.88
407.778	98.88
408.002	94.88
408.226	102.88
408.449	87.88
408.673	88.88
408.896	97.88
409.12	98.88
409.344	86.88
409.567	94.88
409.791	94.88
410.014	97.88
410.238	98.88
410.461	93.88
410.685	108.88
410.908	99.88
411.132	98.88
411.355	106.88
411.578	88.88
411.802	81.88
412.025	95.88
412.249	92.88
412.472	95.88
412.695	92.88
412.919	95.88
413.142	90.88
413.365	103.88
413.589	82.88
413.812	84.88
414.035	91.88
414.258	82.88
414.482	102.88
414.705	100.88
414.928	94.88
415.151	88.88
415.374	88.88
415.597	102.88
415.821	102.88
416.044	96.88
416.267	80.88
416.49	86.88
416.713	96.88
416.936	89.88
417.159	82.88
417.382	86.88
417.605	75.88
417.828	95.88
418.051	84.88
418.274	81.88
418.497	101.88
418.72	80.88
418.943	98.88
419.166	76.88
419.389	94.88
419.611	90.88
419.834	79.88
420.057	92.88
420.28	96.88
420.503	70.88
420.726	80.88
420.948	83.88
421.171	82.88
421.394	100.88
421.617	100.88
421.839	89.88
422.062	86.88
422.285	87.88
422.507	90.88
422.73	94.88
422.953	88.88
423.175	82.88
423.398	81.88
423.621	92.88
423.843	81.88
424.066	90.88
424.288	87.88
424.511	83.88
424.733	75.88
424.956	93.88
425.178	88.88
425.401	96.88
425.623	84.88
425.846	86.88
426.068	95.88
426.291	91.88
426.513	92.88
426.735	84.88
426.958	94.88
427.18	105.88
427.402	129.88
427.625	159.88
427.847	117.88
428.069	104.88
428.292	78.88
428.514	84.88
428.736	88.88
428.958	80.88
429.181	88.88
429.403	104.88
429.625	100.88
429.847	79.88
430.069	79.88
430.292	102.88
430.514	92.88
430.736	81.88
430.958	82.88
431.18	92.88
431.402	94.88
431.624	102.88
431.846	87.88
432.068	73.88
432.29	78.88
432.512	78.88
432.734	92.88
432.956	96.88
433.178	92.88
433.4	96.88
433.622	96.88
433.844	100.88
434.066	95.88
434.287	82.88
434.509	97.88
434.731	90.88
434.953	102.88
435.175	93.88
435.397	90.88
435.618	86.88
435.84	98.88
436.062	96.88
436.284	103.88
436.505	99.88
436.727	87.88
436.949	97.88
437.17	89.88
437.392	83.88
437.614	73.88
437.835	82.88
438.057	105.88
438.278	99.88
438.5	96.88
438.721	115.88
438.943	96.88
439.165	87.88
439.386	93.88
439.608	88.88
439.829	89.88
440.05	103.88
440.272	119.88
440.493	96.88
440.715	88.88
440.936	86.88
441.158	95.88
441.379	87.88
441.6	88.88
441.822	85.88
442.043	88.88
442.264	86.88
442.486	106.88
442.707	92.88
442.928	107.88
443.149	124.88
443.371	110.88
443.592	94.88
443.813	116.88
444.034	108.88
444.255	86.88
444.476	90.88
444.698	97.88
444.919	90.88
445.14	139.88
445.361	130.88
445.582	114.88
445.803	137.88
446.024	111.88
446.245	93.88
446.466	96.88
446.687	90.88
446.908	89.88
447.129	107.88
447.35	86.88
447.571	85.88
447.792	79.88
448.013	88.88
448.234	101.88
448.455	96.88
448.675	118.88
448.896	105.88
449.117	96.88
449.338	88.88
449.559	110.88
449.779	119.88
450	79.88
450.221	82.88
450.442	78.88
450.662	97.88
450.883	105.88
451.104	96.88
451.324	93.88
451.545	78.88
451.766	79.88
451.986	91.88
452.207	98.88
452.428	92.88
452.648	93.88
452.869	96.88
453.089	112.88
453.31	116.88
453.53	85.88
453.751	92.88
453.971	96.88
454.192	91.88
454.412	83.88
454.633	79.88
454.853	87.88
455.073	79.88
455.294	96.88
455.514	86.88
455.734	81.88
455.955	82.88
456.175	86.88
456.395	76.88
456.616	78.88
456.836	91.88
457.056	98.88
457.276	87.88
457.497	84.88
457.717	82.88
457.937	75.88
458.157	90.88
458.377	90.88
458.598	106.88
458.818	136.88
459.038	145.88
459.258	113.88
459.478	86.88
459.698	83.88
459.918	94.88
460.138	83.88
460.358	84.88
460.578	90.88
460.798	92.88
461.018	92.88
461.238	91.88
461.458	84.88
461.678	82.88
461.898	85.88
462.118	76.88
462.338	78.88
462.558	76.88
462.777	94.88
462.997	88.88
463.217	87.88
463.437	86.88
463.657	83.88
463.876	88.88
464.096	83.88
464.316	84.88
464.536	86.88
464.755	90.88
464.975	112.88
465.195	152.88
465.414	146.88
465.634	82.88
465.854	96.88
466.073	85.88
466.293	90.88
466.512	78.88
466.732	82.88
466.951	81.88
467.171	91.88
467.391	91.88
467.61	107.88
467.829	99.88
468.049	109.88
468.268	118.88
468.488	83.88
468.707	87.88
468.927	85.88
469.146	74.88
469.365	79.88
469.585	86.88
469.804	99.88
470.023	95.88
470.243	84.88
470.462	93.88
470.681	107.88
470.901	86.88
471.12	95.88
471.339	84.88
471.558	92.88
471.777	82.88
471.997	108.88
472.216	135.88
472.435	208.88
472.654	128.88
472.873	89.88
473.092	83.88
473.311	78.88
473.53	73.88
473.749	89.88
473.968	100.88
474.187	91.88
474.406	98.88
474.625	78.88
474.844	82.88
475.063	76.88
475.282	95.88
475.501	78.88
475.72	80.88
475.939	86.88
476.158	84.88
476.377	98.88
476.596	106.88
476.814	85.88
477.033	60.88
477.252	82.88
477.471	88.88
477.69	87.88
477.908	97.88
478.127	87.88
478.346	81.88
478.564	79.88
478.783	100.88
479.002	81.88
479.22	94.88
479.439	101.88
479.658	94.88
479.876	86.88
480.095	97.88
480.313	91.88
480.532	79.88
480.751	101.88
480.969	154.88
481.188	386.88
481.406	259.88
481.624	117.88
481.843	91.88
482.061	95.88
482.28	71.88
482.498	86.88
482.717	86.88
482.935	68.88
483.153	71.88
483.372	105.88
483.59	90.88
483.808	97.88
484.027	82.88
484.245	99.88
484.463	86.88
484.681	90.88
484.9	85.88
485.118	89.88
485.336	87.88
485.554	108.88
485.772	100.88
485.99	112.88
486.209	107.88
486.427	90.88
486.645	102.88
486.863	101.88
487.081	107.88
487.299	89.88
487.517	91.88
487.735	86.88
487.953	107.88
488.171	81.88
488.389	92.88
488.607	111.88
488.825	95.88
489.043	95.88
489.261	86.88
489.479	93.88
489.696	85.88
489.914	84.88
490.132	82.88
490.35	73.88
490.568	94.88
490.786	88.88
491.003	82.88
491.221	95.88
491.439	108.88
491.657	85.88
491.874	89.88
492.092	92.88
492.31	94.88
492.527	93.88
492.745	91.88
492.963	92.88
493.18	85.88
493.398	85.88
493.615	88.88
493.833	95.88
494.05	84.88
494.268	84.88
494.485	88.88
494.703	101.88
494.92	87.88
495.138	97.88
495.355	101.88
495.573	85.88
495.79	90.88
496.008	93.88
496.225	86.88
496.442	82.88
496.66	97.88
496.877	85.88
497.094	97.88
497.312	99.88
497.529	90.88
497.746	85.88
497.963	81.88
498.181	73.88
498.398	109.88
498.615	101.88
498.832	99.88
499.049	86.88
499.267	84.88
499.484	96.88
499.701	83.88
499.918	90.88
500.135	86.88
500.352	75.88
500.569	100.88
500.786	87.88
501.003	95.88
501.22	73.88
501.437	85.88
501.654	106.88
501.871	102.88
502.088	87.88
502.305	106.88
502.522	91.88
502.739	99.88
502.956	95.88
503.172	104.88
503.389	79.88
503.606	87.88
503.823	91.88
504.04	90.88
504.256	87.88
504.473	94.88
504.69	89.88
504.907	94.88
505.123	99.88
505.34	82.88
505.557	94.88
505.773	96.88
505.99	100.88
506.207	74.88
506.423	99.88
506.64	87.88
506.856	87.88
507.073	74.88
507.289	90.88
507.506	77.88
507.722	106.88
507.939	112.88
508.155	92.88
508.372	85.88
508.588	80.88
508.805	94.88
509.021	88.88
509.238	99.88
509.454	91.88
509.67	108.88
509.887	115.88
510.103	114.88
510.319	218.88
510.536	745.88
510.752	2475.88
510.968	683.88
511.184	147.88
511.401	99.88
511.617	97.88
511.833	83.88
512.049	86.88
512.265	82.88
512.481	106.88
512.698	88.88
512.914	84.88
513.13	91.88
513.346	94.88
513.562	93.88
513.778	88.88
513.994	99.88
514.21	94.88
514.426	104.88
514.642	136.88
514.858	112.88
515.074	157.88
515.29	410.88
515.506	1410.88
515.721	529.88
515.937	144.88
