Data from Circ_1996_H10_HRD10591_00020.txt Node
Date: Wed Jan 03 11:33:10 EST 2024
User: Yrep
Spectrometer: HR+D1059
Trigger mode: 1
Integration Time (sec): 1.000000E-1
Scans to average: 1
Electric dark correction enabled: true
Nonlinearity correction enabled: false
Boxcar width: 0
XAxis mode: Wavelengths
Number of Pixels in Spectrum: 2048
>>>>>Begin Spectral Data<<<<<
223.165	-0.12
223.4	-0.12
223.635	-0.12
223.869	-24.12
224.104	-19.12
224.338	-1.12
224.573	-15.12
224.808	-18.12
225.042	-7.12
225.277	-10.12
225.511	-5.12
225.746	7.88
225.98	0.88
226.215	2.88
226.449	18.88
226.683	17.88
226.918	17.88
227.152	33.88
227.387	28.88
227.621	40.88
227.856	38.88
228.09	31.88
228.324	47.88
228.559	54.88
228.793	53.88
229.027	61.88
229.262	77.88
229.496	74.88
229.73	89.88
229.964	82.88
230.199	63.88
230.433	79.88
230.667	63.88
230.901	77.88
231.136	66.88
231.37	76.88
231.604	73.88
231.838	80.88
232.072	89.88
232.306	75.88
232.541	79.88
232.775	78.88
233.009	90.88
233.243	74.88
233.477	85.88
233.711	89.88
233.945	79.88
234.179	85.88
234.413	85.88
234.647	85.88
234.881	78.88
235.115	83.88
235.349	85.88
235.583	82.88
235.817	78.88
236.051	82.88
236.285	93.88
236.519	73.88
236.753	77.88
236.987	72.88
237.221	74.88
237.455	77.88
237.689	63.88
237.922	85.88
238.156	80.88
238.39	60.88
238.624	67.88
238.858	71.88
239.091	77.88
239.325	71.88
239.559	74.88
239.793	69.88
240.027	71.88
240.26	78.88
240.494	72.88
240.728	78.88
240.961	74.88
241.195	76.88
241.429	77.88
241.662	80.88
241.896	78.88
242.13	75.88
242.363	75.88
242.597	63.88
242.83	83.88
243.064	83.88
243.298	70.88
243.531	70.88
243.765	94.88
243.998	75.88
244.232	59.88
244.465	79.88
244.699	76.88
244.932	87.88
245.166	78.88
245.399	79.88
245.633	74.88
245.866	67.88
246.099	88.88
246.333	78.88
246.566	79.88
246.8	59.88
247.033	70.88
247.266	78.88
247.5	76.88
247.733	75.88
247.966	83.88
248.2	83.88
248.433	78.88
248.666	66.88
248.899	72.88
249.133	83.88
249.366	95.88
249.599	82.88
249.832	81.88
250.066	74.88
250.299	88.88
250.532	77.88
250.765	73.88
250.998	87.88
251.231	69.88
251.465	82.88
251.698	86.88
251.931	78.88
252.164	87.88
252.397	74.88
252.63	88.88
252.863	76.88
253.096	66.88
253.329	73.88
253.562	87.88
253.795	81.88
254.028	78.88
254.261	65.88
254.494	89.88
254.727	72.88
254.96	79.88
255.193	86.88
255.426	80.88
255.659	69.88
255.892	97.88
256.124	88.88
256.357	88.88
256.59	89.88
256.823	90.88
257.056	79.88
257.289	80.88
257.521	67.88
257.754	74.88
257.987	89.88
258.22	95.88
258.452	93.88
258.685	90.88
258.918	81.88
259.151	87.88
259.383	88.88
259.616	80.88
259.849	82.88
260.081	79.88
260.314	74.88
260.547	94.88
260.779	94.88
261.012	82.88
261.244	84.88
261.477	81.88
261.71	81.88
261.942	113.88
262.175	123.88
262.407	90.88
262.64	74.88
262.872	82.88
263.105	82.88
263.337	86.88
263.57	83.88
263.802	91.88
264.035	81.88
264.267	87.88
264.499	83.88
264.732	80.88
264.964	89.88
265.197	86.88
265.429	66.88
265.661	73.88
265.894	81.88
266.126	79.88
266.358	94.88
266.591	93.88
266.823	90.88
267.055	86.88
267.287	77.88
267.52	73.88
267.752	88.88
267.984	74.88
268.216	72.88
268.448	81.88
268.681	74.88
268.913	91.88
269.145	82.88
269.377	74.88
269.609	81.88
269.841	82.88
270.073	88.88
270.306	94.88
270.538	92.88
270.77	77.88
271.002	83.88
271.234	77.88
271.466	79.88
271.698	83.88
271.93	82.88
272.162	79.88
272.394	78.88
272.626	74.88
272.858	75.88
273.09	78.88
273.322	83.88
273.553	80.88
273.785	82.88
274.017	79.88
274.249	96.88
274.481	82.88
274.713	80.88
274.945	88.88
275.176	90.88
275.408	80.88
275.64	79.88
275.872	82.88
276.104	88.88
276.335	104.88
276.567	75.88
276.799	104.88
277.031	105.88
277.262	98.88
277.494	67.88
277.726	75.88
277.957	90.88
278.189	78.88
278.421	80.88
278.652	97.88
278.884	84.88
279.115	84.88
279.347	96.88
279.579	89.88
279.81	90.88
280.042	88.88
280.273	103.88
280.505	95.88
280.736	93.88
280.968	87.88
281.199	89.88
281.431	77.88
281.662	83.88
281.894	81.88
282.125	96.88
282.356	111.88
282.588	118.88
282.819	115.88
283.051	74.88
283.282	82.88
283.513	74.88
283.745	90.88
283.976	85.88
284.207	89.88
284.439	86.88
284.67	83.88
284.901	75.88
285.132	70.88
285.364	73.88
285.595	84.88
285.826	77.88
286.057	96.88
286.288	88.88
286.52	80.88
286.751	95.88
286.982	101.88
287.213	79.88
287.444	87.88
287.675	94.88
287.906	90.88
288.138	93.88
288.369	94.88
288.6	90.88
288.831	77.88
289.062	83.88
289.293	77.88
289.524	83.88
289.755	89.88
289.986	74.88
290.217	91.88
290.448	94.88
290.679	78.88
290.91	85.88
291.141	92.88
291.371	73.88
291.602	81.88
291.833	71.88
292.064	94.88
292.295	92.88
292.526	96.88
292.757	91.88
292.987	91.88
293.218	82.88
293.449	83.88
293.68	81.88
293.91	80.88
294.141	88.88
294.372	98.88
294.603	95.88
294.833	86.88
295.064	87.88
295.295	91.88
295.525	96.88
295.756	103.88
295.987	93.88
296.217	126.88
296.448	112.88
296.679	92.88
296.909	82.88
297.14	82.88
297.37	98.88
297.601	87.88
297.831	88.88
298.062	84.88
298.292	80.88
298.523	97.88
298.753	92.88
298.984	84.88
299.214	78.88
299.445	89.88
299.675	93.88
299.905	87.88
300.136	91.88
300.366	85.88
300.597	83.88
300.827	82.88
301.057	96.88
301.288	96.88
301.518	95.88
301.748	92.88
301.979	93.88
302.209	99.88
302.439	88.88
302.669	104.88
302.9	82.88
303.13	82.88
303.36	90.88
303.59	95.88
303.82	96.88
304.051	84.88
304.281	97.88
304.511	86.88
304.741	92.88
304.971	88.88
305.201	79.88
305.431	88.88
305.661	91.88
305.891	78.88
306.121	93.88
306.352	104.88
306.582	101.88
306.812	87.88
307.042	78.88
307.272	94.88
307.502	111.88
307.731	90.88
307.961	92.88
308.191	81.88
308.421	105.88
308.651	92.88
308.881	88.88
309.111	95.88
309.341	105.88
309.571	102.88
309.8	81.88
310.03	92.88
310.26	99.88
310.49	97.88
310.72	96.88
310.949	94.88
311.179	78.88
311.409	95.88
311.639	91.88
311.868	91.88
312.098	98.88
312.328	87.88
312.557	96.88
312.787	107.88
313.017	89.88
313.246	92.88
313.476	96.88
313.706	89.88
313.935	74.88
314.165	99.88
314.394	101.88
314.624	95.88
314.853	97.88
315.083	84.88
315.312	81.88
315.542	71.88
315.771	86.88
316.001	91.88
316.23	93.88
316.46	87.88
316.689	82.88
316.919	91.88
317.148	91.88
317.377	82.88
317.607	88.88
317.836	90.88
318.065	86.88
318.295	84.88
318.524	90.88
318.753	90.88
318.983	84.88
319.212	90.88
319.441	106.88
319.67	98.88
319.9	98.88
320.129	98.88
320.358	104.88
320.587	102.88
320.816	98.88
321.046	103.88
321.275	98.88
321.504	93.88
321.733	85.88
321.962	74.88
322.191	98.88
322.42	94.88
322.649	99.88
322.878	93.88
323.108	107.88
323.337	107.88
323.566	115.88
323.795	123.88
324.024	178.88
324.253	291.88
324.482	593.88
324.71	1147.88
324.939	1509.88
325.168	595.88
325.397	190.88
325.626	125.88
325.855	125.88
326.084	105.88
326.313	124.88
326.542	124.88
326.77	162.88
326.999	335.88
327.228	632.88
327.457	1143.88
327.686	888.88
327.914	283.88
328.143	163.88
328.372	156.88
328.6	120.88
328.829	123.88
329.058	108.88
329.287	118.88
329.515	114.88
329.744	110.88
329.972	120.88
330.201	150.88
330.43	185.88
330.658	127.88
330.887	138.88
331.115	114.88
331.344	93.88
331.572	85.88
331.801	90.88
332.03	101.88
332.258	94.88
332.486	90.88
332.715	97.88
332.943	102.88
333.172	93.88
333.4	102.88
333.629	105.88
333.857	118.88
334.085	120.88
334.314	142.88
334.542	191.88
334.771	190.88
334.999	116.88
335.227	105.88
335.455	102.88
335.684	109.88
335.912	99.88
336.14	99.88
336.369	93.88
336.597	81.88
336.825	85.88
337.053	93.88
337.281	77.88
337.51	73.88
337.738	75.88
337.966	83.88
338.194	87.88
338.422	98.88
338.65	79.88
338.878	95.88
339.106	82.88
339.334	105.88
339.562	99.88
339.79	89.88
340.018	102.88
340.246	89.88
340.474	81.88
340.702	81.88
340.93	92.88
341.158	91.88
341.386	71.88
341.614	83.88
341.842	89.88
342.07	86.88
342.298	88.88
342.526	88.88
342.754	94.88
342.981	85.88
343.209	85.88
343.437	82.88
343.665	87.88
343.893	102.88
344.12	80.88
344.348	78.88
344.576	94.88
344.804	93.88
345.031	102.88
345.259	85.88
345.487	97.88
345.714	91.88
345.942	77.88
346.17	91.88
346.397	95.88
346.625	92.88
346.853	97.88
347.08	72.88
347.308	69.88
347.535	84.88
347.763	91.88
347.99	90.88
348.218	95.88
348.445	110.88
348.673	81.88
348.9	94.88
349.128	97.88
349.355	94.88
349.583	86.88
349.81	97.88
350.037	82.88
350.265	100.88
350.492	87.88
350.72	97.88
350.947	115.88
351.174	102.88
351.402	99.88
351.629	80.88
351.856	89.88
352.083	106.88
352.311	89.88
352.538	97.88
352.765	116.88
352.992	115.88
353.22	105.88
353.447	105.88
353.674	94.88
353.901	97.88
354.128	102.88
354.355	98.88
354.583	98.88
354.81	103.88
355.037	93.88
355.264	89.88
355.491	91.88
355.718	84.88
355.945	100.88
356.172	94.88
356.399	90.88
356.626	95.88
356.853	108.88
357.08	91.88
357.307	93.88
357.534	75.88
357.761	87.88
357.988	95.88
358.215	103.88
358.441	102.88
358.668	91.88
358.895	90.88
359.122	75.88
359.349	100.88
359.576	83.88
359.802	90.88
360.029	109.88
360.256	103.88
360.483	107.88
360.709	97.88
360.936	102.88
361.163	83.88
361.39	95.88
361.616	94.88
361.843	92.88
362.07	82.88
362.296	84.88
362.523	81.88
362.749	85.88
362.976	90.88
363.203	91.88
363.429	82.88
363.656	85.88
363.882	75.88
364.109	84.88
364.335	97.88
364.562	101.88
364.788	86.88
365.015	109.88
365.241	91.88
365.468	104.88
365.694	92.88
365.92	87.88
366.147	95.88
366.373	86.88
366.599	91.88
366.826	92.88
367.052	95.88
367.278	83.88
367.505	87.88
367.731	90.88
367.957	73.88
368.184	92.88
368.41	105.88
368.636	99.88
368.862	113.88
369.089	99.88
369.315	97.88
369.541	81.88
369.767	76.88
369.993	87.88
370.219	85.88
370.445	78.88
370.672	77.88
370.898	75.88
371.124	91.88
371.35	82.88
371.576	91.88
371.802	91.88
372.028	90.88
372.254	83.88
372.48	90.88
372.706	89.88
372.932	88.88
373.158	106.88
373.384	81.88
373.61	82.88
373.835	89.88
374.061	89.88
374.287	84.88
374.513	88.88
374.739	87.88
374.965	87.88
375.191	89.88
375.416	80.88
375.642	76.88
375.868	97.88
376.094	92.88
376.319	101.88
376.545	110.88
376.771	86.88
376.997	95.88
377.222	88.88
377.448	93.88
377.674	88.88
377.899	82.88
378.125	83.88
378.35	100.88
378.576	99.88
378.802	102.88
379.027	95.88
379.253	85.88
379.478	96.88
379.704	83.88
379.929	77.88
380.155	103.88
380.38	114.88
380.606	99.88
380.831	91.88
381.057	95.88
381.282	98.88
381.507	97.88
381.733	85.88
381.958	89.88
382.184	94.88
382.409	105.88
382.634	93.88
382.86	109.88
383.085	97.88
383.31	99.88
383.535	102.88
383.761	96.88
383.986	98.88
384.211	108.88
384.436	105.88
384.662	90.88
384.887	103.88
385.112	106.88
385.337	129.88
385.562	115.88
385.787	115.88
386.013	95.88
386.238	119.88
386.463	102.88
386.688	110.88
386.913	114.88
387.138	109.88
387.363	117.88
387.588	108.88
387.813	105.88
388.038	111.88
388.263	126.88
388.488	114.88
388.713	84.88
388.938	95.88
389.163	82.88
389.387	96.88
389.612	88.88
389.837	90.88
390.062	95.88
390.287	98.88
390.512	97.88
390.736	102.88
390.961	88.88
391.186	82.88
391.411	103.88
391.636	103.88
391.86	89.88
392.085	73.88
392.31	94.88
392.534	104.88
392.759	96.88
392.984	84.88
393.208	111.88
393.433	97.88
393.658	102.88
393.882	97.88
394.107	85.88
394.331	80.88
394.556	82.88
394.78	81.88
395.005	73.88
395.229	82.88
395.454	69.88
395.678	89.88
395.903	73.88
396.127	91.88
396.352	103.88
396.576	85.88
396.801	92.88
397.025	94.88
397.249	85.88
397.474	86.88
397.698	90.88
397.922	82.88
398.147	73.88
398.371	77.88
398.595	85.88
398.82	81.88
399.044	95.88
399.268	88.88
399.492	88.88
399.717	90.88
399.941	73.88
400.165	95.88
400.389	95.88
400.613	78.88
400.837	78.88
401.062	88.88
401.286	75.88
401.51	85.88
401.734	95.88
401.958	91.88
402.182	114.88
402.406	140.88
402.63	113.88
402.854	93.88
403.078	64.88
403.302	75.88
403.526	79.88
403.75	89.88
403.974	81.88
404.198	98.88
404.422	76.88
404.645	91.88
404.869	94.88
405.093	94.88
405.317	92.88
405.541	87.88
405.765	105.88
405.988	100.88
406.212	157.88
406.436	204.88
406.66	130.88
406.883	87.88
407.107	86.88
407.331	98.88
407.555	95.88
407.778	87.88
408.002	99.88
408.226	85.88
408.449	80.88
408.673	85.88
408.896	86.88
409.12	82.88
409.344	76.88
409.567	85.88
409.791	77.88
410.014	94.88
410.238	94.88
410.461	76.88
410.685	95.88
410.908	92.88
411.132	105.88
411.355	90.88
411.578	86.88
411.802	85.88
412.025	103.88
412.249	91.88
412.472	90.88
412.695	88.88
412.919	87.88
413.142	71.88
413.365	79.88
413.589	85.88
413.812	89.88
414.035	95.88
414.258	80.88
414.482	89.88
414.705	78.88
414.928	92.88
415.151	88.88
415.374	82.88
415.597	86.88
415.821	83.88
416.044	71.88
416.267	83.88
416.49	91.88
416.713	89.88
416.936	87.88
417.159	85.88
417.382	88.88
417.605	89.88
417.828	86.88
418.051	87.88
418.274	94.88
418.497	78.88
418.72	75.88
418.943	84.88
419.166	90.88
419.389	106.88
419.611	92.88
419.834	89.88
420.057	78.88
420.28	83.88
420.503	90.88
420.726	80.88
420.948	91.88
421.171	86.88
421.394	81.88
421.617	87.88
421.839	87.88
422.062	96.88
422.285	89.88
422.507	94.88
422.73	105.88
422.953	97.88
423.175	77.88
423.398	88.88
423.621	87.88
423.843	96.88
424.066	87.88
424.288	85.88
424.511	98.88
424.733	86.88
424.956	100.88
425.178	87.88
425.401	91.88
425.623	95.88
425.846	86.88
426.068	81.88
426.291	83.88
426.513	89.88
426.735	93.88
426.958	96.88
427.18	97.88
427.402	120.88
427.625	138.88
427.847	116.88
428.069	104.88
428.292	95.88
428.514	82.88
428.736	92.88
428.958	89.88
429.181	90.88
429.403	89.88
429.625	91.88
429.847	83.88
430.069	90.88
430.292	88.88
430.514	89.88
430.736	84.88
430.958	93.88
431.18	76.88
431.402	88.88
431.624	86.88
431.846	89.88
432.068	97.88
432.29	75.88
432.512	94.88
432.734	97.88
432.956	86.88
433.178	96.88
433.4	85.88
433.622	84.88
433.844	85.88
434.066	94.88
434.287	98.88
434.509	85.88
434.731	84.88
434.953	85.88
435.175	95.88
435.397	96.88
435.618	79.88
435.84	84.88
436.062	117.88
436.284	94.88
436.505	98.88
436.727	101.88
436.949	103.88
437.17	80.88
437.392	105.88
437.614	79.88
437.835	102.88
438.057	101.88
438.278	91.88
438.5	92.88
438.721	110.88
438.943	103.88
439.165	96.88
439.386	82.88
439.608	79.88
439.829	89.88
440.05	103.88
440.272	130.88
440.493	97.88
440.715	85.88
440.936	72.88
441.158	91.88
441.379	79.88
441.6	92.88
441.822	98.88
442.043	83.88
442.264	90.88
442.486	90.88
442.707	83.88
442.928	93.88
443.149	97.88
443.371	112.88
443.592	99.88
443.813	108.88
444.034	106.88
444.255	82.88
444.476	82.88
444.698	86.88
444.919	88.88
445.14	152.88
445.361	118.88
445.582	116.88
445.803	123.88
446.024	121.88
446.245	112.88
446.466	90.88
446.687	74.88
446.908	89.88
447.129	81.88
447.35	95.88
447.571	99.88
447.792	99.88
448.013	96.88
448.234	88.88
448.455	94.88
448.675	87.88
448.896	118.88
449.117	96.88
449.338	94.88
449.559	101.88
449.779	113.88
450	94.88
450.221	81.88
450.442	75.88
450.662	83.88
450.883	90.88
451.104	103.88
451.324	90.88
451.545	107.88
451.766	86.88
451.986	88.88
452.207	86.88
452.428	80.88
452.648	94.88
452.869	105.88
453.089	109.88
453.31	106.88
453.53	96.88
453.751	98.88
453.971	88.88
454.192	92.88
454.412	94.88
454.633	88.88
454.853	90.88
455.073	84.88
455.294	85.88
455.514	98.88
455.734	91.88
455.955	84.88
456.175	85.88
456.395	92.88
456.616	95.88
456.836	79.88
457.056	83.88
457.276	93.88
457.497	74.88
457.717	80.88
457.937	93.88
458.157	81.88
458.377	98.88
458.598	106.88
458.818	135.88
459.038	141.88
459.258	93.88
459.478	72.88
459.698	84.88
459.918	77.88
460.138	85.88
460.358	94.88
460.578	86.88
460.798	93.88
461.018	83.88
461.238	97.88
461.458	89.88
461.678	91.88
461.898	85.88
462.118	93.88
462.338	88.88
462.558	96.88
462.777	90.88
462.997	79.88
463.217	73.88
463.437	85.88
463.657	91.88
463.876	90.88
464.096	92.88
464.316	91.88
464.536	102.88
464.755	100.88
464.975	97.88
465.195	139.88
465.414	155.88
465.634	85.88
465.854	81.88
466.073	81.88
466.293	90.88
466.512	90.88
466.732	85.88
466.951	94.88
467.171	80.88
467.391	83.88
467.61	105.88
467.829	104.88
468.049	120.88
468.268	124.88
468.488	101.88
468.707	93.88
468.927	94.88
469.146	82.88
469.365	84.88
469.585	93.88
469.804	93.88
470.023	91.88
470.243	98.88
470.462	99.88
470.681	121.88
470.901	89.88
471.12	73.88
471.339	91.88
471.558	76.88
471.777	87.88
471.997	104.88
472.216	157.88
472.435	239.88
472.654	117.88
472.873	102.88
473.092	89.88
473.311	93.88
473.53	89.88
473.749	80.88
473.968	106.88
474.187	94.88
474.406	98.88
474.625	81.88
474.844	99.88
475.063	74.88
475.282	96.88
475.501	69.88
475.72	73.88
475.939	90.88
476.158	83.88
476.377	98.88
476.596	89.88
476.814	102.88
477.033	99.88
477.252	87.88
477.471	90.88
477.69	92.88
477.908	80.88
478.127	83.88
478.346	96.88
478.564	75.88
478.783	110.88
479.002	94.88
479.22	86.88
479.439	91.88
479.658	95.88
479.876	99.88
480.095	88.88
480.313	99.88
480.532	102.88
480.751	116.88
480.969	160.88
481.188	379.88
481.406	233.88
481.624	113.88
481.843	94.88
482.061	95.88
482.28	83.88
482.498	93.88
482.717	77.88
482.935	84.88
483.153	95.88
483.372	80.88
483.59	91.88
483.808	88.88
484.027	91.88
484.245	94.88
484.463	73.88
484.681	91.88
484.9	98.88
485.118	98.88
485.336	88.88
485.554	100.88
485.772	95.88
485.99	109.88
486.209	97.88
486.427	107.88
486.645	101.88
486.863	110.88
487.081	103.88
487.299	105.88
487.517	99.88
487.735	93.88
487.953	85.88
488.171	76.88
488.389	93.88
488.607	97.88
488.825	91.88
489.043	90.88
489.261	96.88
489.479	90.88
489.696	83.88
489.914	82.88
490.132	90.88
490.35	101.88
490.568	80.88
490.786	106.88
491.003	79.88
491.221	92.88
491.439	88.88
491.657	94.88
491.874	82.88
492.092	85.88
492.31	87.88
492.527	94.88
492.745	94.88
492.963	94.88
493.18	82.88
493.398	98.88
493.615	92.88
493.833	90.88
494.05	90.88
494.268	78.88
494.485	85.88
494.703	97.88
494.92	83.88
495.138	69.88
495.355	87.88
495.573	91.88
495.79	83.88
496.008	81.88
496.225	92.88
496.442	76.88
496.66	92.88
496.877	88.88
497.094	87.88
497.312	104.88
497.529	85.88
497.746	97.88
497.963	93.88
498.181	83.88
498.398	95.88
498.615	92.88
498.832	117.88
499.049	101.88
499.267	90.88
499.484	95.88
499.701	86.88
499.918	106.88
500.135	98.88
500.352	83.88
500.569	100.88
500.786	88.88
501.003	98.88
501.22	103.88
501.437	89.88
501.654	84.88
501.871	95.88
502.088	100.88
502.305	91.88
502.522	96.88
502.739	78.88
502.956	88.88
503.172	81.88
503.389	99.88
503.606	111.88
503.823	96.88
504.04	99.88
504.256	96.88
504.473	87.88
504.69	97.88
504.907	90.88
505.123	85.88
505.34	98.88
505.557	89.88
505.773	91.88
505.99	88.88
506.207	96.88
506.423	90.88
506.64	83.88
506.856	79.88
507.073	95.88
507.289	112.88
507.506	94.88
507.722	103.88
507.939	110.88
508.155	99.88
508.372	87.88
508.588	89.88
508.805	93.88
509.021	103.88
509.238	92.88
509.454	109.88
509.67	93.88
509.887	110.88
510.103	119.88
510.319	217.88
510.536	717.88
510.752	2358.88
510.968	628.88
511.184	150.88
511.401	110.88
511.617	109.88
511.833	94.88
512.049	103.88
512.265	98.88
512.481	106.88
512.698	93.88
512.914	88.88
513.13	106.88
513.346	83.88
513.562	80.88
513.778	87.88
513.994	97.88
514.21	95.88
514.426	100.88
514.642	124.88
514.858	102.88
515.074	150.88
515.29	428.88
515.506	1305.88
515.721	473.88
515.937	143.88
516.153	110.88
516.369	96.88
516.585	108.88
