Data from Circ_1996_H10_HRD10591_00006.txt Node
Date: Wed Jan 03 11:33:07 EST 2024
User: Yrep
Spectrometer: HR+D1059
Trigger mode: 1
Integration Time (sec): 1.000000E-1
Scans to average: 1
Electric dark correction enabled: true
Nonlinearity correction enabled: false
Boxcar width: 0
XAxis mode: Wavelengths
Number of Pixels in Spectrum: 2048
>>>>>Begin Spectral Data<<<<<
223.165	-1.38
223.4	-1.38
223.635	-1.38
223.869	-26.38
224.104	-24.38
224.338	-17.38
224.573	-21.38
224.808	-15.38
225.042	5.62
225.277	-14.38
225.511	5.62
225.746	-6.38
225.98	8.62
226.215	10.62
226.449	6.62
226.683	30.62
226.918	17.62
227.152	41.62
227.387	29.62
227.621	25.62
227.856	48.62
228.09	50.62
228.324	51.62
228.559	46.62
228.793	49.62
229.027	54.62
229.262	56.62
229.496	77.62
229.73	73.62
229.964	77.62
230.199	89.62
230.433	77.62
230.667	70.62
230.901	65.62
231.136	76.62
231.37	77.62
231.604	82.62
231.838	76.62
232.072	77.62
232.306	87.62
232.541	88.62
232.775	74.62
233.009	70.62
233.243	90.62
233.477	87.62
233.711	75.62
233.945	86.62
234.179	70.62
234.413	80.62
234.647	79.62
234.881	87.62
235.115	72.62
235.349	64.62
235.583	89.62
235.817	70.62
236.051	76.62
236.285	90.62
236.519	85.62
236.753	63.62
236.987	63.62
237.221	66.62
237.455	92.62
237.689	66.62
237.922	74.62
238.156	80.62
238.39	73.62
238.624	73.62
238.858	73.62
239.091	81.62
239.325	78.62
239.559	77.62
239.793	67.62
240.027	80.62
240.26	80.62
240.494	76.62
240.728	74.62
240.961	70.62
241.195	76.62
241.429	63.62
241.662	80.62
241.896	78.62
242.13	76.62
242.363	89.62
242.597	75.62
242.83	69.62
243.064	89.62
243.298	81.62
243.531	78.62
243.765	74.62
243.998	77.62
244.232	81.62
244.465	86.62
244.699	82.62
244.932	93.62
245.166	72.62
245.399	73.62
245.633	91.62
245.866	72.62
246.099	80.62
246.333	67.62
246.566	79.62
246.8	83.62
247.033	71.62
247.266	76.62
247.5	79.62
247.733	66.62
247.966	75.62
248.2	79.62
248.433	75.62
248.666	85.62
248.899	74.62
249.133	78.62
249.366	90.62
249.599	85.62
249.832	75.62
250.066	75.62
250.299	93.62
250.532	77.62
250.765	89.62
250.998	73.62
251.231	82.62
251.465	95.62
251.698	76.62
251.931	81.62
252.164	87.62
252.397	77.62
252.63	80.62
252.863	93.62
253.096	66.62
253.329	79.62
253.562	80.62
253.795	85.62
254.028	89.62
254.261	74.62
254.494	93.62
254.727	90.62
254.96	81.62
255.193	67.62
255.426	74.62
255.659	81.62
255.892	72.62
256.124	90.62
256.357	87.62
256.59	93.62
256.823	79.62
257.056	87.62
257.289	72.62
257.521	81.62
257.754	84.62
257.987	75.62
258.22	74.62
258.452	75.62
258.685	86.62
258.918	96.62
259.151	86.62
259.383	81.62
259.616	78.62
259.849	86.62
260.081	86.62
260.314	84.62
260.547	86.62
260.779	76.62
261.012	81.62
261.244	86.62
261.477	88.62
261.71	88.62
261.942	101.62
262.175	103.62
262.407	90.62
262.64	72.62
262.872	77.62
263.105	80.62
263.337	93.62
263.57	70.62
263.802	61.62
264.035	81.62
264.267	85.62
264.499	75.62
264.732	86.62
264.964	73.62
265.197	69.62
265.429	89.62
265.661	91.62
265.894	73.62
266.126	75.62
266.358	78.62
266.591	72.62
266.823	80.62
267.055	88.62
267.287	81.62
267.52	96.62
267.752	69.62
267.984	81.62
268.216	83.62
268.448	88.62
268.681	97.62
268.913	83.62
269.145	75.62
269.377	87.62
269.609	73.62
269.841	64.62
270.073	81.62
270.306	75.62
270.538	78.62
270.77	82.62
271.002	96.62
271.234	86.62
271.466	80.62
271.698	80.62
271.93	78.62
272.162	83.62
272.394	80.62
272.626	69.62
272.858	97.62
273.09	73.62
273.322	71.62
273.553	85.62
273.785	87.62
274.017	88.62
274.249	75.62
274.481	89.62
274.713	83.62
274.945	71.62
275.176	79.62
275.408	93.62
275.64	91.62
275.872	75.62
276.104	91.62
276.335	103.62
276.567	88.62
276.799	84.62
277.031	110.62
277.262	97.62
277.494	92.62
277.726	88.62
277.957	76.62
278.189	78.62
278.421	83.62
278.652	91.62
278.884	82.62
279.115	85.62
279.347	77.62
279.579	87.62
279.81	95.62
280.042	90.62
280.273	96.62
280.505	79.62
280.736	87.62
280.968	81.62
281.199	87.62
281.431	83.62
281.662	92.62
281.894	89.62
282.125	91.62
282.356	103.62
282.588	121.62
282.819	107.62
283.051	84.62
283.282	90.62
283.513	68.62
283.745	86.62
283.976	88.62
284.207	90.62
284.439	86.62
284.67	94.62
284.901	84.62
285.132	88.62
285.364	97.62
285.595	78.62
285.826	81.62
286.057	88.62
286.288	85.62
286.52	77.62
286.751	86.62
286.982	74.62
287.213	73.62
287.444	87.62
287.675	94.62
287.906	97.62
288.138	82.62
288.369	91.62
288.6	103.62
288.831	75.62
289.062	87.62
289.293	89.62
289.524	89.62
289.755	86.62
289.986	84.62
290.217	83.62
290.448	87.62
290.679	79.62
290.91	91.62
291.141	82.62
291.371	67.62
291.602	94.62
291.833	85.62
292.064	95.62
292.295	77.62
292.526	59.62
292.757	79.62
292.987	95.62
293.218	98.62
293.449	90.62
293.68	99.62
293.91	81.62
294.141	86.62
294.372	81.62
294.603	88.62
294.833	86.62
295.064	96.62
295.295	93.62
295.525	99.62
295.756	94.62
295.987	106.62
296.217	116.62
296.448	122.62
296.679	83.62
296.909	93.62
297.14	87.62
297.37	78.62
297.601	93.62
297.831	87.62
298.062	87.62
298.292	86.62
298.523	96.62
298.753	80.62
298.984	87.62
299.214	88.62
299.445	89.62
299.675	91.62
299.905	79.62
300.136	77.62
300.366	85.62
300.597	82.62
300.827	73.62
301.057	93.62
301.288	84.62
301.518	88.62
301.748	80.62
301.979	107.62
302.209	97.62
302.439	87.62
302.669	81.62
302.9	75.62
303.13	73.62
303.36	75.62
303.59	97.62
303.82	98.62
304.051	91.62
304.281	88.62
304.511	85.62
304.741	89.62
304.971	87.62
305.201	95.62
305.431	80.62
305.661	91.62
305.891	92.62
306.121	95.62
306.352	86.62
306.582	111.62
306.812	91.62
307.042	91.62
307.272	103.62
307.502	96.62
307.731	115.62
307.961	93.62
308.191	88.62
308.421	101.62
308.651	99.62
308.881	83.62
309.111	98.62
309.341	106.62
309.571	94.62
309.8	94.62
310.03	85.62
310.26	92.62
310.49	89.62
310.72	94.62
310.949	101.62
311.179	90.62
311.409	111.62
311.639	96.62
311.868	89.62
312.098	101.62
312.328	104.62
312.557	96.62
312.787	105.62
313.017	106.62
313.246	103.62
313.476	104.62
313.706	87.62
313.935	82.62
314.165	92.62
314.394	99.62
314.624	91.62
314.853	88.62
315.083	105.62
315.312	91.62
315.542	84.62
315.771	77.62
316.001	76.62
316.23	104.62
316.46	78.62
316.689	85.62
316.919	90.62
317.148	92.62
317.377	97.62
317.607	100.62
317.836	102.62
318.065	83.62
318.295	99.62
318.524	107.62
318.753	83.62
318.983	91.62
319.212	98.62
319.441	105.62
319.67	103.62
319.9	85.62
320.129	89.62
320.358	87.62
320.587	91.62
320.816	102.62
321.046	89.62
321.275	99.62
321.504	75.62
321.733	93.62
321.962	98.62
322.191	104.62
322.42	88.62
322.649	91.62
322.878	94.62
323.108	107.62
323.337	111.62
323.566	108.62
323.795	128.62
324.024	165.62
324.253	304.62
324.482	570.62
324.71	1093.62
324.939	1437.62
325.168	589.62
325.397	188.62
325.626	113.62
325.855	118.62
326.084	117.62
326.313	112.62
326.542	125.62
326.77	202.62
326.999	309.62
327.228	609.62
327.457	1081.62
327.686	872.62
327.914	290.62
328.143	193.62
328.372	147.62
328.6	136.62
328.829	118.62
329.058	117.62
329.287	120.62
329.515	120.62
329.744	104.62
329.972	147.62
330.201	183.62
330.43	230.62
330.658	143.62
330.887	119.62
331.115	111.62
331.344	81.62
331.572	99.62
331.801	104.62
332.03	97.62
332.258	98.62
332.486	93.62
332.715	83.62
332.943	95.62
333.172	87.62
333.4	115.62
333.629	104.62
333.857	129.62
334.085	138.62
334.314	184.62
334.542	263.62
334.771	236.62
334.999	117.62
335.227	97.62
335.455	98.62
335.684	106.62
335.912	86.62
336.14	96.62
336.369	98.62
336.597	94.62
336.825	83.62
337.053	93.62
337.281	101.62
337.51	94.62
337.738	103.62
337.966	85.62
338.194	83.62
338.422	91.62
338.65	81.62
338.878	95.62
339.106	81.62
339.334	82.62
339.562	66.62
339.79	88.62
340.018	90.62
340.246	85.62
340.474	99.62
340.702	90.62
340.93	88.62
341.158	97.62
341.386	97.62
341.614	102.62
341.842	81.62
342.07	79.62
342.298	84.62
342.526	94.62
342.754	99.62
342.981	101.62
343.209	95.62
343.437	94.62
343.665	92.62
343.893	96.62
344.12	85.62
344.348	86.62
344.576	92.62
344.804	82.62
345.031	89.62
345.259	93.62
345.487	91.62
345.714	91.62
345.942	76.62
346.17	103.62
346.397	89.62
346.625	94.62
346.853	85.62
347.08	89.62
347.308	80.62
347.535	104.62
347.763	98.62
347.99	82.62
348.218	92.62
348.445	96.62
348.673	94.62
348.9	107.62
349.128	93.62
349.355	95.62
349.583	90.62
349.81	94.62
350.037	81.62
350.265	87.62
350.492	83.62
350.72	86.62
350.947	101.62
351.174	112.62
351.402	91.62
351.629	113.62
351.856	111.62
352.083	96.62
352.311	106.62
352.538	106.62
352.765	110.62
352.992	117.62
353.22	103.62
353.447	97.62
353.674	109.62
353.901	87.62
354.128	94.62
354.355	93.62
354.583	93.62
354.81	96.62
355.037	88.62
355.264	93.62
355.491	94.62
355.718	92.62
355.945	78.62
356.172	103.62
356.399	110.62
356.626	91.62
356.853	90.62
357.08	96.62
357.307	98.62
357.534	102.62
357.761	98.62
357.988	106.62
358.215	103.62
358.441	110.62
358.668	104.62
358.895	99.62
359.122	101.62
359.349	91.62
359.576	90.62
359.802	97.62
360.029	95.62
360.256	114.62
360.483	102.62
360.709	82.62
360.936	86.62
361.163	99.62
361.39	103.62
361.616	99.62
361.843	97.62
362.07	82.62
362.296	87.62
362.523	88.62
362.749	93.62
362.976	90.62
363.203	79.62
363.429	79.62
363.656	78.62
363.882	85.62
364.109	88.62
364.335	105.62
364.562	95.62
364.788	89.62
365.015	85.62
365.241	105.62
365.468	95.62
365.694	111.62
365.92	90.62
366.147	85.62
366.373	94.62
366.599	85.62
366.826	83.62
367.052	97.62
367.278	87.62
367.505	101.62
367.731	90.62
367.957	91.62
368.184	97.62
368.41	98.62
368.636	107.62
368.862	123.62
369.089	99.62
369.315	82.62
369.541	102.62
369.767	86.62
369.993	83.62
370.219	95.62
370.445	89.62
370.672	91.62
370.898	73.62
371.124	78.62
371.35	88.62
371.576	86.62
371.802	94.62
372.028	89.62
372.254	87.62
372.48	86.62
372.706	83.62
372.932	83.62
373.158	90.62
373.384	94.62
373.61	90.62
373.835	95.62
374.061	81.62
374.287	96.62
374.513	73.62
374.739	80.62
374.965	81.62
375.191	101.62
375.416	88.62
375.642	93.62
375.868	78.62
376.094	85.62
376.319	100.62
376.545	96.62
376.771	90.62
376.997	93.62
377.222	89.62
377.448	103.62
377.674	82.62
377.899	91.62
378.125	99.62
378.35	82.62
378.576	84.62
378.802	84.62
379.027	102.62
379.253	91.62
379.478	85.62
379.704	89.62
379.929	95.62
380.155	94.62
380.38	102.62
380.606	98.62
380.831	81.62
381.057	102.62
381.282	94.62
381.507	105.62
381.733	109.62
381.958	109.62
382.184	109.62
382.409	113.62
382.634	114.62
382.86	100.62
383.085	122.62
383.31	109.62
383.535	104.62
383.761	109.62
383.986	113.62
384.211	114.62
384.436	121.62
384.662	122.62
384.887	115.62
385.112	117.62
385.337	131.62
385.562	134.62
385.787	126.62
386.013	121.62
386.238	145.62
386.463	131.62
386.688	120.62
386.913	136.62
387.138	137.62
387.363	119.62
387.588	104.62
387.813	100.62
388.038	128.62
388.263	137.62
388.488	146.62
388.713	103.62
388.938	102.62
389.163	99.62
389.387	95.62
389.612	89.62
389.837	82.62
390.062	94.62
390.287	92.62
390.512	89.62
390.736	84.62
390.961	90.62
391.186	95.62
391.411	102.62
391.636	94.62
391.86	80.62
392.085	83.62
392.31	87.62
392.534	77.62
392.759	100.62
392.984	115.62
393.208	118.62
393.433	141.62
393.658	105.62
393.882	81.62
394.107	85.62
394.331	89.62
394.556	83.62
394.78	86.62
395.005	80.62
395.229	85.62
395.454	84.62
395.678	81.62
395.903	91.62
396.127	92.62
396.352	90.62
396.576	93.62
396.801	97.62
397.025	105.62
397.249	85.62
397.474	81.62
397.698	89.62
397.922	81.62
398.147	86.62
398.371	72.62
398.595	74.62
398.82	82.62
399.044	93.62
399.268	82.62
399.492	88.62
399.717	83.62
399.941	84.62
400.165	84.62
400.389	90.62
400.613	88.62
400.837	79.62
401.062	75.62
401.286	84.62
401.51	99.62
401.734	99.62
401.958	99.62
402.182	118.62
402.406	136.62
402.63	102.62
402.854	57.62
403.078	87.62
403.302	94.62
403.526	78.62
403.75	81.62
403.974	89.62
404.198	87.62
404.422	91.62
404.645	79.62
404.869	94.62
405.093	91.62
405.317	82.62
405.541	79.62
405.765	97.62
405.988	114.62
406.212	151.62
406.436	190.62
406.66	127.62
406.883	88.62
407.107	99.62
407.331	86.62
407.555	95.62
407.778	90.62
408.002	82.62
408.226	93.62
408.449	87.62
408.673	87.62
408.896	103.62
409.12	109.62
409.344	78.62
409.567	81.62
409.791	103.62
410.014	78.62
410.238	88.62
410.461	87.62
410.685	90.62
410.908	96.62
411.132	103.62
411.355	106.62
411.578	89.62
411.802	81.62
412.025	75.62
412.249	93.62
412.472	88.62
412.695	98.62
412.919	90.62
413.142	95.62
413.365	89.62
413.589	90.62
413.812	91.62
414.035	89.62
414.258	75.62
414.482	88.62
414.705	95.62
414.928	94.62
415.151	84.62
415.374	95.62
415.597	89.62
415.821	92.62
416.044	90.62
416.267	92.62
416.49	91.62
416.713	88.62
416.936	73.62
417.159	97.62
417.382	83.62
417.605	98.62
417.828	96.62
418.051	86.62
418.274	90.62
418.497	96.62
418.72	99.62
418.943	92.62
419.166	81.62
419.389	78.62
419.611	81.62
419.834	84.62
420.057	94.62
420.28	93.62
420.503	84.62
420.726	90.62
420.948	91.62
421.171	83.62
421.394	81.62
421.617	98.62
421.839	96.62
422.062	92.62
422.285	97.62
422.507	106.62
422.73	133.62
422.953	113.62
423.175	98.62
423.398	81.62
423.621	86.62
423.843	87.62
424.066	89.62
424.288	86.62
424.511	78.62
424.733	92.62
424.956	88.62
425.178	103.62
425.401	96.62
425.623	94.62
425.846	93.62
426.068	85.62
426.291	84.62
426.513	85.62
426.735	82.62
426.958	96.62
427.18	90.62
427.402	107.62
427.625	150.62
427.847	142.62
428.069	117.62
428.292	86.62
428.514	94.62
428.736	80.62
428.958	78.62
429.181	81.62
429.403	90.62
429.625	79.62
429.847	94.62
430.069	79.62
430.292	103.62
430.514	77.62
430.736	78.62
430.958	95.62
431.18	83.62
431.402	89.62
431.624	90.62
431.846	83.62
432.068	89.62
432.29	83.62
432.512	87.62
432.734	82.62
432.956	86.62
433.178	84.62
433.4	86.62
433.622	81.62
433.844	89.62
434.066	102.62
434.287	95.62
434.509	90.62
434.731	88.62
434.953	104.62
435.175	88.62
435.397	89.62
435.618	93.62
435.84	96.62
436.062	106.62
436.284	112.62
436.505	98.62
436.727	94.62
436.949	86.62
437.17	81.62
437.392	74.62
437.614	90.62
437.835	100.62
438.057	128.62
438.278	104.62
438.5	107.62
438.721	111.62
438.943	80.62
439.165	78.62
439.386	91.62
439.608	97.62
439.829	105.62
440.05	118.62
440.272	133.62
440.493	101.62
440.715	97.62
440.936	79.62
441.158	73.62
441.379	84.62
441.6	91.62
441.822	95.62
442.043	97.62
442.264	80.62
442.486	98.62
442.707	96.62
442.928	102.62
443.149	116.62
443.371	127.62
443.592	109.62
443.813	90.62
444.034	101.62
444.255	85.62
444.476	88.62
444.698	86.62
444.919	81.62
445.14	128.62
445.361	119.62
445.582	101.62
445.803	123.62
446.024	126.62
446.245	118.62
446.466	88.62
446.687	96.62
446.908	86.62
447.129	98.62
447.35	83.62
447.571	95.62
447.792	77.62
448.013	95.62
448.234	101.62
448.455	77.62
448.675	92.62
448.896	108.62
449.117	87.62
449.338	99.62
449.559	116.62
449.779	106.62
450	89.62
450.221	71.62
450.442	88.62
450.662	86.62
450.883	99.62
451.104	106.62
451.324	91.62
451.545	86.62
451.766	101.62
451.986	80.62
452.207	89.62
452.428	83.62
452.648	88.62
452.869	114.62
453.089	114.62
453.31	103.62
453.53	98.62
453.751	99.62
453.971	105.62
454.192	99.62
454.412	93.62
454.633	85.62
454.853	105.62
455.073	88.62
455.294	91.62
455.514	91.62
455.734	90.62
455.955	79.62
456.175	86.62
456.395	87.62
456.616	82.62
456.836	75.62
457.056	82.62
457.276	83.62
457.497	97.62
457.717	92.62
457.937	100.62
458.157	91.62
458.377	106.62
458.598	92.62
458.818	137.62
459.038	135.62
459.258	113.62
459.478	83.62
459.698	88.62
459.918	86.62
460.138	70.62
460.358	91.62
460.578	81.62
460.798	87.62
461.018	63.62
461.238	96.62
461.458	92.62
461.678	83.62
461.898	81.62
462.118	85.62
462.338	93.62
462.558	81.62
462.777	71.62
462.997	82.62
463.217	82.62
463.437	87.62
463.657	75.62
463.876	90.62
464.096	77.62
464.316	104.62
464.536	98.62
464.755	86.62
464.975	105.62
465.195	143.62
465.414	143.62
465.634	82.62
465.854	85.62
466.073	79.62
466.293	100.62
466.512	96.62
466.732	97.62
466.951	93.62
467.171	91.62
467.391	102.62
467.61	101.62
467.829	102.62
468.049	143.62
468.268	163.62
468.488	110.62
468.707	89.62
468.927	85.62
469.146	89.62
469.365	95.62
469.585	87.62
469.804	89.62
470.023	81.62
470.243	88.62
470.462	89.62
470.681	120.62
470.901	79.62
471.12	83.62
471.339	83.62
471.558	95.62
471.777	96.62
471.997	107.62
472.216	210.62
472.435	329.62
472.654	137.62
472.873	94.62
473.092	92.62
473.311	91.62
473.53	89.62
473.749	79.62
473.968	83.62
474.187	99.62
474.406	87.62
474.625	86.62
474.844	81.62
475.063	79.62
475.282	102.62
475.501	93.62
475.72	91.62
475.939	94.62
476.158	91.62
476.377	92.62
476.596	92.62
476.814	86.62
477.033	86.62
477.252	89.62
477.471	85.62
477.69	87.62
477.908	98.62
478.127	100.62
478.346	89.62
478.564	98.62
478.783	87.62
479.002	92.62
479.22	86.62
479.439	94.62
479.658	97.62
479.876	97.62
480.095	105.62
480.313	96.62
480.532	94.62
480.751	102.62
480.969	190.62
481.188	565.62
481.406	329.62
481.624	111.62
481.843	92.62
482.061	85.62
482.28	75.62
482.498	83.62
482.717	93.62
482.935	97.62
483.153	85.62
483.372	92.62
483.59	86.62
483.808	87.62
484.027	95.62
484.245	106.62
484.463	92.62
484.681	106.62
484.9	105.62
485.118	90.62
485.336	108.62
485.554	93.62
485.772	100.62
485.99	110.62
486.209	112.62
486.427	104.62
486.645	110.62
486.863	113.62
487.081	103.62
487.299	113.62
487.517	102.62
487.735	86.62
487.953	91.62
488.171	89.62
488.389	93.62
488.607	111.62
488.825	101.62
489.043	87.62
489.261	91.62
489.479	85.62
489.696	74.62
489.914	97.62
490.132	99.62
490.35	74.62
490.568	97.62
490.786	78.62
491.003	85.62
491.221	94.62
491.439	81.62
491.657	78.62
491.874	99.62
492.092	78.62
492.31	92.62
492.527	99.62
492.745	89.62
492.963	88.62
493.18	93.62
493.398	106.62
493.615	99.62
493.833	89.62
494.05	85.62
494.268	82.62
494.485	87.62
494.703	93.62
494.92	96.62
495.138	77.62
495.355	87.62
495.573	86.62
495.79	82.62
496.008	103.62
496.225	96.62
496.442	93.62
496.66	80.62
496.877	103.62
497.094	97.62
497.312	87.62
497.529	90.62
497.746	108.62
497.963	105.62
498.181	93.62
498.398	96.62
498.615	100.62
498.832	97.62
499.049	89.62
499.267	91.62
499.484	99.62
499.701	83.62
499.918	96.62
500.135	85.62
500.352	99.62
500.569	101.62
500.786	92.62
501.003	95.62
501.22	99.62
501.437	95.62
501.654	99.62
501.871	102.62
502.088	77.62
502.305	94.62
502.522	101.62
502.739	89.62
502.956	88.62
503.172	81.62
503.389	90.62
503.606	96.62
503.823	105.62
504.04	91.62
504.256	94.62
504.473	94.62
504.69	91.62
504.907	87.62
505.123	92.62
505.34	95.62
505.557	90.62
505.773	95.62
505.99	90.62
506.207	108.62
506.423	82.62
506.64	95.62
506.856	103.62
507.073	86.62
507.289	84.62
507.506	102.62
507.722	100.62
507.939	95.62
508.155	93.62
508.372	97.62
508.588	78.62
508.805	98.62
509.021	95.62
509.238	101.62
509.454	99.62
509.67	84.62
509.887	96.62
510.103	126.62
510.319	186.62
510.536	707.62
510.752	2192.62
510.968	603.62
511.184	139.62
511.401	106.62
511.617	101.62
511.833	88.62
512.049	96.62
512.265	98.62
512.481	92.62
512.698	95.62
512.914	88.62
513.13	87.62
513.346	81.62
513.562	96.62
513.778	97.62
513.994	95.62
514.21	92.62
514.426	108.62
514.642	114.62
514.858	128.62
515.074	146.62
515.29	389.62
515.506	1228.62
515.721	453.62
515.937	158.62
