Data from Circ_1996_H10_HRD10591_00083.txt Node
Date: Wed Jan 03 11:33:22 EST 2024
User: Yrep
Spectrometer: HR+D1059
Trigger mode: 1
Integration Time (sec): 1.000000E-1
Scans to average: 1
Electric dark correction enabled: true
Nonlinearity correction enabled: false
Boxcar width: 0
XAxis mode: Wavelengths
Number of Pixels in Spectrum: 2048
>>>>>Begin Spectral Data<<<<<
223.165	-12.06
223.4	-12.06
223.635	-12.06
223.869	-15.06
224.104	-20.06
224.338	-27.06
224.573	-8.06
224.808	-9.06
225.042	-1.06
225.277	1.94
225.511	-1.06
225.746	5.94
225.98	-0.06
226.215	8.94
226.449	-0.06
226.683	22.94
226.918	20.94
227.152	32.94
227.387	29.94
227.621	32.94
227.856	32.94
228.09	47.94
228.324	55.94
228.559	55.94
228.793	52.94
229.027	54.94
229.262	74.94
229.496	79.94
229.73	68.94
229.964	84.94
230.199	77.94
230.433	82.94
230.667	77.94
230.901	74.94
231.136	76.94
231.37	61.94
231.604	72.94
231.838	88.94
232.072	73.94
232.306	90.94
232.541	64.94
232.775	73.94
233.009	76.94
233.243	76.94
233.477	75.94
233.711	89.94
233.945	68.94
234.179	68.94
234.413	77.94
234.647	82.94
234.881	78.94
235.115	74.94
235.349	78.94
235.583	75.94
235.817	88.94
236.051	84.94
236.285	78.94
236.519	64.94
236.753	84.94
236.987	81.94
237.221	71.94
237.455	81.94
237.689	68.94
237.922	84.94
238.156	79.94
238.39	79.94
238.624	68.94
238.858	62.94
239.091	86.94
239.325	72.94
239.559	74.94
239.793	68.94
240.027	67.94
240.26	74.94
240.494	85.94
240.728	63.94
240.961	63.94
241.195	76.94
241.429	74.94
241.662	80.94
241.896	71.94
242.13	70.94
242.363	80.94
242.597	62.94
242.83	88.94
243.064	72.94
243.298	79.94
243.531	93.94
243.765	83.94
243.998	84.94
244.232	72.94
244.465	84.94
244.699	73.94
244.932	83.94
245.166	78.94
245.399	69.94
245.633	67.94
245.866	88.94
246.099	78.94
246.333	90.94
246.566	70.94
246.8	70.94
247.033	73.94
247.266	66.94
247.5	83.94
247.733	86.94
247.966	81.94
248.2	67.94
248.433	74.94
248.666	78.94
248.899	85.94
249.133	86.94
249.366	93.94
249.599	80.94
249.832	71.94
250.066	80.94
250.299	73.94
250.532	74.94
250.765	71.94
250.998	73.94
251.231	81.94
251.465	89.94
251.698	58.94
251.931	85.94
252.164	81.94
252.397	84.94
252.63	62.94
252.863	66.94
253.096	64.94
253.329	84.94
253.562	87.94
253.795	82.94
254.028	95.94
254.261	72.94
254.494	77.94
254.727	77.94
254.96	84.94
255.193	73.94
255.426	81.94
255.659	81.94
255.892	88.94
256.124	92.94
256.357	76.94
256.59	75.94
256.823	72.94
257.056	87.94
257.289	65.94
257.521	90.94
257.754	101.94
257.987	72.94
258.22	80.94
258.452	85.94
258.685	64.94
258.918	65.94
259.151	75.94
259.383	71.94
259.616	76.94
259.849	76.94
260.081	76.94
260.314	80.94
260.547	76.94
260.779	77.94
261.012	78.94
261.244	79.94
261.477	81.94
261.71	96.94
261.942	106.94
262.175	110.94
262.407	74.94
262.64	77.94
262.872	84.94
263.105	87.94
263.337	78.94
263.57	79.94
263.802	78.94
264.035	89.94
264.267	71.94
264.499	90.94
264.732	66.94
264.964	86.94
265.197	71.94
265.429	80.94
265.661	77.94
265.894	83.94
266.126	86.94
266.358	74.94
266.591	89.94
266.823	87.94
267.055	89.94
267.287	86.94
267.52	79.94
267.752	88.94
267.984	82.94
268.216	81.94
268.448	90.94
268.681	76.94
268.913	72.94
269.145	85.94
269.377	95.94
269.609	72.94
269.841	91.94
270.073	76.94
270.306	93.94
270.538	80.94
270.77	69.94
271.002	79.94
271.234	92.94
271.466	90.94
271.698	71.94
271.93	87.94
272.162	69.94
272.394	82.94
272.626	78.94
272.858	89.94
273.09	82.94
273.322	82.94
273.553	80.94
273.785	78.94
274.017	74.94
274.249	88.94
274.481	74.94
274.713	84.94
274.945	98.94
275.176	76.94
275.408	95.94
275.64	83.94
275.872	72.94
276.104	94.94
276.335	89.94
276.567	93.94
276.799	114.94
277.031	100.94
277.262	84.94
277.494	78.94
277.726	79.94
277.957	82.94
278.189	88.94
278.421	79.94
278.652	80.94
278.884	84.94
279.115	73.94
279.347	76.94
279.579	83.94
279.81	93.94
280.042	86.94
280.273	91.94
280.505	90.94
280.736	89.94
280.968	68.94
281.199	84.94
281.431	77.94
281.662	87.94
281.894	112.94
282.125	86.94
282.356	120.94
282.588	141.94
282.819	108.94
283.051	82.94
283.282	93.94
283.513	91.94
283.745	93.94
283.976	77.94
284.207	90.94
284.439	82.94
284.67	87.94
284.901	78.94
285.132	70.94
285.364	84.94
285.595	78.94
285.826	92.94
286.057	79.94
286.288	93.94
286.52	86.94
286.751	73.94
286.982	90.94
287.213	87.94
287.444	97.94
287.675	93.94
287.906	94.94
288.138	77.94
288.369	80.94
288.6	89.94
288.831	78.94
289.062	74.94
289.293	88.94
289.524	80.94
289.755	98.94
289.986	91.94
290.217	84.94
290.448	89.94
290.679	82.94
290.91	94.94
291.141	88.94
291.371	88.94
291.602	85.94
291.833	92.94
292.064	88.94
292.295	93.94
292.526	88.94
292.757	82.94
292.987	93.94
293.218	97.94
293.449	89.94
293.68	74.94
293.91	93.94
294.141	80.94
294.372	90.94
294.603	89.94
294.833	86.94
295.064	88.94
295.295	84.94
295.525	82.94
295.756	100.94
295.987	106.94
296.217	125.94
296.448	123.94
296.679	83.94
296.909	72.94
297.14	81.94
297.37	78.94
297.601	71.94
297.831	100.94
298.062	80.94
298.292	93.94
298.523	94.94
298.753	93.94
298.984	81.94
299.214	88.94
299.445	92.94
299.675	87.94
299.905	99.94
300.136	93.94
300.366	90.94
300.597	88.94
300.827	89.94
301.057	104.94
301.288	98.94
301.518	89.94
301.748	96.94
301.979	100.94
302.209	90.94
302.439	92.94
302.669	88.94
302.9	86.94
303.13	88.94
303.36	88.94
303.59	82.94
303.82	105.94
304.051	93.94
304.281	98.94
304.511	100.94
304.741	84.94
304.971	81.94
305.201	81.94
305.431	91.94
305.661	82.94
305.891	82.94
306.121	95.94
306.352	97.94
306.582	97.94
306.812	95.94
307.042	105.94
307.272	96.94
307.502	96.94
307.731	102.94
307.961	95.94
308.191	96.94
308.421	72.94
308.651	92.94
308.881	98.94
309.111	90.94
309.341	100.94
309.571	106.94
309.8	99.94
310.03	85.94
310.26	82.94
310.49	106.94
310.72	102.94
310.949	109.94
311.179	98.94
311.409	81.94
311.639	77.94
311.868	90.94
312.098	109.94
312.328	92.94
312.557	93.94
312.787	107.94
313.017	87.94
313.246	96.94
313.476	89.94
313.706	95.94
313.935	82.94
314.165	102.94
314.394	97.94
314.624	104.94
314.853	85.94
315.083	102.94
315.312	93.94
315.542	90.94
315.771	94.94
316.001	92.94
316.23	81.94
316.46	80.94
316.689	93.94
316.919	91.94
317.148	90.94
317.377	98.94
317.607	81.94
317.836	94.94
318.065	98.94
318.295	103.94
318.524	84.94
318.753	88.94
318.983	98.94
319.212	87.94
319.441	114.94
319.67	108.94
319.9	95.94
320.129	83.94
320.358	94.94
320.587	85.94
320.816	94.94
321.046	102.94
321.275	103.94
321.504	86.94
321.733	93.94
321.962	91.94
322.191	96.94
322.42	103.94
322.649	101.94
322.878	102.94
323.108	99.94
323.337	105.94
323.566	120.94
323.795	120.94
324.024	179.94
324.253	330.94
324.482	666.94
324.71	1319.94
324.939	1693.94
325.168	666.94
325.397	218.94
325.626	140.94
325.855	111.94
326.084	115.94
326.313	128.94
326.542	130.94
326.77	202.94
326.999	348.94
327.228	695.94
327.457	1234.94
327.686	978.94
327.914	318.94
328.143	211.94
328.372	176.94
328.6	143.94
328.829	121.94
329.058	125.94
329.287	124.94
329.515	105.94
329.744	109.94
329.972	127.94
330.201	182.94
330.43	210.94
330.658	148.94
330.887	141.94
331.115	118.94
331.344	98.94
331.572	100.94
331.801	98.94
332.03	96.94
332.258	94.94
332.486	89.94
332.715	92.94
332.943	87.94
333.172	92.94
333.4	97.94
333.629	111.94
333.857	109.94
334.085	144.94
334.314	173.94
334.542	251.94
334.771	225.94
334.999	118.94
335.227	96.94
335.455	93.94
335.684	86.94
335.912	91.94
336.14	115.94
336.369	98.94
336.597	93.94
336.825	94.94
337.053	102.94
337.281	94.94
337.51	95.94
337.738	88.94
337.966	77.94
338.194	93.94
338.422	105.94
338.65	98.94
338.878	89.94
339.106	95.94
339.334	83.94
339.562	89.94
339.79	88.94
340.018	95.94
340.246	98.94
340.474	87.94
340.702	92.94
340.93	94.94
341.158	94.94
341.386	81.94
341.614	84.94
341.842	76.94
342.07	74.94
342.298	86.94
342.526	85.94
342.754	92.94
342.981	83.94
343.209	90.94
343.437	104.94
343.665	74.94
343.893	85.94
344.12	93.94
344.348	89.94
344.576	92.94
344.804	91.94
345.031	96.94
345.259	81.94
345.487	87.94
345.714	72.94
345.942	85.94
346.17	93.94
346.397	86.94
346.625	76.94
346.853	81.94
347.08	106.94
347.308	92.94
347.535	88.94
347.763	80.94
347.99	91.94
348.218	101.94
348.445	107.94
348.673	96.94
348.9	95.94
349.128	92.94
349.355	92.94
349.583	85.94
349.81	86.94
350.037	93.94
350.265	89.94
350.492	94.94
350.72	87.94
350.947	110.94
351.174	106.94
351.402	109.94
351.629	111.94
351.856	99.94
352.083	110.94
352.311	110.94
352.538	105.94
352.765	106.94
352.992	112.94
353.22	106.94
353.447	110.94
353.674	98.94
353.901	81.94
354.128	89.94
354.355	100.94
354.583	86.94
354.81	96.94
355.037	89.94
355.264	88.94
355.491	90.94
355.718	93.94
355.945	89.94
356.172	98.94
356.399	99.94
356.626	86.94
356.853	97.94
357.08	106.94
357.307	78.94
357.534	95.94
357.761	96.94
357.988	90.94
358.215	89.94
358.441	85.94
358.668	96.94
358.895	81.94
359.122	105.94
359.349	94.94
359.576	81.94
359.802	99.94
360.029	113.94
360.256	100.94
360.483	99.94
360.709	95.94
360.936	91.94
361.163	85.94
361.39	86.94
361.616	88.94
361.843	73.94
362.07	86.94
362.296	97.94
362.523	88.94
362.749	90.94
362.976	79.94
363.203	92.94
363.429	102.94
363.656	90.94
363.882	82.94
364.109	94.94
364.335	92.94
364.562	81.94
364.788	101.94
365.015	92.94
365.241	112.94
365.468	104.94
365.694	104.94
365.92	95.94
366.147	88.94
366.373	88.94
366.599	78.94
366.826	97.94
367.052	78.94
367.278	95.94
367.505	98.94
367.731	89.94
367.957	85.94
368.184	90.94
368.41	92.94
368.636	98.94
368.862	121.94
369.089	108.94
369.315	95.94
369.541	99.94
369.767	96.94
369.993	91.94
370.219	93.94
370.445	94.94
370.672	85.94
370.898	86.94
371.124	97.94
371.35	91.94
371.576	84.94
371.802	93.94
372.028	76.94
372.254	80.94
372.48	89.94
372.706	91.94
372.932	84.94
373.158	96.94
373.384	98.94
373.61	102.94
373.835	85.94
374.061	81.94
374.287	93.94
374.513	82.94
374.739	84.94
374.965	92.94
375.191	85.94
375.416	79.94
375.642	88.94
375.868	88.94
376.094	87.94
376.319	91.94
376.545	104.94
376.771	97.94
376.997	102.94
377.222	92.94
377.448	81.94
377.674	100.94
377.899	97.94
378.125	75.94
378.35	91.94
378.576	87.94
378.802	81.94
379.027	80.94
379.253	91.94
379.478	74.94
379.704	97.94
379.929	100.94
380.155	80.94
380.38	81.94
380.606	91.94
380.831	94.94
381.057	108.94
381.282	95.94
381.507	95.94
381.733	105.94
381.958	96.94
382.184	94.94
382.409	81.94
382.634	104.94
382.86	104.94
383.085	100.94
383.31	95.94
383.535	109.94
383.761	98.94
383.986	98.94
384.211	108.94
384.436	92.94
384.662	105.94
384.887	98.94
385.112	98.94
385.337	92.94
385.562	119.94
385.787	86.94
386.013	94.94
386.238	108.94
386.463	101.94
386.688	118.94
386.913	118.94
387.138	107.94
387.363	106.94
387.588	105.94
387.813	80.94
388.038	109.94
388.263	114.94
388.488	100.94
388.713	93.94
388.938	105.94
389.163	81.94
389.387	69.94
389.612	81.94
389.837	99.94
390.062	89.94
390.287	79.94
390.512	93.94
390.736	96.94
390.961	95.94
391.186	89.94
391.411	98.94
391.636	85.94
391.86	86.94
392.085	91.94
392.31	91.94
392.534	73.94
392.759	90.94
392.984	89.94
393.208	81.94
393.433	93.94
393.658	110.94
393.882	96.94
394.107	75.94
394.331	86.94
394.556	81.94
394.78	69.94
395.005	90.94
395.229	75.94
395.454	90.94
395.678	94.94
395.903	84.94
396.127	74.94
396.352	78.94
396.576	85.94
396.801	87.94
397.025	98.94
397.249	96.94
397.474	84.94
397.698	83.94
397.922	85.94
398.147	87.94
398.371	96.94
398.595	88.94
398.82	74.94
399.044	85.94
399.268	83.94
399.492	92.94
399.717	78.94
399.941	85.94
400.165	93.94
400.389	94.94
400.613	95.94
400.837	95.94
401.062	83.94
401.286	77.94
401.51	83.94
401.734	84.94
401.958	93.94
402.182	123.94
402.406	152.94
402.63	112.94
402.854	91.94
403.078	77.94
403.302	82.94
403.526	92.94
403.75	89.94
403.974	102.94
404.198	88.94
404.422	97.94
404.645	84.94
404.869	71.94
405.093	83.94
405.317	101.94
405.541	85.94
405.765	85.94
405.988	123.94
406.212	180.94
406.436	257.94
406.66	152.94
406.883	83.94
407.107	73.94
407.331	75.94
407.555	96.94
407.778	99.94
408.002	89.94
408.226	87.94
408.449	86.94
408.673	89.94
408.896	97.94
409.12	99.94
409.344	85.94
409.567	79.94
409.791	86.94
410.014	82.94
410.238	91.94
410.461	81.94
410.685	90.94
410.908	98.94
411.132	99.94
411.355	88.94
411.578	93.94
411.802	88.94
412.025	90.94
412.249	85.94
412.472	96.94
412.695	94.94
412.919	85.94
413.142	84.94
413.365	89.94
413.589	92.94
413.812	97.94
414.035	91.94
414.258	73.94
414.482	86.94
414.705	86.94
414.928	96.94
415.151	91.94
415.374	86.94
415.597	90.94
415.821	88.94
416.044	78.94
416.267	86.94
416.49	85.94
416.713	78.94
416.936	82.94
417.159	100.94
417.382	78.94
417.605	78.94
417.828	89.94
418.051	84.94
418.274	88.94
418.497	89.94
418.72	100.94
418.943	100.94
419.166	88.94
419.389	85.94
419.611	85.94
419.834	88.94
420.057	84.94
420.28	70.94
420.503	75.94
420.726	86.94
420.948	102.94
421.171	96.94
421.394	85.94
421.617	79.94
421.839	89.94
422.062	96.94
422.285	82.94
422.507	95.94
422.73	94.94
422.953	85.94
423.175	80.94
423.398	88.94
423.621	94.94
423.843	87.94
424.066	84.94
424.288	87.94
424.511	100.94
424.733	100.94
424.956	92.94
425.178	97.94
425.401	106.94
425.623	103.94
425.846	89.94
426.068	86.94
426.291	88.94
426.513	82.94
426.735	78.94
426.958	91.94
427.18	101.94
427.402	132.94
427.625	161.94
427.847	133.94
428.069	105.94
428.292	79.94
428.514	90.94
428.736	82.94
428.958	85.94
429.181	75.94
429.403	83.94
429.625	93.94
429.847	92.94
430.069	92.94
430.292	83.94
430.514	78.94
430.736	68.94
430.958	93.94
431.18	80.94
431.402	65.94
431.624	96.94
431.846	91.94
432.068	100.94
432.29	77.94
432.512	105.94
432.734	92.94
432.956	94.94
433.178	108.94
433.4	98.94
433.622	92.94
433.844	92.94
434.066	68.94
434.287	73.94
434.509	77.94
434.731	93.94
434.953	92.94
435.175	91.94
435.397	83.94
435.618	96.94
435.84	102.94
436.062	90.94
436.284	110.94
436.505	93.94
436.727	89.94
436.949	85.94
437.17	91.94
437.392	80.94
437.614	82.94
437.835	97.94
438.057	111.94
438.278	106.94
438.5	102.94
438.721	109.94
438.943	100.94
439.165	85.94
439.386	76.94
439.608	84.94
439.829	96.94
440.05	96.94
440.272	127.94
440.493	100.94
440.715	92.94
440.936	84.94
441.158	80.94
441.379	95.94
441.6	91.94
441.822	83.94
442.043	91.94
442.264	86.94
442.486	82.94
442.707	88.94
442.928	108.94
443.149	132.94
443.371	129.94
443.592	111.94
443.813	98.94
444.034	101.94
444.255	88.94
444.476	94.94
444.698	80.94
444.919	83.94
445.14	118.94
445.361	100.94
445.582	116.94
445.803	117.94
446.024	107.94
446.245	114.94
446.466	98.94
446.687	83.94
446.908	84.94
447.129	84.94
447.35	90.94
447.571	83.94
447.792	90.94
448.013	92.94
448.234	99.94
448.455	86.94
448.675	93.94
448.896	101.94
449.117	95.94
449.338	100.94
449.559	114.94
449.779	120.94
450	96.94
450.221	81.94
450.442	97.94
450.662	90.94
450.883	104.94
451.104	111.94
451.324	89.94
451.545	84.94
451.766	80.94
451.986	91.94
452.207	93.94
452.428	97.94
452.648	93.94
452.869	93.94
453.089	120.94
453.31	119.94
453.53	94.94
453.751	112.94
453.971	95.94
454.192	107.94
454.412	81.94
454.633	81.94
454.853	78.94
455.073	84.94
455.294	89.94
455.514	86.94
455.734	68.94
455.955	67.94
456.175	77.94
456.395	100.94
456.616	92.94
456.836	76.94
457.056	82.94
457.276	94.94
457.497	88.94
457.717	77.94
457.937	84.94
458.157	93.94
458.377	88.94
458.598	116.94
458.818	144.94
459.038	154.94
459.258	115.94
459.478	89.94
459.698	88.94
459.918	78.94
460.138	87.94
460.358	86.94
460.578	83.94
460.798	79.94
461.018	75.94
461.238	82.94
461.458	86.94
461.678	76.94
461.898	81.94
462.118	82.94
462.338	99.94
462.558	78.94
462.777	87.94
462.997	79.94
463.217	87.94
463.437	78.94
463.657	90.94
463.876	91.94
464.096	98.94
464.316	95.94
464.536	95.94
464.755	80.94
464.975	108.94
465.195	161.94
465.414	165.94
465.634	96.94
465.854	86.94
466.073	82.94
466.293	97.94
466.512	83.94
466.732	80.94
466.951	80.94
467.171	90.94
467.391	92.94
467.61	104.94
467.829	100.94
468.049	127.94
468.268	152.94
468.488	102.94
468.707	87.94
468.927	81.94
469.146	71.94
469.365	93.94
469.585	99.94
469.804	108.94
470.023	91.94
470.243	81.94
470.462	89.94
470.681	108.94
470.901	89.94
471.12	84.94
471.339	87.94
471.558	84.94
471.777	89.94
471.997	110.94
472.216	191.94
472.435	316.94
472.654	125.94
472.873	89.94
473.092	84.94
473.311	99.94
473.53	80.94
473.749	68.94
473.968	90.94
474.187	86.94
474.406	77.94
474.625	99.94
474.844	89.94
475.063	95.94
475.282	86.94
475.501	106.94
475.72	85.94
475.939	72.94
476.158	84.94
476.377	92.94
476.596	81.94
476.814	95.94
477.033	104.94
477.252	95.94
477.471	85.94
477.69	79.94
477.908	92.94
478.127	84.94
478.346	99.94
478.564	98.94
478.783	94.94
479.002	106.94
479.22	91.94
479.439	90.94
479.658	93.94
479.876	90.94
480.095	88.94
480.313	78.94
480.532	92.94
480.751	108.94
480.969	196.94
481.188	539.94
481.406	334.94
481.624	120.94
481.843	72.94
482.061	81.94
482.28	80.94
482.498	85.94
482.717	77.94
482.935	88.94
483.153	84.94
483.372	72.94
483.59	72.94
483.808	93.94
484.027	84.94
484.245	90.94
484.463	100.94
484.681	89.94
484.9	72.94
485.118	91.94
485.336	92.94
485.554	99.94
485.772	89.94
485.99	97.94
486.209	96.94
486.427	100.94
486.645	105.94
486.863	111.94
487.081	106.94
487.299	87.94
487.517	74.94
487.735	84.94
487.953	69.94
488.171	85.94
488.389	91.94
488.607	97.94
488.825	93.94
489.043	82.94
489.261	84.94
489.479	99.94
489.696	91.94
489.914	74.94
490.132	82.94
490.35	83.94
490.568	77.94
490.786	81.94
491.003	93.94
491.221	98.94
491.439	86.94
491.657	68.94
491.874	82.94
492.092	73.94
492.31	92.94
492.527	98.94
492.745	79.94
492.963	79.94
493.18	93.94
493.398	91.94
493.615	92.94
493.833	96.94
494.05	86.94
494.268	83.94
494.485	81.94
494.703	87.94
494.92	97.94
495.138	104.94
495.355	105.94
495.573	85.94
495.79	76.94
496.008	84.94
496.225	88.94
496.442	85.94
496.66	88.94
496.877	81.94
497.094	105.94
497.312	94.94
497.529	93.94
497.746	87.94
497.963	87.94
498.181	90.94
498.398	102.94
498.615	104.94
498.832	95.94
499.049	86.94
499.267	101.94
499.484	94.94
499.701	107.94
499.918	88.94
500.135	95.94
500.352	82.94
500.569	97.94
500.786	91.94
501.003	101.94
501.22	84.94
501.437	92.94
501.654	77.94
501.871	97.94
502.088	105.94
502.305	88.94
502.522	77.94
502.739	76.94
502.956	88.94
503.172	91.94
503.389	91.94
503.606	102.94
503.823	94.94
504.04	106.94
504.256	105.94
504.473	98.94
504.69	89.94
504.907	104.94
505.123	86.94
505.34	81.94
505.557	93.94
505.773	98.94
505.99	92.94
506.207	98.94
506.423	89.94
506.64	105.94
506.856	87.94
507.073	84.94
507.289	90.94
507.506	101.94
507.722	122.94
507.939	101.94
508.155	105.94
508.372	92.94
508.588	80.94
508.805	94.94
509.021	86.94
509.238	101.94
509.454	109.94
509.67	97.94
509.887	109.94
510.103	120.94
510.319	229.94
510.536	842.94
510.752	2846.94
510.968	786.94
511.184	176.94
511.401	110.94
511.617	102.94
511.833	89.94
512.049	87.94
512.265	86.94
512.481	84.94
512.698	81.94
512.914	81.94
513.13	87.94
513.346	91.94
513.562	103.94
513.778	82.94
513.994	101.94
514.21	92.94
514.426	122.94
514.642	133.94
514.858	104.94
515.074	161.94
515.29	488.94
515.506	1604.94
515.721	592.94
515.937	158.94
516.153	121.94
516.369	93.94
