Data from Circ_1996_H10_HRD10591_00065.txt Node
Date: Wed Jan 03 11:33:19 EST 2024
User: Yrep
Spectrometer: HR+D1059
Trigger mode: 1
Integration Time (sec): 1.000000E-1
Scans to average: 1
Electric dark correction enabled: true
Nonlinearity correction enabled: false
Boxcar width: 0
XAxis mode: Wavelengths
Number of Pixels in Spectrum: 2048
>>>>>Begin Spectral Data<<<<<
223.165	-4.38
223.4	-4.38
223.635	-4.38
223.869	-15.38
224.104	-29.38
224.338	-13.38
224.573	-8.38
224.808	-19.38
225.042	-3.38
225.277	-5.38
225.511	-5.38
225.746	1.62
225.98	-4.38
226.215	7.62
226.449	17.62
226.683	29.62
226.918	21.62
227.152	30.62
227.387	29.62
227.621	34.62
227.856	53.62
228.09	61.62
228.324	48.62
228.559	46.62
228.793	70.62
229.027	63.62
229.262	61.62
229.496	63.62
229.73	75.62
229.964	83.62
230.199	79.62
230.433	76.62
230.667	86.62
230.901	84.62
231.136	80.62
231.37	80.62
231.604	92.62
231.838	79.62
232.072	79.62
232.306	79.62
232.541	78.62
232.775	75.62
233.009	78.62
233.243	91.62
233.477	73.62
233.711	92.62
233.945	82.62
234.179	90.62
234.413	92.62
234.647	68.62
234.881	87.62
235.115	74.62
235.349	79.62
235.583	71.62
235.817	79.62
236.051	82.62
236.285	74.62
236.519	87.62
236.753	78.62
236.987	75.62
237.221	96.62
237.455	72.62
237.689	77.62
237.922	88.62
238.156	67.62
238.39	84.62
238.624	82.62
238.858	65.62
239.091	77.62
239.325	63.62
239.559	90.62
239.793	69.62
240.027	71.62
240.26	95.62
240.494	89.62
240.728	82.62
240.961	78.62
241.195	69.62
241.429	85.62
241.662	84.62
241.896	75.62
242.13	81.62
242.363	76.62
242.597	85.62
242.83	87.62
243.064	84.62
243.298	83.62
243.531	80.62
243.765	98.62
243.998	75.62
244.232	76.62
244.465	96.62
244.699	73.62
244.932	70.62
245.166	82.62
245.399	76.62
245.633	84.62
245.866	78.62
246.099	83.62
246.333	84.62
246.566	77.62
246.8	83.62
247.033	88.62
247.266	64.62
247.5	75.62
247.733	87.62
247.966	96.62
248.2	95.62
248.433	73.62
248.666	76.62
248.899	88.62
249.133	79.62
249.366	91.62
249.599	80.62
249.832	87.62
250.066	92.62
250.299	83.62
250.532	84.62
250.765	83.62
250.998	93.62
251.231	66.62
251.465	76.62
251.698	92.62
251.931	77.62
252.164	71.62
252.397	87.62
252.63	94.62
252.863	79.62
253.096	78.62
253.329	84.62
253.562	95.62
253.795	77.62
254.028	77.62
254.261	76.62
254.494	85.62
254.727	98.62
254.96	73.62
255.193	79.62
255.426	74.62
255.659	84.62
255.892	75.62
256.124	87.62
256.357	90.62
256.59	73.62
256.823	75.62
257.056	98.62
257.289	89.62
257.521	79.62
257.754	80.62
257.987	103.62
258.22	65.62
258.452	94.62
258.685	81.62
258.918	85.62
259.151	94.62
259.383	80.62
259.616	60.62
259.849	80.62
260.081	93.62
260.314	88.62
260.547	83.62
260.779	90.62
261.012	82.62
261.244	82.62
261.477	88.62
261.71	99.62
261.942	103.62
262.175	113.62
262.407	101.62
262.64	86.62
262.872	76.62
263.105	83.62
263.337	93.62
263.57	76.62
263.802	85.62
264.035	82.62
264.267	68.62
264.499	80.62
264.732	89.62
264.964	81.62
265.197	77.62
265.429	72.62
265.661	79.62
265.894	83.62
266.126	82.62
266.358	88.62
266.591	81.62
266.823	82.62
267.055	94.62
267.287	87.62
267.52	78.62
267.752	81.62
267.984	68.62
268.216	76.62
268.448	87.62
268.681	83.62
268.913	84.62
269.145	100.62
269.377	90.62
269.609	82.62
269.841	103.62
270.073	77.62
270.306	82.62
270.538	87.62
270.77	88.62
271.002	95.62
271.234	100.62
271.466	82.62
271.698	73.62
271.93	79.62
272.162	100.62
272.394	83.62
272.626	94.62
272.858	86.62
273.09	90.62
273.322	82.62
273.553	80.62
273.785	89.62
274.017	86.62
274.249	98.62
274.481	91.62
274.713	93.62
274.945	84.62
275.176	82.62
275.408	82.62
275.64	95.62
275.872	86.62
276.104	79.62
276.335	93.62
276.567	100.62
276.799	92.62
277.031	108.62
277.262	97.62
277.494	99.62
277.726	102.62
277.957	83.62
278.189	83.62
278.421	80.62
278.652	88.62
278.884	84.62
279.115	81.62
279.347	84.62
279.579	100.62
279.81	92.62
280.042	92.62
280.273	95.62
280.505	79.62
280.736	80.62
280.968	97.62
281.199	90.62
281.431	86.62
281.662	75.62
281.894	89.62
282.125	87.62
282.356	119.62
282.588	147.62
282.819	105.62
283.051	75.62
283.282	96.62
283.513	77.62
283.745	77.62
283.976	80.62
284.207	84.62
284.439	87.62
284.67	101.62
284.901	86.62
285.132	84.62
285.364	92.62
285.595	85.62
285.826	87.62
286.057	77.62
286.288	74.62
286.52	71.62
286.751	94.62
286.982	89.62
287.213	73.62
287.444	90.62
287.675	109.62
287.906	91.62
288.138	99.62
288.369	106.62
288.6	98.62
288.831	80.62
289.062	93.62
289.293	82.62
289.524	103.62
289.755	85.62
289.986	94.62
290.217	94.62
290.448	86.62
290.679	96.62
290.91	80.62
291.141	91.62
291.371	98.62
291.602	91.62
291.833	82.62
292.064	97.62
292.295	91.62
292.526	82.62
292.757	77.62
292.987	85.62
293.218	89.62
293.449	91.62
293.68	92.62
293.91	80.62
294.141	83.62
294.372	87.62
294.603	79.62
294.833	80.62
295.064	97.62
295.295	91.62
295.525	91.62
295.756	110.62
295.987	128.62
296.217	143.62
296.448	115.62
296.679	92.62
296.909	81.62
297.14	84.62
297.37	85.62
297.601	92.62
297.831	90.62
298.062	85.62
298.292	87.62
298.523	87.62
298.753	96.62
298.984	87.62
299.214	84.62
299.445	89.62
299.675	89.62
299.905	101.62
300.136	81.62
300.366	91.62
300.597	105.62
300.827	100.62
301.057	105.62
301.288	108.62
301.518	95.62
301.748	81.62
301.979	87.62
302.209	92.62
302.439	98.62
302.669	92.62
302.9	96.62
303.13	93.62
303.36	87.62
303.59	91.62
303.82	97.62
304.051	94.62
304.281	82.62
304.511	83.62
304.741	89.62
304.971	81.62
305.201	88.62
305.431	89.62
305.661	87.62
305.891	83.62
306.121	96.62
306.352	99.62
306.582	100.62
306.812	91.62
307.042	104.62
307.272	110.62
307.502	101.62
307.731	94.62
307.961	101.62
308.191	93.62
308.421	83.62
308.651	94.62
308.881	97.62
309.111	90.62
309.341	105.62
309.571	118.62
309.8	96.62
310.03	100.62
310.26	96.62
310.49	90.62
310.72	94.62
310.949	104.62
311.179	110.62
311.409	101.62
311.639	88.62
311.868	87.62
312.098	99.62
312.328	93.62
312.557	98.62
312.787	104.62
313.017	98.62
313.246	78.62
313.476	98.62
313.706	101.62
313.935	84.62
314.165	99.62
314.394	96.62
314.624	93.62
314.853	93.62
315.083	106.62
315.312	97.62
315.542	92.62
315.771	89.62
316.001	90.62
316.23	94.62
316.46	91.62
316.689	88.62
316.919	85.62
317.148	93.62
317.377	112.62
317.607	103.62
317.836	106.62
318.065	84.62
318.295	92.62
318.524	82.62
318.753	90.62
318.983	102.62
319.212	107.62
319.441	105.62
319.67	110.62
319.9	95.62
320.129	85.62
320.358	99.62
320.587	87.62
320.816	85.62
321.046	111.62
321.275	102.62
321.504	89.62
321.733	99.62
321.962	102.62
322.191	100.62
322.42	95.62
322.649	119.62
322.878	102.62
323.108	105.62
323.337	113.62
323.566	128.62
323.795	131.62
324.024	178.62
324.253	292.62
324.482	579.62
324.71	1147.62
324.939	1524.62
325.168	603.62
325.397	205.62
325.626	124.62
325.855	119.62
326.084	108.62
326.313	121.62
326.542	129.62
326.77	188.62
326.999	304.62
327.228	596.62
327.457	1104.62
327.686	900.62
327.914	288.62
328.143	196.62
328.372	162.62
328.6	126.62
328.829	114.62
329.058	119.62
329.287	120.62
329.515	115.62
329.744	128.62
329.972	111.62
330.201	167.62
330.43	184.62
330.658	145.62
330.887	136.62
331.115	123.62
331.344	111.62
331.572	105.62
331.801	89.62
332.03	96.62
332.258	94.62
332.486	96.62
332.715	91.62
332.943	88.62
333.172	102.62
333.4	95.62
333.629	107.62
333.857	133.62
334.085	137.62
334.314	174.62
334.542	226.62
334.771	194.62
334.999	112.62
335.227	98.62
335.455	96.62
335.684	88.62
335.912	94.62
336.14	105.62
336.369	93.62
336.597	112.62
336.825	91.62
337.053	90.62
337.281	84.62
337.51	91.62
337.738	94.62
337.966	101.62
338.194	96.62
338.422	83.62
338.65	102.62
338.878	98.62
339.106	100.62
339.334	88.62
339.562	97.62
339.79	90.62
340.018	82.62
340.246	77.62
340.474	96.62
340.702	101.62
340.93	91.62
341.158	90.62
341.386	97.62
341.614	110.62
341.842	109.62
342.07	104.62
342.298	98.62
342.526	103.62
342.754	86.62
342.981	98.62
343.209	89.62
343.437	91.62
343.665	94.62
343.893	92.62
344.12	93.62
344.348	88.62
344.576	84.62
344.804	103.62
345.031	87.62
345.259	95.62
345.487	91.62
345.714	92.62
345.942	89.62
346.17	104.62
346.397	96.62
346.625	85.62
346.853	90.62
347.08	65.62
347.308	98.62
347.535	94.62
347.763	99.62
347.99	97.62
348.218	104.62
348.445	118.62
348.673	86.62
348.9	97.62
349.128	98.62
349.355	100.62
349.583	108.62
349.81	93.62
350.037	103.62
350.265	95.62
350.492	89.62
350.72	89.62
350.947	112.62
351.174	110.62
351.402	120.62
351.629	100.62
351.856	96.62
352.083	99.62
352.311	95.62
352.538	105.62
352.765	106.62
352.992	106.62
353.22	108.62
353.447	122.62
353.674	102.62
353.901	94.62
354.128	101.62
354.355	98.62
354.583	92.62
354.81	89.62
355.037	105.62
355.264	93.62
355.491	103.62
355.718	95.62
355.945	100.62
356.172	81.62
356.399	104.62
356.626	90.62
356.853	99.62
357.08	95.62
357.307	96.62
357.534	86.62
357.761	103.62
357.988	94.62
358.215	95.62
358.441	89.62
358.668	86.62
358.895	87.62
359.122	108.62
359.349	85.62
359.576	95.62
359.802	113.62
360.029	113.62
360.256	108.62
360.483	99.62
360.709	95.62
360.936	87.62
361.163	86.62
361.39	85.62
361.616	102.62
361.843	98.62
362.07	93.62
362.296	84.62
362.523	81.62
362.749	105.62
362.976	85.62
363.203	92.62
363.429	101.62
363.656	86.62
363.882	123.62
364.109	100.62
364.335	91.62
364.562	90.62
364.788	79.62
365.015	100.62
365.241	100.62
365.468	103.62
365.694	103.62
365.92	97.62
366.147	88.62
366.373	84.62
366.599	100.62
366.826	90.62
367.052	92.62
367.278	90.62
367.505	74.62
367.731	90.62
367.957	85.62
368.184	96.62
368.41	95.62
368.636	112.62
368.862	115.62
369.089	108.62
369.315	99.62
369.541	92.62
369.767	99.62
369.993	89.62
370.219	94.62
370.445	84.62
370.672	87.62
370.898	99.62
371.124	101.62
371.35	78.62
371.576	85.62
371.802	83.62
372.028	82.62
372.254	88.62
372.48	85.62
372.706	81.62
372.932	90.62
373.158	79.62
373.384	79.62
373.61	92.62
373.835	79.62
374.061	81.62
374.287	93.62
374.513	81.62
374.739	91.62
374.965	91.62
375.191	75.62
375.416	68.62
375.642	99.62
375.868	96.62
376.094	81.62
376.319	84.62
376.545	103.62
376.771	92.62
376.997	92.62
377.222	121.62
377.448	100.62
377.674	93.62
377.899	94.62
378.125	94.62
378.35	104.62
378.576	87.62
378.802	86.62
379.027	80.62
379.253	106.62
379.478	99.62
379.704	97.62
379.929	92.62
380.155	87.62
380.38	81.62
380.606	104.62
380.831	87.62
381.057	88.62
381.282	97.62
381.507	96.62
381.733	103.62
381.958	99.62
382.184	99.62
382.409	87.62
382.634	105.62
382.86	106.62
383.085	97.62
383.31	100.62
383.535	98.62
383.761	101.62
383.986	91.62
384.211	110.62
384.436	94.62
384.662	109.62
384.887	108.62
385.112	99.62
385.337	91.62
385.562	111.62
385.787	97.62
386.013	105.62
386.238	119.62
386.463	118.62
386.688	97.62
386.913	99.62
387.138	101.62
387.363	102.62
387.588	92.62
387.813	104.62
388.038	100.62
388.263	100.62
388.488	99.62
388.713	86.62
388.938	101.62
389.163	96.62
389.387	85.62
389.612	93.62
389.837	101.62
390.062	95.62
390.287	83.62
390.512	88.62
390.736	73.62
390.961	83.62
391.186	101.62
391.411	84.62
391.636	85.62
391.86	95.62
392.085	87.62
392.31	85.62
392.534	87.62
392.759	77.62
392.984	95.62
393.208	89.62
393.433	94.62
393.658	107.62
393.882	91.62
394.107	91.62
394.331	99.62
394.556	82.62
394.78	109.62
395.005	90.62
395.229	93.62
395.454	111.62
395.678	93.62
395.903	81.62
396.127	84.62
396.352	98.62
396.576	89.62
396.801	110.62
397.025	96.62
397.249	99.62
397.474	91.62
397.698	104.62
397.922	92.62
398.147	91.62
398.371	89.62
398.595	100.62
398.82	83.62
399.044	89.62
399.268	90.62
399.492	94.62
399.717	97.62
399.941	98.62
400.165	98.62
400.389	77.62
400.613	94.62
400.837	88.62
401.062	97.62
401.286	97.62
401.51	93.62
401.734	85.62
401.958	99.62
402.182	118.62
402.406	171.62
402.63	110.62
402.854	102.62
403.078	82.62
403.302	90.62
403.526	75.62
403.75	99.62
403.974	94.62
404.198	94.62
404.422	98.62
404.645	75.62
404.869	90.62
405.093	93.62
405.317	92.62
405.541	111.62
405.765	103.62
405.988	117.62
406.212	159.62
406.436	212.62
406.66	151.62
406.883	99.62
407.107	87.62
407.331	88.62
407.555	98.62
407.778	103.62
408.002	103.62
408.226	81.62
408.449	96.62
408.673	106.62
408.896	93.62
409.12	92.62
409.344	84.62
409.567	85.62
409.791	91.62
410.014	88.62
410.238	100.62
410.461	103.62
410.685	95.62
410.908	94.62
411.132	92.62
411.355	96.62
411.578	85.62
411.802	87.62
412.025	82.62
412.249	94.62
412.472	102.62
412.695	93.62
412.919	83.62
413.142	85.62
413.365	95.62
413.589	95.62
413.812	80.62
414.035	92.62
414.258	78.62
414.482	94.62
414.705	95.62
414.928	95.62
415.151	101.62
415.374	111.62
415.597	91.62
415.821	92.62
416.044	98.62
416.267	98.62
416.49	76.62
416.713	89.62
416.936	95.62
417.159	88.62
417.382	89.62
417.605	94.62
417.828	114.62
418.051	96.62
418.274	102.62
418.497	89.62
418.72	95.62
418.943	97.62
419.166	89.62
419.389	77.62
419.611	88.62
419.834	75.62
420.057	96.62
420.28	92.62
420.503	84.62
420.726	87.62
420.948	87.62
421.171	97.62
421.394	101.62
421.617	86.62
421.839	95.62
422.062	87.62
422.285	97.62
422.507	104.62
422.73	100.62
422.953	100.62
423.175	111.62
423.398	92.62
423.621	99.62
423.843	77.62
424.066	75.62
424.288	89.62
424.511	85.62
424.733	101.62
424.956	103.62
425.178	87.62
425.401	98.62
425.623	100.62
425.846	88.62
426.068	83.62
426.291	97.62
426.513	98.62
426.735	91.62
426.958	98.62
427.18	97.62
427.402	109.62
427.625	147.62
427.847	128.62
428.069	106.62
428.292	101.62
428.514	91.62
428.736	79.62
428.958	95.62
429.181	88.62
429.403	89.62
429.625	94.62
429.847	104.62
430.069	89.62
430.292	82.62
430.514	89.62
430.736	71.62
430.958	75.62
431.18	87.62
431.402	90.62
431.624	81.62
431.846	85.62
432.068	83.62
432.29	91.62
432.512	98.62
432.734	93.62
432.956	91.62
433.178	95.62
433.4	93.62
433.622	97.62
433.844	96.62
434.066	92.62
434.287	85.62
434.509	89.62
434.731	94.62
434.953	86.62
435.175	87.62
435.397	97.62
435.618	91.62
435.84	100.62
436.062	116.62
436.284	104.62
436.505	80.62
436.727	84.62
436.949	92.62
437.17	90.62
437.392	80.62
437.614	94.62
437.835	95.62
438.057	114.62
438.278	101.62
438.5	103.62
438.721	116.62
438.943	100.62
439.165	93.62
439.386	84.62
439.608	87.62
439.829	96.62
440.05	104.62
440.272	134.62
440.493	102.62
440.715	88.62
440.936	80.62
441.158	95.62
441.379	94.62
441.6	107.62
441.822	105.62
442.043	92.62
442.264	98.62
442.486	92.62
442.707	95.62
442.928	96.62
443.149	110.62
443.371	126.62
443.592	101.62
443.813	106.62
444.034	87.62
444.255	103.62
444.476	98.62
444.698	72.62
444.919	83.62
445.14	120.62
445.361	112.62
445.582	111.62
445.803	107.62
446.024	108.62
446.245	116.62
446.466	112.62
446.687	76.62
446.908	94.62
447.129	90.62
447.35	81.62
447.571	93.62
447.792	106.62
448.013	100.62
448.234	93.62
448.455	89.62
448.675	105.62
448.896	104.62
449.117	87.62
449.338	96.62
449.559	113.62
449.779	121.62
450	85.62
450.221	88.62
450.442	85.62
450.662	98.62
450.883	108.62
451.104	102.62
451.324	99.62
451.545	87.62
451.766	83.62
451.986	80.62
452.207	98.62
452.428	94.62
452.648	112.62
452.869	104.62
453.089	106.62
453.31	111.62
453.53	98.62
453.751	96.62
453.971	101.62
454.192	103.62
454.412	100.62
454.633	87.62
454.853	82.62
455.073	83.62
455.294	94.62
455.514	108.62
455.734	83.62
455.955	83.62
456.175	96.62
456.395	85.62
456.616	76.62
456.836	85.62
457.056	81.62
457.276	91.62
457.497	86.62
457.717	83.62
457.937	91.62
458.157	92.62
458.377	89.62
458.598	103.62
458.818	119.62
459.038	147.62
459.258	106.62
459.478	93.62
459.698	89.62
459.918	91.62
460.138	94.62
460.358	97.62
460.578	85.62
460.798	78.62
461.018	92.62
461.238	90.62
461.458	81.62
461.678	65.62
461.898	88.62
462.118	91.62
462.338	96.62
462.558	97.62
462.777	105.62
462.997	83.62
463.217	87.62
463.437	85.62
463.657	81.62
463.876	108.62
464.096	88.62
464.316	98.62
464.536	90.62
464.755	99.62
464.975	97.62
465.195	148.62
465.414	154.62
465.634	100.62
465.854	93.62
466.073	87.62
466.293	72.62
466.512	94.62
466.732	81.62
466.951	97.62
467.171	91.62
467.391	98.62
467.61	89.62
467.829	93.62
468.049	112.62
468.268	132.62
468.488	95.62
468.707	91.62
468.927	91.62
469.146	88.62
469.365	84.62
469.585	76.62
469.804	91.62
470.023	101.62
470.243	83.62
470.462	83.62
470.681	108.62
470.901	78.62
471.12	93.62
471.339	103.62
471.558	92.62
471.777	89.62
471.997	92.62
472.216	187.62
472.435	268.62
472.654	113.62
472.873	97.62
473.092	80.62
473.311	94.62
473.53	79.62
473.749	97.62
473.968	85.62
474.187	89.62
474.406	93.62
474.625	95.62
474.844	96.62
475.063	75.62
475.282	71.62
475.501	94.62
475.72	86.62
475.939	79.62
476.158	82.62
476.377	93.62
476.596	91.62
476.814	92.62
477.033	85.62
477.252	79.62
477.471	92.62
477.69	91.62
477.908	83.62
478.127	92.62
478.346	61.62
478.564	87.62
478.783	88.62
479.002	87.62
479.22	95.62
479.439	100.62
479.658	93.62
479.876	106.62
480.095	106.62
480.313	96.62
480.532	93.62
480.751	97.62
480.969	167.62
481.188	445.62
481.406	287.62
481.624	97.62
481.843	86.62
482.061	73.62
482.28	76.62
482.498	83.62
482.717	83.62
482.935	85.62
483.153	98.62
483.372	75.62
483.59	82.62
483.808	84.62
484.027	104.62
484.245	89.62
484.463	98.62
484.681	110.62
484.9	85.62
485.118	110.62
485.336	83.62
485.554	84.62
485.772	98.62
485.99	111.62
486.209	98.62
486.427	111.62
486.645	117.62
486.863	109.62
487.081	101.62
487.299	101.62
487.517	100.62
487.735	90.62
487.953	93.62
488.171	104.62
488.389	97.62
488.607	97.62
488.825	83.62
489.043	67.62
489.261	106.62
489.479	74.62
489.696	83.62
489.914	90.62
490.132	88.62
490.35	96.62
490.568	77.62
490.786	93.62
491.003	85.62
491.221	87.62
491.439	86.62
491.657	97.62
491.874	88.62
492.092	80.62
492.31	90.62
492.527	79.62
492.745	99.62
492.963	83.62
493.18	74.62
493.398	89.62
493.615	104.62
493.833	107.62
494.05	91.62
494.268	82.62
494.485	80.62
494.703	78.62
494.92	82.62
495.138	92.62
495.355	93.62
495.573	97.62
495.79	97.62
496.008	99.62
496.225	90.62
496.442	90.62
496.66	91.62
496.877	92.62
497.094	91.62
497.312	88.62
497.529	82.62
497.746	103.62
497.963	94.62
498.181	79.62
498.398	79.62
498.615	107.62
498.832	107.62
499.049	89.62
499.267	105.62
499.484	88.62
499.701	93.62
499.918	99.62
500.135	95.62
500.352	84.62
500.569	92.62
500.786	85.62
501.003	83.62
501.22	98.62
501.437	84.62
501.654	88.62
501.871	103.62
502.088	89.62
502.305	80.62
502.522	93.62
502.739	97.62
502.956	83.62
503.172	92.62
503.389	100.62
503.606	92.62
503.823	103.62
504.04	86.62
504.256	99.62
504.473	95.62
504.69	94.62
504.907	93.62
505.123	90.62
505.34	85.62
505.557	92.62
505.773	90.62
505.99	85.62
506.207	85.62
506.423	79.62
506.64	86.62
506.856	85.62
507.073	90.62
507.289	106.62
507.506	81.62
507.722	98.62
507.939	104.62
508.155	111.62
508.372	93.62
508.588	106.62
508.805	97.62
509.021	100.62
509.238	107.62
509.454	99.62
509.67	106.62
509.887	112.62
510.103	134.62
510.319	219.62
510.536	757.62
510.752	2501.62
510.968	692.62
511.184	167.62
511.401	97.62
511.617	103.62
511.833	89.62
512.049	93.62
512.265	92.62
512.481	88.62
512.698	100.62
512.914	84.62
513.13	96.62
513.346	90.62
513.562	94.62
513.778	95.62
513.994	96.62
514.21	92.62
514.426	118.62
514.642	122.62
514.858	130.62
515.074	157.62
515.29	407.62
515.506	1373.62
