Data from Circ_1996_H10_HRD10591_00032.txt Node
Date: Wed Jan 03 11:33:12 EST 2024
User: Yrep
Spectrometer: HR+D1059
Trigger mode: 1
Integration Time (sec): 1.000000E-1
Scans to average: 1
Electric dark correction enabled: true
Nonlinearity correction enabled: false
Boxcar width: 0
XAxis mode: Wavelengths
Number of Pixels in Spectrum: 2048
>>>>>Begin Spectral Data<<<<<
223.165	-14.69
223.4	-14.69
223.635	-14.69
223.869	-16.69
224.104	-24.69
224.338	-17.69
224.573	-5.69
224.808	-16.69
225.042	-8.69
225.277	-4.69
225.511	-6.69
225.746	8.31
225.98	16.31
226.215	8.31
226.449	7.31
226.683	22.31
226.918	32.31
227.152	21.31
227.387	42.31
227.621	42.31
227.856	38.31
228.09	48.31
228.324	55.31
228.559	48.31
228.793	56.31
229.027	48.31
229.262	68.31
229.496	71.31
229.73	81.31
229.964	78.31
230.199	76.31
230.433	69.31
230.667	85.31
230.901	77.31
231.136	75.31
231.37	78.31
231.604	81.31
231.838	76.31
232.072	90.31
232.306	75.31
232.541	78.31
232.775	85.31
233.009	81.31
233.243	84.31
233.477	81.31
233.711	92.31
233.945	85.31
234.179	80.31
234.413	80.31
234.647	77.31
234.881	81.31
235.115	76.31
235.349	68.31
235.583	78.31
235.817	97.31
236.051	74.31
236.285	84.31
236.519	73.31
236.753	76.31
236.987	74.31
237.221	83.31
237.455	90.31
237.689	77.31
237.922	74.31
238.156	84.31
238.39	79.31
238.624	79.31
238.858	73.31
239.091	76.31
239.325	76.31
239.559	81.31
239.793	80.31
240.027	84.31
240.26	92.31
240.494	85.31
240.728	74.31
240.961	80.31
241.195	89.31
241.429	91.31
241.662	72.31
241.896	65.31
242.13	76.31
242.363	83.31
242.597	86.31
242.83	64.31
243.064	97.31
243.298	84.31
243.531	86.31
243.765	96.31
243.998	84.31
244.232	78.31
244.465	85.31
244.699	84.31
244.932	73.31
245.166	86.31
245.399	70.31
245.633	86.31
245.866	72.31
246.099	78.31
246.333	85.31
246.566	64.31
246.8	73.31
247.033	72.31
247.266	79.31
247.5	86.31
247.733	82.31
247.966	78.31
248.2	92.31
248.433	74.31
248.666	86.31
248.899	86.31
249.133	87.31
249.366	90.31
249.599	96.31
249.832	75.31
250.066	83.31
250.299	87.31
250.532	88.31
250.765	85.31
250.998	76.31
251.231	72.31
251.465	76.31
251.698	86.31
251.931	86.31
252.164	78.31
252.397	79.31
252.63	78.31
252.863	90.31
253.096	86.31
253.329	86.31
253.562	78.31
253.795	92.31
254.028	82.31
254.261	74.31
254.494	78.31
254.727	94.31
254.96	84.31
255.193	81.31
255.426	85.31
255.659	98.31
255.892	89.31
256.124	83.31
256.357	86.31
256.59	85.31
256.823	77.31
257.056	77.31
257.289	77.31
257.521	75.31
257.754	74.31
257.987	88.31
258.22	112.31
258.452	76.31
258.685	78.31
258.918	82.31
259.151	84.31
259.383	81.31
259.616	89.31
259.849	79.31
260.081	69.31
260.314	89.31
260.547	84.31
260.779	91.31
261.012	79.31
261.244	93.31
261.477	95.31
261.71	87.31
261.942	100.31
262.175	119.31
262.407	89.31
262.64	81.31
262.872	82.31
263.105	77.31
263.337	77.31
263.57	90.31
263.802	77.31
264.035	83.31
264.267	72.31
264.499	78.31
264.732	94.31
264.964	82.31
265.197	97.31
265.429	87.31
265.661	80.31
265.894	83.31
266.126	89.31
266.358	74.31
266.591	93.31
266.823	69.31
267.055	77.31
267.287	98.31
267.52	72.31
267.752	81.31
267.984	79.31
268.216	88.31
268.448	82.31
268.681	73.31
268.913	77.31
269.145	89.31
269.377	83.31
269.609	90.31
269.841	91.31
270.073	94.31
270.306	85.31
270.538	87.31
270.77	85.31
271.002	83.31
271.234	85.31
271.466	99.31
271.698	88.31
271.93	86.31
272.162	85.31
272.394	82.31
272.626	86.31
272.858	73.31
273.09	85.31
273.322	82.31
273.553	85.31
273.785	88.31
274.017	80.31
274.249	97.31
274.481	78.31
274.713	88.31
274.945	94.31
275.176	88.31
275.408	77.31
275.64	90.31
275.872	93.31
276.104	98.31
276.335	98.31
276.567	98.31
276.799	109.31
277.031	81.31
277.262	74.31
277.494	93.31
277.726	88.31
277.957	88.31
278.189	93.31
278.421	97.31
278.652	92.31
278.884	84.31
279.115	86.31
279.347	77.31
279.579	87.31
279.81	82.31
280.042	91.31
280.273	102.31
280.505	91.31
280.736	83.31
280.968	97.31
281.199	85.31
281.431	89.31
281.662	89.31
281.894	97.31
282.125	104.31
282.356	127.31
282.588	134.31
282.819	102.31
283.051	90.31
283.282	82.31
283.513	92.31
283.745	74.31
283.976	90.31
284.207	95.31
284.439	89.31
284.67	91.31
284.901	69.31
285.132	91.31
285.364	81.31
285.595	84.31
285.826	82.31
286.057	97.31
286.288	79.31
286.52	84.31
286.751	84.31
286.982	85.31
287.213	93.31
287.444	87.31
287.675	94.31
287.906	88.31
288.138	99.31
288.369	93.31
288.6	95.31
288.831	98.31
289.062	91.31
289.293	84.31
289.524	85.31
289.755	101.31
289.986	92.31
290.217	96.31
290.448	77.31
290.679	85.31
290.91	86.31
291.141	92.31
291.371	91.31
291.602	94.31
291.833	77.31
292.064	91.31
292.295	89.31
292.526	86.31
292.757	74.31
292.987	89.31
293.218	89.31
293.449	86.31
293.68	86.31
293.91	96.31
294.141	94.31
294.372	87.31
294.603	80.31
294.833	94.31
295.064	80.31
295.295	80.31
295.525	100.31
295.756	86.31
295.987	113.31
296.217	137.31
296.448	117.31
296.679	85.31
296.909	99.31
297.14	84.31
297.37	99.31
297.601	79.31
297.831	88.31
298.062	108.31
298.292	100.31
298.523	98.31
298.753	80.31
298.984	86.31
299.214	97.31
299.445	82.31
299.675	103.31
299.905	96.31
300.136	96.31
300.366	76.31
300.597	93.31
300.827	100.31
301.057	112.31
301.288	96.31
301.518	91.31
301.748	97.31
301.979	95.31
302.209	94.31
302.439	85.31
302.669	82.31
302.9	104.31
303.13	92.31
303.36	99.31
303.59	65.31
303.82	111.31
304.051	99.31
304.281	84.31
304.511	91.31
304.741	73.31
304.971	77.31
305.201	97.31
305.431	101.31
305.661	88.31
305.891	98.31
306.121	88.31
306.352	99.31
306.582	93.31
306.812	95.31
307.042	95.31
307.272	89.31
307.502	106.31
307.731	106.31
307.961	89.31
308.191	95.31
308.421	89.31
308.651	84.31
308.881	94.31
309.111	106.31
309.341	103.31
309.571	109.31
309.8	95.31
310.03	111.31
310.26	92.31
310.49	91.31
310.72	104.31
310.949	101.31
311.179	91.31
311.409	96.31
311.639	92.31
311.868	95.31
312.098	92.31
312.328	97.31
312.557	109.31
312.787	95.31
313.017	94.31
313.246	105.31
313.476	102.31
313.706	92.31
313.935	107.31
314.165	88.31
314.394	107.31
314.624	113.31
314.853	108.31
315.083	79.31
315.312	102.31
315.542	97.31
315.771	104.31
316.001	81.31
316.23	114.31
316.46	98.31
316.689	98.31
316.919	72.31
317.148	81.31
317.377	97.31
317.607	62.31
317.836	92.31
318.065	94.31
318.295	83.31
318.524	87.31
318.753	79.31
318.983	89.31
319.212	89.31
319.441	101.31
319.67	111.31
319.9	93.31
320.129	90.31
320.358	80.31
320.587	97.31
320.816	109.31
321.046	88.31
321.275	105.31
321.504	93.31
321.733	92.31
321.962	81.31
322.191	99.31
322.42	101.31
322.649	109.31
322.878	116.31
323.108	107.31
323.337	103.31
323.566	116.31
323.795	122.31
324.024	173.31
324.253	312.31
324.482	592.31
324.71	1195.31
324.939	1515.31
325.168	588.31
325.397	203.31
325.626	137.31
325.855	123.31
326.084	137.31
326.313	118.31
326.542	139.31
326.77	184.31
326.999	330.31
327.228	648.31
327.457	1128.31
327.686	940.31
327.914	273.31
328.143	178.31
328.372	164.31
328.6	121.31
328.829	125.31
329.058	115.31
329.287	122.31
329.515	99.31
329.744	100.31
329.972	117.31
330.201	154.31
330.43	176.31
330.658	152.31
330.887	132.31
331.115	111.31
331.344	103.31
331.572	98.31
331.801	94.31
332.03	104.31
332.258	107.31
332.486	89.31
332.715	84.31
332.943	88.31
333.172	92.31
333.4	101.31
333.629	99.31
333.857	97.31
334.085	117.31
334.314	152.31
334.542	195.31
334.771	184.31
334.999	112.31
335.227	105.31
335.455	94.31
335.684	91.31
335.912	97.31
336.14	112.31
336.369	95.31
336.597	102.31
336.825	96.31
337.053	100.31
337.281	88.31
337.51	95.31
337.738	101.31
337.966	82.31
338.194	97.31
338.422	105.31
338.65	101.31
338.878	92.31
339.106	86.31
339.334	81.31
339.562	85.31
339.79	80.31
340.018	82.31
340.246	103.31
340.474	104.31
340.702	98.31
340.93	111.31
341.158	84.31
341.386	92.31
341.614	84.31
341.842	100.31
342.07	91.31
342.298	90.31
342.526	87.31
342.754	100.31
342.981	82.31
343.209	90.31
343.437	87.31
343.665	80.31
343.893	93.31
344.12	90.31
344.348	93.31
344.576	97.31
344.804	112.31
345.031	112.31
345.259	88.31
345.487	88.31
345.714	89.31
345.942	77.31
346.17	88.31
346.397	96.31
346.625	108.31
346.853	107.31
347.08	99.31
347.308	92.31
347.535	98.31
347.763	100.31
347.99	102.31
348.218	100.31
348.445	85.31
348.673	112.31
348.9	96.31
349.128	101.31
349.355	97.31
349.583	85.31
349.81	107.31
350.037	104.31
350.265	85.31
350.492	103.31
350.72	94.31
350.947	96.31
351.174	112.31
351.402	91.31
351.629	89.31
351.856	100.31
352.083	109.31
352.311	108.31
352.538	96.31
352.765	117.31
352.992	104.31
353.22	118.31
353.447	105.31
353.674	95.31
353.901	106.31
354.128	110.31
354.355	110.31
354.583	100.31
354.81	113.31
355.037	97.31
355.264	96.31
355.491	85.31
355.718	82.31
355.945	95.31
356.172	102.31
356.399	95.31
356.626	90.31
356.853	99.31
357.08	99.31
357.307	91.31
357.534	102.31
357.761	98.31
357.988	91.31
358.215	103.31
358.441	100.31
358.668	96.31
358.895	110.31
359.122	94.31
359.349	76.31
359.576	90.31
359.802	99.31
360.029	108.31
360.256	107.31
360.483	93.31
360.709	71.31
360.936	99.31
361.163	89.31
361.39	93.31
361.616	90.31
361.843	93.31
362.07	93.31
362.296	99.31
362.523	108.31
362.749	89.31
362.976	101.31
363.203	92.31
363.429	90.31
363.656	98.31
363.882	101.31
364.109	106.31
364.335	90.31
364.562	85.31
364.788	95.31
365.015	103.31
365.241	106.31
365.468	102.31
365.694	99.31
365.92	78.31
366.147	100.31
366.373	101.31
366.599	87.31
366.826	105.31
367.052	82.31
367.278	98.31
367.505	94.31
367.731	102.31
367.957	112.31
368.184	94.31
368.41	99.31
368.636	127.31
368.862	119.31
369.089	96.31
369.315	87.31
369.541	83.31
369.767	85.31
369.993	96.31
370.219	109.31
370.445	84.31
370.672	92.31
370.898	93.31
371.124	88.31
371.35	92.31
371.576	86.31
371.802	97.31
372.028	94.31
372.254	97.31
372.48	91.31
372.706	101.31
372.932	87.31
373.158	92.31
373.384	98.31
373.61	108.31
373.835	94.31
374.061	96.31
374.287	93.31
374.513	98.31
374.739	94.31
374.965	78.31
375.191	99.31
375.416	116.31
375.642	91.31
375.868	105.31
376.094	108.31
376.319	92.31
376.545	89.31
376.771	98.31
376.997	90.31
377.222	71.31
377.448	110.31
377.674	87.31
377.899	85.31
378.125	95.31
378.35	96.31
378.576	76.31
378.802	76.31
379.027	106.31
379.253	97.31
379.478	84.31
379.704	93.31
379.929	94.31
380.155	107.31
380.38	107.31
380.606	92.31
380.831	106.31
381.057	97.31
381.282	102.31
381.507	102.31
381.733	104.31
381.958	100.31
382.184	108.31
382.409	113.31
382.634	96.31
382.86	111.31
383.085	107.31
383.31	94.31
383.535	104.31
383.761	107.31
383.986	100.31
384.211	108.31
384.436	101.31
384.662	106.31
384.887	101.31
385.112	110.31
385.337	120.31
385.562	105.31
385.787	99.31
386.013	112.31
386.238	122.31
386.463	116.31
386.688	106.31
386.913	109.31
387.138	121.31
387.363	100.31
387.588	116.31
387.813	99.31
388.038	100.31
388.263	123.31
388.488	138.31
388.713	106.31
388.938	99.31
389.163	97.31
389.387	95.31
389.612	92.31
389.837	100.31
390.062	89.31
390.287	89.31
390.512	100.31
390.736	82.31
390.961	86.31
391.186	97.31
391.411	100.31
391.636	95.31
391.86	94.31
392.085	95.31
392.31	69.31
392.534	85.31
392.759	98.31
392.984	108.31
393.208	107.31
393.433	110.31
393.658	92.31
393.882	89.31
394.107	108.31
394.331	98.31
394.556	95.31
394.78	97.31
395.005	89.31
395.229	93.31
395.454	83.31
395.678	76.31
395.903	88.31
396.127	83.31
396.352	96.31
396.576	98.31
396.801	93.31
397.025	95.31
397.249	89.31
397.474	92.31
397.698	100.31
397.922	86.31
398.147	100.31
398.371	92.31
398.595	77.31
398.82	76.31
399.044	97.31
399.268	98.31
399.492	90.31
399.717	93.31
399.941	100.31
400.165	92.31
400.389	98.31
400.613	88.31
400.837	81.31
401.062	92.31
401.286	95.31
401.51	92.31
401.734	85.31
401.958	102.31
402.182	132.31
402.406	153.31
402.63	116.31
402.854	83.31
403.078	85.31
403.302	70.31
403.526	99.31
403.75	84.31
403.974	88.31
404.198	77.31
404.422	77.31
404.645	90.31
404.869	88.31
405.093	101.31
405.317	113.31
405.541	106.31
405.765	93.31
405.988	121.31
406.212	161.31
406.436	211.31
406.66	138.31
406.883	104.31
407.107	89.31
407.331	100.31
407.555	86.31
407.778	92.31
408.002	93.31
408.226	88.31
408.449	77.31
408.673	82.31
408.896	97.31
409.12	95.31
409.344	102.31
409.567	100.31
409.791	104.31
410.014	91.31
410.238	84.31
410.461	97.31
410.685	88.31
410.908	106.31
411.132	112.31
411.355	84.31
411.578	87.31
411.802	86.31
412.025	81.31
412.249	76.31
412.472	95.31
412.695	98.31
412.919	91.31
413.142	89.31
413.365	91.31
413.589	92.31
413.812	87.31
414.035	78.31
414.258	78.31
414.482	96.31
414.705	88.31
414.928	99.31
415.151	98.31
415.374	108.31
415.597	88.31
415.821	88.31
416.044	91.31
416.267	98.31
416.49	90.31
416.713	84.31
416.936	85.31
417.159	94.31
417.382	104.31
417.605	99.31
417.828	106.31
418.051	107.31
418.274	96.31
418.497	93.31
418.72	85.31
418.943	91.31
419.166	85.31
419.389	101.31
419.611	96.31
419.834	94.31
420.057	85.31
420.28	91.31
420.503	80.31
420.726	104.31
420.948	85.31
421.171	110.31
421.394	95.31
421.617	102.31
421.839	92.31
422.062	91.31
422.285	82.31
422.507	105.31
422.73	92.31
422.953	103.31
423.175	92.31
423.398	97.31
423.621	83.31
423.843	81.31
424.066	89.31
424.288	73.31
424.511	76.31
424.733	81.31
424.956	94.31
425.178	102.31
425.401	98.31
425.623	93.31
425.846	95.31
426.068	99.31
426.291	98.31
426.513	96.31
426.735	88.31
426.958	102.31
427.18	100.31
427.402	126.31
427.625	152.31
427.847	124.31
428.069	100.31
428.292	107.31
428.514	91.31
428.736	80.31
428.958	88.31
429.181	96.31
429.403	85.31
429.625	81.31
429.847	97.31
430.069	99.31
430.292	82.31
430.514	83.31
430.736	75.31
430.958	90.31
431.18	88.31
431.402	97.31
431.624	83.31
431.846	89.31
432.068	80.31
432.29	87.31
432.512	86.31
432.734	89.31
432.956	96.31
433.178	94.31
433.4	88.31
433.622	100.31
433.844	84.31
434.066	81.31
434.287	101.31
434.509	89.31
434.731	84.31
434.953	84.31
435.175	95.31
435.397	95.31
435.618	75.31
435.84	93.31
436.062	105.31
436.284	105.31
436.505	102.31
436.727	112.31
436.949	88.31
437.17	100.31
437.392	96.31
437.614	105.31
437.835	91.31
438.057	119.31
438.278	111.31
438.5	96.31
438.721	100.31
438.943	102.31
439.165	83.31
439.386	96.31
439.608	101.31
439.829	96.31
440.05	122.31
440.272	130.31
440.493	100.31
440.715	100.31
440.936	80.31
441.158	97.31
441.379	92.31
441.6	98.31
441.822	93.31
442.043	99.31
442.264	106.31
442.486	112.31
442.707	102.31
442.928	109.31
443.149	114.31
443.371	108.31
443.592	103.31
443.813	113.31
444.034	92.31
444.255	98.31
444.476	93.31
444.698	86.31
444.919	95.31
445.14	123.31
445.361	122.31
445.582	103.31
445.803	118.31
446.024	116.31
446.245	137.31
446.466	113.31
446.687	87.31
446.908	77.31
447.129	85.31
447.35	93.31
447.571	98.31
447.792	94.31
448.013	109.31
448.234	110.31
448.455	104.31
448.675	102.31
448.896	121.31
449.117	96.31
449.338	117.31
449.559	113.31
449.779	117.31
450	101.31
450.221	97.31
450.442	88.31
450.662	91.31
450.883	102.31
451.104	109.31
451.324	92.31
451.545	76.31
451.766	83.31
451.986	98.31
452.207	94.31
452.428	94.31
452.648	97.31
452.869	106.31
453.089	103.31
453.31	98.31
453.53	98.31
453.751	105.31
453.971	103.31
454.192	112.31
454.412	105.31
454.633	83.31
454.853	100.31
455.073	101.31
455.294	85.31
455.514	99.31
455.734	93.31
455.955	94.31
456.175	80.31
456.395	94.31
456.616	92.31
456.836	82.31
457.056	90.31
457.276	93.31
457.497	83.31
457.717	82.31
457.937	83.31
458.157	78.31
458.377	91.31
458.598	110.31
458.818	140.31
459.038	152.31
459.258	103.31
459.478	93.31
459.698	85.31
459.918	94.31
460.138	83.31
460.358	86.31
460.578	88.31
460.798	93.31
461.018	96.31
461.238	93.31
461.458	90.31
461.678	99.31
461.898	102.31
462.118	97.31
462.338	78.31
462.558	80.31
462.777	94.31
462.997	86.31
463.217	92.31
463.437	77.31
463.657	81.31
463.876	80.31
464.096	86.31
464.316	91.31
464.536	94.31
464.755	84.31
464.975	107.31
465.195	151.31
465.414	143.31
465.634	108.31
465.854	88.31
466.073	84.31
466.293	90.31
466.512	85.31
466.732	72.31
466.951	82.31
467.171	84.31
467.391	98.31
467.61	90.31
467.829	93.31
468.049	109.31
468.268	116.31
468.488	94.31
468.707	102.31
468.927	98.31
469.146	83.31
469.365	92.31
469.585	100.31
469.804	98.31
470.023	100.31
470.243	91.31
470.462	98.31
470.681	112.31
470.901	99.31
471.12	93.31
471.339	90.31
471.558	91.31
471.777	107.31
471.997	105.31
472.216	155.31
472.435	253.31
472.654	113.31
472.873	74.31
473.092	93.31
473.311	94.31
473.53	92.31
473.749	94.31
473.968	82.31
474.187	107.31
474.406	91.31
474.625	92.31
474.844	87.31
475.063	90.31
475.282	94.31
475.501	101.31
475.72	102.31
475.939	98.31
476.158	83.31
476.377	89.31
476.596	86.31
476.814	82.31
477.033	107.31
477.252	97.31
477.471	81.31
477.69	113.31
477.908	86.31
478.127	93.31
478.346	89.31
478.564	89.31
478.783	104.31
479.002	103.31
479.22	88.31
479.439	117.31
479.658	111.31
479.876	99.31
480.095	95.31
480.313	89.31
480.532	102.31
480.751	108.31
480.969	158.31
481.188	426.31
481.406	265.31
481.624	92.31
481.843	100.31
482.061	107.31
482.28	89.31
482.498	102.31
482.717	88.31
482.935	90.31
483.153	102.31
483.372	86.31
483.59	94.31
483.808	98.31
484.027	83.31
484.245	91.31
484.463	92.31
484.681	92.31
484.9	85.31
485.118	109.31
485.336	100.31
485.554	101.31
485.772	99.31
485.99	101.31
486.209	104.31
486.427	104.31
486.645	106.31
486.863	108.31
487.081	100.31
487.299	96.31
487.517	93.31
487.735	94.31
487.953	95.31
488.171	89.31
488.389	92.31
488.607	88.31
488.825	78.31
489.043	90.31
489.261	86.31
489.479	90.31
489.696	80.31
489.914	80.31
490.132	94.31
490.35	85.31
490.568	86.31
490.786	77.31
491.003	103.31
491.221	93.31
491.439	85.31
491.657	92.31
491.874	74.31
492.092	91.31
492.31	100.31
492.527	96.31
492.745	90.31
492.963	98.31
493.18	85.31
493.398	96.31
493.615	90.31
493.833	94.31
494.05	77.31
494.268	91.31
494.485	90.31
494.703	83.31
494.92	97.31
495.138	97.31
495.355	97.31
495.573	96.31
495.79	87.31
496.008	98.31
496.225	90.31
496.442	105.31
496.66	89.31
496.877	82.31
497.094	93.31
497.312	77.31
497.529	94.31
497.746	75.31
497.963	96.31
498.181	98.31
498.398	88.31
498.615	111.31
498.832	94.31
499.049	98.31
499.267	99.31
499.484	82.31
499.701	90.31
499.918	87.31
500.135	95.31
500.352	89.31
500.569	106.31
500.786	96.31
501.003	88.31
501.22	79.31
501.437	92.31
501.654	109.31
501.871	102.31
502.088	88.31
502.305	101.31
502.522	100.31
502.739	89.31
502.956	93.31
503.172	91.31
503.389	84.31
503.606	117.31
503.823	102.31
504.04	92.31
504.256	95.31
504.473	95.31
504.69	90.31
504.907	102.31
505.123	82.31
505.34	92.31
505.557	115.31
505.773	88.31
505.99	93.31
506.207	93.31
506.423	94.31
506.64	102.31
506.856	94.31
507.073	65.31
507.289	88.31
507.506	113.31
507.722	117.31
507.939	106.31
508.155	106.31
508.372	88.31
508.588	92.31
508.805	95.31
509.021	88.31
509.238	102.31
509.454	93.31
509.67	94.31
509.887	99.31
510.103	122.31
510.319	225.31
510.536	715.31
510.752	2433.31
510.968	657.31
511.184	147.31
511.401	111.31
511.617	97.31
511.833	93.31
512.049	104.31
512.265	101.31
512.481	109.31
512.698	94.31
512.914	96.31
513.13	88.31
513.346	97.31
513.562	86.31
513.778	99.31
513.994	97.31
514.21	98.31
514.426	121.31
514.642	127.31
514.858	116.31
