Data from Circ_1996_H10_HRD10591_00024.txt Node
Date: Wed Jan 03 11:33:10 EST 2024
User: Yrep
Spectrometer: HR+D1059
Trigger mode: 1
Integration Time (sec): 1.000000E-1
Scans to average: 1
Electric dark correction enabled: true
Nonlinearity correction enabled: false
Boxcar width: 0
XAxis mode: Wavelengths
Number of Pixels in Spectrum: 2048
>>>>>Begin Spectral Data<<<<<
223.165	-11.62
223.4	-11.62
223.635	-11.62
223.869	-15.62
224.104	-13.62
224.338	-10.62
224.573	-7.62
224.808	-14.62
225.042	1.38
225.277	-8.62
225.511	2.38
225.746	-8.62
225.98	12.38
226.215	-9.62
226.449	12.38
226.683	26.38
226.918	19.38
227.152	26.38
227.387	31.38
227.621	30.38
227.856	41.38
228.09	48.38
228.324	55.38
228.559	76.38
228.793	73.38
229.027	77.38
229.262	79.38
229.496	65.38
229.73	84.38
229.964	88.38
230.199	85.38
230.433	79.38
230.667	72.38
230.901	82.38
231.136	80.38
231.37	76.38
231.604	98.38
231.838	85.38
232.072	88.38
232.306	86.38
232.541	93.38
232.775	79.38
233.009	89.38
233.243	100.38
233.477	84.38
233.711	73.38
233.945	92.38
234.179	83.38
234.413	83.38
234.647	90.38
234.881	81.38
235.115	62.38
235.349	90.38
235.583	73.38
235.817	90.38
236.051	89.38
236.285	82.38
236.519	85.38
236.753	85.38
236.987	77.38
237.221	84.38
237.455	81.38
237.689	78.38
237.922	82.38
238.156	72.38
238.39	86.38
238.624	87.38
238.858	87.38
239.091	73.38
239.325	97.38
239.559	84.38
239.793	78.38
240.027	84.38
240.26	86.38
240.494	94.38
240.728	72.38
240.961	85.38
241.195	86.38
241.429	68.38
241.662	86.38
241.896	75.38
242.13	70.38
242.363	78.38
242.597	97.38
242.83	90.38
243.064	86.38
243.298	83.38
243.531	80.38
243.765	82.38
243.998	86.38
244.232	78.38
244.465	79.38
244.699	78.38
244.932	78.38
245.166	73.38
245.399	65.38
245.633	86.38
245.866	84.38
246.099	79.38
246.333	98.38
246.566	93.38
246.8	77.38
247.033	88.38
247.266	86.38
247.5	91.38
247.733	78.38
247.966	87.38
248.2	87.38
248.433	94.38
248.666	73.38
248.899	93.38
249.133	80.38
249.366	95.38
249.599	108.38
249.832	96.38
250.066	89.38
250.299	87.38
250.532	79.38
250.765	85.38
250.998	86.38
251.231	90.38
251.465	77.38
251.698	71.38
251.931	97.38
252.164	78.38
252.397	98.38
252.63	92.38
252.863	90.38
253.096	89.38
253.329	87.38
253.562	90.38
253.795	71.38
254.028	94.38
254.261	88.38
254.494	88.38
254.727	76.38
254.96	73.38
255.193	85.38
255.426	83.38
255.659	78.38
255.892	85.38
256.124	92.38
256.357	91.38
256.59	86.38
256.823	86.38
257.056	88.38
257.289	87.38
257.521	89.38
257.754	85.38
257.987	87.38
258.22	86.38
258.452	99.38
258.685	100.38
258.918	80.38
259.151	101.38
259.383	82.38
259.616	88.38
259.849	85.38
260.081	77.38
260.314	84.38
260.547	86.38
260.779	80.38
261.012	101.38
261.244	102.38
261.477	92.38
261.71	97.38
261.942	117.38
262.175	114.38
262.407	97.38
262.64	89.38
262.872	85.38
263.105	80.38
263.337	86.38
263.57	83.38
263.802	99.38
264.035	88.38
264.267	79.38
264.499	88.38
264.732	99.38
264.964	83.38
265.197	99.38
265.429	106.38
265.661	81.38
265.894	79.38
266.126	106.38
266.358	96.38
266.591	81.38
266.823	92.38
267.055	90.38
267.287	98.38
267.52	83.38
267.752	82.38
267.984	76.38
268.216	92.38
268.448	85.38
268.681	81.38
268.913	94.38
269.145	89.38
269.377	91.38
269.609	89.38
269.841	81.38
270.073	69.38
270.306	96.38
270.538	94.38
270.77	97.38
271.002	90.38
271.234	100.38
271.466	74.38
271.698	77.38
271.93	103.38
272.162	85.38
272.394	88.38
272.626	90.38
272.858	80.38
273.09	86.38
273.322	96.38
273.553	88.38
273.785	89.38
274.017	93.38
274.249	82.38
274.481	101.38
274.713	105.38
274.945	93.38
275.176	113.38
275.408	97.38
275.64	92.38
275.872	85.38
276.104	100.38
276.335	101.38
276.567	94.38
276.799	103.38
277.031	118.38
277.262	95.38
277.494	90.38
277.726	78.38
277.957	110.38
278.189	91.38
278.421	84.38
278.652	90.38
278.884	89.38
279.115	87.38
279.347	98.38
279.579	96.38
279.81	85.38
280.042	90.38
280.273	97.38
280.505	85.38
280.736	90.38
280.968	92.38
281.199	95.38
281.431	96.38
281.662	93.38
281.894	90.38
282.125	103.38
282.356	138.38
282.588	143.38
282.819	121.38
283.051	98.38
283.282	94.38
283.513	96.38
283.745	81.38
283.976	88.38
284.207	96.38
284.439	86.38
284.67	81.38
284.901	92.38
285.132	84.38
285.364	97.38
285.595	94.38
285.826	92.38
286.057	82.38
286.288	97.38
286.52	101.38
286.751	96.38
286.982	94.38
287.213	86.38
287.444	100.38
287.675	91.38
287.906	99.38
288.138	89.38
288.369	97.38
288.6	91.38
288.831	93.38
289.062	105.38
289.293	102.38
289.524	95.38
289.755	88.38
289.986	80.38
290.217	96.38
290.448	80.38
290.679	98.38
290.91	97.38
291.141	95.38
291.371	80.38
291.602	106.38
291.833	82.38
292.064	86.38
292.295	105.38
292.526	98.38
292.757	90.38
292.987	104.38
293.218	93.38
293.449	94.38
293.68	91.38
293.91	110.38
294.141	82.38
294.372	90.38
294.603	104.38
294.833	89.38
295.064	99.38
295.295	86.38
295.525	94.38
295.756	112.38
295.987	131.38
296.217	154.38
296.448	129.38
296.679	86.38
296.909	104.38
297.14	104.38
297.37	92.38
297.601	97.38
297.831	101.38
298.062	98.38
298.292	90.38
298.523	95.38
298.753	90.38
298.984	98.38
299.214	87.38
299.445	104.38
299.675	86.38
299.905	98.38
300.136	94.38
300.366	90.38
300.597	94.38
300.827	112.38
301.057	101.38
301.288	104.38
301.518	108.38
301.748	109.38
301.979	110.38
302.209	105.38
302.439	95.38
302.669	97.38
302.9	100.38
303.13	84.38
303.36	103.38
303.59	119.38
303.82	114.38
304.051	103.38
304.281	80.38
304.511	85.38
304.741	95.38
304.971	97.38
305.201	102.38
305.431	97.38
305.661	109.38
305.891	97.38
306.121	95.38
306.352	95.38
306.582	99.38
306.812	111.38
307.042	103.38
307.272	113.38
307.502	99.38
307.731	106.38
307.961	92.38
308.191	100.38
308.421	94.38
308.651	100.38
308.881	113.38
309.111	106.38
309.341	104.38
309.571	105.38
309.8	111.38
310.03	118.38
310.26	106.38
310.49	113.38
310.72	101.38
310.949	99.38
311.179	102.38
311.409	93.38
311.639	97.38
311.868	105.38
312.098	103.38
312.328	99.38
312.557	94.38
312.787	104.38
313.017	111.38
313.246	100.38
313.476	100.38
313.706	92.38
313.935	92.38
314.165	114.38
314.394	106.38
314.624	98.38
314.853	98.38
315.083	94.38
315.312	94.38
315.542	104.38
315.771	93.38
316.001	102.38
316.23	100.38
316.46	96.38
316.689	89.38
316.919	96.38
317.148	102.38
317.377	98.38
317.607	110.38
317.836	100.38
318.065	97.38
318.295	102.38
318.524	103.38
318.753	86.38
318.983	95.38
319.212	108.38
319.441	112.38
319.67	107.38
319.9	113.38
320.129	99.38
320.358	102.38
320.587	108.38
320.816	101.38
321.046	100.38
321.275	101.38
321.504	97.38
321.733	108.38
321.962	105.38
322.191	103.38
322.42	109.38
322.649	116.38
322.878	101.38
323.108	105.38
323.337	125.38
323.566	119.38
323.795	154.38
324.024	186.38
324.253	327.38
324.482	652.38
324.71	1308.38
324.939	1735.38
325.168	663.38
325.397	222.38
325.626	144.38
325.855	111.38
326.084	119.38
326.313	140.38
326.542	141.38
326.77	205.38
326.999	362.38
327.228	711.38
327.457	1254.38
327.686	1007.38
327.914	312.38
328.143	208.38
328.372	165.38
328.6	134.38
328.829	133.38
329.058	141.38
329.287	128.38
329.515	111.38
329.744	117.38
329.972	127.38
330.201	136.38
330.43	172.38
330.658	133.38
330.887	151.38
331.115	111.38
331.344	113.38
331.572	102.38
331.801	94.38
332.03	102.38
332.258	85.38
332.486	91.38
332.715	100.38
332.943	93.38
333.172	111.38
333.4	107.38
333.629	114.38
333.857	132.38
334.085	134.38
334.314	149.38
334.542	197.38
334.771	186.38
334.999	127.38
335.227	99.38
335.455	114.38
335.684	103.38
335.912	104.38
336.14	100.38
336.369	114.38
336.597	99.38
336.825	108.38
337.053	95.38
337.281	96.38
337.51	84.38
337.738	100.38
337.966	92.38
338.194	99.38
338.422	109.38
338.65	97.38
338.878	93.38
339.106	93.38
339.334	94.38
339.562	78.38
339.79	90.38
340.018	95.38
340.246	103.38
340.474	96.38
340.702	98.38
340.93	103.38
341.158	105.38
341.386	95.38
341.614	101.38
341.842	101.38
342.07	98.38
342.298	105.38
342.526	104.38
342.754	82.38
342.981	94.38
343.209	98.38
343.437	115.38
343.665	88.38
343.893	110.38
344.12	101.38
344.348	90.38
344.576	97.38
344.804	92.38
345.031	112.38
345.259	100.38
345.487	105.38
345.714	85.38
345.942	100.38
346.17	114.38
346.397	98.38
346.625	101.38
346.853	105.38
347.08	90.38
347.308	94.38
347.535	106.38
347.763	105.38
347.99	101.38
348.218	112.38
348.445	100.38
348.673	97.38
348.9	89.38
349.128	95.38
349.355	106.38
349.583	96.38
349.81	109.38
350.037	108.38
350.265	89.38
350.492	92.38
350.72	100.38
350.947	114.38
351.174	113.38
351.402	117.38
351.629	108.38
351.856	104.38
352.083	93.38
352.311	122.38
352.538	113.38
352.765	113.38
352.992	120.38
353.22	97.38
353.447	115.38
353.674	105.38
353.901	103.38
354.128	89.38
354.355	101.38
354.583	97.38
354.81	99.38
355.037	94.38
355.264	107.38
355.491	110.38
355.718	107.38
355.945	100.38
356.172	102.38
356.399	108.38
356.626	106.38
356.853	107.38
357.08	107.38
357.307	90.38
357.534	100.38
357.761	101.38
357.988	119.38
358.215	82.38
358.441	96.38
358.668	88.38
358.895	105.38
359.122	101.38
359.349	99.38
359.576	81.38
359.802	112.38
360.029	115.38
360.256	120.38
360.483	102.38
360.709	90.38
360.936	106.38
361.163	101.38
361.39	92.38
361.616	83.38
361.843	97.38
362.07	116.38
362.296	105.38
362.523	96.38
362.749	108.38
362.976	116.38
363.203	104.38
363.429	76.38
363.656	102.38
363.882	90.38
364.109	86.38
364.335	99.38
364.562	80.38
364.788	112.38
365.015	102.38
365.241	96.38
365.468	118.38
365.694	102.38
365.92	110.38
366.147	92.38
366.373	89.38
366.599	96.38
366.826	95.38
367.052	96.38
367.278	94.38
367.505	100.38
367.731	104.38
367.957	103.38
368.184	98.38
368.41	111.38
368.636	110.38
368.862	126.38
369.089	123.38
369.315	96.38
369.541	100.38
369.767	84.38
369.993	94.38
370.219	105.38
370.445	85.38
370.672	98.38
370.898	101.38
371.124	99.38
371.35	104.38
371.576	90.38
371.802	122.38
372.028	96.38
372.254	106.38
372.48	105.38
372.706	86.38
372.932	95.38
373.158	93.38
373.384	99.38
373.61	97.38
373.835	98.38
374.061	98.38
374.287	93.38
374.513	78.38
374.739	89.38
374.965	82.38
375.191	94.38
375.416	113.38
375.642	100.38
375.868	104.38
376.094	100.38
376.319	93.38
376.545	99.38
376.771	97.38
376.997	94.38
377.222	99.38
377.448	103.38
377.674	107.38
377.899	90.38
378.125	104.38
378.35	97.38
378.576	99.38
378.802	97.38
379.027	88.38
379.253	107.38
379.478	102.38
379.704	95.38
379.929	109.38
380.155	104.38
380.38	92.38
380.606	113.38
380.831	105.38
381.057	103.38
381.282	113.38
381.507	112.38
381.733	113.38
381.958	105.38
382.184	95.38
382.409	94.38
382.634	109.38
382.86	107.38
383.085	116.38
383.31	104.38
383.535	102.38
383.761	99.38
383.986	114.38
384.211	102.38
384.436	108.38
384.662	110.38
384.887	101.38
385.112	111.38
385.337	128.38
385.562	117.38
385.787	114.38
386.013	122.38
386.238	124.38
386.463	125.38
386.688	113.38
386.913	108.38
387.138	122.38
387.363	111.38
387.588	111.38
387.813	102.38
388.038	119.38
388.263	133.38
388.488	120.38
388.713	95.38
388.938	97.38
389.163	108.38
389.387	94.38
389.612	96.38
389.837	94.38
390.062	100.38
390.287	92.38
390.512	98.38
390.736	113.38
390.961	87.38
391.186	104.38
391.411	95.38
391.636	92.38
391.86	91.38
392.085	95.38
392.31	95.38
392.534	96.38
392.759	92.38
392.984	95.38
393.208	109.38
393.433	111.38
393.658	96.38
393.882	93.38
394.107	84.38
394.331	89.38
394.556	98.38
394.78	86.38
395.005	94.38
395.229	85.38
395.454	89.38
395.678	90.38
395.903	87.38
396.127	97.38
396.352	92.38
396.576	102.38
396.801	90.38
397.025	112.38
397.249	95.38
397.474	106.38
397.698	85.38
397.922	88.38
398.147	82.38
398.371	89.38
398.595	81.38
398.82	93.38
399.044	93.38
399.268	90.38
399.492	105.38
399.717	101.38
399.941	82.38
400.165	108.38
400.389	97.38
400.613	91.38
400.837	88.38
401.062	107.38
401.286	91.38
401.51	95.38
401.734	93.38
401.958	119.38
402.182	126.38
402.406	173.38
402.63	110.38
402.854	109.38
403.078	82.38
403.302	92.38
403.526	93.38
403.75	88.38
403.974	86.38
404.198	100.38
404.422	89.38
404.645	102.38
404.869	93.38
405.093	100.38
405.317	99.38
405.541	103.38
405.765	105.38
405.988	105.38
406.212	164.38
406.436	231.38
406.66	158.38
406.883	104.38
407.107	93.38
407.331	92.38
407.555	93.38
407.778	103.38
408.002	92.38
408.226	109.38
408.449	88.38
408.673	102.38
408.896	90.38
409.12	95.38
409.344	92.38
409.567	95.38
409.791	93.38
410.014	87.38
410.238	100.38
410.461	92.38
410.685	92.38
410.908	105.38
411.132	105.38
411.355	88.38
411.578	107.38
411.802	90.38
412.025	98.38
412.249	103.38
412.472	95.38
412.695	112.38
412.919	94.38
413.142	95.38
413.365	89.38
413.589	78.38
413.812	96.38
414.035	95.38
414.258	87.38
414.482	91.38
414.705	85.38
414.928	85.38
415.151	104.38
415.374	103.38
415.597	102.38
415.821	96.38
416.044	113.38
416.267	93.38
416.49	73.38
416.713	93.38
416.936	82.38
417.159	83.38
417.382	102.38
417.605	99.38
417.828	100.38
418.051	97.38
418.274	82.38
418.497	73.38
418.72	102.38
418.943	89.38
419.166	94.38
419.389	96.38
419.611	106.38
419.834	89.38
420.057	88.38
420.28	102.38
420.503	96.38
420.726	88.38
420.948	89.38
421.171	91.38
421.394	99.38
421.617	102.38
421.839	92.38
422.062	84.38
422.285	109.38
422.507	108.38
422.73	125.38
422.953	109.38
423.175	94.38
423.398	88.38
423.621	94.38
423.843	94.38
424.066	86.38
424.288	112.38
424.511	110.38
424.733	80.38
424.956	98.38
425.178	112.38
425.401	106.38
425.623	88.38
425.846	89.38
426.068	106.38
426.291	101.38
426.513	71.38
426.735	97.38
426.958	94.38
427.18	105.38
427.402	141.38
427.625	170.38
427.847	132.38
428.069	127.38
428.292	109.38
428.514	95.38
428.736	93.38
428.958	99.38
429.181	105.38
429.403	96.38
429.625	97.38
429.847	96.38
430.069	105.38
430.292	101.38
430.514	89.38
430.736	95.38
430.958	99.38
431.18	80.38
431.402	89.38
431.624	99.38
431.846	86.38
432.068	98.38
432.29	107.38
432.512	104.38
432.734	101.38
432.956	97.38
433.178	86.38
433.4	98.38
433.622	98.38
433.844	95.38
434.066	86.38
434.287	88.38
434.509	110.38
434.731	86.38
434.953	84.38
435.175	99.38
435.397	106.38
435.618	95.38
435.84	106.38
436.062	119.38
436.284	116.38
436.505	96.38
436.727	92.38
436.949	82.38
437.17	82.38
437.392	90.38
437.614	110.38
437.835	96.38
438.057	117.38
438.278	122.38
438.5	110.38
438.721	98.38
438.943	98.38
439.165	92.38
439.386	81.38
439.608	101.38
439.829	108.38
440.05	112.38
440.272	126.38
440.493	97.38
440.715	86.38
440.936	90.38
441.158	96.38
441.379	98.38
441.6	93.38
441.822	101.38
442.043	86.38
442.264	85.38
442.486	113.38
442.707	100.38
442.928	103.38
443.149	143.38
443.371	132.38
443.592	120.38
443.813	119.38
444.034	109.38
444.255	103.38
444.476	92.38
444.698	103.38
444.919	95.38
445.14	135.38
445.361	125.38
445.582	122.38
445.803	137.38
446.024	138.38
446.245	113.38
446.466	114.38
446.687	94.38
446.908	95.38
447.129	95.38
447.35	104.38
447.571	92.38
447.792	97.38
448.013	113.38
448.234	88.38
448.455	102.38
448.675	121.38
448.896	118.38
449.117	101.38
449.338	115.38
449.559	142.38
449.779	128.38
450	94.38
450.221	103.38
450.442	95.38
450.662	102.38
450.883	106.38
451.104	114.38
451.324	96.38
451.545	103.38
451.766	89.38
451.986	86.38
452.207	83.38
452.428	95.38
452.648	105.38
452.869	103.38
453.089	119.38
453.31	110.38
453.53	98.38
453.751	99.38
453.971	108.38
454.192	107.38
454.412	97.38
454.633	95.38
454.853	94.38
455.073	93.38
455.294	109.38
455.514	105.38
455.734	86.38
455.955	96.38
456.175	69.38
456.395	96.38
456.616	101.38
456.836	95.38
457.056	90.38
457.276	110.38
457.497	106.38
457.717	88.38
457.937	86.38
458.157	89.38
458.377	97.38
458.598	107.38
458.818	151.38
459.038	174.38
459.258	122.38
459.478	89.38
459.698	91.38
459.918	89.38
460.138	96.38
460.358	87.38
460.578	93.38
460.798	100.38
461.018	90.38
461.238	95.38
461.458	92.38
461.678	85.38
461.898	93.38
462.118	97.38
462.338	86.38
462.558	93.38
462.777	90.38
462.997	98.38
463.217	97.38
463.437	89.38
463.657	98.38
463.876	88.38
464.096	97.38
464.316	97.38
464.536	104.38
464.755	102.38
464.975	109.38
465.195	175.38
465.414	160.38
465.634	94.38
465.854	97.38
466.073	89.38
466.293	87.38
466.512	100.38
466.732	102.38
466.951	86.38
467.171	105.38
467.391	80.38
467.61	96.38
467.829	105.38
468.049	120.38
468.268	122.38
468.488	95.38
468.707	85.38
468.927	85.38
469.146	84.38
469.365	96.38
469.585	89.38
469.804	109.38
470.023	84.38
470.243	88.38
470.462	113.38
470.681	113.38
470.901	87.38
471.12	86.38
471.339	112.38
471.558	88.38
471.777	96.38
471.997	107.38
472.216	159.38
472.435	230.38
472.654	109.38
472.873	85.38
473.092	92.38
473.311	90.38
473.53	91.38
473.749	96.38
473.968	111.38
474.187	105.38
474.406	94.38
474.625	97.38
474.844	109.38
475.063	77.38
475.282	91.38
475.501	84.38
475.72	93.38
475.939	102.38
476.158	90.38
476.377	84.38
476.596	79.38
476.814	93.38
477.033	93.38
477.252	87.38
477.471	88.38
477.69	93.38
477.908	112.38
478.127	86.38
478.346	92.38
478.564	104.38
478.783	105.38
479.002	95.38
479.22	106.38
479.439	111.38
479.658	102.38
479.876	121.38
480.095	103.38
480.313	88.38
480.532	93.38
480.751	99.38
480.969	160.38
481.188	366.38
481.406	244.38
481.624	112.38
481.843	106.38
482.061	101.38
482.28	89.38
482.498	100.38
482.717	92.38
482.935	100.38
483.153	97.38
483.372	105.38
483.59	99.38
483.808	98.38
484.027	87.38
484.245	96.38
484.463	94.38
484.681	116.38
484.9	99.38
485.118	108.38
485.336	106.38
485.554	103.38
485.772	109.38
485.99	100.38
486.209	97.38
486.427	113.38
486.645	119.38
486.863	124.38
487.081	118.38
487.299	97.38
487.517	85.38
487.735	107.38
487.953	111.38
488.171	109.38
488.389	106.38
488.607	101.38
488.825	97.38
489.043	95.38
489.261	101.38
489.479	96.38
489.696	93.38
489.914	100.38
490.132	99.38
490.35	85.38
490.568	89.38
490.786	99.38
491.003	90.38
491.221	107.38
491.439	94.38
491.657	100.38
491.874	81.38
492.092	94.38
492.31	88.38
492.527	97.38
492.745	81.38
492.963	91.38
493.18	96.38
493.398	100.38
493.615	105.38
493.833	89.38
494.05	90.38
494.268	94.38
494.485	95.38
494.703	94.38
494.92	80.38
495.138	102.38
495.355	100.38
495.573	92.38
495.79	97.38
496.008	100.38
496.225	96.38
496.442	100.38
496.66	98.38
496.877	87.38
497.094	110.38
497.312	103.38
497.529	100.38
497.746	103.38
497.963	88.38
498.181	106.38
498.398	99.38
498.615	111.38
498.832	99.38
499.049	91.38
499.267	104.38
499.484	96.38
499.701	99.38
499.918	100.38
500.135	96.38
500.352	108.38
500.569	80.38
500.786	92.38
501.003	108.38
501.22	92.38
501.437	99.38
501.654	92.38
501.871	104.38
502.088	99.38
502.305	97.38
502.522	94.38
502.739	92.38
502.956	89.38
503.172	96.38
503.389	102.38
503.606	106.38
503.823	97.38
504.04	96.38
504.256	80.38
504.473	95.38
504.69	83.38
504.907	108.38
505.123	98.38
505.34	111.38
505.557	87.38
505.773	96.38
505.99	87.38
506.207	101.38
506.423	99.38
506.64	100.38
506.856	85.38
507.073	98.38
507.289	102.38
507.506	100.38
507.722	126.38
507.939	107.38
508.155	103.38
508.372	94.38
508.588	89.38
508.805	96.38
509.021	102.38
509.238	103.38
509.454	103.38
509.67	106.38
509.887	111.38
510.103	137.38
510.319	230.38
510.536	781.38
510.752	2589.38
510.968	696.38
511.184	160.38
511.401	120.38
511.617	112.38
511.833	102.38
512.049	102.38
512.265	101.38
512.481	97.38
512.698	109.38
