Data from Circ_1996_H10_HRD10591_00046.txt Node
Date: Wed Jan 03 11:33:15 EST 2024
User: Yrep
Spectrometer: HR+D1059
Trigger mode: 1
Integration Time (sec): 1.000000E-1
Scans to average: 1
Electric dark correction enabled: true
Nonlinearity correction enabled: false
Boxcar width: 0
XAxis mode: Wavelengths
Number of Pixels in Spectrum: 2048
>>>>>Begin Spectral Data<<<<<
223.165	-10.25
223.4	-10.25
223.635	-10.25
223.869	-20.25
224.104	-19.25
224.338	-15.25
224.573	-12.25
224.808	-22.25
225.042	0.75
225.277	-4.25
225.511	-13.25
225.746	11.75
225.98	4.75
226.215	-3.25
226.449	11.75
226.683	15.75
226.918	30.75
227.152	44.75
227.387	19.75
227.621	35.75
227.856	54.75
228.09	50.75
228.324	48.75
228.559	57.75
228.793	55.75
229.027	65.75
229.262	82.75
229.496	90.75
229.73	82.75
229.964	67.75
230.199	81.75
230.433	85.75
230.667	78.75
230.901	83.75
231.136	96.75
231.37	89.75
231.604	91.75
231.838	80.75
232.072	73.75
232.306	77.75
232.541	73.75
232.775	76.75
233.009	73.75
233.243	63.75
233.477	92.75
233.711	88.75
233.945	78.75
234.179	91.75
234.413	73.75
234.647	84.75
234.881	73.75
235.115	79.75
235.349	73.75
235.583	86.75
235.817	73.75
236.051	78.75
236.285	83.75
236.519	74.75
236.753	80.75
236.987	71.75
237.221	81.75
237.455	92.75
237.689	86.75
237.922	84.75
238.156	65.75
238.39	83.75
238.624	75.75
238.858	87.75
239.091	78.75
239.325	85.75
239.559	75.75
239.793	78.75
240.027	77.75
240.26	79.75
240.494	79.75
240.728	74.75
240.961	65.75
241.195	87.75
241.429	75.75
241.662	71.75
241.896	78.75
242.13	77.75
242.363	72.75
242.597	84.75
242.83	80.75
243.064	76.75
243.298	73.75
243.531	83.75
243.765	77.75
243.998	85.75
244.232	72.75
244.465	72.75
244.699	91.75
244.932	79.75
245.166	77.75
245.399	83.75
245.633	85.75
245.866	77.75
246.099	60.75
246.333	76.75
246.566	78.75
246.8	64.75
247.033	88.75
247.266	81.75
247.5	79.75
247.733	61.75
247.966	75.75
248.2	82.75
248.433	71.75
248.666	91.75
248.899	90.75
249.133	83.75
249.366	95.75
249.599	99.75
249.832	81.75
250.066	81.75
250.299	71.75
250.532	74.75
250.765	91.75
250.998	65.75
251.231	79.75
251.465	79.75
251.698	84.75
251.931	76.75
252.164	76.75
252.397	72.75
252.63	72.75
252.863	81.75
253.096	89.75
253.329	91.75
253.562	87.75
253.795	87.75
254.028	76.75
254.261	72.75
254.494	91.75
254.727	76.75
254.96	85.75
255.193	87.75
255.426	94.75
255.659	74.75
255.892	68.75
256.124	79.75
256.357	78.75
256.59	77.75
256.823	73.75
257.056	77.75
257.289	82.75
257.521	78.75
257.754	84.75
257.987	76.75
258.22	82.75
258.452	80.75
258.685	72.75
258.918	87.75
259.151	83.75
259.383	91.75
259.616	59.75
259.849	85.75
260.081	74.75
260.314	79.75
260.547	77.75
260.779	77.75
261.012	77.75
261.244	77.75
261.477	89.75
261.71	93.75
261.942	107.75
262.175	109.75
262.407	87.75
262.64	82.75
262.872	89.75
263.105	91.75
263.337	86.75
263.57	77.75
263.802	77.75
264.035	75.75
264.267	84.75
264.499	88.75
264.732	84.75
264.964	84.75
265.197	83.75
265.429	72.75
265.661	76.75
265.894	90.75
266.126	91.75
266.358	89.75
266.591	95.75
266.823	81.75
267.055	69.75
267.287	83.75
267.52	94.75
267.752	90.75
267.984	95.75
268.216	93.75
268.448	88.75
268.681	77.75
268.913	83.75
269.145	83.75
269.377	76.75
269.609	87.75
269.841	83.75
270.073	76.75
270.306	79.75
270.538	101.75
270.77	92.75
271.002	83.75
271.234	93.75
271.466	84.75
271.698	75.75
271.93	96.75
272.162	89.75
272.394	82.75
272.626	92.75
272.858	85.75
273.09	74.75
273.322	89.75
273.553	87.75
273.785	85.75
274.017	103.75
274.249	80.75
274.481	59.75
274.713	93.75
274.945	86.75
275.176	93.75
275.408	87.75
275.64	89.75
275.872	77.75
276.104	73.75
276.335	86.75
276.567	99.75
276.799	113.75
277.031	107.75
277.262	87.75
277.494	93.75
277.726	91.75
277.957	82.75
278.189	79.75
278.421	90.75
278.652	89.75
278.884	83.75
279.115	83.75
279.347	68.75
279.579	84.75
279.81	76.75
280.042	87.75
280.273	94.75
280.505	96.75
280.736	90.75
280.968	94.75
281.199	106.75
281.431	90.75
281.662	94.75
281.894	79.75
282.125	90.75
282.356	111.75
282.588	126.75
282.819	113.75
283.051	95.75
283.282	76.75
283.513	93.75
283.745	87.75
283.976	82.75
284.207	89.75
284.439	87.75
284.67	85.75
284.901	89.75
285.132	84.75
285.364	84.75
285.595	61.75
285.826	87.75
286.057	86.75
286.288	85.75
286.52	98.75
286.751	84.75
286.982	85.75
287.213	91.75
287.444	95.75
287.675	85.75
287.906	74.75
288.138	92.75
288.369	88.75
288.6	98.75
288.831	82.75
289.062	83.75
289.293	88.75
289.524	74.75
289.755	80.75
289.986	90.75
290.217	98.75
290.448	85.75
290.679	83.75
290.91	76.75
291.141	77.75
291.371	83.75
291.602	77.75
291.833	96.75
292.064	94.75
292.295	83.75
292.526	92.75
292.757	90.75
292.987	94.75
293.218	76.75
293.449	91.75
293.68	82.75
293.91	89.75
294.141	87.75
294.372	95.75
294.603	96.75
294.833	83.75
295.064	96.75
295.295	99.75
295.525	72.75
295.756	90.75
295.987	120.75
296.217	135.75
296.448	98.75
296.679	97.75
296.909	78.75
297.14	76.75
297.37	64.75
297.601	88.75
297.831	83.75
298.062	83.75
298.292	73.75
298.523	85.75
298.753	75.75
298.984	91.75
299.214	83.75
299.445	84.75
299.675	95.75
299.905	96.75
300.136	83.75
300.366	100.75
300.597	76.75
300.827	88.75
301.057	100.75
301.288	115.75
301.518	96.75
301.748	88.75
301.979	101.75
302.209	85.75
302.439	81.75
302.669	100.75
302.9	88.75
303.13	84.75
303.36	96.75
303.59	83.75
303.82	116.75
304.051	90.75
304.281	93.75
304.511	91.75
304.741	98.75
304.971	83.75
305.201	96.75
305.431	89.75
305.661	95.75
305.891	79.75
306.121	95.75
306.352	119.75
306.582	107.75
306.812	93.75
307.042	107.75
307.272	85.75
307.502	96.75
307.731	95.75
307.961	88.75
308.191	77.75
308.421	82.75
308.651	80.75
308.881	85.75
309.111	82.75
309.341	104.75
309.571	80.75
309.8	88.75
310.03	95.75
310.26	96.75
310.49	97.75
310.72	99.75
310.949	101.75
311.179	95.75
311.409	87.75
311.639	92.75
311.868	100.75
312.098	91.75
312.328	79.75
312.557	89.75
312.787	101.75
313.017	90.75
313.246	99.75
313.476	97.75
313.706	106.75
313.935	91.75
314.165	96.75
314.394	84.75
314.624	101.75
314.853	100.75
315.083	90.75
315.312	103.75
315.542	96.75
315.771	95.75
316.001	90.75
316.23	89.75
316.46	84.75
316.689	97.75
316.919	100.75
317.148	88.75
317.377	96.75
317.607	86.75
317.836	83.75
318.065	89.75
318.295	95.75
318.524	89.75
318.753	99.75
318.983	98.75
319.212	110.75
319.441	107.75
319.67	102.75
319.9	111.75
320.129	88.75
320.358	94.75
320.587	99.75
320.816	102.75
321.046	100.75
321.275	88.75
321.504	84.75
321.733	109.75
321.962	92.75
322.191	92.75
322.42	115.75
322.649	103.75
322.878	106.75
323.108	109.75
323.337	112.75
323.566	117.75
323.795	144.75
324.024	171.75
324.253	312.75
324.482	582.75
324.71	1181.75
324.939	1577.75
325.168	595.75
325.397	181.75
325.626	137.75
325.855	114.75
326.084	118.75
326.313	119.75
326.542	127.75
326.77	181.75
326.999	329.75
327.228	632.75
327.457	1141.75
327.686	913.75
327.914	296.75
328.143	205.75
328.372	158.75
328.6	132.75
328.829	120.75
329.058	123.75
329.287	119.75
329.515	102.75
329.744	123.75
329.972	121.75
330.201	156.75
330.43	171.75
330.658	134.75
330.887	132.75
331.115	99.75
331.344	91.75
331.572	94.75
331.801	103.75
332.03	99.75
332.258	107.75
332.486	92.75
332.715	98.75
332.943	106.75
333.172	100.75
333.4	100.75
333.629	106.75
333.857	118.75
334.085	121.75
334.314	141.75
334.542	214.75
334.771	207.75
334.999	120.75
335.227	93.75
335.455	107.75
335.684	88.75
335.912	91.75
336.14	113.75
336.369	100.75
336.597	96.75
336.825	93.75
337.053	93.75
337.281	76.75
337.51	75.75
337.738	94.75
337.966	83.75
338.194	94.75
338.422	97.75
338.65	90.75
338.878	85.75
339.106	89.75
339.334	86.75
339.562	84.75
339.79	89.75
340.018	86.75
340.246	95.75
340.474	93.75
340.702	91.75
340.93	88.75
341.158	93.75
341.386	96.75
341.614	96.75
341.842	96.75
342.07	99.75
342.298	88.75
342.526	95.75
342.754	85.75
342.981	95.75
343.209	94.75
343.437	92.75
343.665	94.75
343.893	95.75
344.12	103.75
344.348	104.75
344.576	84.75
344.804	92.75
345.031	87.75
345.259	101.75
345.487	99.75
345.714	95.75
345.942	91.75
346.17	79.75
346.397	86.75
346.625	88.75
346.853	112.75
347.08	95.75
347.308	95.75
347.535	98.75
347.763	97.75
347.99	91.75
348.218	96.75
348.445	106.75
348.673	104.75
348.9	100.75
349.128	106.75
349.355	83.75
349.583	101.75
349.81	99.75
350.037	92.75
350.265	108.75
350.492	101.75
350.72	87.75
350.947	106.75
351.174	111.75
351.402	105.75
351.629	103.75
351.856	88.75
352.083	92.75
352.311	115.75
352.538	97.75
352.765	114.75
352.992	109.75
353.22	121.75
353.447	99.75
353.674	102.75
353.901	88.75
354.128	98.75
354.355	101.75
354.583	100.75
354.81	95.75
355.037	95.75
355.264	116.75
355.491	93.75
355.718	93.75
355.945	90.75
356.172	104.75
356.399	90.75
356.626	90.75
356.853	85.75
357.08	89.75
357.307	83.75
357.534	92.75
357.761	101.75
357.988	100.75
358.215	91.75
358.441	97.75
358.668	85.75
358.895	89.75
359.122	86.75
359.349	102.75
359.576	87.75
359.802	93.75
360.029	98.75
360.256	105.75
360.483	109.75
360.709	97.75
360.936	97.75
361.163	104.75
361.39	98.75
361.616	90.75
361.843	79.75
362.07	91.75
362.296	101.75
362.523	90.75
362.749	98.75
362.976	86.75
363.203	92.75
363.429	92.75
363.656	96.75
363.882	88.75
364.109	88.75
364.335	101.75
364.562	78.75
364.788	94.75
365.015	85.75
365.241	101.75
365.468	102.75
365.694	81.75
365.92	90.75
366.147	91.75
366.373	99.75
366.599	87.75
366.826	87.75
367.052	84.75
367.278	85.75
367.505	74.75
367.731	96.75
367.957	106.75
368.184	97.75
368.41	94.75
368.636	111.75
368.862	115.75
369.089	103.75
369.315	81.75
369.541	93.75
369.767	87.75
369.993	94.75
370.219	88.75
370.445	80.75
370.672	89.75
370.898	91.75
371.124	71.75
371.35	75.75
371.576	83.75
371.802	85.75
372.028	97.75
372.254	104.75
372.48	80.75
372.706	95.75
372.932	82.75
373.158	82.75
373.384	88.75
373.61	90.75
373.835	87.75
374.061	86.75
374.287	91.75
374.513	96.75
374.739	93.75
374.965	99.75
375.191	84.75
375.416	98.75
375.642	96.75
375.868	90.75
376.094	85.75
376.319	88.75
376.545	79.75
376.771	79.75
376.997	87.75
377.222	88.75
377.448	95.75
377.674	99.75
377.899	90.75
378.125	94.75
378.35	79.75
378.576	87.75
378.802	92.75
379.027	79.75
379.253	97.75
379.478	81.75
379.704	87.75
379.929	96.75
380.155	107.75
380.38	96.75
380.606	93.75
380.831	92.75
381.057	101.75
381.282	92.75
381.507	88.75
381.733	109.75
381.958	112.75
382.184	101.75
382.409	102.75
382.634	103.75
382.86	85.75
383.085	89.75
383.31	107.75
383.535	105.75
383.761	104.75
383.986	95.75
384.211	98.75
384.436	90.75
384.662	93.75
384.887	97.75
385.112	96.75
385.337	103.75
385.562	93.75
385.787	112.75
386.013	111.75
386.238	120.75
386.463	101.75
386.688	107.75
386.913	103.75
387.138	91.75
387.363	100.75
387.588	101.75
387.813	108.75
388.038	109.75
388.263	109.75
388.488	119.75
388.713	97.75
388.938	95.75
389.163	96.75
389.387	96.75
389.612	67.75
389.837	81.75
390.062	78.75
390.287	95.75
390.512	86.75
390.736	95.75
390.961	97.75
391.186	97.75
391.411	101.75
391.636	107.75
391.86	90.75
392.085	94.75
392.31	100.75
392.534	88.75
392.759	86.75
392.984	92.75
393.208	102.75
393.433	110.75
393.658	99.75
393.882	74.75
394.107	84.75
394.331	98.75
394.556	82.75
394.78	80.75
395.005	79.75
395.229	75.75
395.454	90.75
395.678	100.75
395.903	83.75
396.127	84.75
396.352	63.75
396.576	92.75
396.801	97.75
397.025	101.75
397.249	95.75
397.474	88.75
397.698	100.75
397.922	94.75
398.147	95.75
398.371	79.75
398.595	82.75
398.82	75.75
399.044	87.75
399.268	71.75
399.492	83.75
399.717	90.75
399.941	95.75
400.165	94.75
400.389	98.75
400.613	98.75
400.837	87.75
401.062	105.75
401.286	88.75
401.51	84.75
401.734	90.75
401.958	97.75
402.182	115.75
402.406	155.75
402.63	113.75
402.854	87.75
403.078	95.75
403.302	92.75
403.526	96.75
403.75	79.75
403.974	99.75
404.198	87.75
404.422	82.75
404.645	89.75
404.869	93.75
405.093	104.75
405.317	94.75
405.541	90.75
405.765	98.75
405.988	120.75
406.212	161.75
406.436	203.75
406.66	133.75
406.883	101.75
407.107	96.75
407.331	96.75
407.555	96.75
407.778	93.75
408.002	72.75
408.226	90.75
408.449	83.75
408.673	90.75
408.896	96.75
409.12	77.75
409.344	92.75
409.567	100.75
409.791	79.75
410.014	93.75
410.238	89.75
410.461	84.75
410.685	88.75
410.908	89.75
411.132	106.75
411.355	98.75
411.578	85.75
411.802	94.75
412.025	84.75
412.249	82.75
412.472	93.75
412.695	92.75
412.919	95.75
413.142	96.75
413.365	89.75
413.589	96.75
413.812	85.75
414.035	91.75
414.258	95.75
414.482	92.75
414.705	77.75
414.928	87.75
415.151	88.75
415.374	94.75
415.597	86.75
415.821	96.75
416.044	93.75
416.267	84.75
416.49	87.75
416.713	93.75
416.936	89.75
417.159	109.75
417.382	87.75
417.605	96.75
417.828	91.75
418.051	95.75
418.274	95.75
418.497	67.75
418.72	73.75
418.943	93.75
419.166	107.75
419.389	87.75
419.611	96.75
419.834	89.75
420.057	84.75
420.28	84.75
420.503	111.75
420.726	81.75
420.948	88.75
421.171	96.75
421.394	95.75
421.617	95.75
421.839	87.75
422.062	91.75
422.285	84.75
422.507	101.75
422.73	90.75
422.953	103.75
423.175	95.75
423.398	96.75
423.621	84.75
423.843	96.75
424.066	83.75
424.288	91.75
424.511	100.75
424.733	85.75
424.956	94.75
425.178	101.75
425.401	85.75
425.623	86.75
425.846	84.75
426.068	105.75
426.291	92.75
426.513	90.75
426.735	96.75
426.958	87.75
427.18	101.75
427.402	124.75
427.625	158.75
427.847	121.75
428.069	103.75
428.292	105.75
428.514	83.75
428.736	73.75
428.958	86.75
429.181	83.75
429.403	83.75
429.625	95.75
429.847	77.75
430.069	84.75
430.292	97.75
430.514	93.75
430.736	75.75
430.958	90.75
431.18	88.75
431.402	89.75
431.624	89.75
431.846	86.75
432.068	100.75
432.29	100.75
432.512	89.75
432.734	89.75
432.956	81.75
433.178	106.75
433.4	103.75
433.622	82.75
433.844	102.75
434.066	100.75
434.287	91.75
434.509	95.75
434.731	100.75
434.953	70.75
435.175	100.75
435.397	85.75
435.618	85.75
435.84	95.75
436.062	109.75
436.284	111.75
436.505	100.75
436.727	96.75
436.949	99.75
437.17	92.75
437.392	87.75
437.614	106.75
437.835	103.75
438.057	124.75
438.278	101.75
438.5	112.75
438.721	94.75
438.943	80.75
439.165	83.75
439.386	82.75
439.608	82.75
439.829	101.75
440.05	103.75
440.272	130.75
440.493	94.75
440.715	91.75
440.936	74.75
441.158	90.75
441.379	91.75
441.6	83.75
441.822	100.75
442.043	96.75
442.264	97.75
442.486	108.75
442.707	96.75
442.928	89.75
443.149	114.75
443.371	112.75
443.592	96.75
443.813	100.75
444.034	108.75
444.255	101.75
444.476	93.75
444.698	93.75
444.919	82.75
445.14	126.75
445.361	125.75
445.582	105.75
445.803	113.75
446.024	115.75
446.245	123.75
446.466	95.75
446.687	93.75
446.908	94.75
447.129	107.75
447.35	95.75
447.571	97.75
447.792	95.75
448.013	88.75
448.234	89.75
448.455	96.75
448.675	111.75
448.896	99.75
449.117	112.75
449.338	89.75
449.559	105.75
449.779	108.75
450	97.75
450.221	94.75
450.442	97.75
450.662	85.75
450.883	104.75
451.104	115.75
451.324	91.75
451.545	76.75
451.766	76.75
451.986	91.75
452.207	106.75
452.428	84.75
452.648	106.75
452.869	98.75
453.089	90.75
453.31	112.75
453.53	98.75
453.751	93.75
453.971	104.75
454.192	95.75
454.412	97.75
454.633	85.75
454.853	92.75
455.073	89.75
455.294	95.75
455.514	92.75
455.734	98.75
455.955	90.75
456.175	84.75
456.395	93.75
456.616	90.75
456.836	101.75
457.056	82.75
457.276	98.75
457.497	88.75
457.717	83.75
457.937	101.75
458.157	95.75
458.377	83.75
458.598	87.75
458.818	137.75
459.038	135.75
459.258	112.75
459.478	73.75
459.698	90.75
459.918	88.75
460.138	98.75
460.358	98.75
460.578	89.75
460.798	111.75
461.018	90.75
461.238	89.75
461.458	93.75
461.678	79.75
461.898	96.75
462.118	83.75
462.338	75.75
462.558	89.75
462.777	77.75
462.997	84.75
463.217	98.75
463.437	90.75
463.657	76.75
463.876	91.75
464.096	80.75
464.316	101.75
464.536	101.75
464.755	114.75
464.975	104.75
465.195	152.75
465.414	131.75
465.634	99.75
465.854	83.75
466.073	97.75
466.293	84.75
466.512	80.75
466.732	80.75
466.951	89.75
467.171	97.75
467.391	92.75
467.61	101.75
467.829	96.75
468.049	107.75
468.268	121.75
468.488	75.75
468.707	88.75
468.927	78.75
469.146	87.75
469.365	105.75
469.585	87.75
469.804	96.75
470.023	91.75
470.243	105.75
470.462	100.75
470.681	107.75
470.901	92.75
471.12	96.75
471.339	92.75
471.558	94.75
471.777	91.75
471.997	102.75
472.216	166.75
472.435	239.75
472.654	120.75
472.873	95.75
473.092	84.75
473.311	95.75
473.53	101.75
473.749	89.75
473.968	103.75
474.187	93.75
474.406	95.75
474.625	94.75
474.844	90.75
475.063	93.75
475.282	71.75
475.501	89.75
475.72	75.75
475.939	99.75
476.158	102.75
476.377	79.75
476.596	103.75
476.814	94.75
477.033	111.75
477.252	92.75
477.471	74.75
477.69	98.75
477.908	87.75
478.127	97.75
478.346	81.75
478.564	99.75
478.783	91.75
479.002	96.75
479.22	91.75
479.439	114.75
479.658	85.75
479.876	107.75
480.095	98.75
480.313	97.75
480.532	87.75
480.751	94.75
480.969	165.75
481.188	391.75
481.406	248.75
481.624	110.75
481.843	86.75
482.061	94.75
482.28	92.75
482.498	89.75
482.717	84.75
482.935	82.75
483.153	92.75
483.372	80.75
483.59	80.75
483.808	91.75
484.027	100.75
484.245	89.75
484.463	76.75
484.681	87.75
484.9	83.75
485.118	84.75
485.336	87.75
485.554	105.75
485.772	89.75
485.99	101.75
486.209	98.75
486.427	122.75
486.645	107.75
486.863	110.75
487.081	83.75
487.299	104.75
487.517	86.75
487.735	114.75
487.953	84.75
488.171	91.75
488.389	88.75
488.607	112.75
488.825	85.75
489.043	92.75
489.261	82.75
489.479	83.75
489.696	79.75
489.914	95.75
490.132	99.75
490.35	102.75
490.568	94.75
490.786	75.75
491.003	95.75
491.221	71.75
491.439	83.75
491.657	90.75
491.874	75.75
492.092	90.75
492.31	85.75
492.527	119.75
492.745	87.75
492.963	86.75
493.18	95.75
493.398	99.75
493.615	67.75
493.833	81.75
494.05	99.75
494.268	94.75
494.485	85.75
494.703	79.75
494.92	93.75
495.138	87.75
495.355	88.75
495.573	90.75
495.79	71.75
496.008	102.75
496.225	90.75
496.442	96.75
496.66	93.75
496.877	100.75
497.094	79.75
497.312	95.75
497.529	94.75
497.746	68.75
497.963	91.75
498.181	110.75
498.398	94.75
498.615	109.75
498.832	102.75
499.049	82.75
499.267	80.75
499.484	80.75
499.701	80.75
499.918	93.75
500.135	77.75
500.352	104.75
500.569	85.75
500.786	87.75
501.003	83.75
501.22	90.75
501.437	85.75
501.654	107.75
501.871	95.75
502.088	88.75
502.305	82.75
502.522	101.75
502.739	99.75
502.956	103.75
503.172	84.75
503.389	84.75
503.606	94.75
503.823	112.75
504.04	84.75
504.256	80.75
504.473	91.75
504.69	80.75
504.907	88.75
505.123	100.75
505.34	87.75
505.557	86.75
505.773	84.75
505.99	78.75
506.207	93.75
506.423	74.75
506.64	87.75
506.856	75.75
507.073	89.75
507.289	70.75
507.506	100.75
507.722	121.75
507.939	119.75
508.155	101.75
508.372	90.75
508.588	93.75
508.805	87.75
509.021	104.75
509.238	95.75
509.454	94.75
509.67	99.75
509.887	113.75
510.103	131.75
510.319	204.75
510.536	747.75
510.752	2425.75
510.968	647.75
511.184	132.75
511.401	99.75
511.617	98.75
511.833	88.75
512.049	89.75
512.265	94.75
512.481	100.75
512.698	91.75
512.914	79.75
513.13	87.75
513.346	91.75
513.562	84.75
513.778	95.75
513.994	91.75
514.21	81.75
514.426	104.75
514.642	135.75
514.858	128.75
515.074	155.75
515.29	409.75
515.506	1337.75
515.721	498.75
