Data from Circ_1996_H10_HRD10591_00042.txt Node
Date: Wed Jan 03 11:33:14 EST 2024
User: Yrep
Spectrometer: HR+D1059
Trigger mode: 1
Integration Time (sec): 1.000000E-1
Scans to average: 1
Electric dark correction enabled: true
Nonlinearity correction enabled: false
Boxcar width: 0
XAxis mode: Wavelengths
Number of Pixels in Spectrum: 2048
>>>>>Begin Spectral Data<<<<<
223.165	-25.81
223.4	-25.81
223.635	-25.81
223.869	-9.81
224.104	-17.81
224.338	-19.81
224.573	-16.81
224.808	-22.81
225.042	0.19
225.277	-2.81
225.511	-2.81
225.746	4.19
225.98	-3.81
226.215	1.19
226.449	22.19
226.683	28.19
226.918	36.19
227.152	30.19
227.387	23.19
227.621	46.19
227.856	42.19
228.09	40.19
228.324	51.19
228.559	60.19
228.793	45.19
229.027	61.19
229.262	71.19
229.496	72.19
229.73	82.19
229.964	75.19
230.199	78.19
230.433	71.19
230.667	86.19
230.901	66.19
231.136	95.19
231.37	82.19
231.604	77.19
231.838	98.19
232.072	82.19
232.306	83.19
232.541	76.19
232.775	65.19
233.009	80.19
233.243	90.19
233.477	77.19
233.711	93.19
233.945	79.19
234.179	77.19
234.413	66.19
234.647	86.19
234.881	84.19
235.115	78.19
235.349	74.19
235.583	77.19
235.817	68.19
236.051	87.19
236.285	80.19
236.519	84.19
236.753	78.19
236.987	81.19
237.221	78.19
237.455	88.19
237.689	87.19
237.922	65.19
238.156	57.19
238.39	73.19
238.624	68.19
238.858	77.19
239.091	76.19
239.325	56.19
239.559	81.19
239.793	74.19
240.027	73.19
240.26	87.19
240.494	87.19
240.728	68.19
240.961	79.19
241.195	82.19
241.429	74.19
241.662	87.19
241.896	91.19
242.13	70.19
242.363	71.19
242.597	78.19
242.83	76.19
243.064	85.19
243.298	59.19
243.531	81.19
243.765	85.19
243.998	91.19
244.232	82.19
244.465	81.19
244.699	87.19
244.932	85.19
245.166	88.19
245.399	84.19
245.633	86.19
245.866	83.19
246.099	81.19
246.333	72.19
246.566	72.19
246.8	87.19
247.033	59.19
247.266	89.19
247.5	78.19
247.733	88.19
247.966	82.19
248.2	74.19
248.433	67.19
248.666	72.19
248.899	72.19
249.133	81.19
249.366	98.19
249.599	92.19
249.832	78.19
250.066	75.19
250.299	76.19
250.532	92.19
250.765	94.19
250.998	78.19
251.231	83.19
251.465	91.19
251.698	74.19
251.931	86.19
252.164	87.19
252.397	76.19
252.63	84.19
252.863	62.19
253.096	82.19
253.329	68.19
253.562	84.19
253.795	81.19
254.028	86.19
254.261	88.19
254.494	85.19
254.727	80.19
254.96	94.19
255.193	89.19
255.426	74.19
255.659	72.19
255.892	85.19
256.124	79.19
256.357	78.19
256.59	86.19
256.823	78.19
257.056	92.19
257.289	88.19
257.521	76.19
257.754	78.19
257.987	79.19
258.22	73.19
258.452	78.19
258.685	86.19
258.918	77.19
259.151	83.19
259.383	81.19
259.616	86.19
259.849	74.19
260.081	99.19
260.314	78.19
260.547	81.19
260.779	81.19
261.012	87.19
261.244	89.19
261.477	71.19
261.71	84.19
261.942	101.19
262.175	89.19
262.407	77.19
262.64	91.19
262.872	79.19
263.105	72.19
263.337	79.19
263.57	94.19
263.802	83.19
264.035	89.19
264.267	103.19
264.499	92.19
264.732	98.19
264.964	87.19
265.197	86.19
265.429	68.19
265.661	84.19
265.894	84.19
266.126	92.19
266.358	80.19
266.591	76.19
266.823	77.19
267.055	91.19
267.287	80.19
267.52	67.19
267.752	87.19
267.984	87.19
268.216	88.19
268.448	78.19
268.681	95.19
268.913	84.19
269.145	83.19
269.377	74.19
269.609	86.19
269.841	76.19
270.073	68.19
270.306	82.19
270.538	97.19
270.77	90.19
271.002	77.19
271.234	83.19
271.466	82.19
271.698	75.19
271.93	74.19
272.162	80.19
272.394	85.19
272.626	99.19
272.858	89.19
273.09	81.19
273.322	78.19
273.553	74.19
273.785	59.19
274.017	89.19
274.249	73.19
274.481	88.19
274.713	76.19
274.945	83.19
275.176	99.19
275.408	93.19
275.64	100.19
275.872	95.19
276.104	93.19
276.335	88.19
276.567	87.19
276.799	71.19
277.031	79.19
277.262	80.19
277.494	81.19
277.726	84.19
277.957	92.19
278.189	82.19
278.421	90.19
278.652	84.19
278.884	82.19
279.115	88.19
279.347	88.19
279.579	48.19
279.81	77.19
280.042	84.19
280.273	82.19
280.505	98.19
280.736	87.19
280.968	82.19
281.199	90.19
281.431	79.19
281.662	89.19
281.894	103.19
282.125	93.19
282.356	118.19
282.588	127.19
282.819	110.19
283.051	77.19
283.282	70.19
283.513	81.19
283.745	94.19
283.976	94.19
284.207	93.19
284.439	91.19
284.67	78.19
284.901	87.19
285.132	86.19
285.364	82.19
285.595	91.19
285.826	92.19
286.057	96.19
286.288	81.19
286.52	70.19
286.751	85.19
286.982	99.19
287.213	82.19
287.444	89.19
287.675	102.19
287.906	93.19
288.138	80.19
288.369	88.19
288.6	91.19
288.831	74.19
289.062	94.19
289.293	89.19
289.524	82.19
289.755	87.19
289.986	79.19
290.217	84.19
290.448	91.19
290.679	98.19
290.91	71.19
291.141	81.19
291.371	82.19
291.602	90.19
291.833	82.19
292.064	86.19
292.295	88.19
292.526	83.19
292.757	86.19
292.987	93.19
293.218	91.19
293.449	78.19
293.68	80.19
293.91	83.19
294.141	90.19
294.372	77.19
294.603	88.19
294.833	96.19
295.064	75.19
295.295	80.19
295.525	85.19
295.756	107.19
295.987	107.19
296.217	129.19
296.448	113.19
296.679	95.19
296.909	88.19
297.14	93.19
297.37	97.19
297.601	83.19
297.831	90.19
298.062	80.19
298.292	87.19
298.523	95.19
298.753	89.19
298.984	76.19
299.214	86.19
299.445	98.19
299.675	91.19
299.905	85.19
300.136	93.19
300.366	93.19
300.597	99.19
300.827	87.19
301.057	104.19
301.288	89.19
301.518	93.19
301.748	96.19
301.979	102.19
302.209	71.19
302.439	97.19
302.669	96.19
302.9	90.19
303.13	98.19
303.36	82.19
303.59	90.19
303.82	108.19
304.051	94.19
304.281	98.19
304.511	84.19
304.741	91.19
304.971	99.19
305.201	74.19
305.431	79.19
305.661	90.19
305.891	82.19
306.121	100.19
306.352	89.19
306.582	103.19
306.812	91.19
307.042	91.19
307.272	100.19
307.502	104.19
307.731	86.19
307.961	76.19
308.191	89.19
308.421	95.19
308.651	93.19
308.881	94.19
309.111	82.19
309.341	92.19
309.571	92.19
309.8	97.19
310.03	90.19
310.26	102.19
310.49	76.19
310.72	84.19
310.949	95.19
311.179	99.19
311.409	86.19
311.639	99.19
311.868	84.19
312.098	85.19
312.328	92.19
312.557	85.19
312.787	97.19
313.017	86.19
313.246	105.19
313.476	79.19
313.706	94.19
313.935	85.19
314.165	100.19
314.394	99.19
314.624	97.19
314.853	87.19
315.083	89.19
315.312	97.19
315.542	92.19
315.771	87.19
316.001	76.19
316.23	99.19
316.46	82.19
316.689	80.19
316.919	87.19
317.148	104.19
317.377	79.19
317.607	89.19
317.836	82.19
318.065	86.19
318.295	84.19
318.524	84.19
318.753	86.19
318.983	99.19
319.212	102.19
319.441	103.19
319.67	102.19
319.9	85.19
320.129	89.19
320.358	91.19
320.587	101.19
320.816	116.19
321.046	109.19
321.275	95.19
321.504	95.19
321.733	87.19
321.962	94.19
322.191	96.19
322.42	95.19
322.649	99.19
322.878	100.19
323.108	108.19
323.337	123.19
323.566	116.19
323.795	123.19
324.024	156.19
324.253	265.19
324.482	545.19
324.71	1077.19
324.939	1405.19
325.168	542.19
325.397	204.19
325.626	130.19
325.855	110.19
326.084	106.19
326.313	107.19
326.542	129.19
326.77	171.19
326.999	308.19
327.228	574.19
327.457	1033.19
327.686	848.19
327.914	263.19
328.143	167.19
328.372	140.19
328.6	128.19
328.829	116.19
329.058	111.19
329.287	126.19
329.515	115.19
329.744	106.19
329.972	110.19
330.201	138.19
330.43	171.19
330.658	135.19
330.887	136.19
331.115	119.19
331.344	104.19
331.572	115.19
331.801	93.19
332.03	94.19
332.258	95.19
332.486	100.19
332.715	80.19
332.943	96.19
333.172	110.19
333.4	106.19
333.629	95.19
333.857	110.19
334.085	130.19
334.314	142.19
334.542	178.19
334.771	174.19
334.999	116.19
335.227	107.19
335.455	86.19
335.684	84.19
335.912	102.19
336.14	103.19
336.369	101.19
336.597	88.19
336.825	86.19
337.053	83.19
337.281	88.19
337.51	86.19
337.738	88.19
337.966	96.19
338.194	99.19
338.422	76.19
338.65	92.19
338.878	92.19
339.106	85.19
339.334	99.19
339.562	95.19
339.79	95.19
340.018	88.19
340.246	88.19
340.474	86.19
340.702	85.19
340.93	91.19
341.158	90.19
341.386	84.19
341.614	92.19
341.842	93.19
342.07	79.19
342.298	94.19
342.526	84.19
342.754	81.19
342.981	92.19
343.209	85.19
343.437	102.19
343.665	95.19
343.893	80.19
344.12	101.19
344.348	80.19
344.576	85.19
344.804	91.19
345.031	89.19
345.259	91.19
345.487	89.19
345.714	96.19
345.942	107.19
346.17	100.19
346.397	84.19
346.625	100.19
346.853	86.19
347.08	98.19
347.308	103.19
347.535	104.19
347.763	101.19
347.99	111.19
348.218	93.19
348.445	85.19
348.673	95.19
348.9	105.19
349.128	94.19
349.355	92.19
349.583	98.19
349.81	90.19
350.037	98.19
350.265	92.19
350.492	90.19
350.72	85.19
350.947	94.19
351.174	103.19
351.402	104.19
351.629	96.19
351.856	83.19
352.083	95.19
352.311	108.19
352.538	110.19
352.765	108.19
352.992	120.19
353.22	106.19
353.447	115.19
353.674	102.19
353.901	108.19
354.128	97.19
354.355	94.19
354.583	101.19
354.81	96.19
355.037	99.19
355.264	103.19
355.491	98.19
355.718	90.19
355.945	96.19
356.172	80.19
356.399	100.19
356.626	93.19
356.853	88.19
357.08	80.19
357.307	92.19
357.534	93.19
357.761	91.19
357.988	94.19
358.215	104.19
358.441	104.19
358.668	99.19
358.895	105.19
359.122	93.19
359.349	98.19
359.576	94.19
359.802	99.19
360.029	102.19
360.256	105.19
360.483	79.19
360.709	73.19
360.936	120.19
361.163	88.19
361.39	83.19
361.616	82.19
361.843	93.19
362.07	82.19
362.296	81.19
362.523	97.19
362.749	93.19
362.976	97.19
363.203	81.19
363.429	84.19
363.656	89.19
363.882	86.19
364.109	99.19
364.335	96.19
364.562	92.19
364.788	78.19
365.015	86.19
365.241	97.19
365.468	104.19
365.694	94.19
365.92	89.19
366.147	73.19
366.373	80.19
366.599	90.19
366.826	86.19
367.052	86.19
367.278	90.19
367.505	61.19
367.731	89.19
367.957	84.19
368.184	82.19
368.41	99.19
368.636	107.19
368.862	120.19
369.089	95.19
369.315	90.19
369.541	89.19
369.767	79.19
369.993	84.19
370.219	78.19
370.445	91.19
370.672	84.19
370.898	82.19
371.124	72.19
371.35	75.19
371.576	86.19
371.802	88.19
372.028	95.19
372.254	94.19
372.48	97.19
372.706	80.19
372.932	84.19
373.158	88.19
373.384	77.19
373.61	97.19
373.835	94.19
374.061	88.19
374.287	79.19
374.513	79.19
374.739	79.19
374.965	95.19
375.191	100.19
375.416	92.19
375.642	85.19
375.868	86.19
376.094	82.19
376.319	75.19
376.545	89.19
376.771	88.19
376.997	81.19
377.222	74.19
377.448	84.19
377.674	89.19
377.899	107.19
378.125	93.19
378.35	84.19
378.576	79.19
378.802	96.19
379.027	89.19
379.253	89.19
379.478	97.19
379.704	98.19
379.929	92.19
380.155	79.19
380.38	102.19
380.606	95.19
380.831	93.19
381.057	95.19
381.282	105.19
381.507	103.19
381.733	97.19
381.958	98.19
382.184	106.19
382.409	104.19
382.634	103.19
382.86	99.19
383.085	99.19
383.31	104.19
383.535	107.19
383.761	100.19
383.986	111.19
384.211	97.19
384.436	115.19
384.662	98.19
384.887	113.19
385.112	110.19
385.337	100.19
385.562	102.19
385.787	103.19
386.013	110.19
386.238	104.19
386.463	114.19
386.688	99.19
386.913	118.19
387.138	108.19
387.363	105.19
387.588	99.19
387.813	95.19
388.038	123.19
388.263	112.19
388.488	110.19
388.713	105.19
388.938	109.19
389.163	104.19
389.387	90.19
389.612	88.19
389.837	90.19
390.062	90.19
390.287	90.19
390.512	88.19
390.736	77.19
390.961	93.19
391.186	82.19
391.411	92.19
391.636	96.19
391.86	95.19
392.085	82.19
392.31	82.19
392.534	83.19
392.759	92.19
392.984	81.19
393.208	94.19
393.433	88.19
393.658	105.19
393.882	77.19
394.107	84.19
394.331	91.19
394.556	90.19
394.78	89.19
395.005	89.19
395.229	95.19
395.454	100.19
395.678	81.19
395.903	99.19
396.127	83.19
396.352	91.19
396.576	93.19
396.801	91.19
397.025	100.19
397.249	86.19
397.474	106.19
397.698	87.19
397.922	87.19
398.147	66.19
398.371	81.19
398.595	103.19
398.82	86.19
399.044	78.19
399.268	89.19
399.492	78.19
399.717	94.19
399.941	83.19
400.165	94.19
400.389	85.19
400.613	80.19
400.837	77.19
401.062	79.19
401.286	77.19
401.51	88.19
401.734	82.19
401.958	94.19
402.182	104.19
402.406	139.19
402.63	109.19
402.854	104.19
403.078	68.19
403.302	83.19
403.526	101.19
403.75	84.19
403.974	92.19
404.198	88.19
404.422	91.19
404.645	89.19
404.869	88.19
405.093	84.19
405.317	89.19
405.541	84.19
405.765	97.19
405.988	96.19
406.212	142.19
406.436	210.19
406.66	133.19
406.883	103.19
407.107	81.19
407.331	100.19
407.555	96.19
407.778	88.19
408.002	83.19
408.226	95.19
408.449	91.19
408.673	74.19
408.896	91.19
409.12	76.19
409.344	97.19
409.567	91.19
409.791	91.19
410.014	89.19
410.238	102.19
410.461	91.19
410.685	82.19
410.908	77.19
411.132	95.19
411.355	97.19
411.578	94.19
411.802	82.19
412.025	95.19
412.249	85.19
412.472	90.19
412.695	86.19
412.919	87.19
413.142	85.19
413.365	94.19
413.589	93.19
413.812	95.19
414.035	92.19
414.258	108.19
414.482	87.19
414.705	82.19
414.928	84.19
415.151	95.19
415.374	90.19
415.597	83.19
415.821	83.19
416.044	93.19
416.267	92.19
416.49	82.19
416.713	67.19
416.936	80.19
417.159	88.19
417.382	90.19
417.605	78.19
417.828	106.19
418.051	96.19
418.274	86.19
418.497	98.19
418.72	91.19
418.943	70.19
419.166	107.19
419.389	97.19
419.611	82.19
419.834	82.19
420.057	88.19
420.28	94.19
420.503	86.19
420.726	94.19
420.948	93.19
421.171	100.19
421.394	95.19
421.617	96.19
421.839	89.19
422.062	82.19
422.285	111.19
422.507	96.19
422.73	88.19
422.953	95.19
423.175	90.19
423.398	90.19
423.621	96.19
423.843	98.19
424.066	87.19
424.288	93.19
424.511	82.19
424.733	93.19
424.956	94.19
425.178	96.19
425.401	91.19
425.623	95.19
425.846	83.19
426.068	79.19
426.291	77.19
426.513	86.19
426.735	96.19
426.958	101.19
427.18	93.19
427.402	125.19
427.625	131.19
427.847	124.19
428.069	105.19
428.292	83.19
428.514	92.19
428.736	84.19
428.958	79.19
429.181	78.19
429.403	100.19
429.625	95.19
429.847	104.19
430.069	92.19
430.292	78.19
430.514	97.19
430.736	93.19
430.958	81.19
431.18	73.19
431.402	98.19
431.624	79.19
431.846	85.19
432.068	90.19
432.29	85.19
432.512	88.19
432.734	85.19
432.956	95.19
433.178	88.19
433.4	92.19
433.622	94.19
433.844	75.19
434.066	95.19
434.287	97.19
434.509	79.19
434.731	98.19
434.953	92.19
435.175	97.19
435.397	104.19
435.618	99.19
435.84	90.19
436.062	112.19
436.284	113.19
436.505	103.19
436.727	88.19
436.949	102.19
437.17	80.19
437.392	95.19
437.614	84.19
437.835	83.19
438.057	99.19
438.278	105.19
438.5	103.19
438.721	106.19
438.943	100.19
439.165	86.19
439.386	98.19
439.608	87.19
439.829	79.19
440.05	105.19
440.272	104.19
440.493	99.19
440.715	88.19
440.936	87.19
441.158	81.19
441.379	92.19
441.6	88.19
441.822	95.19
442.043	95.19
442.264	89.19
442.486	93.19
442.707	91.19
442.928	111.19
443.149	113.19
443.371	118.19
443.592	104.19
443.813	100.19
444.034	94.19
444.255	95.19
444.476	91.19
444.698	96.19
444.919	89.19
445.14	125.19
445.361	111.19
445.582	111.19
445.803	129.19
446.024	120.19
446.245	111.19
446.466	94.19
446.687	87.19
446.908	97.19
447.129	95.19
447.35	84.19
447.571	90.19
447.792	81.19
448.013	101.19
448.234	100.19
448.455	99.19
448.675	110.19
448.896	109.19
449.117	94.19
449.338	91.19
449.559	92.19
449.779	98.19
450	93.19
450.221	83.19
450.442	88.19
450.662	92.19
450.883	105.19
451.104	113.19
451.324	87.19
451.545	87.19
451.766	93.19
451.986	97.19
452.207	96.19
452.428	94.19
452.648	102.19
452.869	101.19
453.089	97.19
453.31	107.19
453.53	95.19
453.751	88.19
453.971	87.19
454.192	110.19
454.412	92.19
454.633	80.19
454.853	88.19
455.073	79.19
455.294	73.19
455.514	96.19
455.734	82.19
455.955	91.19
456.175	89.19
456.395	82.19
456.616	88.19
456.836	91.19
457.056	81.19
457.276	91.19
457.497	81.19
457.717	89.19
457.937	99.19
458.157	80.19
458.377	102.19
458.598	87.19
458.818	129.19
459.038	136.19
459.258	96.19
459.478	87.19
459.698	85.19
459.918	91.19
460.138	80.19
460.358	90.19
460.578	95.19
460.798	82.19
461.018	82.19
461.238	66.19
461.458	76.19
461.678	96.19
461.898	87.19
462.118	91.19
462.338	91.19
462.558	91.19
462.777	91.19
462.997	92.19
463.217	104.19
463.437	91.19
463.657	90.19
463.876	83.19
464.096	88.19
464.316	94.19
464.536	95.19
464.755	86.19
464.975	106.19
465.195	124.19
465.414	132.19
465.634	93.19
465.854	75.19
466.073	102.19
466.293	91.19
466.512	89.19
466.732	83.19
466.951	87.19
467.171	78.19
467.391	78.19
467.61	93.19
467.829	98.19
468.049	103.19
468.268	120.19
468.488	91.19
468.707	91.19
468.927	90.19
469.146	74.19
469.365	80.19
469.585	98.19
469.804	98.19
470.023	90.19
470.243	91.19
470.462	102.19
470.681	115.19
470.901	98.19
471.12	71.19
471.339	88.19
471.558	94.19
471.777	76.19
471.997	85.19
472.216	155.19
472.435	210.19
472.654	115.19
472.873	104.19
473.092	99.19
473.311	79.19
473.53	80.19
473.749	97.19
473.968	109.19
474.187	96.19
474.406	90.19
474.625	77.19
474.844	89.19
475.063	82.19
475.282	98.19
475.501	90.19
475.72	90.19
475.939	84.19
476.158	87.19
476.377	95.19
476.596	83.19
476.814	85.19
477.033	94.19
477.252	88.19
477.471	86.19
477.69	84.19
477.908	98.19
478.127	96.19
478.346	87.19
478.564	78.19
478.783	101.19
479.002	84.19
479.22	104.19
479.439	99.19
479.658	104.19
479.876	83.19
480.095	92.19
480.313	86.19
480.532	92.19
480.751	106.19
480.969	158.19
481.188	333.19
481.406	225.19
481.624	102.19
481.843	97.19
482.061	89.19
482.28	105.19
482.498	86.19
482.717	83.19
482.935	93.19
483.153	103.19
483.372	96.19
483.59	91.19
483.808	102.19
484.027	94.19
484.245	89.19
484.463	96.19
484.681	104.19
484.9	96.19
485.118	90.19
485.336	100.19
485.554	97.19
485.772	97.19
485.99	109.19
486.209	105.19
486.427	106.19
486.645	106.19
486.863	110.19
487.081	98.19
487.299	104.19
487.517	108.19
487.735	84.19
487.953	75.19
488.171	90.19
488.389	106.19
488.607	113.19
488.825	98.19
489.043	84.19
489.261	97.19
489.479	85.19
489.696	86.19
489.914	87.19
490.132	80.19
490.35	90.19
490.568	98.19
490.786	103.19
491.003	90.19
491.221	76.19
491.439	88.19
491.657	100.19
491.874	87.19
492.092	80.19
492.31	94.19
492.527	98.19
492.745	89.19
492.963	91.19
493.18	93.19
493.398	76.19
493.615	101.19
493.833	101.19
494.05	92.19
494.268	103.19
494.485	90.19
494.703	86.19
494.92	99.19
495.138	106.19
495.355	90.19
495.573	76.19
495.79	102.19
496.008	78.19
496.225	79.19
496.442	84.19
496.66	102.19
496.877	98.19
497.094	94.19
497.312	86.19
497.529	97.19
497.746	95.19
497.963	97.19
498.181	99.19
498.398	95.19
498.615	104.19
498.832	103.19
499.049	86.19
499.267	82.19
499.484	88.19
499.701	78.19
499.918	83.19
500.135	88.19
500.352	105.19
500.569	101.19
500.786	93.19
501.003	88.19
501.22	86.19
501.437	88.19
501.654	96.19
501.871	99.19
502.088	88.19
502.305	81.19
502.522	91.19
502.739	83.19
502.956	83.19
503.172	91.19
503.389	84.19
503.606	119.19
503.823	104.19
504.04	94.19
504.256	96.19
504.473	84.19
504.69	93.19
504.907	85.19
505.123	92.19
505.34	90.19
505.557	83.19
505.773	78.19
505.99	74.19
506.207	85.19
506.423	89.19
506.64	92.19
506.856	83.19
507.073	91.19
507.289	99.19
507.506	92.19
507.722	100.19
507.939	87.19
508.155	86.19
508.372	83.19
508.588	74.19
508.805	96.19
509.021	105.19
509.238	91.19
509.454	100.19
509.67	99.19
509.887	106.19
510.103	118.19
510.319	189.19
510.536	680.19
510.752	2216.19
510.968	606.19
511.184	170.19
511.401	92.19
511.617	92.19
511.833	84.19
512.049	98.19
512.265	94.19
512.481	94.19
512.698	89.19
512.914	92.19
513.13	100.19
513.346	95.19
513.562	92.19
513.778	103.19
513.994	98.19
514.21	80.19
514.426	103.19
514.642	119.19
514.858	97.19
515.074	144.19
515.29	362.19
515.506	1176.19
515.721	427.19
515.937	138.19
516.153	108.19
