Data from Circ_1996_H10_HRD10591_00003.txt Node
Date: Wed Jan 03 11:33:06 EST 2024
User: Yrep
Spectrometer: HR+D1059
Trigger mode: 1
Integration Time (sec): 1.000000E-1
Scans to average: 1
Electric dark correction enabled: true
Nonlinearity correction enabled: false
Boxcar width: 0
XAxis mode: Wavelengths
Number of Pixels in Spectrum: 2048
>>>>>Begin Spectral Data<<<<<
223.165	-19.56
223.4	-19.56
223.635	-19.56
223.869	-25.56
224.104	-15.56
224.338	-10.56
224.573	-13.56
224.808	-16.56
225.042	-9.56
225.277	-13.56
225.511	-0.56
225.746	-1.56
225.98	15.44
226.215	8.44
226.449	25.44
226.683	19.44
226.918	28.44
227.152	29.44
227.387	35.44
227.621	34.44
227.856	38.44
228.09	54.44
228.324	44.44
228.559	52.44
228.793	61.44
229.027	64.44
229.262	70.44
229.496	73.44
229.73	70.44
229.964	69.44
230.199	80.44
230.433	89.44
230.667	87.44
230.901	68.44
231.136	93.44
231.37	79.44
231.604	76.44
231.838	78.44
232.072	87.44
232.306	80.44
232.541	70.44
232.775	101.44
233.009	76.44
233.243	76.44
233.477	82.44
233.711	90.44
233.945	69.44
234.179	79.44
234.413	78.44
234.647	88.44
234.881	84.44
235.115	81.44
235.349	69.44
235.583	80.44
235.817	76.44
236.051	68.44
236.285	76.44
236.519	69.44
236.753	78.44
236.987	69.44
237.221	70.44
237.455	86.44
237.689	80.44
237.922	81.44
238.156	76.44
238.39	76.44
238.624	82.44
238.858	74.44
239.091	85.44
239.325	81.44
239.559	96.44
239.793	82.44
240.027	72.44
240.26	78.44
240.494	81.44
240.728	83.44
240.961	87.44
241.195	87.44
241.429	81.44
241.662	84.44
241.896	81.44
242.13	66.44
242.363	90.44
242.597	80.44
242.83	83.44
243.064	78.44
243.298	78.44
243.531	80.44
243.765	74.44
243.998	82.44
244.232	86.44
244.465	84.44
244.699	75.44
244.932	72.44
245.166	81.44
245.399	72.44
245.633	78.44
245.866	88.44
246.099	84.44
246.333	86.44
246.566	81.44
246.8	84.44
247.033	85.44
247.266	88.44
247.5	85.44
247.733	75.44
247.966	81.44
248.2	80.44
248.433	73.44
248.666	83.44
248.899	83.44
249.133	88.44
249.366	94.44
249.599	102.44
249.832	72.44
250.066	88.44
250.299	94.44
250.532	87.44
250.765	83.44
250.998	85.44
251.231	100.44
251.465	88.44
251.698	84.44
251.931	83.44
252.164	98.44
252.397	84.44
252.63	86.44
252.863	91.44
253.096	77.44
253.329	79.44
253.562	81.44
253.795	93.44
254.028	89.44
254.261	78.44
254.494	81.44
254.727	80.44
254.96	79.44
255.193	75.44
255.426	78.44
255.659	83.44
255.892	81.44
256.124	76.44
256.357	77.44
256.59	85.44
256.823	107.44
257.056	87.44
257.289	94.44
257.521	71.44
257.754	77.44
257.987	63.44
258.22	75.44
258.452	72.44
258.685	91.44
258.918	93.44
259.151	87.44
259.383	88.44
259.616	81.44
259.849	85.44
260.081	84.44
260.314	78.44
260.547	84.44
260.779	97.44
261.012	72.44
261.244	78.44
261.477	88.44
261.71	90.44
261.942	98.44
262.175	101.44
262.407	85.44
262.64	73.44
262.872	89.44
263.105	78.44
263.337	76.44
263.57	65.44
263.802	85.44
264.035	91.44
264.267	84.44
264.499	91.44
264.732	89.44
264.964	82.44
265.197	76.44
265.429	77.44
265.661	72.44
265.894	85.44
266.126	81.44
266.358	84.44
266.591	82.44
266.823	77.44
267.055	83.44
267.287	79.44
267.52	77.44
267.752	96.44
267.984	76.44
268.216	74.44
268.448	88.44
268.681	69.44
268.913	95.44
269.145	82.44
269.377	82.44
269.609	89.44
269.841	90.44
270.073	83.44
270.306	87.44
270.538	74.44
270.77	91.44
271.002	84.44
271.234	86.44
271.466	83.44
271.698	83.44
271.93	78.44
272.162	93.44
272.394	91.44
272.626	87.44
272.858	82.44
273.09	92.44
273.322	89.44
273.553	90.44
273.785	81.44
274.017	96.44
274.249	87.44
274.481	76.44
274.713	82.44
274.945	97.44
275.176	78.44
275.408	80.44
275.64	91.44
275.872	92.44
276.104	94.44
276.335	92.44
276.567	92.44
276.799	100.44
277.031	106.44
277.262	110.44
277.494	94.44
277.726	96.44
277.957	90.44
278.189	80.44
278.421	81.44
278.652	80.44
278.884	95.44
279.115	92.44
279.347	68.44
279.579	92.44
279.81	78.44
280.042	90.44
280.273	91.44
280.505	96.44
280.736	81.44
280.968	91.44
281.199	75.44
281.431	90.44
281.662	85.44
281.894	86.44
282.125	102.44
282.356	109.44
282.588	142.44
282.819	120.44
283.051	87.44
283.282	86.44
283.513	84.44
283.745	88.44
283.976	82.44
284.207	92.44
284.439	82.44
284.67	76.44
284.901	96.44
285.132	94.44
285.364	76.44
285.595	90.44
285.826	98.44
286.057	85.44
286.288	79.44
286.52	82.44
286.751	78.44
286.982	81.44
287.213	78.44
287.444	82.44
287.675	89.44
287.906	105.44
288.138	83.44
288.369	82.44
288.6	97.44
288.831	92.44
289.062	84.44
289.293	81.44
289.524	82.44
289.755	92.44
289.986	78.44
290.217	73.44
290.448	80.44
290.679	88.44
290.91	85.44
291.141	98.44
291.371	77.44
291.602	83.44
291.833	83.44
292.064	88.44
292.295	87.44
292.526	91.44
292.757	91.44
292.987	88.44
293.218	100.44
293.449	87.44
293.68	84.44
293.91	96.44
294.141	89.44
294.372	69.44
294.603	90.44
294.833	80.44
295.064	82.44
295.295	99.44
295.525	91.44
295.756	115.44
295.987	103.44
296.217	123.44
296.448	110.44
296.679	113.44
296.909	90.44
297.14	100.44
297.37	82.44
297.601	91.44
297.831	98.44
298.062	88.44
298.292	79.44
298.523	88.44
298.753	83.44
298.984	69.44
299.214	94.44
299.445	100.44
299.675	92.44
299.905	96.44
300.136	104.44
300.366	76.44
300.597	82.44
300.827	93.44
301.057	106.44
301.288	113.44
301.518	91.44
301.748	84.44
301.979	107.44
302.209	96.44
302.439	83.44
302.669	93.44
302.9	86.44
303.13	93.44
303.36	97.44
303.59	107.44
303.82	103.44
304.051	99.44
304.281	109.44
304.511	84.44
304.741	68.44
304.971	87.44
305.201	92.44
305.431	86.44
305.661	102.44
305.891	90.44
306.121	97.44
306.352	107.44
306.582	98.44
306.812	101.44
307.042	111.44
307.272	106.44
307.502	103.44
307.731	107.44
307.961	100.44
308.191	84.44
308.421	85.44
308.651	91.44
308.881	97.44
309.111	96.44
309.341	109.44
309.571	107.44
309.8	93.44
310.03	94.44
310.26	96.44
310.49	105.44
310.72	82.44
310.949	106.44
311.179	92.44
311.409	86.44
311.639	93.44
311.868	104.44
312.098	91.44
312.328	103.44
312.557	106.44
312.787	102.44
313.017	93.44
313.246	84.44
313.476	86.44
313.706	110.44
313.935	97.44
314.165	106.44
314.394	101.44
314.624	102.44
314.853	115.44
315.083	95.44
315.312	99.44
315.542	76.44
315.771	98.44
316.001	102.44
316.23	93.44
316.46	90.44
316.689	95.44
316.919	91.44
317.148	96.44
317.377	101.44
317.607	91.44
317.836	101.44
318.065	90.44
318.295	90.44
318.524	88.44
318.753	100.44
318.983	99.44
319.212	96.44
319.441	115.44
319.67	108.44
319.9	90.44
320.129	91.44
320.358	110.44
320.587	96.44
320.816	76.44
321.046	105.44
321.275	93.44
321.504	92.44
321.733	92.44
321.962	112.44
322.191	95.44
322.42	91.44
322.649	95.44
322.878	97.44
323.108	107.44
323.337	117.44
323.566	114.44
323.795	127.44
324.024	160.44
324.253	282.44
324.482	552.44
324.71	1124.44
324.939	1403.44
325.168	558.44
325.397	194.44
325.626	122.44
325.855	124.44
326.084	116.44
326.313	136.44
326.542	127.44
326.77	179.44
326.999	327.44
327.228	624.44
327.457	1057.44
327.686	868.44
327.914	276.44
328.143	186.44
328.372	147.44
328.6	132.44
328.829	103.44
329.058	124.44
329.287	133.44
329.515	126.44
329.744	117.44
329.972	129.44
330.201	186.44
330.43	201.44
330.658	151.44
330.887	138.44
331.115	120.44
331.344	92.44
331.572	110.44
331.801	106.44
332.03	101.44
332.258	103.44
332.486	80.44
332.715	105.44
332.943	96.44
333.172	81.44
333.4	102.44
333.629	106.44
333.857	120.44
334.085	139.44
334.314	173.44
334.542	246.44
334.771	239.44
334.999	121.44
335.227	99.44
335.455	100.44
335.684	98.44
335.912	94.44
336.14	107.44
336.369	108.44
336.597	93.44
336.825	99.44
337.053	88.44
337.281	88.44
337.51	87.44
337.738	93.44
337.966	102.44
338.194	86.44
338.422	107.44
338.65	104.44
338.878	82.44
339.106	90.44
339.334	95.44
339.562	92.44
339.79	95.44
340.018	92.44
340.246	99.44
340.474	95.44
340.702	88.44
340.93	104.44
341.158	91.44
341.386	100.44
341.614	103.44
341.842	100.44
342.07	85.44
342.298	97.44
342.526	95.44
342.754	94.44
342.981	86.44
343.209	88.44
343.437	97.44
343.665	78.44
343.893	73.44
344.12	94.44
344.348	87.44
344.576	93.44
344.804	70.44
345.031	100.44
345.259	105.44
345.487	96.44
345.714	97.44
345.942	92.44
346.17	92.44
346.397	101.44
346.625	91.44
346.853	91.44
347.08	90.44
347.308	102.44
347.535	97.44
347.763	91.44
347.99	98.44
348.218	91.44
348.445	103.44
348.673	99.44
348.9	101.44
349.128	83.44
349.355	80.44
349.583	102.44
349.81	103.44
350.037	92.44
350.265	96.44
350.492	78.44
350.72	99.44
350.947	98.44
351.174	106.44
351.402	100.44
351.629	106.44
351.856	108.44
352.083	110.44
352.311	110.44
352.538	102.44
352.765	107.44
352.992	116.44
353.22	117.44
353.447	99.44
353.674	106.44
353.901	103.44
354.128	105.44
354.355	100.44
354.583	89.44
354.81	102.44
355.037	104.44
355.264	92.44
355.491	95.44
355.718	108.44
355.945	91.44
356.172	91.44
356.399	109.44
356.626	92.44
356.853	96.44
357.08	98.44
357.307	101.44
357.534	94.44
357.761	80.44
357.988	109.44
358.215	93.44
358.441	108.44
358.668	95.44
358.895	84.44
359.122	101.44
359.349	101.44
359.576	101.44
359.802	92.44
360.029	96.44
360.256	99.44
360.483	111.44
360.709	94.44
360.936	86.44
361.163	97.44
361.39	101.44
361.616	90.44
361.843	87.44
362.07	88.44
362.296	92.44
362.523	104.44
362.749	98.44
362.976	91.44
363.203	100.44
363.429	97.44
363.656	99.44
363.882	89.44
364.109	91.44
364.335	90.44
364.562	93.44
364.788	86.44
365.015	97.44
365.241	103.44
365.468	102.44
365.694	109.44
365.92	85.44
366.147	100.44
366.373	88.44
366.599	73.44
366.826	93.44
367.052	104.44
367.278	98.44
367.505	94.44
367.731	97.44
367.957	105.44
368.184	78.44
368.41	93.44
368.636	102.44
368.862	116.44
369.089	116.44
369.315	96.44
369.541	77.44
369.767	74.44
369.993	78.44
370.219	77.44
370.445	85.44
370.672	78.44
370.898	89.44
371.124	90.44
371.35	81.44
371.576	99.44
371.802	85.44
372.028	84.44
372.254	93.44
372.48	85.44
372.706	88.44
372.932	92.44
373.158	98.44
373.384	89.44
373.61	92.44
373.835	93.44
374.061	81.44
374.287	76.44
374.513	94.44
374.739	99.44
374.965	101.44
375.191	94.44
375.416	91.44
375.642	96.44
375.868	111.44
376.094	107.44
376.319	99.44
376.545	90.44
376.771	102.44
376.997	92.44
377.222	109.44
377.448	97.44
377.674	91.44
377.899	102.44
378.125	79.44
378.35	98.44
378.576	97.44
378.802	95.44
379.027	98.44
379.253	99.44
379.478	92.44
379.704	96.44
379.929	113.44
380.155	98.44
380.38	100.44
380.606	113.44
380.831	105.44
381.057	107.44
381.282	96.44
381.507	109.44
381.733	108.44
381.958	129.44
382.184	94.44
382.409	110.44
382.634	124.44
382.86	128.44
383.085	122.44
383.31	116.44
383.535	126.44
383.761	127.44
383.986	100.44
384.211	118.44
384.436	130.44
384.662	116.44
384.887	132.44
385.112	137.44
385.337	150.44
385.562	119.44
385.787	136.44
386.013	146.44
386.238	141.44
386.463	122.44
386.688	117.44
386.913	146.44
387.138	143.44
387.363	145.44
387.588	110.44
387.813	112.44
388.038	129.44
388.263	141.44
388.488	136.44
388.713	101.44
388.938	100.44
389.163	99.44
389.387	98.44
389.612	87.44
389.837	85.44
390.062	84.44
390.287	88.44
390.512	90.44
390.736	106.44
390.961	96.44
391.186	84.44
391.411	114.44
391.636	92.44
391.86	95.44
392.085	100.44
392.31	83.44
392.534	82.44
392.759	93.44
392.984	93.44
393.208	111.44
393.433	146.44
393.658	120.44
393.882	88.44
394.107	91.44
394.331	87.44
394.556	92.44
394.78	98.44
395.005	92.44
395.229	84.44
395.454	100.44
395.678	87.44
395.903	80.44
396.127	91.44
396.352	93.44
396.576	93.44
396.801	106.44
397.025	110.44
397.249	93.44
397.474	86.44
397.698	90.44
397.922	77.44
398.147	101.44
398.371	80.44
398.595	80.44
398.82	83.44
399.044	89.44
399.268	85.44
399.492	85.44
399.717	93.44
399.941	95.44
400.165	82.44
400.389	91.44
400.613	92.44
400.837	81.44
401.062	96.44
401.286	81.44
401.51	76.44
401.734	99.44
401.958	107.44
402.182	108.44
402.406	134.44
402.63	100.44
402.854	83.44
403.078	102.44
403.302	99.44
403.526	83.44
403.75	98.44
403.974	82.44
404.198	84.44
404.422	89.44
404.645	94.44
404.869	84.44
405.093	104.44
405.317	86.44
405.541	99.44
405.765	90.44
405.988	118.44
406.212	167.44
406.436	205.44
406.66	139.44
406.883	96.44
407.107	97.44
407.331	92.44
407.555	85.44
407.778	96.44
408.002	99.44
408.226	88.44
408.449	94.44
408.673	85.44
408.896	96.44
409.12	101.44
409.344	90.44
409.567	96.44
409.791	102.44
410.014	105.44
410.238	96.44
410.461	94.44
410.685	95.44
410.908	104.44
411.132	104.44
411.355	115.44
411.578	102.44
411.802	81.44
412.025	95.44
412.249	86.44
412.472	68.44
412.695	111.44
412.919	110.44
413.142	93.44
413.365	88.44
413.589	90.44
413.812	82.44
414.035	95.44
414.258	83.44
414.482	89.44
414.705	84.44
414.928	96.44
415.151	89.44
415.374	82.44
415.597	85.44
415.821	92.44
416.044	95.44
416.267	113.44
416.49	95.44
416.713	95.44
416.936	91.44
417.159	81.44
417.382	97.44
417.605	84.44
417.828	101.44
418.051	84.44
418.274	97.44
418.497	83.44
418.72	105.44
418.943	88.44
419.166	88.44
419.389	87.44
419.611	93.44
419.834	89.44
420.057	77.44
420.28	84.44
420.503	76.44
420.726	90.44
420.948	103.44
421.171	94.44
421.394	93.44
421.617	94.44
421.839	84.44
422.062	98.44
422.285	102.44
422.507	99.44
422.73	114.44
422.953	101.44
423.175	94.44
423.398	88.44
423.621	113.44
423.843	88.44
424.066	88.44
424.288	92.44
424.511	92.44
424.733	90.44
424.956	91.44
425.178	76.44
425.401	99.44
425.623	106.44
425.846	92.44
426.068	89.44
426.291	85.44
426.513	88.44
426.735	100.44
426.958	100.44
427.18	93.44
427.402	133.44
427.625	134.44
427.847	121.44
428.069	105.44
428.292	93.44
428.514	97.44
428.736	83.44
428.958	85.44
429.181	90.44
429.403	82.44
429.625	98.44
429.847	86.44
430.069	89.44
430.292	96.44
430.514	87.44
430.736	79.44
430.958	86.44
431.18	94.44
431.402	94.44
431.624	96.44
431.846	89.44
432.068	84.44
432.29	88.44
432.512	95.44
432.734	61.44
432.956	86.44
433.178	99.44
433.4	99.44
433.622	88.44
433.844	94.44
434.066	85.44
434.287	97.44
434.509	91.44
434.731	96.44
434.953	91.44
435.175	93.44
435.397	87.44
435.618	106.44
435.84	104.44
436.062	99.44
436.284	102.44
436.505	110.44
436.727	93.44
436.949	84.44
437.17	86.44
437.392	102.44
437.614	83.44
437.835	100.44
438.057	100.44
438.278	106.44
438.5	99.44
438.721	105.44
438.943	93.44
439.165	83.44
439.386	92.44
439.608	98.44
439.829	108.44
440.05	115.44
440.272	98.44
440.493	102.44
440.715	80.44
440.936	90.44
441.158	80.44
441.379	85.44
441.6	91.44
441.822	96.44
442.043	84.44
442.264	90.44
442.486	95.44
442.707	84.44
442.928	101.44
443.149	103.44
443.371	114.44
443.592	106.44
443.813	105.44
444.034	98.44
444.255	86.44
444.476	92.44
444.698	81.44
444.919	92.44
445.14	127.44
445.361	109.44
445.582	108.44
445.803	119.44
446.024	114.44
446.245	109.44
446.466	99.44
446.687	80.44
446.908	90.44
447.129	100.44
447.35	88.44
447.571	82.44
447.792	95.44
448.013	97.44
448.234	90.44
448.455	90.44
448.675	94.44
448.896	115.44
449.117	96.44
449.338	98.44
449.559	122.44
449.779	117.44
450	92.44
450.221	78.44
450.442	83.44
450.662	108.44
450.883	107.44
451.104	107.44
451.324	90.44
451.545	84.44
451.766	84.44
451.986	81.44
452.207	84.44
452.428	97.44
452.648	85.44
452.869	109.44
453.089	101.44
453.31	110.44
453.53	93.44
453.751	107.44
453.971	105.44
454.192	93.44
454.412	84.44
454.633	95.44
454.853	76.44
455.073	72.44
455.294	102.44
455.514	102.44
455.734	99.44
455.955	83.44
456.175	94.44
456.395	86.44
456.616	85.44
456.836	105.44
457.056	94.44
457.276	105.44
457.497	91.44
457.717	83.44
457.937	98.44
458.157	81.44
458.377	84.44
458.598	102.44
458.818	127.44
459.038	149.44
459.258	109.44
459.478	84.44
459.698	75.44
459.918	88.44
460.138	82.44
460.358	92.44
460.578	89.44
460.798	94.44
461.018	87.44
461.238	99.44
461.458	74.44
461.678	90.44
461.898	88.44
462.118	100.44
462.338	85.44
462.558	79.44
462.777	84.44
462.997	88.44
463.217	77.44
463.437	81.44
463.657	85.44
463.876	88.44
464.096	97.44
464.316	95.44
464.536	94.44
464.755	75.44
464.975	110.44
465.195	141.44
465.414	133.44
465.634	112.44
465.854	88.44
466.073	83.44
466.293	90.44
466.512	109.44
466.732	90.44
466.951	98.44
467.171	104.44
467.391	108.44
467.61	101.44
467.829	108.44
468.049	124.44
468.268	155.44
468.488	95.44
468.707	103.44
468.927	79.44
469.146	88.44
469.365	80.44
469.585	85.44
469.804	92.44
470.023	102.44
470.243	105.44
470.462	108.44
470.681	101.44
470.901	98.44
471.12	92.44
471.339	92.44
471.558	69.44
471.777	90.44
471.997	112.44
472.216	204.44
472.435	292.44
472.654	107.44
472.873	80.44
473.092	100.44
473.311	86.44
473.53	90.44
473.749	98.44
473.968	83.44
474.187	86.44
474.406	89.44
474.625	93.44
474.844	76.44
475.063	88.44
475.282	91.44
475.501	101.44
475.72	84.44
475.939	90.44
476.158	90.44
476.377	100.44
476.596	87.44
476.814	90.44
477.033	95.44
477.252	93.44
477.471	98.44
477.69	92.44
477.908	102.44
478.127	90.44
478.346	97.44
478.564	96.44
478.783	98.44
479.002	89.44
479.22	105.44
479.439	101.44
479.658	85.44
479.876	107.44
480.095	94.44
480.313	98.44
480.532	108.44
480.751	108.44
480.969	179.44
481.188	514.44
481.406	303.44
481.624	106.44
481.843	98.44
482.061	93.44
482.28	83.44
482.498	92.44
482.717	79.44
482.935	89.44
483.153	89.44
483.372	87.44
483.59	84.44
483.808	69.44
484.027	92.44
484.245	85.44
484.463	89.44
484.681	100.44
484.9	88.44
485.118	105.44
485.336	90.44
485.554	94.44
485.772	113.44
485.99	113.44
486.209	105.44
486.427	99.44
486.645	106.44
486.863	113.44
487.081	99.44
487.299	106.44
487.517	101.44
487.735	98.44
487.953	88.44
488.171	95.44
488.389	93.44
488.607	101.44
488.825	91.44
489.043	85.44
489.261	89.44
489.479	92.44
489.696	97.44
489.914	81.44
490.132	89.44
490.35	82.44
490.568	78.44
490.786	89.44
491.003	80.44
491.221	98.44
491.439	85.44
491.657	93.44
491.874	107.44
492.092	93.44
492.31	96.44
492.527	93.44
492.745	96.44
492.963	92.44
493.18	84.44
493.398	101.44
493.615	104.44
493.833	104.44
494.05	93.44
494.268	96.44
494.485	102.44
494.703	89.44
494.92	90.44
495.138	97.44
495.355	91.44
495.573	101.44
495.79	99.44
496.008	92.44
496.225	110.44
496.442	81.44
496.66	86.44
496.877	91.44
497.094	97.44
497.312	99.44
497.529	91.44
497.746	77.44
497.963	97.44
498.181	84.44
498.398	83.44
498.615	105.44
498.832	106.44
499.049	95.44
499.267	94.44
499.484	84.44
499.701	88.44
499.918	105.44
500.135	88.44
500.352	98.44
500.569	79.44
500.786	96.44
501.003	88.44
501.22	111.44
501.437	78.44
501.654	96.44
501.871	95.44
502.088	106.44
502.305	92.44
502.522	89.44
502.739	96.44
502.956	98.44
503.172	85.44
503.389	88.44
503.606	113.44
503.823	85.44
504.04	113.44
504.256	85.44
504.473	92.44
504.69	88.44
504.907	93.44
505.123	90.44
505.34	85.44
505.557	84.44
505.773	93.44
505.99	95.44
506.207	89.44
506.423	97.44
506.64	93.44
506.856	90.44
507.073	82.44
507.289	86.44
507.506	94.44
507.722	108.44
507.939	100.44
508.155	84.44
508.372	73.44
508.588	97.44
508.805	105.44
509.021	108.44
509.238	74.44
509.454	101.44
509.67	101.44
509.887	111.44
510.103	125.44
510.319	204.44
510.536	650.44
510.752	2076.44
510.968	572.44
511.184	141.44
511.401	106.44
511.617	96.44
511.833	90.44
512.049	95.44
512.265	105.44
512.481	96.44
512.698	90.44
512.914	101.44
513.13	74.44
513.346	92.44
513.562	86.44
513.778	105.44
513.994	89.44
514.21	84.44
514.426	107.44
514.642	122.44
514.858	111.44
