Data from Circ_1996_H10_HRD10591_00008.txt Node
Date: Wed Jan 03 11:33:07 EST 2024
User: Yrep
Spectrometer: HR+D1059
Trigger mode: 1
Integration Time (sec): 1.000000E-1
Scans to average: 1
Electric dark correction enabled: true
Nonlinearity correction enabled: false
Boxcar width: 0
XAxis mode: Wavelengths
Number of Pixels in Spectrum: 2048
>>>>>Begin Spectral Data<<<<<
223.165	-22.94
223.4	-22.94
223.635	-22.94
223.869	-22.94
224.104	-21.94
224.338	-1.94
224.573	-2.94
224.808	-7.94
225.042	-6.94
225.277	3.06
225.511	-2.94
225.746	-16.94
225.98	2.06
226.215	6.06
226.449	12.06
226.683	30.06
226.918	31.06
227.152	23.06
227.387	45.06
227.621	46.06
227.856	45.06
228.09	48.06
228.324	49.06
228.559	49.06
228.793	75.06
229.027	60.06
229.262	61.06
229.496	62.06
229.73	89.06
229.964	74.06
230.199	69.06
230.433	65.06
230.667	77.06
230.901	65.06
231.136	84.06
231.37	85.06
231.604	82.06
231.838	73.06
232.072	70.06
232.306	85.06
232.541	90.06
232.775	83.06
233.009	76.06
233.243	79.06
233.477	82.06
233.711	90.06
233.945	75.06
234.179	75.06
234.413	82.06
234.647	88.06
234.881	82.06
235.115	101.06
235.349	83.06
235.583	94.06
235.817	85.06
236.051	84.06
236.285	87.06
236.519	66.06
236.753	72.06
236.987	77.06
237.221	92.06
237.455	94.06
237.689	89.06
237.922	72.06
238.156	78.06
238.39	61.06
238.624	71.06
238.858	89.06
239.091	78.06
239.325	73.06
239.559	92.06
239.793	67.06
240.027	65.06
240.26	86.06
240.494	96.06
240.728	67.06
240.961	78.06
241.195	78.06
241.429	79.06
241.662	72.06
241.896	73.06
242.13	74.06
242.363	59.06
242.597	73.06
242.83	79.06
243.064	79.06
243.298	81.06
243.531	79.06
243.765	76.06
243.998	79.06
244.232	79.06
244.465	78.06
244.699	80.06
244.932	58.06
245.166	75.06
245.399	71.06
245.633	77.06
245.866	80.06
246.099	74.06
246.333	82.06
246.566	70.06
246.8	77.06
247.033	88.06
247.266	87.06
247.5	75.06
247.733	82.06
247.966	85.06
248.2	83.06
248.433	78.06
248.666	75.06
248.899	92.06
249.133	79.06
249.366	73.06
249.599	94.06
249.832	88.06
250.066	63.06
250.299	79.06
250.532	78.06
250.765	77.06
250.998	83.06
251.231	74.06
251.465	80.06
251.698	64.06
251.931	82.06
252.164	82.06
252.397	90.06
252.63	73.06
252.863	82.06
253.096	91.06
253.329	74.06
253.562	76.06
253.795	78.06
254.028	73.06
254.261	81.06
254.494	71.06
254.727	78.06
254.96	70.06
255.193	69.06
255.426	76.06
255.659	84.06
255.892	93.06
256.124	71.06
256.357	79.06
256.59	90.06
256.823	83.06
257.056	79.06
257.289	90.06
257.521	89.06
257.754	88.06
257.987	77.06
258.22	76.06
258.452	82.06
258.685	75.06
258.918	77.06
259.151	63.06
259.383	80.06
259.616	89.06
259.849	76.06
260.081	84.06
260.314	86.06
260.547	75.06
260.779	78.06
261.012	80.06
261.244	91.06
261.477	89.06
261.71	85.06
261.942	103.06
262.175	98.06
262.407	87.06
262.64	82.06
262.872	69.06
263.105	74.06
263.337	79.06
263.57	78.06
263.802	70.06
264.035	91.06
264.267	80.06
264.499	96.06
264.732	80.06
264.964	69.06
265.197	68.06
265.429	84.06
265.661	83.06
265.894	98.06
266.126	77.06
266.358	90.06
266.591	74.06
266.823	70.06
267.055	78.06
267.287	73.06
267.52	82.06
267.752	69.06
267.984	70.06
268.216	78.06
268.448	79.06
268.681	90.06
268.913	83.06
269.145	84.06
269.377	79.06
269.609	92.06
269.841	82.06
270.073	88.06
270.306	85.06
270.538	90.06
270.77	95.06
271.002	73.06
271.234	89.06
271.466	96.06
271.698	86.06
271.93	84.06
272.162	96.06
272.394	89.06
272.626	85.06
272.858	88.06
273.09	83.06
273.322	99.06
273.553	84.06
273.785	74.06
274.017	79.06
274.249	75.06
274.481	84.06
274.713	88.06
274.945	70.06
275.176	86.06
275.408	94.06
275.64	79.06
275.872	91.06
276.104	82.06
276.335	104.06
276.567	102.06
276.799	93.06
277.031	81.06
277.262	93.06
277.494	89.06
277.726	86.06
277.957	86.06
278.189	82.06
278.421	83.06
278.652	101.06
278.884	83.06
279.115	81.06
279.347	99.06
279.579	97.06
279.81	85.06
280.042	96.06
280.273	96.06
280.505	88.06
280.736	87.06
280.968	76.06
281.199	73.06
281.431	80.06
281.662	84.06
281.894	96.06
282.125	106.06
282.356	109.06
282.588	115.06
282.819	111.06
283.051	77.06
283.282	76.06
283.513	84.06
283.745	88.06
283.976	89.06
284.207	82.06
284.439	85.06
284.67	81.06
284.901	81.06
285.132	83.06
285.364	88.06
285.595	91.06
285.826	81.06
286.057	89.06
286.288	74.06
286.52	75.06
286.751	96.06
286.982	77.06
287.213	77.06
287.444	88.06
287.675	86.06
287.906	83.06
288.138	98.06
288.369	87.06
288.6	81.06
288.831	82.06
289.062	95.06
289.293	89.06
289.524	75.06
289.755	83.06
289.986	82.06
290.217	98.06
290.448	89.06
290.679	98.06
290.91	95.06
291.141	91.06
291.371	84.06
291.602	85.06
291.833	84.06
292.064	89.06
292.295	91.06
292.526	85.06
292.757	112.06
292.987	89.06
293.218	94.06
293.449	99.06
293.68	82.06
293.91	82.06
294.141	110.06
294.372	95.06
294.603	90.06
294.833	102.06
295.064	85.06
295.295	63.06
295.525	99.06
295.756	94.06
295.987	117.06
296.217	111.06
296.448	112.06
296.679	81.06
296.909	83.06
297.14	95.06
297.37	90.06
297.601	93.06
297.831	81.06
298.062	84.06
298.292	79.06
298.523	81.06
298.753	79.06
298.984	97.06
299.214	88.06
299.445	87.06
299.675	97.06
299.905	90.06
300.136	85.06
300.366	102.06
300.597	89.06
300.827	94.06
301.057	90.06
301.288	95.06
301.518	94.06
301.748	85.06
301.979	84.06
302.209	92.06
302.439	104.06
302.669	88.06
302.9	96.06
303.13	94.06
303.36	89.06
303.59	102.06
303.82	95.06
304.051	81.06
304.281	78.06
304.511	97.06
304.741	79.06
304.971	77.06
305.201	75.06
305.431	82.06
305.661	89.06
305.891	89.06
306.121	90.06
306.352	100.06
306.582	102.06
306.812	92.06
307.042	79.06
307.272	98.06
307.502	86.06
307.731	93.06
307.961	99.06
308.191	90.06
308.421	91.06
308.651	88.06
308.881	88.06
309.111	78.06
309.341	74.06
309.571	83.06
309.8	97.06
310.03	94.06
310.26	78.06
310.49	93.06
310.72	87.06
310.949	111.06
311.179	97.06
311.409	85.06
311.639	93.06
311.868	93.06
312.098	100.06
312.328	103.06
312.557	91.06
312.787	94.06
313.017	85.06
313.246	96.06
313.476	96.06
313.706	94.06
313.935	93.06
314.165	90.06
314.394	97.06
314.624	94.06
314.853	109.06
315.083	97.06
315.312	88.06
315.542	94.06
315.771	90.06
316.001	87.06
316.23	76.06
316.46	93.06
316.689	88.06
316.919	87.06
317.148	92.06
317.377	96.06
317.607	89.06
317.836	91.06
318.065	79.06
318.295	95.06
318.524	99.06
318.753	93.06
318.983	101.06
319.212	106.06
319.441	99.06
319.67	98.06
319.9	88.06
320.129	88.06
320.358	99.06
320.587	98.06
320.816	89.06
321.046	90.06
321.275	106.06
321.504	86.06
321.733	90.06
321.962	92.06
322.191	98.06
322.42	94.06
322.649	105.06
322.878	108.06
323.108	115.06
323.337	97.06
323.566	113.06
323.795	125.06
324.024	143.06
324.253	275.06
324.482	570.06
324.71	1090.06
324.939	1404.06
325.168	546.06
325.397	182.06
325.626	125.06
325.855	105.06
326.084	114.06
326.313	117.06
326.542	133.06
326.77	202.06
326.999	313.06
327.228	622.06
327.457	1067.06
327.686	833.06
327.914	270.06
328.143	178.06
328.372	157.06
328.6	122.06
328.829	104.06
329.058	131.06
329.287	122.06
329.515	98.06
329.744	105.06
329.972	120.06
330.201	156.06
330.43	191.06
330.658	125.06
330.887	129.06
331.115	111.06
331.344	101.06
331.572	112.06
331.801	80.06
332.03	104.06
332.258	85.06
332.486	97.06
332.715	87.06
332.943	90.06
333.172	87.06
333.4	95.06
333.629	108.06
333.857	118.06
334.085	129.06
334.314	166.06
334.542	231.06
334.771	211.06
334.999	120.06
335.227	99.06
335.455	96.06
335.684	101.06
335.912	109.06
336.14	99.06
336.369	95.06
336.597	95.06
336.825	106.06
337.053	82.06
337.281	79.06
337.51	86.06
337.738	99.06
337.966	99.06
338.194	98.06
338.422	96.06
338.65	96.06
338.878	98.06
339.106	89.06
339.334	89.06
339.562	97.06
339.79	78.06
340.018	78.06
340.246	95.06
340.474	99.06
340.702	92.06
340.93	85.06
341.158	79.06
341.386	95.06
341.614	83.06
341.842	89.06
342.07	86.06
342.298	88.06
342.526	83.06
342.754	73.06
342.981	81.06
343.209	95.06
343.437	94.06
343.665	79.06
343.893	88.06
344.12	89.06
344.348	91.06
344.576	91.06
344.804	91.06
345.031	94.06
345.259	83.06
345.487	81.06
345.714	101.06
345.942	78.06
346.17	87.06
346.397	105.06
346.625	85.06
346.853	92.06
347.08	85.06
347.308	94.06
347.535	97.06
347.763	86.06
347.99	98.06
348.218	88.06
348.445	84.06
348.673	97.06
348.9	91.06
349.128	96.06
349.355	88.06
349.583	97.06
349.81	94.06
350.037	100.06
350.265	99.06
350.492	89.06
350.72	93.06
350.947	96.06
351.174	99.06
351.402	103.06
351.629	94.06
351.856	92.06
352.083	87.06
352.311	91.06
352.538	103.06
352.765	112.06
352.992	110.06
353.22	88.06
353.447	100.06
353.674	98.06
353.901	93.06
354.128	104.06
354.355	100.06
354.583	89.06
354.81	97.06
355.037	86.06
355.264	93.06
355.491	85.06
355.718	101.06
355.945	85.06
356.172	95.06
356.399	102.06
356.626	93.06
356.853	96.06
357.08	105.06
357.307	95.06
357.534	92.06
357.761	68.06
357.988	86.06
358.215	104.06
358.441	94.06
358.668	97.06
358.895	102.06
359.122	85.06
359.349	78.06
359.576	81.06
359.802	81.06
360.029	119.06
360.256	89.06
360.483	103.06
360.709	92.06
360.936	98.06
361.163	97.06
361.39	86.06
361.616	82.06
361.843	77.06
362.07	92.06
362.296	79.06
362.523	87.06
362.749	87.06
362.976	81.06
363.203	79.06
363.429	83.06
363.656	76.06
363.882	90.06
364.109	80.06
364.335	81.06
364.562	91.06
364.788	98.06
365.015	105.06
365.241	101.06
365.468	98.06
365.694	92.06
365.92	82.06
366.147	85.06
366.373	94.06
366.599	86.06
366.826	94.06
367.052	80.06
367.278	81.06
367.505	92.06
367.731	92.06
367.957	85.06
368.184	83.06
368.41	91.06
368.636	102.06
368.862	107.06
369.089	101.06
369.315	91.06
369.541	90.06
369.767	85.06
369.993	96.06
370.219	88.06
370.445	80.06
370.672	80.06
370.898	88.06
371.124	83.06
371.35	90.06
371.576	88.06
371.802	85.06
372.028	75.06
372.254	79.06
372.48	94.06
372.706	87.06
372.932	91.06
373.158	90.06
373.384	85.06
373.61	74.06
373.835	91.06
374.061	94.06
374.287	93.06
374.513	89.06
374.739	87.06
374.965	85.06
375.191	89.06
375.416	96.06
375.642	78.06
375.868	91.06
376.094	77.06
376.319	81.06
376.545	70.06
376.771	85.06
376.997	83.06
377.222	89.06
377.448	88.06
377.674	78.06
377.899	103.06
378.125	106.06
378.35	97.06
378.576	94.06
378.802	82.06
379.027	82.06
379.253	99.06
379.478	91.06
379.704	96.06
379.929	89.06
380.155	103.06
380.38	89.06
380.606	97.06
380.831	98.06
381.057	104.06
381.282	108.06
381.507	94.06
381.733	109.06
381.958	105.06
382.184	101.06
382.409	99.06
382.634	107.06
382.86	93.06
383.085	102.06
383.31	112.06
383.535	112.06
383.761	109.06
383.986	96.06
384.211	100.06
384.436	114.06
384.662	101.06
384.887	120.06
385.112	110.06
385.337	121.06
385.562	116.06
385.787	125.06
386.013	119.06
386.238	135.06
386.463	104.06
386.688	125.06
386.913	135.06
387.138	127.06
387.363	124.06
387.588	110.06
387.813	116.06
388.038	112.06
388.263	123.06
388.488	121.06
388.713	93.06
388.938	90.06
389.163	90.06
389.387	110.06
389.612	85.06
389.837	87.06
390.062	95.06
390.287	82.06
390.512	81.06
390.736	92.06
390.961	92.06
391.186	98.06
391.411	95.06
391.636	102.06
391.86	93.06
392.085	82.06
392.31	80.06
392.534	83.06
392.759	93.06
392.984	82.06
393.208	104.06
393.433	116.06
393.658	107.06
393.882	93.06
394.107	92.06
394.331	77.06
394.556	75.06
394.78	78.06
395.005	79.06
395.229	78.06
395.454	85.06
395.678	85.06
395.903	85.06
396.127	101.06
396.352	82.06
396.576	81.06
396.801	98.06
397.025	112.06
397.249	82.06
397.474	84.06
397.698	83.06
397.922	81.06
398.147	80.06
398.371	86.06
398.595	83.06
398.82	87.06
399.044	91.06
399.268	88.06
399.492	80.06
399.717	91.06
399.941	87.06
400.165	85.06
400.389	90.06
400.613	73.06
400.837	65.06
401.062	86.06
401.286	91.06
401.51	93.06
401.734	80.06
401.958	99.06
402.182	109.06
402.406	135.06
402.63	100.06
402.854	80.06
403.078	77.06
403.302	100.06
403.526	83.06
403.75	88.06
403.974	76.06
404.198	87.06
404.422	80.06
404.645	61.06
404.869	89.06
405.093	101.06
405.317	95.06
405.541	91.06
405.765	102.06
405.988	111.06
406.212	138.06
406.436	201.06
406.66	108.06
406.883	94.06
407.107	96.06
407.331	79.06
407.555	95.06
407.778	97.06
408.002	88.06
408.226	87.06
408.449	103.06
408.673	81.06
408.896	72.06
409.12	90.06
409.344	91.06
409.567	79.06
409.791	99.06
410.014	83.06
410.238	86.06
410.461	84.06
410.685	91.06
410.908	97.06
411.132	91.06
411.355	85.06
411.578	86.06
411.802	100.06
412.025	87.06
412.249	92.06
412.472	90.06
412.695	78.06
412.919	78.06
413.142	84.06
413.365	97.06
413.589	82.06
413.812	83.06
414.035	97.06
414.258	101.06
414.482	97.06
414.705	81.06
414.928	94.06
415.151	92.06
415.374	90.06
415.597	89.06
415.821	91.06
416.044	105.06
416.267	91.06
416.49	85.06
416.713	98.06
416.936	99.06
417.159	98.06
417.382	84.06
417.605	94.06
417.828	92.06
418.051	76.06
418.274	82.06
418.497	77.06
418.72	83.06
418.943	100.06
419.166	74.06
419.389	85.06
419.611	85.06
419.834	95.06
420.057	103.06
420.28	86.06
420.503	81.06
420.726	85.06
420.948	91.06
421.171	86.06
421.394	102.06
421.617	82.06
421.839	82.06
422.062	94.06
422.285	64.06
422.507	94.06
422.73	93.06
422.953	88.06
423.175	98.06
423.398	87.06
423.621	94.06
423.843	83.06
424.066	86.06
424.288	80.06
424.511	93.06
424.733	87.06
424.956	88.06
425.178	96.06
425.401	109.06
425.623	88.06
425.846	74.06
426.068	82.06
426.291	94.06
426.513	83.06
426.735	88.06
426.958	106.06
427.18	110.06
427.402	142.06
427.625	124.06
427.847	110.06
428.069	102.06
428.292	82.06
428.514	95.06
428.736	91.06
428.958	74.06
429.181	85.06
429.403	87.06
429.625	76.06
429.847	91.06
430.069	91.06
430.292	105.06
430.514	90.06
430.736	83.06
430.958	88.06
431.18	87.06
431.402	92.06
431.624	93.06
431.846	64.06
432.068	87.06
432.29	81.06
432.512	80.06
432.734	94.06
432.956	93.06
433.178	83.06
433.4	85.06
433.622	86.06
433.844	94.06
434.066	94.06
434.287	99.06
434.509	88.06
434.731	85.06
434.953	82.06
435.175	79.06
435.397	80.06
435.618	82.06
435.84	89.06
436.062	102.06
436.284	102.06
436.505	105.06
436.727	99.06
436.949	99.06
437.17	92.06
437.392	97.06
437.614	79.06
437.835	87.06
438.057	100.06
438.278	105.06
438.5	102.06
438.721	116.06
438.943	95.06
439.165	97.06
439.386	82.06
439.608	93.06
439.829	80.06
440.05	102.06
440.272	128.06
440.493	100.06
440.715	93.06
440.936	83.06
441.158	80.06
441.379	80.06
441.6	88.06
441.822	79.06
442.043	101.06
442.264	102.06
442.486	93.06
442.707	88.06
442.928	99.06
443.149	119.06
443.371	108.06
443.592	85.06
443.813	102.06
444.034	89.06
444.255	81.06
444.476	109.06
444.698	80.06
444.919	98.06
445.14	135.06
445.361	104.06
445.582	113.06
445.803	124.06
446.024	107.06
446.245	115.06
446.466	97.06
446.687	94.06
446.908	79.06
447.129	99.06
447.35	94.06
447.571	94.06
447.792	105.06
448.013	85.06
448.234	100.06
448.455	93.06
448.675	108.06
448.896	108.06
449.117	87.06
449.338	81.06
449.559	116.06
449.779	117.06
450	89.06
450.221	80.06
450.442	76.06
450.662	87.06
450.883	101.06
451.104	109.06
451.324	79.06
451.545	80.06
451.766	84.06
451.986	92.06
452.207	79.06
452.428	79.06
452.648	90.06
452.869	110.06
453.089	108.06
453.31	95.06
453.53	96.06
453.751	86.06
453.971	114.06
454.192	117.06
454.412	79.06
454.633	77.06
454.853	75.06
455.073	76.06
455.294	90.06
455.514	95.06
455.734	91.06
455.955	88.06
456.175	93.06
456.395	74.06
456.616	77.06
456.836	78.06
457.056	87.06
457.276	80.06
457.497	77.06
457.717	89.06
457.937	71.06
458.157	89.06
458.377	101.06
458.598	96.06
458.818	130.06
459.038	133.06
459.258	104.06
459.478	92.06
459.698	86.06
459.918	79.06
460.138	73.06
460.358	86.06
460.578	90.06
460.798	99.06
461.018	77.06
461.238	75.06
461.458	85.06
461.678	81.06
461.898	91.06
462.118	94.06
462.338	96.06
462.558	91.06
462.777	87.06
462.997	97.06
463.217	86.06
463.437	91.06
463.657	79.06
463.876	79.06
464.096	71.06
464.316	79.06
464.536	85.06
464.755	84.06
464.975	103.06
465.195	142.06
465.414	137.06
465.634	84.06
465.854	97.06
466.073	75.06
466.293	91.06
466.512	78.06
466.732	71.06
466.951	94.06
467.171	85.06
467.391	95.06
467.61	106.06
467.829	91.06
468.049	120.06
468.268	154.06
468.488	107.06
468.707	83.06
468.927	97.06
469.146	83.06
469.365	89.06
469.585	87.06
469.804	82.06
470.023	84.06
470.243	77.06
470.462	104.06
470.681	98.06
470.901	90.06
471.12	99.06
471.339	101.06
471.558	93.06
471.777	93.06
471.997	112.06
472.216	184.06
472.435	290.06
472.654	129.06
472.873	84.06
473.092	85.06
473.311	86.06
473.53	79.06
473.749	80.06
473.968	84.06
474.187	113.06
474.406	86.06
474.625	86.06
474.844	93.06
475.063	75.06
475.282	95.06
475.501	87.06
475.72	95.06
475.939	88.06
476.158	81.06
476.377	80.06
476.596	77.06
476.814	80.06
477.033	87.06
477.252	81.06
477.471	84.06
477.69	85.06
477.908	95.06
478.127	90.06
478.346	85.06
478.564	87.06
478.783	96.06
479.002	94.06
479.22	83.06
479.439	115.06
479.658	100.06
479.876	101.06
480.095	103.06
480.313	90.06
480.532	87.06
480.751	106.06
480.969	182.06
481.188	483.06
481.406	300.06
481.624	125.06
481.843	73.06
482.061	90.06
482.28	82.06
482.498	86.06
482.717	64.06
482.935	89.06
483.153	89.06
483.372	81.06
483.59	92.06
483.808	86.06
484.027	83.06
484.245	97.06
484.463	73.06
484.681	89.06
484.9	84.06
485.118	95.06
485.336	111.06
485.554	97.06
485.772	98.06
485.99	111.06
486.209	102.06
486.427	104.06
486.645	115.06
486.863	109.06
487.081	106.06
487.299	100.06
487.517	88.06
487.735	89.06
487.953	93.06
488.171	98.06
488.389	79.06
488.607	81.06
488.825	99.06
489.043	89.06
489.261	78.06
489.479	95.06
489.696	85.06
489.914	88.06
490.132	95.06
490.35	93.06
490.568	87.06
490.786	98.06
491.003	102.06
491.221	99.06
491.439	85.06
491.657	94.06
491.874	90.06
492.092	84.06
492.31	85.06
492.527	94.06
492.745	84.06
492.963	91.06
493.18	81.06
493.398	82.06
493.615	96.06
493.833	92.06
494.05	84.06
494.268	87.06
494.485	81.06
494.703	89.06
494.92	91.06
495.138	72.06
495.355	79.06
495.573	103.06
495.79	90.06
496.008	95.06
496.225	95.06
496.442	97.06
496.66	90.06
496.877	84.06
497.094	91.06
497.312	92.06
497.529	94.06
497.746	81.06
497.963	86.06
498.181	101.06
498.398	95.06
498.615	112.06
498.832	109.06
499.049	111.06
499.267	83.06
499.484	96.06
499.701	88.06
499.918	77.06
500.135	86.06
500.352	93.06
500.569	82.06
500.786	93.06
501.003	97.06
501.22	79.06
501.437	89.06
501.654	90.06
501.871	96.06
502.088	84.06
502.305	98.06
502.522	82.06
502.739	93.06
502.956	102.06
503.172	95.06
503.389	104.06
503.606	99.06
503.823	86.06
504.04	81.06
504.256	104.06
504.473	101.06
504.69	95.06
504.907	96.06
505.123	84.06
505.34	99.06
505.557	89.06
505.773	86.06
505.99	90.06
506.207	96.06
506.423	91.06
506.64	89.06
506.856	91.06
507.073	77.06
507.289	94.06
507.506	94.06
507.722	110.06
507.939	87.06
508.155	90.06
508.372	73.06
508.588	83.06
508.805	93.06
509.021	93.06
509.238	96.06
509.454	97.06
509.67	105.06
509.887	100.06
510.103	120.06
510.319	187.06
510.536	673.06
510.752	2180.06
510.968	573.06
511.184	150.06
511.401	116.06
511.617	100.06
511.833	89.06
512.049	89.06
512.265	81.06
512.481	76.06
512.698	86.06
512.914	87.06
513.13	97.06
513.346	109.06
513.562	88.06
513.778	87.06
513.994	88.06
514.21	98.06
514.426	106.06
514.642	106.06
514.858	109.06
515.074	165.06
515.29	381.06
515.506	1211.06
515.721	450.06
515.937	129.06
516.153	91.06
516.369	87.06
