Data from Circ_1996_H10_HRD10591_00088.txt Node
Date: Wed Jan 03 11:33:23 EST 2024
User: Yrep
Spectrometer: HR+D1059
Trigger mode: 1
Integration Time (sec): 1.000000E-1
Scans to average: 1
Electric dark correction enabled: true
Nonlinearity correction enabled: false
Boxcar width: 0
XAxis mode: Wavelengths
Number of Pixels in Spectrum: 2048
>>>>>Begin Spectral Data<<<<<
223.165	-17.19
223.4	-17.19
223.635	-17.19
223.869	-7.19
224.104	-3.19
224.338	-22.19
224.573	-30.19
224.808	-4.19
225.042	-16.19
225.277	-10.19
225.511	-8.19
225.746	2.81
225.98	11.81
226.215	14.81
226.449	15.81
226.683	22.81
226.918	21.81
227.152	28.81
227.387	24.81
227.621	39.81
227.856	28.81
228.09	40.81
228.324	53.81
228.559	52.81
228.793	56.81
229.027	70.81
229.262	58.81
229.496	73.81
229.73	69.81
229.964	74.81
230.199	62.81
230.433	78.81
230.667	82.81
230.901	84.81
231.136	77.81
231.37	76.81
231.604	79.81
231.838	78.81
232.072	75.81
232.306	77.81
232.541	84.81
232.775	80.81
233.009	78.81
233.243	67.81
233.477	71.81
233.711	69.81
233.945	80.81
234.179	81.81
234.413	81.81
234.647	85.81
234.881	74.81
235.115	95.81
235.349	86.81
235.583	80.81
235.817	74.81
236.051	66.81
236.285	83.81
236.519	84.81
236.753	73.81
236.987	64.81
237.221	66.81
237.455	75.81
237.689	89.81
237.922	77.81
238.156	69.81
238.39	77.81
238.624	76.81
238.858	71.81
239.091	66.81
239.325	87.81
239.559	64.81
239.793	80.81
240.027	86.81
240.26	73.81
240.494	64.81
240.728	72.81
240.961	83.81
241.195	82.81
241.429	83.81
241.662	75.81
241.896	67.81
242.13	73.81
242.363	69.81
242.597	84.81
242.83	82.81
243.064	84.81
243.298	78.81
243.531	82.81
243.765	82.81
243.998	79.81
244.232	87.81
244.465	69.81
244.699	67.81
244.932	73.81
245.166	75.81
245.399	81.81
245.633	76.81
245.866	83.81
246.099	82.81
246.333	76.81
246.566	77.81
246.8	80.81
247.033	73.81
247.266	70.81
247.5	79.81
247.733	77.81
247.966	80.81
248.2	74.81
248.433	71.81
248.666	76.81
248.899	72.81
249.133	92.81
249.366	83.81
249.599	96.81
249.832	86.81
250.066	78.81
250.299	83.81
250.532	73.81
250.765	84.81
250.998	72.81
251.231	82.81
251.465	76.81
251.698	91.81
251.931	98.81
252.164	76.81
252.397	81.81
252.63	87.81
252.863	69.81
253.096	77.81
253.329	60.81
253.562	77.81
253.795	77.81
254.028	80.81
254.261	80.81
254.494	73.81
254.727	75.81
254.96	71.81
255.193	86.81
255.426	86.81
255.659	71.81
255.892	84.81
256.124	74.81
256.357	74.81
256.59	77.81
256.823	91.81
257.056	81.81
257.289	70.81
257.521	91.81
257.754	92.81
257.987	81.81
258.22	85.81
258.452	69.81
258.685	71.81
258.918	92.81
259.151	99.81
259.383	102.81
259.616	81.81
259.849	79.81
260.081	78.81
260.314	87.81
260.547	82.81
260.779	76.81
261.012	79.81
261.244	94.81
261.477	93.81
261.71	88.81
261.942	108.81
262.175	105.81
262.407	89.81
262.64	78.81
262.872	78.81
263.105	89.81
263.337	97.81
263.57	75.81
263.802	76.81
264.035	75.81
264.267	97.81
264.499	93.81
264.732	77.81
264.964	89.81
265.197	87.81
265.429	93.81
265.661	78.81
265.894	88.81
266.126	82.81
266.358	65.81
266.591	79.81
266.823	77.81
267.055	77.81
267.287	72.81
267.52	93.81
267.752	81.81
267.984	82.81
268.216	88.81
268.448	104.81
268.681	76.81
268.913	82.81
269.145	92.81
269.377	81.81
269.609	89.81
269.841	91.81
270.073	84.81
270.306	79.81
270.538	96.81
270.77	78.81
271.002	72.81
271.234	99.81
271.466	82.81
271.698	85.81
271.93	80.81
272.162	85.81
272.394	98.81
272.626	80.81
272.858	93.81
273.09	82.81
273.322	75.81
273.553	81.81
273.785	87.81
274.017	88.81
274.249	85.81
274.481	77.81
274.713	85.81
274.945	98.81
275.176	79.81
275.408	75.81
275.64	93.81
275.872	73.81
276.104	92.81
276.335	81.81
276.567	94.81
276.799	101.81
277.031	107.81
277.262	84.81
277.494	91.81
277.726	87.81
277.957	82.81
278.189	73.81
278.421	78.81
278.652	73.81
278.884	81.81
279.115	94.81
279.347	66.81
279.579	63.81
279.81	81.81
280.042	87.81
280.273	89.81
280.505	90.81
280.736	83.81
280.968	87.81
281.199	73.81
281.431	77.81
281.662	82.81
281.894	90.81
282.125	100.81
282.356	111.81
282.588	144.81
282.819	93.81
283.051	79.81
283.282	83.81
283.513	97.81
283.745	89.81
283.976	87.81
284.207	90.81
284.439	89.81
284.67	98.81
284.901	95.81
285.132	91.81
285.364	74.81
285.595	89.81
285.826	82.81
286.057	81.81
286.288	81.81
286.52	79.81
286.751	82.81
286.982	79.81
287.213	83.81
287.444	84.81
287.675	99.81
287.906	86.81
288.138	93.81
288.369	83.81
288.6	97.81
288.831	90.81
289.062	87.81
289.293	95.81
289.524	80.81
289.755	73.81
289.986	83.81
290.217	81.81
290.448	79.81
290.679	91.81
290.91	88.81
291.141	98.81
291.371	103.81
291.602	91.81
291.833	90.81
292.064	87.81
292.295	95.81
292.526	89.81
292.757	88.81
292.987	91.81
293.218	96.81
293.449	73.81
293.68	83.81
293.91	75.81
294.141	100.81
294.372	95.81
294.603	97.81
294.833	92.81
295.064	98.81
295.295	78.81
295.525	96.81
295.756	97.81
295.987	104.81
296.217	122.81
296.448	114.81
296.679	91.81
296.909	90.81
297.14	81.81
297.37	94.81
297.601	85.81
297.831	91.81
298.062	82.81
298.292	82.81
298.523	84.81
298.753	90.81
298.984	80.81
299.214	88.81
299.445	96.81
299.675	99.81
299.905	91.81
300.136	81.81
300.366	86.81
300.597	97.81
300.827	94.81
301.057	97.81
301.288	91.81
301.518	99.81
301.748	100.81
301.979	81.81
302.209	78.81
302.439	83.81
302.669	72.81
302.9	93.81
303.13	84.81
303.36	74.81
303.59	110.81
303.82	102.81
304.051	105.81
304.281	99.81
304.511	107.81
304.741	87.81
304.971	75.81
305.201	81.81
305.431	90.81
305.661	86.81
305.891	79.81
306.121	102.81
306.352	102.81
306.582	98.81
306.812	85.81
307.042	88.81
307.272	101.81
307.502	106.81
307.731	112.81
307.961	97.81
308.191	77.81
308.421	94.81
308.651	89.81
308.881	88.81
309.111	98.81
309.341	85.81
309.571	96.81
309.8	98.81
310.03	105.81
310.26	90.81
310.49	101.81
310.72	95.81
310.949	121.81
311.179	98.81
311.409	93.81
311.639	92.81
311.868	93.81
312.098	90.81
312.328	105.81
312.557	99.81
312.787	104.81
313.017	110.81
313.246	96.81
313.476	95.81
313.706	92.81
313.935	92.81
314.165	84.81
314.394	74.81
314.624	96.81
314.853	97.81
315.083	76.81
315.312	111.81
315.542	96.81
315.771	91.81
316.001	83.81
316.23	96.81
316.46	81.81
316.689	92.81
316.919	98.81
317.148	89.81
317.377	84.81
317.607	90.81
317.836	90.81
318.065	88.81
318.295	82.81
318.524	90.81
318.753	87.81
318.983	87.81
319.212	95.81
319.441	104.81
319.67	96.81
319.9	104.81
320.129	90.81
320.358	88.81
320.587	103.81
320.816	89.81
321.046	97.81
321.275	93.81
321.504	89.81
321.733	90.81
321.962	97.81
322.191	85.81
322.42	89.81
322.649	99.81
322.878	102.81
323.108	95.81
323.337	112.81
323.566	125.81
323.795	139.81
324.024	170.81
324.253	299.81
324.482	601.81
324.71	1186.81
324.939	1566.81
325.168	618.81
325.397	195.81
325.626	126.81
325.855	113.81
326.084	112.81
326.313	120.81
326.542	141.81
326.77	201.81
326.999	350.81
327.228	643.81
327.457	1165.81
327.686	901.81
327.914	300.81
328.143	188.81
328.372	156.81
328.6	119.81
328.829	117.81
329.058	100.81
329.287	120.81
329.515	119.81
329.744	113.81
329.972	110.81
330.201	185.81
330.43	189.81
330.658	155.81
330.887	151.81
331.115	122.81
331.344	97.81
331.572	97.81
331.801	83.81
332.03	104.81
332.258	109.81
332.486	96.81
332.715	81.81
332.943	94.81
333.172	97.81
333.4	95.81
333.629	103.81
333.857	114.81
334.085	143.81
334.314	183.81
334.542	231.81
334.771	221.81
334.999	120.81
335.227	103.81
335.455	94.81
335.684	99.81
335.912	98.81
336.14	92.81
336.369	95.81
336.597	106.81
336.825	101.81
337.053	97.81
337.281	96.81
337.51	99.81
337.738	98.81
337.966	91.81
338.194	96.81
338.422	93.81
338.65	94.81
338.878	97.81
339.106	88.81
339.334	106.81
339.562	83.81
339.79	77.81
340.018	82.81
340.246	97.81
340.474	82.81
340.702	78.81
340.93	86.81
341.158	97.81
341.386	87.81
341.614	102.81
341.842	100.81
342.07	95.81
342.298	93.81
342.526	95.81
342.754	85.81
342.981	95.81
343.209	86.81
343.437	98.81
343.665	89.81
343.893	107.81
344.12	87.81
344.348	90.81
344.576	96.81
344.804	101.81
345.031	93.81
345.259	90.81
345.487	106.81
345.714	104.81
345.942	100.81
346.17	93.81
346.397	86.81
346.625	88.81
346.853	97.81
347.08	79.81
347.308	92.81
347.535	79.81
347.763	100.81
347.99	109.81
348.218	98.81
348.445	107.81
348.673	92.81
348.9	87.81
349.128	100.81
349.355	85.81
349.583	91.81
349.81	97.81
350.037	98.81
350.265	89.81
350.492	89.81
350.72	98.81
350.947	106.81
351.174	101.81
351.402	108.81
351.629	104.81
351.856	101.81
352.083	99.81
352.311	109.81
352.538	90.81
352.765	109.81
352.992	106.81
353.22	107.81
353.447	102.81
353.674	92.81
353.901	82.81
354.128	84.81
354.355	82.81
354.583	99.81
354.81	99.81
355.037	90.81
355.264	101.81
355.491	87.81
355.718	90.81
355.945	107.81
356.172	89.81
356.399	99.81
356.626	93.81
356.853	89.81
357.08	102.81
357.307	101.81
357.534	89.81
357.761	98.81
357.988	108.81
358.215	92.81
358.441	99.81
358.668	85.81
358.895	80.81
359.122	86.81
359.349	77.81
359.576	82.81
359.802	100.81
360.029	105.81
360.256	105.81
360.483	91.81
360.709	74.81
360.936	86.81
361.163	96.81
361.39	97.81
361.616	95.81
361.843	92.81
362.07	104.81
362.296	104.81
362.523	90.81
362.749	97.81
362.976	88.81
363.203	98.81
363.429	85.81
363.656	92.81
363.882	93.81
364.109	82.81
364.335	89.81
364.562	93.81
364.788	89.81
365.015	93.81
365.241	91.81
365.468	113.81
365.694	123.81
365.92	90.81
366.147	89.81
366.373	95.81
366.599	79.81
366.826	85.81
367.052	95.81
367.278	89.81
367.505	97.81
367.731	94.81
367.957	99.81
368.184	91.81
368.41	93.81
368.636	96.81
368.862	118.81
369.089	102.81
369.315	87.81
369.541	94.81
369.767	83.81
369.993	88.81
370.219	83.81
370.445	83.81
370.672	93.81
370.898	80.81
371.124	88.81
371.35	83.81
371.576	93.81
371.802	95.81
372.028	82.81
372.254	90.81
372.48	81.81
372.706	84.81
372.932	93.81
373.158	89.81
373.384	80.81
373.61	92.81
373.835	95.81
374.061	80.81
374.287	87.81
374.513	92.81
374.739	69.81
374.965	98.81
375.191	86.81
375.416	94.81
375.642	101.81
375.868	92.81
376.094	96.81
376.319	78.81
376.545	80.81
376.771	86.81
376.997	91.81
377.222	88.81
377.448	93.81
377.674	88.81
377.899	96.81
378.125	109.81
378.35	89.81
378.576	86.81
378.802	98.81
379.027	90.81
379.253	93.81
379.478	97.81
379.704	97.81
379.929	86.81
380.155	87.81
380.38	90.81
380.606	99.81
380.831	79.81
381.057	88.81
381.282	87.81
381.507	92.81
381.733	98.81
381.958	93.81
382.184	93.81
382.409	87.81
382.634	92.81
382.86	93.81
383.085	96.81
383.31	96.81
383.535	90.81
383.761	106.81
383.986	87.81
384.211	101.81
384.436	94.81
384.662	95.81
384.887	98.81
385.112	91.81
385.337	102.81
385.562	95.81
385.787	106.81
386.013	109.81
386.238	116.81
386.463	95.81
386.688	99.81
386.913	91.81
387.138	92.81
387.363	91.81
387.588	89.81
387.813	97.81
388.038	87.81
388.263	109.81
388.488	99.81
388.713	85.81
388.938	90.81
389.163	87.81
389.387	91.81
389.612	89.81
389.837	86.81
390.062	92.81
390.287	98.81
390.512	87.81
390.736	75.81
390.961	87.81
391.186	87.81
391.411	90.81
391.636	86.81
391.86	71.81
392.085	80.81
392.31	78.81
392.534	81.81
392.759	85.81
392.984	85.81
393.208	90.81
393.433	97.81
393.658	84.81
393.882	77.81
394.107	87.81
394.331	85.81
394.556	91.81
394.78	94.81
395.005	87.81
395.229	80.81
395.454	86.81
395.678	81.81
395.903	81.81
396.127	94.81
396.352	78.81
396.576	91.81
396.801	82.81
397.025	89.81
397.249	96.81
397.474	90.81
397.698	69.81
397.922	86.81
398.147	78.81
398.371	76.81
398.595	87.81
398.82	93.81
399.044	83.81
399.268	84.81
399.492	82.81
399.717	83.81
399.941	69.81
400.165	87.81
400.389	92.81
400.613	91.81
400.837	86.81
401.062	101.81
401.286	90.81
401.51	81.81
401.734	97.81
401.958	103.81
402.182	112.81
402.406	137.81
402.63	114.81
402.854	85.81
403.078	77.81
403.302	89.81
403.526	93.81
403.75	79.81
403.974	77.81
404.198	82.81
404.422	89.81
404.645	89.81
404.869	92.81
405.093	89.81
405.317	103.81
405.541	90.81
405.765	104.81
405.988	110.81
406.212	150.81
406.436	197.81
406.66	133.81
406.883	89.81
407.107	89.81
407.331	90.81
407.555	84.81
407.778	104.81
408.002	98.81
408.226	89.81
408.449	72.81
408.673	82.81
408.896	95.81
409.12	85.81
409.344	96.81
409.567	89.81
409.791	106.81
410.014	85.81
410.238	78.81
410.461	89.81
410.685	90.81
410.908	93.81
411.132	97.81
411.355	86.81
411.578	95.81
411.802	78.81
412.025	69.81
412.249	87.81
412.472	92.81
412.695	96.81
412.919	104.81
413.142	79.81
413.365	83.81
413.589	86.81
413.812	81.81
414.035	77.81
414.258	82.81
414.482	99.81
414.705	106.81
414.928	91.81
415.151	89.81
415.374	99.81
415.597	93.81
415.821	88.81
416.044	79.81
416.267	93.81
416.49	85.81
416.713	92.81
416.936	87.81
417.159	75.81
417.382	107.81
417.605	78.81
417.828	76.81
418.051	87.81
418.274	77.81
418.497	87.81
418.72	87.81
418.943	86.81
419.166	72.81
419.389	78.81
419.611	82.81
419.834	74.81
420.057	83.81
420.28	96.81
420.503	88.81
420.726	94.81
420.948	96.81
421.171	98.81
421.394	81.81
421.617	94.81
421.839	87.81
422.062	78.81
422.285	91.81
422.507	92.81
422.73	87.81
422.953	87.81
423.175	91.81
423.398	85.81
423.621	88.81
423.843	88.81
424.066	65.81
424.288	80.81
424.511	87.81
424.733	104.81
424.956	120.81
425.178	87.81
425.401	98.81
425.623	81.81
425.846	97.81
426.068	91.81
426.291	86.81
426.513	91.81
426.735	92.81
426.958	104.81
427.18	90.81
427.402	126.81
427.625	150.81
427.847	121.81
428.069	113.81
428.292	88.81
428.514	96.81
428.736	75.81
428.958	82.81
429.181	87.81
429.403	81.81
429.625	82.81
429.847	90.81
430.069	90.81
430.292	85.81
430.514	80.81
430.736	74.81
430.958	81.81
431.18	88.81
431.402	85.81
431.624	94.81
431.846	87.81
432.068	75.81
432.29	93.81
432.512	90.81
432.734	89.81
432.956	93.81
433.178	90.81
433.4	80.81
433.622	84.81
433.844	83.81
434.066	97.81
434.287	92.81
434.509	84.81
434.731	77.81
434.953	79.81
435.175	84.81
435.397	86.81
435.618	95.81
435.84	75.81
436.062	102.81
436.284	100.81
436.505	79.81
436.727	93.81
436.949	82.81
437.17	84.81
437.392	82.81
437.614	80.81
437.835	89.81
438.057	105.81
438.278	102.81
438.5	115.81
438.721	109.81
438.943	97.81
439.165	93.81
439.386	87.81
439.608	91.81
439.829	103.81
440.05	111.81
440.272	111.81
440.493	90.81
440.715	85.81
440.936	89.81
441.158	90.81
441.379	78.81
441.6	89.81
441.822	92.81
442.043	88.81
442.264	82.81
442.486	94.81
442.707	90.81
442.928	101.81
443.149	104.81
443.371	121.81
443.592	94.81
443.813	103.81
444.034	97.81
444.255	81.81
444.476	85.81
444.698	80.81
444.919	82.81
445.14	126.81
445.361	108.81
445.582	107.81
445.803	137.81
446.024	114.81
446.245	107.81
446.466	110.81
446.687	73.81
446.908	90.81
447.129	81.81
447.35	73.81
447.571	73.81
447.792	103.81
448.013	97.81
448.234	111.81
448.455	96.81
448.675	97.81
448.896	99.81
449.117	99.81
449.338	96.81
449.559	106.81
449.779	119.81
450	97.81
450.221	91.81
450.442	81.81
450.662	99.81
450.883	80.81
451.104	96.81
451.324	96.81
451.545	77.81
451.766	84.81
451.986	84.81
452.207	88.81
452.428	90.81
452.648	104.81
452.869	104.81
453.089	105.81
453.31	119.81
453.53	97.81
453.751	86.81
453.971	87.81
454.192	102.81
454.412	96.81
454.633	85.81
454.853	82.81
455.073	75.81
455.294	93.81
455.514	96.81
455.734	84.81
455.955	81.81
456.175	82.81
456.395	79.81
456.616	85.81
456.836	67.81
457.056	80.81
457.276	79.81
457.497	77.81
457.717	85.81
457.937	98.81
458.157	73.81
458.377	90.81
458.598	106.81
458.818	136.81
459.038	136.81
459.258	94.81
459.478	89.81
459.698	86.81
459.918	85.81
460.138	84.81
460.358	70.81
460.578	83.81
460.798	85.81
461.018	95.81
461.238	88.81
461.458	69.81
461.678	85.81
461.898	68.81
462.118	78.81
462.338	71.81
462.558	89.81
462.777	86.81
462.997	75.81
463.217	98.81
463.437	92.81
463.657	98.81
463.876	83.81
464.096	99.81
464.316	74.81
464.536	90.81
464.755	101.81
464.975	100.81
465.195	154.81
465.414	164.81
465.634	104.81
465.854	79.81
466.073	91.81
466.293	79.81
466.512	92.81
466.732	91.81
466.951	88.81
467.171	78.81
467.391	87.81
467.61	101.81
467.829	111.81
468.049	117.81
468.268	137.81
468.488	104.81
468.707	87.81
468.927	73.81
469.146	85.81
469.365	78.81
469.585	81.81
469.804	99.81
470.023	83.81
470.243	83.81
470.462	94.81
470.681	109.81
470.901	85.81
471.12	91.81
471.339	90.81
471.558	92.81
471.777	93.81
471.997	110.81
472.216	198.81
472.435	298.81
472.654	128.81
472.873	98.81
473.092	102.81
473.311	91.81
473.53	85.81
473.749	83.81
473.968	94.81
474.187	86.81
474.406	94.81
474.625	86.81
474.844	97.81
475.063	89.81
475.282	80.81
475.501	80.81
475.72	103.81
475.939	89.81
476.158	90.81
476.377	80.81
476.596	87.81
476.814	77.81
477.033	81.81
477.252	102.81
477.471	91.81
477.69	71.81
477.908	87.81
478.127	71.81
478.346	83.81
478.564	87.81
478.783	93.81
479.002	94.81
479.22	89.81
479.439	100.81
479.658	93.81
479.876	83.81
480.095	88.81
480.313	98.81
480.532	107.81
480.751	107.81
480.969	216.81
481.188	511.81
481.406	325.81
481.624	94.81
481.843	98.81
482.061	79.81
482.28	91.81
482.498	92.81
482.717	79.81
482.935	76.81
483.153	77.81
483.372	79.81
483.59	90.81
483.808	91.81
484.027	89.81
484.245	92.81
484.463	105.81
484.681	103.81
484.9	93.81
485.118	85.81
485.336	91.81
485.554	102.81
485.772	98.81
485.99	107.81
486.209	103.81
486.427	113.81
486.645	105.81
486.863	117.81
487.081	98.81
487.299	90.81
487.517	95.81
487.735	102.81
487.953	85.81
488.171	93.81
488.389	94.81
488.607	99.81
488.825	84.81
489.043	98.81
489.261	86.81
489.479	76.81
489.696	91.81
489.914	95.81
490.132	96.81
490.35	90.81
490.568	81.81
490.786	86.81
491.003	103.81
491.221	93.81
491.439	84.81
491.657	80.81
491.874	90.81
492.092	91.81
492.31	91.81
492.527	82.81
492.745	103.81
492.963	90.81
493.18	103.81
493.398	103.81
493.615	76.81
493.833	85.81
494.05	77.81
494.268	99.81
494.485	91.81
494.703	91.81
494.92	91.81
495.138	94.81
495.355	76.81
495.573	78.81
495.79	84.81
496.008	84.81
496.225	80.81
496.442	110.81
496.66	97.81
496.877	75.81
497.094	87.81
497.312	98.81
497.529	78.81
497.746	90.81
497.963	94.81
498.181	102.81
498.398	102.81
498.615	84.81
498.832	91.81
499.049	93.81
499.267	102.81
499.484	92.81
499.701	78.81
499.918	93.81
500.135	89.81
500.352	99.81
500.569	92.81
500.786	97.81
501.003	89.81
501.22	69.81
501.437	80.81
501.654	91.81
501.871	79.81
502.088	93.81
502.305	92.81
502.522	76.81
502.739	62.81
502.956	92.81
503.172	88.81
503.389	85.81
503.606	103.81
503.823	105.81
504.04	83.81
504.256	86.81
504.473	94.81
504.69	91.81
504.907	88.81
505.123	90.81
505.34	99.81
505.557	85.81
505.773	95.81
505.99	103.81
506.207	85.81
506.423	85.81
506.64	86.81
506.856	91.81
507.073	94.81
507.289	84.81
507.506	82.81
507.722	105.81
507.939	106.81
508.155	90.81
508.372	88.81
508.588	74.81
508.805	94.81
509.021	99.81
509.238	94.81
509.454	99.81
509.67	103.81
509.887	109.81
510.103	115.81
510.319	219.81
510.536	770.81
510.752	2470.81
510.968	669.81
511.184	161.81
511.401	115.81
511.617	90.81
511.833	99.81
512.049	88.81
512.265	93.81
512.481	87.81
512.698	98.81
512.914	98.81
513.13	99.81
513.346	98.81
513.562	82.81
513.778	89.81
513.994	94.81
514.21	102.81
514.426	103.81
514.642	116.81
514.858	119.81
515.074	164.81
515.29	427.81
515.506	1387.81
515.721	487.81
515.937	147.81
516.153	116.81
516.369	91.81
516.585	98.81
