Data from Circ_1996_H10_HRD10591_00085.txt Node
Date: Wed Jan 03 11:33:23 EST 2024
User: Yrep
Spectrometer: HR+D1059
Trigger mode: 1
Integration Time (sec): 1.000000E-1
Scans to average: 1
Electric dark correction enabled: true
Nonlinearity correction enabled: false
Boxcar width: 0
XAxis mode: Wavelengths
Number of Pixels in Spectrum: 2048
>>>>>Begin Spectral Data<<<<<
223.165	-9.56
223.4	-9.56
223.635	-9.56
223.869	-25.56
224.104	-17.56
224.338	-18.56
224.573	-6.56
224.808	-18.56
225.042	-13.56
225.277	-12.56
225.511	0.44
225.746	-4.56
225.98	-2.56
226.215	12.44
226.449	22.44
226.683	21.44
226.918	32.44
227.152	40.44
227.387	32.44
227.621	44.44
227.856	36.44
228.09	57.44
228.324	48.44
228.559	50.44
228.793	53.44
229.027	66.44
229.262	63.44
229.496	65.44
229.73	81.44
229.964	61.44
230.199	68.44
230.433	69.44
230.667	66.44
230.901	73.44
231.136	89.44
231.37	72.44
231.604	76.44
231.838	81.44
232.072	89.44
232.306	70.44
232.541	86.44
232.775	93.44
233.009	73.44
233.243	83.44
233.477	89.44
233.711	82.44
233.945	76.44
234.179	80.44
234.413	75.44
234.647	78.44
234.881	72.44
235.115	68.44
235.349	86.44
235.583	85.44
235.817	80.44
236.051	76.44
236.285	80.44
236.519	90.44
236.753	73.44
236.987	67.44
237.221	96.44
237.455	67.44
237.689	74.44
237.922	77.44
238.156	70.44
238.39	74.44
238.624	71.44
238.858	72.44
239.091	81.44
239.325	84.44
239.559	76.44
239.793	80.44
240.027	76.44
240.26	70.44
240.494	88.44
240.728	81.44
240.961	80.44
241.195	80.44
241.429	78.44
241.662	74.44
241.896	63.44
242.13	71.44
242.363	79.44
242.597	82.44
242.83	81.44
243.064	80.44
243.298	74.44
243.531	88.44
243.765	80.44
243.998	73.44
244.232	83.44
244.465	78.44
244.699	69.44
244.932	71.44
245.166	72.44
245.399	80.44
245.633	69.44
245.866	73.44
246.099	85.44
246.333	71.44
246.566	68.44
246.8	80.44
247.033	80.44
247.266	70.44
247.5	90.44
247.733	86.44
247.966	75.44
248.2	88.44
248.433	68.44
248.666	48.44
248.899	79.44
249.133	81.44
249.366	110.44
249.599	88.44
249.832	84.44
250.066	71.44
250.299	85.44
250.532	69.44
250.765	83.44
250.998	75.44
251.231	73.44
251.465	80.44
251.698	94.44
251.931	74.44
252.164	85.44
252.397	70.44
252.63	74.44
252.863	79.44
253.096	71.44
253.329	81.44
253.562	87.44
253.795	76.44
254.028	89.44
254.261	84.44
254.494	80.44
254.727	80.44
254.96	85.44
255.193	73.44
255.426	86.44
255.659	73.44
255.892	80.44
256.124	88.44
256.357	78.44
256.59	75.44
256.823	69.44
257.056	81.44
257.289	80.44
257.521	82.44
257.754	84.44
257.987	79.44
258.22	86.44
258.452	82.44
258.685	81.44
258.918	76.44
259.151	79.44
259.383	87.44
259.616	74.44
259.849	74.44
260.081	82.44
260.314	84.44
260.547	91.44
260.779	98.44
261.012	94.44
261.244	74.44
261.477	93.44
261.71	96.44
261.942	107.44
262.175	112.44
262.407	80.44
262.64	80.44
262.872	73.44
263.105	88.44
263.337	80.44
263.57	72.44
263.802	73.44
264.035	61.44
264.267	65.44
264.499	93.44
264.732	87.44
264.964	72.44
265.197	78.44
265.429	78.44
265.661	75.44
265.894	73.44
266.126	92.44
266.358	81.44
266.591	75.44
266.823	84.44
267.055	79.44
267.287	80.44
267.52	80.44
267.752	82.44
267.984	90.44
268.216	82.44
268.448	96.44
268.681	77.44
268.913	94.44
269.145	90.44
269.377	79.44
269.609	79.44
269.841	76.44
270.073	81.44
270.306	72.44
270.538	85.44
270.77	78.44
271.002	90.44
271.234	99.44
271.466	81.44
271.698	82.44
271.93	85.44
272.162	88.44
272.394	73.44
272.626	84.44
272.858	91.44
273.09	84.44
273.322	79.44
273.553	87.44
273.785	84.44
274.017	80.44
274.249	82.44
274.481	78.44
274.713	82.44
274.945	89.44
275.176	91.44
275.408	78.44
275.64	96.44
275.872	102.44
276.104	90.44
276.335	94.44
276.567	98.44
276.799	111.44
277.031	90.44
277.262	87.44
277.494	81.44
277.726	77.44
277.957	84.44
278.189	77.44
278.421	93.44
278.652	98.44
278.884	80.44
279.115	78.44
279.347	89.44
279.579	92.44
279.81	72.44
280.042	93.44
280.273	97.44
280.505	84.44
280.736	85.44
280.968	91.44
281.199	93.44
281.431	88.44
281.662	95.44
281.894	83.44
282.125	89.44
282.356	116.44
282.588	139.44
282.819	97.44
283.051	93.44
283.282	83.44
283.513	93.44
283.745	78.44
283.976	87.44
284.207	84.44
284.439	84.44
284.67	92.44
284.901	94.44
285.132	93.44
285.364	81.44
285.595	73.44
285.826	90.44
286.057	79.44
286.288	86.44
286.52	84.44
286.751	76.44
286.982	79.44
287.213	87.44
287.444	74.44
287.675	82.44
287.906	89.44
288.138	82.44
288.369	92.44
288.6	98.44
288.831	89.44
289.062	80.44
289.293	82.44
289.524	93.44
289.755	81.44
289.986	88.44
290.217	88.44
290.448	85.44
290.679	91.44
290.91	79.44
291.141	82.44
291.371	81.44
291.602	72.44
291.833	95.44
292.064	82.44
292.295	82.44
292.526	71.44
292.757	101.44
292.987	72.44
293.218	80.44
293.449	87.44
293.68	94.44
293.91	83.44
294.141	89.44
294.372	95.44
294.603	65.44
294.833	93.44
295.064	94.44
295.295	82.44
295.525	88.44
295.756	92.44
295.987	97.44
296.217	120.44
296.448	111.44
296.679	98.44
296.909	93.44
297.14	91.44
297.37	90.44
297.601	87.44
297.831	81.44
298.062	80.44
298.292	88.44
298.523	93.44
298.753	85.44
298.984	84.44
299.214	82.44
299.445	80.44
299.675	88.44
299.905	97.44
300.136	72.44
300.366	93.44
300.597	81.44
300.827	80.44
301.057	81.44
301.288	84.44
301.518	101.44
301.748	80.44
301.979	80.44
302.209	79.44
302.439	82.44
302.669	93.44
302.9	86.44
303.13	101.44
303.36	109.44
303.59	93.44
303.82	91.44
304.051	88.44
304.281	96.44
304.511	84.44
304.741	102.44
304.971	87.44
305.201	88.44
305.431	94.44
305.661	99.44
305.891	76.44
306.121	97.44
306.352	97.44
306.582	102.44
306.812	83.44
307.042	86.44
307.272	86.44
307.502	110.44
307.731	105.44
307.961	87.44
308.191	80.44
308.421	90.44
308.651	89.44
308.881	97.44
309.111	90.44
309.341	78.44
309.571	90.44
309.8	85.44
310.03	94.44
310.26	104.44
310.49	98.44
310.72	105.44
310.949	95.44
311.179	87.44
311.409	85.44
311.639	83.44
311.868	85.44
312.098	85.44
312.328	90.44
312.557	108.44
312.787	109.44
313.017	87.44
313.246	89.44
313.476	86.44
313.706	77.44
313.935	84.44
314.165	95.44
314.394	98.44
314.624	94.44
314.853	79.44
315.083	78.44
315.312	92.44
315.542	90.44
315.771	89.44
316.001	104.44
316.23	93.44
316.46	97.44
316.689	88.44
316.919	93.44
317.148	102.44
317.377	88.44
317.607	85.44
317.836	98.44
318.065	92.44
318.295	80.44
318.524	86.44
318.753	91.44
318.983	93.44
319.212	102.44
319.441	122.44
319.67	97.44
319.9	101.44
320.129	90.44
320.358	90.44
320.587	91.44
320.816	94.44
321.046	89.44
321.275	91.44
321.504	91.44
321.733	98.44
321.962	104.44
322.191	101.44
322.42	95.44
322.649	102.44
322.878	104.44
323.108	101.44
323.337	115.44
323.566	122.44
323.795	128.44
324.024	170.44
324.253	279.44
324.482	575.44
324.71	1116.44
324.939	1464.44
325.168	583.44
325.397	188.44
325.626	142.44
325.855	118.44
326.084	99.44
326.313	119.44
326.542	129.44
326.77	157.44
326.999	334.44
327.228	590.44
327.457	1096.44
327.686	868.44
327.914	284.44
328.143	194.44
328.372	162.44
328.6	125.44
328.829	115.44
329.058	120.44
329.287	122.44
329.515	113.44
329.744	116.44
329.972	119.44
330.201	174.44
330.43	189.44
330.658	148.44
330.887	137.44
331.115	117.44
331.344	99.44
331.572	94.44
331.801	86.44
332.03	95.44
332.258	94.44
332.486	109.44
332.715	97.44
332.943	102.44
333.172	95.44
333.4	97.44
333.629	110.44
333.857	109.44
334.085	138.44
334.314	178.44
334.542	240.44
334.771	212.44
334.999	132.44
335.227	94.44
335.455	103.44
335.684	105.44
335.912	108.44
336.14	98.44
336.369	106.44
336.597	92.44
336.825	99.44
337.053	95.44
337.281	89.44
337.51	90.44
337.738	92.44
337.966	102.44
338.194	97.44
338.422	79.44
338.65	91.44
338.878	79.44
339.106	99.44
339.334	90.44
339.562	98.44
339.79	112.44
340.018	89.44
340.246	91.44
340.474	89.44
340.702	89.44
340.93	91.44
341.158	76.44
341.386	88.44
341.614	105.44
341.842	96.44
342.07	84.44
342.298	93.44
342.526	87.44
342.754	93.44
342.981	79.44
343.209	89.44
343.437	93.44
343.665	87.44
343.893	78.44
344.12	90.44
344.348	86.44
344.576	94.44
344.804	92.44
345.031	93.44
345.259	93.44
345.487	88.44
345.714	82.44
345.942	95.44
346.17	98.44
346.397	75.44
346.625	84.44
346.853	99.44
347.08	91.44
347.308	89.44
347.535	95.44
347.763	104.44
347.99	96.44
348.218	107.44
348.445	97.44
348.673	97.44
348.9	100.44
349.128	78.44
349.355	79.44
349.583	99.44
349.81	91.44
350.037	98.44
350.265	97.44
350.492	102.44
350.72	92.44
350.947	89.44
351.174	81.44
351.402	97.44
351.629	89.44
351.856	95.44
352.083	96.44
352.311	102.44
352.538	92.44
352.765	107.44
352.992	98.44
353.22	94.44
353.447	98.44
353.674	93.44
353.901	90.44
354.128	102.44
354.355	92.44
354.583	101.44
354.81	102.44
355.037	84.44
355.264	91.44
355.491	97.44
355.718	86.44
355.945	89.44
356.172	97.44
356.399	98.44
356.626	91.44
356.853	98.44
357.08	102.44
357.307	91.44
357.534	98.44
357.761	80.44
357.988	86.44
358.215	95.44
358.441	95.44
358.668	91.44
358.895	86.44
359.122	98.44
359.349	90.44
359.576	88.44
359.802	90.44
360.029	96.44
360.256	106.44
360.483	93.44
360.709	74.44
360.936	92.44
361.163	101.44
361.39	97.44
361.616	84.44
361.843	87.44
362.07	85.44
362.296	94.44
362.523	87.44
362.749	89.44
362.976	94.44
363.203	86.44
363.429	92.44
363.656	80.44
363.882	95.44
364.109	84.44
364.335	77.44
364.562	80.44
364.788	105.44
365.015	95.44
365.241	93.44
365.468	95.44
365.694	91.44
365.92	98.44
366.147	79.44
366.373	74.44
366.599	80.44
366.826	84.44
367.052	99.44
367.278	83.44
367.505	76.44
367.731	80.44
367.957	83.44
368.184	96.44
368.41	98.44
368.636	114.44
368.862	116.44
369.089	89.44
369.315	90.44
369.541	86.44
369.767	88.44
369.993	93.44
370.219	89.44
370.445	85.44
370.672	92.44
370.898	82.44
371.124	80.44
371.35	78.44
371.576	93.44
371.802	80.44
372.028	86.44
372.254	88.44
372.48	97.44
372.706	94.44
372.932	77.44
373.158	70.44
373.384	88.44
373.61	81.44
373.835	88.44
374.061	89.44
374.287	79.44
374.513	81.44
374.739	98.44
374.965	90.44
375.191	96.44
375.416	87.44
375.642	96.44
375.868	107.44
376.094	89.44
376.319	94.44
376.545	76.44
376.771	97.44
376.997	85.44
377.222	89.44
377.448	96.44
377.674	88.44
377.899	101.44
378.125	95.44
378.35	81.44
378.576	90.44
378.802	74.44
379.027	95.44
379.253	86.44
379.478	88.44
379.704	105.44
379.929	82.44
380.155	98.44
380.38	88.44
380.606	81.44
380.831	95.44
381.057	106.44
381.282	83.44
381.507	87.44
381.733	87.44
381.958	88.44
382.184	95.44
382.409	97.44
382.634	99.44
382.86	89.44
383.085	114.44
383.31	90.44
383.535	97.44
383.761	80.44
383.986	96.44
384.211	98.44
384.436	89.44
384.662	86.44
384.887	98.44
385.112	105.44
385.337	99.44
385.562	105.44
385.787	111.44
386.013	83.44
386.238	109.44
386.463	107.44
386.688	117.44
386.913	90.44
387.138	92.44
387.363	105.44
387.588	86.44
387.813	101.44
388.038	88.44
388.263	104.44
388.488	89.44
388.713	95.44
388.938	102.44
389.163	89.44
389.387	89.44
389.612	90.44
389.837	83.44
390.062	80.44
390.287	78.44
390.512	78.44
390.736	88.44
390.961	91.44
391.186	87.44
391.411	83.44
391.636	85.44
391.86	72.44
392.085	90.44
392.31	87.44
392.534	103.44
392.759	85.44
392.984	87.44
393.208	73.44
393.433	109.44
393.658	104.44
393.882	78.44
394.107	87.44
394.331	102.44
394.556	83.44
394.78	91.44
395.005	82.44
395.229	92.44
395.454	100.44
395.678	77.44
395.903	73.44
396.127	87.44
396.352	87.44
396.576	78.44
396.801	90.44
397.025	84.44
397.249	88.44
397.474	95.44
397.698	85.44
397.922	78.44
398.147	85.44
398.371	85.44
398.595	85.44
398.82	88.44
399.044	73.44
399.268	79.44
399.492	86.44
399.717	76.44
399.941	89.44
400.165	88.44
400.389	80.44
400.613	74.44
400.837	78.44
401.062	87.44
401.286	101.44
401.51	93.44
401.734	87.44
401.958	98.44
402.182	118.44
402.406	143.44
402.63	107.44
402.854	81.44
403.078	75.44
403.302	83.44
403.526	84.44
403.75	98.44
403.974	82.44
404.198	87.44
404.422	73.44
404.645	93.44
404.869	85.44
405.093	88.44
405.317	88.44
405.541	96.44
405.765	90.44
405.988	104.44
406.212	151.44
406.436	210.44
406.66	125.44
406.883	94.44
407.107	95.44
407.331	78.44
407.555	101.44
407.778	92.44
408.002	92.44
408.226	90.44
408.449	80.44
408.673	78.44
408.896	77.44
409.12	95.44
409.344	92.44
409.567	84.44
409.791	90.44
410.014	100.44
410.238	97.44
410.461	94.44
410.685	83.44
410.908	88.44
411.132	105.44
411.355	88.44
411.578	87.44
411.802	89.44
412.025	81.44
412.249	88.44
412.472	85.44
412.695	82.44
412.919	77.44
413.142	89.44
413.365	64.44
413.589	91.44
413.812	77.44
414.035	94.44
414.258	82.44
414.482	92.44
414.705	77.44
414.928	70.44
415.151	93.44
415.374	91.44
415.597	76.44
415.821	83.44
416.044	82.44
416.267	82.44
416.49	75.44
416.713	76.44
416.936	88.44
417.159	85.44
417.382	87.44
417.605	82.44
417.828	80.44
418.051	77.44
418.274	88.44
418.497	92.44
418.72	78.44
418.943	84.44
419.166	96.44
419.389	87.44
419.611	74.44
419.834	90.44
420.057	80.44
420.28	69.44
420.503	84.44
420.726	68.44
420.948	87.44
421.171	92.44
421.394	82.44
421.617	91.44
421.839	78.44
422.062	92.44
422.285	87.44
422.507	90.44
422.73	103.44
422.953	93.44
423.175	88.44
423.398	86.44
423.621	84.44
423.843	97.44
424.066	81.44
424.288	79.44
424.511	84.44
424.733	89.44
424.956	92.44
425.178	73.44
425.401	85.44
425.623	85.44
425.846	78.44
426.068	87.44
426.291	83.44
426.513	73.44
426.735	92.44
426.958	87.44
427.18	110.44
427.402	118.44
427.625	121.44
427.847	113.44
428.069	111.44
428.292	82.44
428.514	77.44
428.736	82.44
428.958	80.44
429.181	64.44
429.403	81.44
429.625	82.44
429.847	85.44
430.069	87.44
430.292	85.44
430.514	68.44
430.736	85.44
430.958	93.44
431.18	91.44
431.402	96.44
431.624	92.44
431.846	84.44
432.068	74.44
432.29	83.44
432.512	102.44
432.734	84.44
432.956	89.44
433.178	97.44
433.4	83.44
433.622	76.44
433.844	98.44
434.066	73.44
434.287	98.44
434.509	81.44
434.731	74.44
434.953	71.44
435.175	84.44
435.397	111.44
435.618	92.44
435.84	100.44
436.062	100.44
436.284	104.44
436.505	92.44
436.727	91.44
436.949	85.44
437.17	88.44
437.392	83.44
437.614	98.44
437.835	105.44
438.057	102.44
438.278	89.44
438.5	95.44
438.721	108.44
438.943	96.44
439.165	83.44
439.386	82.44
439.608	95.44
439.829	84.44
440.05	106.44
440.272	130.44
440.493	83.44
440.715	92.44
440.936	87.44
441.158	93.44
441.379	82.44
441.6	90.44
441.822	89.44
442.043	94.44
442.264	100.44
442.486	104.44
442.707	98.44
442.928	102.44
443.149	109.44
443.371	106.44
443.592	87.44
443.813	92.44
444.034	87.44
444.255	76.44
444.476	90.44
444.698	84.44
444.919	85.44
445.14	130.44
445.361	97.44
445.582	85.44
445.803	112.44
446.024	105.44
446.245	99.44
446.466	103.44
446.687	91.44
446.908	100.44
447.129	86.44
447.35	78.44
447.571	89.44
447.792	97.44
448.013	87.44
448.234	97.44
448.455	91.44
448.675	102.44
448.896	106.44
449.117	93.44
449.338	86.44
449.559	112.44
449.779	122.44
450	86.44
450.221	79.44
450.442	83.44
450.662	85.44
450.883	92.44
451.104	109.44
451.324	95.44
451.545	87.44
451.766	88.44
451.986	84.44
452.207	92.44
452.428	92.44
452.648	90.44
452.869	105.44
453.089	94.44
453.31	107.44
453.53	71.44
453.751	81.44
453.971	93.44
454.192	103.44
454.412	101.44
454.633	74.44
454.853	80.44
455.073	85.44
455.294	80.44
455.514	80.44
455.734	91.44
455.955	97.44
456.175	85.44
456.395	82.44
456.616	69.44
456.836	80.44
457.056	88.44
457.276	79.44
457.497	77.44
457.717	97.44
457.937	89.44
458.157	92.44
458.377	92.44
458.598	87.44
458.818	134.44
459.038	132.44
459.258	105.44
459.478	78.44
459.698	79.44
459.918	95.44
460.138	83.44
460.358	93.44
460.578	73.44
460.798	78.44
461.018	80.44
461.238	85.44
461.458	91.44
461.678	84.44
461.898	84.44
462.118	76.44
462.338	72.44
462.558	86.44
462.777	73.44
462.997	71.44
463.217	81.44
463.437	70.44
463.657	85.44
463.876	85.44
464.096	86.44
464.316	94.44
464.536	77.44
464.755	73.44
464.975	100.44
465.195	156.44
465.414	141.44
465.634	92.44
465.854	74.44
466.073	86.44
466.293	83.44
466.512	83.44
466.732	97.44
466.951	77.44
467.171	95.44
467.391	100.44
467.61	103.44
467.829	104.44
468.049	138.44
468.268	132.44
468.488	88.44
468.707	94.44
468.927	74.44
469.146	86.44
469.365	77.44
469.585	81.44
469.804	93.44
470.023	79.44
470.243	95.44
470.462	96.44
470.681	97.44
470.901	92.44
471.12	102.44
471.339	98.44
471.558	92.44
471.777	103.44
471.997	94.44
472.216	178.44
472.435	290.44
472.654	118.44
472.873	86.44
473.092	90.44
473.311	96.44
473.53	85.44
473.749	88.44
473.968	94.44
474.187	86.44
474.406	95.44
474.625	88.44
474.844	74.44
475.063	84.44
475.282	107.44
475.501	84.44
475.72	72.44
475.939	73.44
476.158	89.44
476.377	86.44
476.596	80.44
476.814	85.44
477.033	89.44
477.252	84.44
477.471	86.44
477.69	76.44
477.908	79.44
478.127	93.44
478.346	86.44
478.564	110.44
478.783	89.44
479.002	79.44
479.22	88.44
479.439	87.44
479.658	96.44
479.876	109.44
480.095	86.44
480.313	97.44
480.532	93.44
480.751	98.44
480.969	192.44
481.188	513.44
481.406	320.44
481.624	104.44
481.843	100.44
482.061	77.44
482.28	94.44
482.498	91.44
482.717	87.44
482.935	86.44
483.153	81.44
483.372	84.44
483.59	84.44
483.808	94.44
484.027	90.44
484.245	84.44
484.463	89.44
484.681	95.44
484.9	92.44
485.118	89.44
485.336	83.44
485.554	90.44
485.772	103.44
485.99	107.44
486.209	95.44
486.427	97.44
486.645	102.44
486.863	89.44
487.081	94.44
487.299	90.44
487.517	83.44
487.735	92.44
487.953	83.44
488.171	86.44
488.389	81.44
488.607	98.44
488.825	77.44
489.043	94.44
489.261	97.44
489.479	93.44
489.696	87.44
489.914	76.44
490.132	86.44
490.35	85.44
490.568	96.44
490.786	75.44
491.003	85.44
491.221	76.44
491.439	87.44
491.657	82.44
491.874	87.44
492.092	93.44
492.31	68.44
492.527	95.44
492.745	93.44
492.963	88.44
493.18	87.44
493.398	88.44
493.615	95.44
493.833	85.44
494.05	93.44
494.268	92.44
494.485	91.44
494.703	79.44
494.92	77.44
495.138	74.44
495.355	105.44
495.573	83.44
495.79	89.44
496.008	86.44
496.225	80.44
496.442	79.44
496.66	90.44
496.877	76.44
497.094	88.44
497.312	97.44
497.529	84.44
497.746	98.44
497.963	87.44
498.181	75.44
498.398	105.44
498.615	99.44
498.832	96.44
499.049	90.44
499.267	88.44
499.484	84.44
499.701	79.44
499.918	100.44
500.135	92.44
500.352	76.44
500.569	102.44
500.786	89.44
501.003	94.44
501.22	87.44
501.437	80.44
501.654	90.44
501.871	94.44
502.088	83.44
502.305	96.44
502.522	96.44
502.739	93.44
502.956	87.44
503.172	79.44
503.389	88.44
503.606	106.44
503.823	96.44
504.04	86.44
504.256	95.44
504.473	94.44
504.69	104.44
504.907	88.44
505.123	77.44
505.34	94.44
505.557	88.44
505.773	100.44
505.99	87.44
506.207	91.44
506.423	84.44
506.64	79.44
506.856	84.44
507.073	86.44
507.289	79.44
507.506	103.44
507.722	122.44
507.939	97.44
508.155	83.44
508.372	88.44
508.588	82.44
508.805	98.44
509.021	93.44
509.238	109.44
509.454	105.44
509.67	97.44
509.887	97.44
510.103	129.44
510.319	182.44
510.536	686.44
510.752	2324.44
510.968	648.44
511.184	155.44
511.401	97.44
511.617	102.44
511.833	89.44
512.049	82.44
512.265	85.44
512.481	97.44
512.698	76.44
512.914	90.44
513.13	88.44
513.346	84.44
513.562	106.44
513.778	100.44
513.994	104.44
514.21	112.44
514.426	116.44
514.642	129.44
514.858	115.44
515.074	157.44
515.29	383.44
515.506	1298.44
515.721	470.44
515.937	131.44
516.153	116.44
516.369	84.44
516.585	97.44
516.801	96.44
517.016	89.44
