Data from Circ_1996_H10_HRD10591_00004.txt Node
Date: Wed Jan 03 11:33:06 EST 2024
User: Yrep
Spectrometer: HR+D1059
Trigger mode: 1
Integration Time (sec): 1.000000E-1
Scans to average: 1
Electric dark correction enabled: true
Nonlinearity correction enabled: false
Boxcar width: 0
XAxis mode: Wavelengths
Number of Pixels in Spectrum: 2048
>>>>>Begin Spectral Data<<<<<
223.165	-25.81
223.4	-25.81
223.635	-25.81
223.869	-30.81
224.104	-7.81
224.338	-13.81
224.573	-21.81
224.808	-7.81
225.042	-1.81
225.277	0.19
225.511	1.19
225.746	7.19
225.98	1.19
226.215	15.19
226.449	8.19
226.683	20.19
226.918	27.19
227.152	29.19
227.387	24.19
227.621	28.19
227.856	57.19
228.09	44.19
228.324	57.19
228.559	52.19
228.793	63.19
229.027	68.19
229.262	63.19
229.496	64.19
229.73	94.19
229.964	86.19
230.199	76.19
230.433	78.19
230.667	72.19
230.901	78.19
231.136	83.19
231.37	76.19
231.604	82.19
231.838	82.19
232.072	89.19
232.306	70.19
232.541	77.19
232.775	78.19
233.009	89.19
233.243	75.19
233.477	81.19
233.711	91.19
233.945	76.19
234.179	88.19
234.413	73.19
234.647	65.19
234.881	84.19
235.115	76.19
235.349	90.19
235.583	72.19
235.817	77.19
236.051	80.19
236.285	68.19
236.519	60.19
236.753	96.19
236.987	78.19
237.221	68.19
237.455	77.19
237.689	86.19
237.922	95.19
238.156	87.19
238.39	79.19
238.624	82.19
238.858	78.19
239.091	80.19
239.325	87.19
239.559	83.19
239.793	78.19
240.027	78.19
240.26	80.19
240.494	78.19
240.728	75.19
240.961	85.19
241.195	76.19
241.429	81.19
241.662	83.19
241.896	90.19
242.13	77.19
242.363	73.19
242.597	66.19
242.83	86.19
243.064	92.19
243.298	76.19
243.531	78.19
243.765	81.19
243.998	80.19
244.232	80.19
244.465	81.19
244.699	76.19
244.932	72.19
245.166	90.19
245.399	72.19
245.633	63.19
245.866	73.19
246.099	77.19
246.333	67.19
246.566	76.19
246.8	71.19
247.033	67.19
247.266	83.19
247.5	78.19
247.733	81.19
247.966	95.19
248.2	92.19
248.433	71.19
248.666	65.19
248.899	81.19
249.133	72.19
249.366	106.19
249.599	82.19
249.832	91.19
250.066	89.19
250.299	79.19
250.532	77.19
250.765	74.19
250.998	80.19
251.231	66.19
251.465	90.19
251.698	87.19
251.931	89.19
252.164	81.19
252.397	76.19
252.63	86.19
252.863	80.19
253.096	70.19
253.329	74.19
253.562	72.19
253.795	81.19
254.028	78.19
254.261	74.19
254.494	72.19
254.727	72.19
254.96	91.19
255.193	66.19
255.426	81.19
255.659	66.19
255.892	76.19
256.124	78.19
256.357	96.19
256.59	83.19
256.823	74.19
257.056	85.19
257.289	91.19
257.521	86.19
257.754	86.19
257.987	74.19
258.22	88.19
258.452	89.19
258.685	82.19
258.918	82.19
259.151	75.19
259.383	76.19
259.616	97.19
259.849	66.19
260.081	82.19
260.314	79.19
260.547	90.19
260.779	86.19
261.012	91.19
261.244	81.19
261.477	85.19
261.71	106.19
261.942	97.19
262.175	114.19
262.407	91.19
262.64	89.19
262.872	72.19
263.105	89.19
263.337	63.19
263.57	77.19
263.802	90.19
264.035	83.19
264.267	71.19
264.499	78.19
264.732	95.19
264.964	90.19
265.197	86.19
265.429	83.19
265.661	82.19
265.894	66.19
266.126	81.19
266.358	78.19
266.591	85.19
266.823	97.19
267.055	83.19
267.287	80.19
267.52	76.19
267.752	76.19
267.984	90.19
268.216	87.19
268.448	80.19
268.681	73.19
268.913	89.19
269.145	77.19
269.377	88.19
269.609	91.19
269.841	90.19
270.073	83.19
270.306	86.19
270.538	100.19
270.77	89.19
271.002	87.19
271.234	79.19
271.466	96.19
271.698	80.19
271.93	83.19
272.162	84.19
272.394	96.19
272.626	74.19
272.858	86.19
273.09	80.19
273.322	87.19
273.553	87.19
273.785	92.19
274.017	86.19
274.249	81.19
274.481	88.19
274.713	90.19
274.945	94.19
275.176	80.19
275.408	79.19
275.64	82.19
275.872	87.19
276.104	89.19
276.335	90.19
276.567	97.19
276.799	98.19
277.031	106.19
277.262	94.19
277.494	83.19
277.726	86.19
277.957	76.19
278.189	83.19
278.421	75.19
278.652	78.19
278.884	74.19
279.115	84.19
279.347	74.19
279.579	76.19
279.81	92.19
280.042	88.19
280.273	88.19
280.505	92.19
280.736	82.19
280.968	76.19
281.199	77.19
281.431	83.19
281.662	96.19
281.894	85.19
282.125	98.19
282.356	122.19
282.588	124.19
282.819	97.19
283.051	87.19
283.282	86.19
283.513	88.19
283.745	89.19
283.976	82.19
284.207	78.19
284.439	84.19
284.67	70.19
284.901	84.19
285.132	78.19
285.364	87.19
285.595	87.19
285.826	95.19
286.057	89.19
286.288	92.19
286.52	79.19
286.751	86.19
286.982	80.19
287.213	74.19
287.444	94.19
287.675	86.19
287.906	99.19
288.138	106.19
288.369	92.19
288.6	79.19
288.831	95.19
289.062	89.19
289.293	88.19
289.524	78.19
289.755	87.19
289.986	96.19
290.217	95.19
290.448	86.19
290.679	93.19
290.91	90.19
291.141	80.19
291.371	87.19
291.602	94.19
291.833	72.19
292.064	104.19
292.295	91.19
292.526	81.19
292.757	83.19
292.987	91.19
293.218	87.19
293.449	82.19
293.68	103.19
293.91	101.19
294.141	80.19
294.372	106.19
294.603	88.19
294.833	84.19
295.064	91.19
295.295	86.19
295.525	88.19
295.756	98.19
295.987	118.19
296.217	136.19
296.448	113.19
296.679	94.19
296.909	100.19
297.14	80.19
297.37	103.19
297.601	78.19
297.831	78.19
298.062	87.19
298.292	75.19
298.523	90.19
298.753	84.19
298.984	102.19
299.214	88.19
299.445	84.19
299.675	102.19
299.905	103.19
300.136	77.19
300.366	86.19
300.597	91.19
300.827	93.19
301.057	86.19
301.288	111.19
301.518	87.19
301.748	94.19
301.979	105.19
302.209	94.19
302.439	95.19
302.669	79.19
302.9	89.19
303.13	102.19
303.36	98.19
303.59	100.19
303.82	100.19
304.051	90.19
304.281	98.19
304.511	83.19
304.741	80.19
304.971	84.19
305.201	99.19
305.431	93.19
305.661	84.19
305.891	90.19
306.121	99.19
306.352	103.19
306.582	100.19
306.812	86.19
307.042	88.19
307.272	103.19
307.502	86.19
307.731	105.19
307.961	94.19
308.191	99.19
308.421	94.19
308.651	81.19
308.881	82.19
309.111	100.19
309.341	101.19
309.571	93.19
309.8	94.19
310.03	110.19
310.26	98.19
310.49	108.19
310.72	105.19
310.949	88.19
311.179	91.19
311.409	92.19
311.639	79.19
311.868	98.19
312.098	101.19
312.328	76.19
312.557	94.19
312.787	114.19
313.017	98.19
313.246	108.19
313.476	85.19
313.706	82.19
313.935	98.19
314.165	93.19
314.394	105.19
314.624	87.19
314.853	91.19
315.083	88.19
315.312	89.19
315.542	99.19
315.771	89.19
316.001	89.19
316.23	92.19
316.46	98.19
316.689	94.19
316.919	92.19
317.148	92.19
317.377	92.19
317.607	91.19
317.836	100.19
318.065	90.19
318.295	103.19
318.524	87.19
318.753	94.19
318.983	90.19
319.212	93.19
319.441	109.19
319.67	109.19
319.9	95.19
320.129	89.19
320.358	88.19
320.587	90.19
320.816	87.19
321.046	105.19
321.275	95.19
321.504	89.19
321.733	97.19
321.962	90.19
322.191	107.19
322.42	98.19
322.649	111.19
322.878	90.19
323.108	113.19
323.337	110.19
323.566	124.19
323.795	127.19
324.024	167.19
324.253	292.19
324.482	566.19
324.71	1094.19
324.939	1450.19
325.168	576.19
325.397	207.19
325.626	131.19
325.855	103.19
326.084	108.19
326.313	113.19
326.542	138.19
326.77	172.19
326.999	321.19
327.228	606.19
327.457	1050.19
327.686	863.19
327.914	274.19
328.143	184.19
328.372	156.19
328.6	124.19
328.829	100.19
329.058	119.19
329.287	125.19
329.515	89.19
329.744	101.19
329.972	134.19
330.201	174.19
330.43	203.19
330.658	163.19
330.887	139.19
331.115	111.19
331.344	107.19
331.572	108.19
331.801	111.19
332.03	99.19
332.258	88.19
332.486	95.19
332.715	88.19
332.943	98.19
333.172	80.19
333.4	92.19
333.629	101.19
333.857	102.19
334.085	126.19
334.314	182.19
334.542	229.19
334.771	211.19
334.999	123.19
335.227	102.19
335.455	96.19
335.684	83.19
335.912	93.19
336.14	101.19
336.369	105.19
336.597	104.19
336.825	95.19
337.053	100.19
337.281	100.19
337.51	99.19
337.738	103.19
337.966	92.19
338.194	87.19
338.422	101.19
338.65	92.19
338.878	82.19
339.106	89.19
339.334	81.19
339.562	91.19
339.79	98.19
340.018	82.19
340.246	95.19
340.474	94.19
340.702	96.19
340.93	93.19
341.158	95.19
341.386	98.19
341.614	89.19
341.842	80.19
342.07	96.19
342.298	91.19
342.526	97.19
342.754	80.19
342.981	91.19
343.209	88.19
343.437	94.19
343.665	78.19
343.893	90.19
344.12	90.19
344.348	90.19
344.576	83.19
344.804	92.19
345.031	98.19
345.259	104.19
345.487	83.19
345.714	85.19
345.942	90.19
346.17	79.19
346.397	98.19
346.625	90.19
346.853	104.19
347.08	84.19
347.308	86.19
347.535	88.19
347.763	87.19
347.99	104.19
348.218	89.19
348.445	103.19
348.673	98.19
348.9	85.19
349.128	84.19
349.355	87.19
349.583	93.19
349.81	94.19
350.037	107.19
350.265	97.19
350.492	100.19
350.72	82.19
350.947	107.19
351.174	95.19
351.402	110.19
351.629	85.19
351.856	91.19
352.083	90.19
352.311	98.19
352.538	97.19
352.765	107.19
352.992	97.19
353.22	105.19
353.447	101.19
353.674	94.19
353.901	91.19
354.128	105.19
354.355	91.19
354.583	102.19
354.81	101.19
355.037	105.19
355.264	93.19
355.491	84.19
355.718	81.19
355.945	102.19
356.172	99.19
356.399	85.19
356.626	100.19
356.853	92.19
357.08	98.19
357.307	107.19
357.534	95.19
357.761	99.19
357.988	105.19
358.215	92.19
358.441	91.19
358.668	106.19
358.895	91.19
359.122	87.19
359.349	91.19
359.576	95.19
359.802	94.19
360.029	88.19
360.256	114.19
360.483	100.19
360.709	86.19
360.936	79.19
361.163	90.19
361.39	86.19
361.616	93.19
361.843	83.19
362.07	108.19
362.296	93.19
362.523	83.19
362.749	81.19
362.976	97.19
363.203	92.19
363.429	82.19
363.656	88.19
363.882	96.19
364.109	89.19
364.335	98.19
364.562	94.19
364.788	61.19
365.015	79.19
365.241	89.19
365.468	100.19
365.694	106.19
365.92	87.19
366.147	93.19
366.373	89.19
366.599	88.19
366.826	86.19
367.052	82.19
367.278	84.19
367.505	100.19
367.731	93.19
367.957	97.19
368.184	81.19
368.41	103.19
368.636	98.19
368.862	123.19
369.089	102.19
369.315	102.19
369.541	93.19
369.767	94.19
369.993	84.19
370.219	78.19
370.445	89.19
370.672	79.19
370.898	86.19
371.124	86.19
371.35	92.19
371.576	104.19
371.802	78.19
372.028	83.19
372.254	92.19
372.48	90.19
372.706	76.19
372.932	101.19
373.158	86.19
373.384	94.19
373.61	88.19
373.835	91.19
374.061	97.19
374.287	94.19
374.513	92.19
374.739	89.19
374.965	86.19
375.191	88.19
375.416	90.19
375.642	98.19
375.868	102.19
376.094	92.19
376.319	118.19
376.545	98.19
376.771	96.19
376.997	92.19
377.222	97.19
377.448	91.19
377.674	79.19
377.899	81.19
378.125	91.19
378.35	111.19
378.576	86.19
378.802	119.19
379.027	107.19
379.253	95.19
379.478	82.19
379.704	94.19
379.929	81.19
380.155	107.19
380.38	97.19
380.606	98.19
380.831	111.19
381.057	121.19
381.282	123.19
381.507	103.19
381.733	104.19
381.958	118.19
382.184	112.19
382.409	106.19
382.634	115.19
382.86	112.19
383.085	112.19
383.31	109.19
383.535	120.19
383.761	125.19
383.986	114.19
384.211	96.19
384.436	113.19
384.662	113.19
384.887	136.19
385.112	131.19
385.337	138.19
385.562	130.19
385.787	115.19
386.013	134.19
386.238	140.19
386.463	121.19
386.688	136.19
386.913	110.19
387.138	111.19
387.363	110.19
387.588	118.19
387.813	106.19
388.038	132.19
388.263	135.19
388.488	141.19
388.713	110.19
388.938	96.19
389.163	89.19
389.387	99.19
389.612	95.19
389.837	90.19
390.062	95.19
390.287	80.19
390.512	93.19
390.736	98.19
390.961	91.19
391.186	85.19
391.411	91.19
391.636	95.19
391.86	95.19
392.085	82.19
392.31	91.19
392.534	85.19
392.759	102.19
392.984	97.19
393.208	120.19
393.433	146.19
393.658	121.19
393.882	92.19
394.107	89.19
394.331	88.19
394.556	80.19
394.78	86.19
395.005	84.19
395.229	87.19
395.454	90.19
395.678	66.19
395.903	99.19
396.127	92.19
396.352	88.19
396.576	94.19
396.801	99.19
397.025	99.19
397.249	98.19
397.474	105.19
397.698	86.19
397.922	83.19
398.147	100.19
398.371	81.19
398.595	88.19
398.82	87.19
399.044	84.19
399.268	91.19
399.492	85.19
399.717	83.19
399.941	84.19
400.165	88.19
400.389	90.19
400.613	78.19
400.837	96.19
401.062	89.19
401.286	98.19
401.51	84.19
401.734	94.19
401.958	104.19
402.182	120.19
402.406	145.19
402.63	102.19
402.854	104.19
403.078	87.19
403.302	99.19
403.526	87.19
403.75	99.19
403.974	88.19
404.198	89.19
404.422	75.19
404.645	87.19
404.869	88.19
405.093	93.19
405.317	110.19
405.541	91.19
405.765	90.19
405.988	106.19
406.212	155.19
406.436	207.19
406.66	134.19
406.883	92.19
407.107	80.19
407.331	87.19
407.555	90.19
407.778	94.19
408.002	97.19
408.226	79.19
408.449	76.19
408.673	87.19
408.896	98.19
409.12	84.19
409.344	93.19
409.567	87.19
409.791	98.19
410.014	88.19
410.238	95.19
410.461	85.19
410.685	91.19
410.908	111.19
411.132	100.19
411.355	87.19
411.578	85.19
411.802	91.19
412.025	103.19
412.249	98.19
412.472	93.19
412.695	108.19
412.919	100.19
413.142	94.19
413.365	83.19
413.589	91.19
413.812	95.19
414.035	99.19
414.258	78.19
414.482	83.19
414.705	96.19
414.928	88.19
415.151	111.19
415.374	99.19
415.597	74.19
415.821	79.19
416.044	91.19
416.267	99.19
416.49	97.19
416.713	87.19
416.936	92.19
417.159	86.19
417.382	91.19
417.605	102.19
417.828	88.19
418.051	98.19
418.274	82.19
418.497	76.19
418.72	97.19
418.943	85.19
419.166	86.19
419.389	79.19
419.611	88.19
419.834	103.19
420.057	77.19
420.28	108.19
420.503	81.19
420.726	82.19
420.948	84.19
421.171	88.19
421.394	94.19
421.617	83.19
421.839	86.19
422.062	99.19
422.285	86.19
422.507	111.19
422.73	109.19
422.953	102.19
423.175	94.19
423.398	94.19
423.621	99.19
423.843	78.19
424.066	83.19
424.288	92.19
424.511	99.19
424.733	103.19
424.956	83.19
425.178	93.19
425.401	100.19
425.623	94.19
425.846	96.19
426.068	89.19
426.291	94.19
426.513	87.19
426.735	88.19
426.958	92.19
427.18	90.19
427.402	114.19
427.625	158.19
427.847	122.19
428.069	120.19
428.292	88.19
428.514	81.19
428.736	93.19
428.958	81.19
429.181	75.19
429.403	87.19
429.625	82.19
429.847	80.19
430.069	98.19
430.292	108.19
430.514	85.19
430.736	86.19
430.958	87.19
431.18	74.19
431.402	78.19
431.624	86.19
431.846	79.19
432.068	91.19
432.29	77.19
432.512	102.19
432.734	98.19
432.956	91.19
433.178	89.19
433.4	79.19
433.622	97.19
433.844	82.19
434.066	83.19
434.287	93.19
434.509	90.19
434.731	90.19
434.953	78.19
435.175	80.19
435.397	87.19
435.618	81.19
435.84	91.19
436.062	115.19
436.284	120.19
436.505	74.19
436.727	86.19
436.949	98.19
437.17	76.19
437.392	73.19
437.614	91.19
437.835	98.19
438.057	95.19
438.278	100.19
438.5	95.19
438.721	106.19
438.943	89.19
439.165	82.19
439.386	88.19
439.608	96.19
439.829	94.19
440.05	119.19
440.272	116.19
440.493	97.19
440.715	77.19
440.936	93.19
441.158	83.19
441.379	81.19
441.6	85.19
441.822	104.19
442.043	76.19
442.264	71.19
442.486	86.19
442.707	87.19
442.928	99.19
443.149	111.19
443.371	120.19
443.592	105.19
443.813	96.19
444.034	99.19
444.255	84.19
444.476	91.19
444.698	104.19
444.919	92.19
445.14	142.19
445.361	100.19
445.582	102.19
445.803	119.19
446.024	122.19
446.245	96.19
446.466	87.19
446.687	78.19
446.908	71.19
447.129	86.19
447.35	80.19
447.571	85.19
447.792	92.19
448.013	93.19
448.234	99.19
448.455	78.19
448.675	110.19
448.896	112.19
449.117	80.19
449.338	98.19
449.559	125.19
449.779	115.19
450	90.19
450.221	92.19
450.442	91.19
450.662	84.19
450.883	87.19
451.104	103.19
451.324	91.19
451.545	79.19
451.766	85.19
451.986	85.19
452.207	78.19
452.428	92.19
452.648	96.19
452.869	104.19
453.089	92.19
453.31	104.19
453.53	84.19
453.751	100.19
453.971	102.19
454.192	96.19
454.412	84.19
454.633	71.19
454.853	78.19
455.073	70.19
455.294	81.19
455.514	92.19
455.734	84.19
455.955	90.19
456.175	88.19
456.395	96.19
456.616	78.19
456.836	88.19
457.056	86.19
457.276	69.19
457.497	93.19
457.717	98.19
457.937	77.19
458.157	79.19
458.377	90.19
458.598	110.19
458.818	111.19
459.038	139.19
459.258	105.19
459.478	84.19
459.698	82.19
459.918	81.19
460.138	85.19
460.358	85.19
460.578	80.19
460.798	91.19
461.018	84.19
461.238	93.19
461.458	92.19
461.678	84.19
461.898	93.19
462.118	92.19
462.338	76.19
462.558	92.19
462.777	84.19
462.997	76.19
463.217	74.19
463.437	86.19
463.657	84.19
463.876	91.19
464.096	90.19
464.316	75.19
464.536	84.19
464.755	84.19
464.975	109.19
465.195	132.19
465.414	135.19
465.634	89.19
465.854	70.19
466.073	87.19
466.293	82.19
466.512	83.19
466.732	66.19
466.951	97.19
467.171	88.19
467.391	96.19
467.61	101.19
467.829	86.19
468.049	119.19
468.268	145.19
468.488	86.19
468.707	75.19
468.927	89.19
469.146	82.19
469.365	89.19
469.585	92.19
469.804	95.19
470.023	82.19
470.243	89.19
470.462	105.19
470.681	98.19
470.901	89.19
471.12	100.19
471.339	92.19
471.558	118.19
471.777	88.19
471.997	103.19
472.216	170.19
472.435	281.19
472.654	123.19
472.873	97.19
473.092	89.19
473.311	85.19
473.53	87.19
473.749	89.19
473.968	92.19
474.187	84.19
474.406	79.19
474.625	86.19
474.844	83.19
475.063	75.19
475.282	102.19
475.501	79.19
475.72	94.19
475.939	98.19
476.158	80.19
476.377	76.19
476.596	92.19
476.814	94.19
477.033	87.19
477.252	83.19
477.471	87.19
477.69	75.19
477.908	78.19
478.127	95.19
478.346	103.19
478.564	84.19
478.783	107.19
479.002	70.19
479.22	82.19
479.439	90.19
479.658	94.19
479.876	100.19
480.095	83.19
480.313	98.19
480.532	104.19
480.751	117.19
480.969	198.19
481.188	520.19
481.406	286.19
481.624	96.19
481.843	89.19
482.061	88.19
482.28	91.19
482.498	89.19
482.717	84.19
482.935	77.19
483.153	90.19
483.372	79.19
483.59	75.19
483.808	95.19
484.027	94.19
484.245	95.19
484.463	101.19
484.681	74.19
484.9	84.19
485.118	82.19
485.336	98.19
485.554	85.19
485.772	112.19
485.99	111.19
486.209	99.19
486.427	100.19
486.645	125.19
486.863	103.19
487.081	86.19
487.299	82.19
487.517	95.19
487.735	95.19
487.953	98.19
488.171	94.19
488.389	99.19
488.607	94.19
488.825	74.19
489.043	96.19
489.261	94.19
489.479	89.19
489.696	80.19
489.914	79.19
490.132	95.19
490.35	99.19
490.568	99.19
490.786	71.19
491.003	74.19
491.221	86.19
491.439	83.19
491.657	91.19
491.874	92.19
492.092	80.19
492.31	74.19
492.527	88.19
492.745	82.19
492.963	77.19
493.18	87.19
493.398	78.19
493.615	96.19
493.833	86.19
494.05	87.19
494.268	78.19
494.485	76.19
494.703	79.19
494.92	87.19
495.138	92.19
495.355	96.19
495.573	81.19
495.79	86.19
496.008	99.19
496.225	81.19
496.442	94.19
496.66	86.19
496.877	81.19
497.094	92.19
497.312	93.19
497.529	84.19
497.746	103.19
497.963	92.19
498.181	74.19
498.398	92.19
498.615	104.19
498.832	86.19
499.049	93.19
499.267	85.19
499.484	86.19
499.701	84.19
499.918	107.19
500.135	77.19
500.352	82.19
500.569	94.19
500.786	95.19
501.003	88.19
501.22	93.19
501.437	88.19
501.654	93.19
501.871	99.19
502.088	89.19
502.305	82.19
502.522	85.19
502.739	67.19
502.956	97.19
503.172	87.19
503.389	93.19
503.606	102.19
503.823	100.19
504.04	105.19
504.256	90.19
504.473	92.19
504.69	84.19
504.907	97.19
505.123	96.19
505.34	94.19
505.557	81.19
505.773	84.19
505.99	87.19
506.207	82.19
506.423	93.19
506.64	80.19
506.856	74.19
507.073	98.19
507.289	91.19
507.506	83.19
507.722	99.19
507.939	114.19
508.155	92.19
508.372	93.19
508.588	86.19
508.805	89.19
509.021	95.19
509.238	93.19
509.454	95.19
509.67	112.19
509.887	106.19
510.103	113.19
510.319	195.19
510.536	670.19
510.752	2045.19
510.968	576.19
511.184	137.19
511.401	120.19
511.617	100.19
511.833	79.19
512.049	72.19
512.265	84.19
512.481	103.19
512.698	95.19
512.914	95.19
513.13	94.19
513.346	76.19
513.562	97.19
513.778	91.19
513.994	79.19
514.21	97.19
514.426	110.19
514.642	103.19
514.858	110.19
515.074	141.19
515.29	374.19
515.506	1120.19
515.721	427.19
515.937	127.19
