Data from Circ_1996_H10_HRD10591_00039.txt Node
Date: Wed Jan 03 11:33:13 EST 2024
User: Yrep
Spectrometer: HR+D1059
Trigger mode: 1
Integration Time (sec): 1.000000E-1
Scans to average: 1
Electric dark correction enabled: true
Nonlinearity correction enabled: false
Boxcar width: 0
XAxis mode: Wavelengths
Number of Pixels in Spectrum: 2048
>>>>>Begin Spectral Data<<<<<
223.165	-20.31
223.4	-20.31
223.635	-20.31
223.869	-26.31
224.104	-7.31
224.338	-17.31
224.573	-17.31
224.808	-3.31
225.042	-9.31
225.277	5.69
225.511	-0.31
225.746	6.69
225.98	5.69
226.215	13.69
226.449	-1.31
226.683	20.69
226.918	25.69
227.152	24.69
227.387	37.69
227.621	38.69
227.856	36.69
228.09	51.69
228.324	44.69
228.559	55.69
228.793	64.69
229.027	75.69
229.262	76.69
229.496	75.69
229.73	85.69
229.964	83.69
230.199	69.69
230.433	77.69
230.667	81.69
230.901	78.69
231.136	82.69
231.37	63.69
231.604	82.69
231.838	79.69
232.072	80.69
232.306	82.69
232.541	73.69
232.775	80.69
233.009	88.69
233.243	91.69
233.477	87.69
233.711	95.69
233.945	68.69
234.179	80.69
234.413	79.69
234.647	88.69
234.881	77.69
235.115	67.69
235.349	61.69
235.583	81.69
235.817	80.69
236.051	77.69
236.285	86.69
236.519	75.69
236.753	80.69
236.987	82.69
237.221	84.69
237.455	74.69
237.689	88.69
237.922	82.69
238.156	85.69
238.39	85.69
238.624	69.69
238.858	63.69
239.091	86.69
239.325	79.69
239.559	78.69
239.793	82.69
240.027	75.69
240.26	85.69
240.494	68.69
240.728	72.69
240.961	79.69
241.195	68.69
241.429	81.69
241.662	75.69
241.896	82.69
242.13	87.69
242.363	71.69
242.597	76.69
242.83	87.69
243.064	76.69
243.298	84.69
243.531	82.69
243.765	76.69
243.998	81.69
244.232	89.69
244.465	62.69
244.699	78.69
244.932	74.69
245.166	69.69
245.399	67.69
245.633	82.69
245.866	67.69
246.099	89.69
246.333	73.69
246.566	80.69
246.8	83.69
247.033	81.69
247.266	70.69
247.5	71.69
247.733	75.69
247.966	78.69
248.2	98.69
248.433	90.69
248.666	81.69
248.899	87.69
249.133	86.69
249.366	100.69
249.599	102.69
249.832	87.69
250.066	82.69
250.299	89.69
250.532	84.69
250.765	84.69
250.998	93.69
251.231	90.69
251.465	98.69
251.698	75.69
251.931	77.69
252.164	67.69
252.397	82.69
252.63	86.69
252.863	89.69
253.096	88.69
253.329	84.69
253.562	73.69
253.795	83.69
254.028	79.69
254.261	86.69
254.494	79.69
254.727	78.69
254.96	86.69
255.193	74.69
255.426	65.69
255.659	77.69
255.892	86.69
256.124	71.69
256.357	79.69
256.59	93.69
256.823	95.69
257.056	92.69
257.289	79.69
257.521	82.69
257.754	90.69
257.987	87.69
258.22	79.69
258.452	77.69
258.685	84.69
258.918	76.69
259.151	68.69
259.383	85.69
259.616	96.69
259.849	92.69
260.081	79.69
260.314	87.69
260.547	79.69
260.779	84.69
261.012	82.69
261.244	81.69
261.477	92.69
261.71	94.69
261.942	103.69
262.175	120.69
262.407	88.69
262.64	88.69
262.872	74.69
263.105	88.69
263.337	74.69
263.57	78.69
263.802	88.69
264.035	88.69
264.267	75.69
264.499	79.69
264.732	83.69
264.964	82.69
265.197	82.69
265.429	89.69
265.661	68.69
265.894	86.69
266.126	90.69
266.358	91.69
266.591	78.69
266.823	74.69
267.055	74.69
267.287	76.69
267.52	75.69
267.752	88.69
267.984	85.69
268.216	85.69
268.448	94.69
268.681	77.69
268.913	83.69
269.145	81.69
269.377	77.69
269.609	79.69
269.841	87.69
270.073	77.69
270.306	90.69
270.538	64.69
270.77	91.69
271.002	84.69
271.234	74.69
271.466	87.69
271.698	84.69
271.93	87.69
272.162	104.69
272.394	89.69
272.626	98.69
272.858	80.69
273.09	87.69
273.322	96.69
273.553	77.69
273.785	85.69
274.017	85.69
274.249	97.69
274.481	79.69
274.713	77.69
274.945	84.69
275.176	93.69
275.408	93.69
275.64	89.69
275.872	89.69
276.104	82.69
276.335	97.69
276.567	93.69
276.799	107.69
277.031	83.69
277.262	82.69
277.494	78.69
277.726	96.69
277.957	95.69
278.189	83.69
278.421	85.69
278.652	95.69
278.884	92.69
279.115	92.69
279.347	88.69
279.579	82.69
279.81	87.69
280.042	87.69
280.273	112.69
280.505	96.69
280.736	88.69
280.968	85.69
281.199	63.69
281.431	96.69
281.662	91.69
281.894	83.69
282.125	92.69
282.356	112.69
282.588	152.69
282.819	111.69
283.051	84.69
283.282	71.69
283.513	90.69
283.745	94.69
283.976	101.69
284.207	98.69
284.439	78.69
284.67	89.69
284.901	81.69
285.132	89.69
285.364	82.69
285.595	89.69
285.826	78.69
286.057	92.69
286.288	85.69
286.52	101.69
286.751	90.69
286.982	77.69
287.213	88.69
287.444	91.69
287.675	91.69
287.906	93.69
288.138	65.69
288.369	98.69
288.6	87.69
288.831	84.69
289.062	81.69
289.293	96.69
289.524	95.69
289.755	82.69
289.986	91.69
290.217	88.69
290.448	91.69
290.679	93.69
290.91	97.69
291.141	87.69
291.371	95.69
291.602	90.69
291.833	85.69
292.064	100.69
292.295	91.69
292.526	81.69
292.757	77.69
292.987	89.69
293.218	87.69
293.449	75.69
293.68	88.69
293.91	87.69
294.141	83.69
294.372	93.69
294.603	101.69
294.833	95.69
295.064	101.69
295.295	85.69
295.525	91.69
295.756	112.69
295.987	123.69
296.217	148.69
296.448	136.69
296.679	99.69
296.909	98.69
297.14	86.69
297.37	83.69
297.601	66.69
297.831	87.69
298.062	80.69
298.292	97.69
298.523	101.69
298.753	92.69
298.984	80.69
299.214	81.69
299.445	90.69
299.675	94.69
299.905	99.69
300.136	90.69
300.366	88.69
300.597	81.69
300.827	89.69
301.057	87.69
301.288	104.69
301.518	90.69
301.748	79.69
301.979	85.69
302.209	77.69
302.439	86.69
302.669	81.69
302.9	99.69
303.13	100.69
303.36	112.69
303.59	104.69
303.82	105.69
304.051	84.69
304.281	98.69
304.511	93.69
304.741	79.69
304.971	83.69
305.201	77.69
305.431	85.69
305.661	85.69
305.891	99.69
306.121	108.69
306.352	106.69
306.582	92.69
306.812	84.69
307.042	78.69
307.272	116.69
307.502	113.69
307.731	93.69
307.961	84.69
308.191	90.69
308.421	88.69
308.651	92.69
308.881	93.69
309.111	92.69
309.341	90.69
309.571	100.69
309.8	78.69
310.03	103.69
310.26	80.69
310.49	96.69
310.72	96.69
310.949	105.69
311.179	89.69
311.409	87.69
311.639	88.69
311.868	93.69
312.098	88.69
312.328	96.69
312.557	116.69
312.787	99.69
313.017	97.69
313.246	103.69
313.476	91.69
313.706	95.69
313.935	98.69
314.165	114.69
314.394	97.69
314.624	99.69
314.853	93.69
315.083	90.69
315.312	88.69
315.542	91.69
315.771	93.69
316.001	101.69
316.23	90.69
316.46	81.69
316.689	93.69
316.919	99.69
317.148	91.69
317.377	97.69
317.607	80.69
317.836	95.69
318.065	108.69
318.295	93.69
318.524	84.69
318.753	98.69
318.983	81.69
319.212	90.69
319.441	95.69
319.67	95.69
319.9	87.69
320.129	106.69
320.358	95.69
320.587	97.69
320.816	99.69
321.046	95.69
321.275	97.69
321.504	94.69
321.733	84.69
321.962	97.69
322.191	98.69
322.42	102.69
322.649	103.69
322.878	100.69
323.108	123.69
323.337	107.69
323.566	115.69
323.795	137.69
324.024	191.69
324.253	316.69
324.482	647.69
324.71	1276.69
324.939	1621.69
325.168	627.69
325.397	207.69
325.626	143.69
325.855	118.69
326.084	120.69
326.313	122.69
326.542	129.69
326.77	192.69
326.999	350.69
327.228	662.69
327.457	1189.69
327.686	966.69
327.914	303.69
328.143	199.69
328.372	170.69
328.6	131.69
328.829	130.69
329.058	119.69
329.287	119.69
329.515	95.69
329.744	110.69
329.972	128.69
330.201	166.69
330.43	174.69
330.658	144.69
330.887	144.69
331.115	128.69
331.344	100.69
331.572	108.69
331.801	96.69
332.03	107.69
332.258	91.69
332.486	87.69
332.715	90.69
332.943	89.69
333.172	107.69
333.4	107.69
333.629	120.69
333.857	105.69
334.085	127.69
334.314	159.69
334.542	212.69
334.771	199.69
334.999	116.69
335.227	102.69
335.455	94.69
335.684	93.69
335.912	97.69
336.14	91.69
336.369	106.69
336.597	106.69
336.825	93.69
337.053	107.69
337.281	119.69
337.51	101.69
337.738	88.69
337.966	91.69
338.194	101.69
338.422	100.69
338.65	91.69
338.878	92.69
339.106	89.69
339.334	83.69
339.562	81.69
339.79	79.69
340.018	104.69
340.246	105.69
340.474	90.69
340.702	95.69
340.93	93.69
341.158	111.69
341.386	91.69
341.614	101.69
341.842	90.69
342.07	92.69
342.298	86.69
342.526	95.69
342.754	92.69
342.981	94.69
343.209	86.69
343.437	108.69
343.665	92.69
343.893	79.69
344.12	90.69
344.348	83.69
344.576	98.69
344.804	99.69
345.031	104.69
345.259	101.69
345.487	99.69
345.714	105.69
345.942	96.69
346.17	83.69
346.397	89.69
346.625	94.69
346.853	100.69
347.08	111.69
347.308	89.69
347.535	99.69
347.763	101.69
347.99	109.69
348.218	93.69
348.445	103.69
348.673	115.69
348.9	105.69
349.128	94.69
349.355	86.69
349.583	84.69
349.81	92.69
350.037	95.69
350.265	87.69
350.492	96.69
350.72	123.69
350.947	85.69
351.174	110.69
351.402	111.69
351.629	92.69
351.856	105.69
352.083	116.69
352.311	96.69
352.538	93.69
352.765	105.69
352.992	113.69
353.22	111.69
353.447	112.69
353.674	98.69
353.901	97.69
354.128	104.69
354.355	92.69
354.583	102.69
354.81	101.69
355.037	97.69
355.264	84.69
355.491	97.69
355.718	82.69
355.945	93.69
356.172	86.69
356.399	88.69
356.626	92.69
356.853	93.69
357.08	83.69
357.307	79.69
357.534	83.69
357.761	87.69
357.988	87.69
358.215	92.69
358.441	108.69
358.668	87.69
358.895	92.69
359.122	89.69
359.349	82.69
359.576	84.69
359.802	96.69
360.029	108.69
360.256	113.69
360.483	100.69
360.709	91.69
360.936	98.69
361.163	96.69
361.39	94.69
361.616	75.69
361.843	90.69
362.07	92.69
362.296	87.69
362.523	95.69
362.749	93.69
362.976	92.69
363.203	91.69
363.429	80.69
363.656	85.69
363.882	95.69
364.109	103.69
364.335	83.69
364.562	90.69
364.788	89.69
365.015	98.69
365.241	103.69
365.468	107.69
365.694	95.69
365.92	95.69
366.147	101.69
366.373	87.69
366.599	96.69
366.826	88.69
367.052	105.69
367.278	100.69
367.505	91.69
367.731	91.69
367.957	89.69
368.184	105.69
368.41	99.69
368.636	92.69
368.862	123.69
369.089	106.69
369.315	97.69
369.541	98.69
369.767	88.69
369.993	104.69
370.219	93.69
370.445	98.69
370.672	93.69
370.898	93.69
371.124	88.69
371.35	90.69
371.576	92.69
371.802	84.69
372.028	79.69
372.254	96.69
372.48	85.69
372.706	96.69
372.932	85.69
373.158	88.69
373.384	93.69
373.61	90.69
373.835	90.69
374.061	87.69
374.287	76.69
374.513	90.69
374.739	79.69
374.965	81.69
375.191	98.69
375.416	91.69
375.642	77.69
375.868	99.69
376.094	97.69
376.319	88.69
376.545	90.69
376.771	92.69
376.997	98.69
377.222	86.69
377.448	88.69
377.674	89.69
377.899	84.69
378.125	87.69
378.35	97.69
378.576	94.69
378.802	87.69
379.027	95.69
379.253	86.69
379.478	93.69
379.704	92.69
379.929	95.69
380.155	92.69
380.38	89.69
380.606	102.69
380.831	85.69
381.057	89.69
381.282	78.69
381.507	112.69
381.733	102.69
381.958	113.69
382.184	100.69
382.409	92.69
382.634	110.69
382.86	90.69
383.085	100.69
383.31	105.69
383.535	97.69
383.761	105.69
383.986	114.69
384.211	91.69
384.436	92.69
384.662	105.69
384.887	107.69
385.112	111.69
385.337	100.69
385.562	112.69
385.787	101.69
386.013	112.69
386.238	120.69
386.463	110.69
386.688	96.69
386.913	87.69
387.138	117.69
387.363	89.69
387.588	112.69
387.813	125.69
388.038	122.69
388.263	113.69
388.488	104.69
388.713	87.69
388.938	101.69
389.163	94.69
389.387	95.69
389.612	87.69
389.837	83.69
390.062	93.69
390.287	86.69
390.512	88.69
390.736	90.69
390.961	106.69
391.186	80.69
391.411	97.69
391.636	86.69
391.86	89.69
392.085	89.69
392.31	77.69
392.534	84.69
392.759	84.69
392.984	97.69
393.208	99.69
393.433	104.69
393.658	101.69
393.882	96.69
394.107	100.69
394.331	94.69
394.556	81.69
394.78	102.69
395.005	75.69
395.229	84.69
395.454	99.69
395.678	89.69
395.903	91.69
396.127	81.69
396.352	71.69
396.576	85.69
396.801	89.69
397.025	97.69
397.249	96.69
397.474	94.69
397.698	95.69
397.922	80.69
398.147	84.69
398.371	92.69
398.595	77.69
398.82	88.69
399.044	92.69
399.268	72.69
399.492	85.69
399.717	96.69
399.941	85.69
400.165	98.69
400.389	81.69
400.613	83.69
400.837	94.69
401.062	95.69
401.286	101.69
401.51	84.69
401.734	97.69
401.958	98.69
402.182	123.69
402.406	160.69
402.63	115.69
402.854	92.69
403.078	83.69
403.302	90.69
403.526	103.69
403.75	93.69
403.974	99.69
404.198	89.69
404.422	84.69
404.645	91.69
404.869	91.69
405.093	100.69
405.317	91.69
405.541	94.69
405.765	96.69
405.988	108.69
406.212	168.69
406.436	230.69
406.66	135.69
406.883	91.69
407.107	95.69
407.331	83.69
407.555	87.69
407.778	97.69
408.002	84.69
408.226	82.69
408.449	93.69
408.673	81.69
408.896	80.69
409.12	83.69
409.344	87.69
409.567	101.69
409.791	99.69
410.014	92.69
410.238	70.69
410.461	84.69
410.685	93.69
410.908	89.69
411.132	105.69
411.355	94.69
411.578	94.69
411.802	86.69
412.025	87.69
412.249	74.69
412.472	91.69
412.695	110.69
412.919	96.69
413.142	76.69
413.365	84.69
413.589	94.69
413.812	92.69
414.035	82.69
414.258	88.69
414.482	91.69
414.705	83.69
414.928	100.69
415.151	89.69
415.374	89.69
415.597	90.69
415.821	96.69
416.044	96.69
416.267	81.69
416.49	88.69
416.713	83.69
416.936	85.69
417.159	69.69
417.382	83.69
417.605	99.69
417.828	93.69
418.051	103.69
418.274	89.69
418.497	87.69
418.72	71.69
418.943	92.69
419.166	93.69
419.389	111.69
419.611	100.69
419.834	89.69
420.057	77.69
420.28	80.69
420.503	80.69
420.726	98.69
420.948	88.69
421.171	92.69
421.394	103.69
421.617	87.69
421.839	98.69
422.062	89.69
422.285	82.69
422.507	101.69
422.73	113.69
422.953	105.69
423.175	96.69
423.398	92.69
423.621	89.69
423.843	92.69
424.066	84.69
424.288	82.69
424.511	106.69
424.733	97.69
424.956	111.69
425.178	95.69
425.401	97.69
425.623	82.69
425.846	87.69
426.068	102.69
426.291	92.69
426.513	83.69
426.735	82.69
426.958	95.69
427.18	88.69
427.402	127.69
427.625	151.69
427.847	122.69
428.069	98.69
428.292	87.69
428.514	98.69
428.736	90.69
428.958	94.69
429.181	83.69
429.403	95.69
429.625	87.69
429.847	103.69
430.069	94.69
430.292	87.69
430.514	79.69
430.736	84.69
430.958	99.69
431.18	92.69
431.402	82.69
431.624	77.69
431.846	80.69
432.068	91.69
432.29	89.69
432.512	99.69
432.734	99.69
432.956	94.69
433.178	92.69
433.4	95.69
433.622	98.69
433.844	93.69
434.066	94.69
434.287	106.69
434.509	79.69
434.731	102.69
434.953	73.69
435.175	84.69
435.397	88.69
435.618	84.69
435.84	99.69
436.062	100.69
436.284	107.69
436.505	95.69
436.727	84.69
436.949	105.69
437.17	91.69
437.392	79.69
437.614	102.69
437.835	110.69
438.057	111.69
438.278	113.69
438.5	100.69
438.721	109.69
438.943	96.69
439.165	80.69
439.386	91.69
439.608	92.69
439.829	97.69
440.05	108.69
440.272	112.69
440.493	84.69
440.715	81.69
440.936	91.69
441.158	95.69
441.379	83.69
441.6	93.69
441.822	107.69
442.043	89.69
442.264	103.69
442.486	96.69
442.707	94.69
442.928	96.69
443.149	119.69
443.371	135.69
443.592	98.69
443.813	98.69
444.034	107.69
444.255	79.69
444.476	97.69
444.698	100.69
444.919	93.69
445.14	136.69
445.361	111.69
445.582	109.69
445.803	117.69
446.024	123.69
446.245	122.69
446.466	112.69
446.687	89.69
446.908	96.69
447.129	92.69
447.35	105.69
447.571	83.69
447.792	91.69
448.013	100.69
448.234	117.69
448.455	114.69
448.675	104.69
448.896	101.69
449.117	80.69
449.338	99.69
449.559	119.69
449.779	113.69
450	104.69
450.221	92.69
450.442	86.69
450.662	88.69
450.883	106.69
451.104	117.69
451.324	88.69
451.545	96.69
451.766	81.69
451.986	96.69
452.207	88.69
452.428	89.69
452.648	87.69
452.869	111.69
453.089	121.69
453.31	127.69
453.53	92.69
453.751	97.69
453.971	111.69
454.192	110.69
454.412	95.69
454.633	96.69
454.853	90.69
455.073	85.69
455.294	98.69
455.514	100.69
455.734	101.69
455.955	90.69
456.175	84.69
456.395	97.69
456.616	93.69
456.836	88.69
457.056	89.69
457.276	93.69
457.497	95.69
457.717	78.69
457.937	91.69
458.157	94.69
458.377	83.69
458.598	98.69
458.818	128.69
459.038	167.69
459.258	114.69
459.478	75.69
459.698	72.69
459.918	92.69
460.138	87.69
460.358	102.69
460.578	95.69
460.798	83.69
461.018	94.69
461.238	83.69
461.458	79.69
461.678	78.69
461.898	93.69
462.118	95.69
462.338	89.69
462.558	78.69
462.777	96.69
462.997	83.69
463.217	76.69
463.437	85.69
463.657	90.69
463.876	90.69
464.096	84.69
464.316	90.69
464.536	92.69
464.755	93.69
464.975	101.69
465.195	170.69
465.414	154.69
465.634	99.69
465.854	87.69
466.073	87.69
466.293	84.69
466.512	93.69
466.732	82.69
466.951	79.69
467.171	79.69
467.391	85.69
467.61	109.69
467.829	96.69
468.049	112.69
468.268	135.69
468.488	97.69
468.707	90.69
468.927	84.69
469.146	108.69
469.365	101.69
469.585	76.69
469.804	93.69
470.023	83.69
470.243	97.69
470.462	91.69
470.681	100.69
470.901	82.69
471.12	81.69
471.339	76.69
471.558	88.69
471.777	88.69
471.997	107.69
472.216	172.69
472.435	259.69
472.654	112.69
472.873	111.69
473.092	87.69
473.311	79.69
473.53	93.69
473.749	100.69
473.968	100.69
474.187	97.69
474.406	98.69
474.625	90.69
474.844	90.69
475.063	73.69
475.282	92.69
475.501	92.69
475.72	91.69
475.939	75.69
476.158	79.69
476.377	98.69
476.596	87.69
476.814	102.69
477.033	95.69
477.252	81.69
477.471	85.69
477.69	96.69
477.908	100.69
478.127	90.69
478.346	81.69
478.564	92.69
478.783	92.69
479.002	108.69
479.22	91.69
479.439	98.69
479.658	93.69
479.876	92.69
480.095	86.69
480.313	96.69
480.532	99.69
480.751	100.69
480.969	174.69
481.188	409.69
481.406	266.69
481.624	103.69
481.843	101.69
482.061	90.69
482.28	90.69
482.498	89.69
482.717	85.69
482.935	96.69
483.153	90.69
483.372	104.69
483.59	91.69
483.808	91.69
484.027	95.69
484.245	89.69
484.463	93.69
484.681	99.69
484.9	86.69
485.118	87.69
485.336	95.69
485.554	96.69
485.772	104.69
485.99	101.69
486.209	106.69
486.427	99.69
486.645	125.69
486.863	116.69
487.081	95.69
487.299	93.69
487.517	88.69
487.735	87.69
487.953	91.69
488.171	81.69
488.389	92.69
488.607	107.69
488.825	91.69
489.043	94.69
489.261	87.69
489.479	87.69
489.696	92.69
489.914	76.69
490.132	98.69
490.35	92.69
490.568	98.69
490.786	87.69
491.003	81.69
491.221	88.69
491.439	66.69
491.657	89.69
491.874	77.69
492.092	88.69
492.31	92.69
492.527	83.69
492.745	82.69
492.963	96.69
493.18	95.69
493.398	103.69
493.615	100.69
493.833	89.69
494.05	100.69
494.268	89.69
494.485	90.69
494.703	74.69
494.92	96.69
495.138	95.69
495.355	99.69
495.573	84.69
495.79	88.69
496.008	93.69
496.225	79.69
496.442	93.69
496.66	99.69
496.877	87.69
497.094	79.69
497.312	80.69
497.529	89.69
497.746	92.69
497.963	92.69
498.181	101.69
498.398	94.69
498.615	121.69
498.832	104.69
499.049	97.69
499.267	86.69
499.484	87.69
499.701	91.69
499.918	83.69
500.135	85.69
500.352	81.69
500.569	100.69
500.786	95.69
501.003	98.69
501.22	93.69
501.437	85.69
501.654	113.69
501.871	109.69
502.088	96.69
502.305	103.69
502.522	84.69
502.739	100.69
502.956	96.69
503.172	88.69
503.389	92.69
503.606	104.69
503.823	99.69
504.04	89.69
504.256	82.69
504.473	88.69
504.69	89.69
504.907	86.69
505.123	93.69
505.34	98.69
505.557	100.69
505.773	81.69
505.99	82.69
506.207	101.69
506.423	97.69
506.64	74.69
506.856	91.69
507.073	95.69
507.289	88.69
507.506	92.69
507.722	115.69
507.939	106.69
508.155	93.69
508.372	103.69
508.588	87.69
508.805	109.69
509.021	111.69
509.238	99.69
509.454	98.69
509.67	102.69
509.887	119.69
510.103	133.69
510.319	236.69
510.536	802.69
510.752	2657.69
510.968	722.69
511.184	167.69
511.401	101.69
511.617	97.69
511.833	75.69
512.049	77.69
512.265	96.69
512.481	87.69
512.698	100.69
512.914	93.69
513.13	101.69
513.346	94.69
513.562	86.69
513.778	101.69
513.994	95.69
514.21	109.69
514.426	114.69
514.642	141.69
514.858	133.69
515.074	172.69
515.29	447.69
515.506	1511.69
515.721	544.69
