Data from Circ_1996_H10_HRD10591_00086.txt Node
Date: Wed Jan 03 11:33:23 EST 2024
User: Yrep
Spectrometer: HR+D1059
Trigger mode: 1
Integration Time (sec): 1.000000E-1
Scans to average: 1
Electric dark correction enabled: true
Nonlinearity correction enabled: false
Boxcar width: 0
XAxis mode: Wavelengths
Number of Pixels in Spectrum: 2048
>>>>>Begin Spectral Data<<<<<
223.165	-15.12
223.4	-15.12
223.635	-15.12
223.869	-14.12
224.104	-24.12
224.338	-13.12
224.573	-17.12
224.808	-19.12
225.042	-21.12
225.277	11.88
225.511	-5.12
225.746	4.88
225.98	12.88
226.215	13.88
226.449	13.88
226.683	18.88
226.918	20.88
227.152	31.88
227.387	36.88
227.621	33.88
227.856	33.88
228.09	38.88
228.324	53.88
228.559	59.88
228.793	67.88
229.027	62.88
229.262	72.88
229.496	72.88
229.73	83.88
229.964	91.88
230.199	78.88
230.433	76.88
230.667	72.88
230.901	88.88
231.136	70.88
231.37	86.88
231.604	85.88
231.838	92.88
232.072	88.88
232.306	88.88
232.541	96.88
232.775	82.88
233.009	78.88
233.243	84.88
233.477	63.88
233.711	82.88
233.945	76.88
234.179	85.88
234.413	84.88
234.647	74.88
234.881	66.88
235.115	71.88
235.349	76.88
235.583	92.88
235.817	88.88
236.051	78.88
236.285	80.88
236.519	79.88
236.753	75.88
236.987	94.88
237.221	89.88
237.455	82.88
237.689	85.88
237.922	87.88
238.156	81.88
238.39	85.88
238.624	69.88
238.858	83.88
239.091	82.88
239.325	99.88
239.559	76.88
239.793	78.88
240.027	80.88
240.26	85.88
240.494	89.88
240.728	84.88
240.961	68.88
241.195	92.88
241.429	87.88
241.662	81.88
241.896	84.88
242.13	80.88
242.363	83.88
242.597	86.88
242.83	83.88
243.064	75.88
243.298	80.88
243.531	74.88
243.765	82.88
243.998	84.88
244.232	98.88
244.465	96.88
244.699	81.88
244.932	86.88
245.166	88.88
245.399	71.88
245.633	68.88
245.866	85.88
246.099	84.88
246.333	76.88
246.566	75.88
246.8	73.88
247.033	85.88
247.266	86.88
247.5	78.88
247.733	72.88
247.966	81.88
248.2	75.88
248.433	86.88
248.666	91.88
248.899	93.88
249.133	81.88
249.366	98.88
249.599	93.88
249.832	84.88
250.066	74.88
250.299	68.88
250.532	78.88
250.765	93.88
250.998	96.88
251.231	85.88
251.465	93.88
251.698	78.88
251.931	76.88
252.164	89.88
252.397	75.88
252.63	76.88
252.863	91.88
253.096	98.88
253.329	70.88
253.562	83.88
253.795	88.88
254.028	92.88
254.261	88.88
254.494	95.88
254.727	96.88
254.96	92.88
255.193	78.88
255.426	86.88
255.659	90.88
255.892	103.88
256.124	75.88
256.357	80.88
256.59	89.88
256.823	89.88
257.056	81.88
257.289	84.88
257.521	89.88
257.754	90.88
257.987	89.88
258.22	91.88
258.452	97.88
258.685	92.88
258.918	90.88
259.151	85.88
259.383	85.88
259.616	81.88
259.849	92.88
260.081	95.88
260.314	86.88
260.547	91.88
260.779	90.88
261.012	82.88
261.244	82.88
261.477	105.88
261.71	89.88
261.942	116.88
262.175	116.88
262.407	107.88
262.64	100.88
262.872	91.88
263.105	85.88
263.337	88.88
263.57	94.88
263.802	81.88
264.035	74.88
264.267	89.88
264.499	86.88
264.732	80.88
264.964	82.88
265.197	88.88
265.429	83.88
265.661	69.88
265.894	71.88
266.126	82.88
266.358	77.88
266.591	72.88
266.823	101.88
267.055	81.88
267.287	78.88
267.52	90.88
267.752	100.88
267.984	83.88
268.216	89.88
268.448	92.88
268.681	96.88
268.913	69.88
269.145	76.88
269.377	88.88
269.609	81.88
269.841	80.88
270.073	92.88
270.306	80.88
270.538	80.88
270.77	88.88
271.002	86.88
271.234	88.88
271.466	102.88
271.698	81.88
271.93	83.88
272.162	84.88
272.394	95.88
272.626	80.88
272.858	82.88
273.09	83.88
273.322	84.88
273.553	80.88
273.785	96.88
274.017	76.88
274.249	93.88
274.481	81.88
274.713	90.88
274.945	84.88
275.176	96.88
275.408	90.88
275.64	92.88
275.872	90.88
276.104	90.88
276.335	101.88
276.567	113.88
276.799	111.88
277.031	102.88
277.262	88.88
277.494	80.88
277.726	80.88
277.957	84.88
278.189	85.88
278.421	87.88
278.652	92.88
278.884	92.88
279.115	90.88
279.347	77.88
279.579	78.88
279.81	85.88
280.042	86.88
280.273	89.88
280.505	96.88
280.736	86.88
280.968	91.88
281.199	88.88
281.431	93.88
281.662	89.88
281.894	97.88
282.125	95.88
282.356	121.88
282.588	145.88
282.819	124.88
283.051	86.88
283.282	84.88
283.513	81.88
283.745	89.88
283.976	88.88
284.207	87.88
284.439	76.88
284.67	103.88
284.901	86.88
285.132	94.88
285.364	94.88
285.595	85.88
285.826	75.88
286.057	82.88
286.288	82.88
286.52	90.88
286.751	102.88
286.982	85.88
287.213	93.88
287.444	81.88
287.675	82.88
287.906	93.88
288.138	86.88
288.369	94.88
288.6	94.88
288.831	84.88
289.062	84.88
289.293	94.88
289.524	88.88
289.755	93.88
289.986	102.88
290.217	95.88
290.448	89.88
290.679	93.88
290.91	97.88
291.141	97.88
291.371	92.88
291.602	82.88
291.833	100.88
292.064	92.88
292.295	88.88
292.526	83.88
292.757	93.88
292.987	97.88
293.218	94.88
293.449	82.88
293.68	89.88
293.91	92.88
294.141	89.88
294.372	83.88
294.603	85.88
294.833	78.88
295.064	84.88
295.295	104.88
295.525	89.88
295.756	102.88
295.987	122.88
296.217	146.88
296.448	129.88
296.679	109.88
296.909	94.88
297.14	91.88
297.37	90.88
297.601	83.88
297.831	85.88
298.062	91.88
298.292	88.88
298.523	80.88
298.753	91.88
298.984	82.88
299.214	85.88
299.445	100.88
299.675	103.88
299.905	82.88
300.136	85.88
300.366	71.88
300.597	103.88
300.827	91.88
301.057	96.88
301.288	92.88
301.518	94.88
301.748	88.88
301.979	95.88
302.209	97.88
302.439	103.88
302.669	88.88
302.9	90.88
303.13	91.88
303.36	97.88
303.59	116.88
303.82	96.88
304.051	93.88
304.281	97.88
304.511	91.88
304.741	102.88
304.971	92.88
305.201	86.88
305.431	109.88
305.661	99.88
305.891	101.88
306.121	107.88
306.352	92.88
306.582	89.88
306.812	93.88
307.042	91.88
307.272	99.88
307.502	108.88
307.731	91.88
307.961	94.88
308.191	84.88
308.421	100.88
308.651	90.88
308.881	97.88
309.111	103.88
309.341	104.88
309.571	93.88
309.8	107.88
310.03	96.88
310.26	93.88
310.49	91.88
310.72	112.88
310.949	103.88
311.179	97.88
311.409	91.88
311.639	103.88
311.868	116.88
312.098	93.88
312.328	114.88
312.557	114.88
312.787	97.88
313.017	97.88
313.246	99.88
313.476	98.88
313.706	103.88
313.935	74.88
314.165	91.88
314.394	100.88
314.624	104.88
314.853	84.88
315.083	99.88
315.312	82.88
315.542	92.88
315.771	92.88
316.001	99.88
316.23	118.88
316.46	89.88
316.689	87.88
316.919	90.88
317.148	93.88
317.377	102.88
317.607	94.88
317.836	95.88
318.065	98.88
318.295	95.88
318.524	83.88
318.753	99.88
318.983	96.88
319.212	104.88
319.441	121.88
319.67	102.88
319.9	104.88
320.129	82.88
320.358	100.88
320.587	107.88
320.816	101.88
321.046	94.88
321.275	99.88
321.504	97.88
321.733	102.88
321.962	98.88
322.191	96.88
322.42	102.88
322.649	113.88
322.878	105.88
323.108	114.88
323.337	123.88
323.566	126.88
323.795	147.88
324.024	205.88
324.253	342.88
324.482	729.88
324.71	1434.88
324.939	1901.88
325.168	711.88
325.397	226.88
325.626	139.88
325.855	121.88
326.084	132.88
326.313	118.88
326.542	146.88
326.77	201.88
326.999	392.88
327.228	745.88
327.457	1348.88
327.686	1096.88
327.914	316.88
328.143	188.88
328.372	173.88
328.6	128.88
328.829	125.88
329.058	127.88
329.287	135.88
329.515	115.88
329.744	115.88
329.972	133.88
330.201	175.88
330.43	234.88
330.658	160.88
330.887	155.88
331.115	144.88
331.344	111.88
331.572	101.88
331.801	105.88
332.03	102.88
332.258	111.88
332.486	96.88
332.715	93.88
332.943	89.88
333.172	100.88
333.4	97.88
333.629	108.88
333.857	130.88
334.085	144.88
334.314	174.88
334.542	255.88
334.771	249.88
334.999	110.88
335.227	123.88
335.455	109.88
335.684	96.88
335.912	110.88
336.14	106.88
336.369	107.88
336.597	107.88
336.825	107.88
337.053	96.88
337.281	89.88
337.51	114.88
337.738	86.88
337.966	84.88
338.194	97.88
338.422	97.88
338.65	101.88
338.878	88.88
339.106	84.88
339.334	87.88
339.562	96.88
339.79	93.88
340.018	94.88
340.246	92.88
340.474	104.88
340.702	92.88
340.93	97.88
341.158	91.88
341.386	90.88
341.614	100.88
341.842	85.88
342.07	91.88
342.298	95.88
342.526	86.88
342.754	99.88
342.981	98.88
343.209	86.88
343.437	107.88
343.665	93.88
343.893	102.88
344.12	95.88
344.348	88.88
344.576	95.88
344.804	91.88
345.031	101.88
345.259	93.88
345.487	88.88
345.714	95.88
345.942	74.88
346.17	91.88
346.397	90.88
346.625	98.88
346.853	95.88
347.08	114.88
347.308	101.88
347.535	80.88
347.763	100.88
347.99	101.88
348.218	101.88
348.445	99.88
348.673	99.88
348.9	89.88
349.128	98.88
349.355	94.88
349.583	90.88
349.81	89.88
350.037	74.88
350.265	117.88
350.492	91.88
350.72	98.88
350.947	102.88
351.174	108.88
351.402	101.88
351.629	105.88
351.856	97.88
352.083	106.88
352.311	122.88
352.538	128.88
352.765	110.88
352.992	102.88
353.22	105.88
353.447	96.88
353.674	106.88
353.901	90.88
354.128	102.88
354.355	93.88
354.583	89.88
354.81	93.88
355.037	92.88
355.264	91.88
355.491	96.88
355.718	86.88
355.945	104.88
356.172	102.88
356.399	86.88
356.626	93.88
356.853	96.88
357.08	87.88
357.307	99.88
357.534	94.88
357.761	109.88
357.988	99.88
358.215	104.88
358.441	89.88
358.668	98.88
358.895	100.88
359.122	89.88
359.349	98.88
359.576	85.88
359.802	99.88
360.029	119.88
360.256	113.88
360.483	96.88
360.709	79.88
360.936	102.88
361.163	100.88
361.39	95.88
361.616	97.88
361.843	85.88
362.07	103.88
362.296	92.88
362.523	90.88
362.749	90.88
362.976	91.88
363.203	89.88
363.429	93.88
363.656	92.88
363.882	83.88
364.109	104.88
364.335	83.88
364.562	87.88
364.788	87.88
365.015	92.88
365.241	107.88
365.468	97.88
365.694	111.88
365.92	114.88
366.147	98.88
366.373	94.88
366.599	97.88
366.826	91.88
367.052	102.88
367.278	103.88
367.505	83.88
367.731	92.88
367.957	88.88
368.184	97.88
368.41	98.88
368.636	131.88
368.862	130.88
369.089	120.88
369.315	91.88
369.541	96.88
369.767	90.88
369.993	100.88
370.219	90.88
370.445	88.88
370.672	82.88
370.898	85.88
371.124	80.88
371.35	83.88
371.576	84.88
371.802	91.88
372.028	82.88
372.254	84.88
372.48	102.88
372.706	100.88
372.932	84.88
373.158	92.88
373.384	85.88
373.61	89.88
373.835	89.88
374.061	101.88
374.287	89.88
374.513	95.88
374.739	86.88
374.965	93.88
375.191	83.88
375.416	92.88
375.642	87.88
375.868	100.88
376.094	79.88
376.319	89.88
376.545	91.88
376.771	102.88
376.997	92.88
377.222	81.88
377.448	93.88
377.674	87.88
377.899	86.88
378.125	81.88
378.35	99.88
378.576	90.88
378.802	100.88
379.027	74.88
379.253	104.88
379.478	107.88
379.704	109.88
379.929	81.88
380.155	102.88
380.38	108.88
380.606	97.88
380.831	101.88
381.057	101.88
381.282	92.88
381.507	99.88
381.733	88.88
381.958	94.88
382.184	96.88
382.409	107.88
382.634	86.88
382.86	93.88
383.085	105.88
383.31	97.88
383.535	90.88
383.761	96.88
383.986	99.88
384.211	83.88
384.436	91.88
384.662	111.88
384.887	102.88
385.112	92.88
385.337	97.88
385.562	108.88
385.787	115.88
386.013	100.88
386.238	90.88
386.463	108.88
386.688	108.88
386.913	122.88
387.138	102.88
387.363	102.88
387.588	100.88
387.813	96.88
388.038	111.88
388.263	107.88
388.488	106.88
388.713	96.88
388.938	107.88
389.163	95.88
389.387	101.88
389.612	97.88
389.837	85.88
390.062	79.88
390.287	109.88
390.512	92.88
390.736	91.88
390.961	98.88
391.186	88.88
391.411	87.88
391.636	76.88
391.86	85.88
392.085	86.88
392.31	84.88
392.534	73.88
392.759	93.88
392.984	97.88
393.208	99.88
393.433	96.88
393.658	101.88
393.882	81.88
394.107	93.88
394.331	91.88
394.556	102.88
394.78	89.88
395.005	96.88
395.229	79.88
395.454	83.88
395.678	79.88
395.903	105.88
396.127	106.88
396.352	89.88
396.576	105.88
396.801	104.88
397.025	98.88
397.249	90.88
397.474	99.88
397.698	91.88
397.922	93.88
398.147	86.88
398.371	74.88
398.595	84.88
398.82	82.88
399.044	85.88
399.268	76.88
399.492	83.88
399.717	86.88
399.941	85.88
400.165	86.88
400.389	93.88
400.613	88.88
400.837	82.88
401.062	88.88
401.286	82.88
401.51	88.88
401.734	91.88
401.958	112.88
402.182	126.88
402.406	171.88
402.63	131.88
402.854	79.88
403.078	86.88
403.302	84.88
403.526	98.88
403.75	98.88
403.974	89.88
404.198	89.88
404.422	84.88
404.645	97.88
404.869	92.88
405.093	101.88
405.317	103.88
405.541	98.88
405.765	104.88
405.988	121.88
406.212	180.88
406.436	241.88
406.66	152.88
406.883	113.88
407.107	86.88
407.331	95.88
407.555	92.88
407.778	90.88
408.002	86.88
408.226	111.88
408.449	104.88
408.673	83.88
408.896	88.88
409.12	82.88
409.344	92.88
409.567	78.88
409.791	108.88
410.014	96.88
410.238	98.88
410.461	89.88
410.685	94.88
410.908	105.88
411.132	104.88
411.355	98.88
411.578	85.88
411.802	89.88
412.025	76.88
412.249	89.88
412.472	101.88
412.695	114.88
412.919	93.88
413.142	74.88
413.365	91.88
413.589	93.88
413.812	88.88
414.035	82.88
414.258	102.88
414.482	94.88
414.705	79.88
414.928	82.88
415.151	85.88
415.374	100.88
415.597	85.88
415.821	93.88
416.044	86.88
416.267	91.88
416.49	84.88
416.713	88.88
416.936	81.88
417.159	94.88
417.382	102.88
417.605	91.88
417.828	95.88
418.051	87.88
418.274	97.88
418.497	83.88
418.72	87.88
418.943	80.88
419.166	88.88
419.389	76.88
419.611	90.88
419.834	90.88
420.057	78.88
420.28	89.88
420.503	84.88
420.726	82.88
420.948	105.88
421.171	99.88
421.394	104.88
421.617	95.88
421.839	91.88
422.062	93.88
422.285	90.88
422.507	81.88
422.73	94.88
422.953	102.88
423.175	83.88
423.398	82.88
423.621	92.88
423.843	89.88
424.066	94.88
424.288	85.88
424.511	96.88
424.733	91.88
424.956	105.88
425.178	94.88
425.401	97.88
425.623	101.88
425.846	99.88
426.068	97.88
426.291	82.88
426.513	90.88
426.735	82.88
426.958	107.88
427.18	104.88
427.402	139.88
427.625	168.88
427.847	148.88
428.069	113.88
428.292	87.88
428.514	79.88
428.736	88.88
428.958	86.88
429.181	86.88
429.403	84.88
429.625	96.88
429.847	102.88
430.069	91.88
430.292	75.88
430.514	94.88
430.736	85.88
430.958	90.88
431.18	78.88
431.402	73.88
431.624	94.88
431.846	93.88
432.068	99.88
432.29	71.88
432.512	90.88
432.734	86.88
432.956	93.88
433.178	99.88
433.4	106.88
433.622	81.88
433.844	88.88
434.066	90.88
434.287	92.88
434.509	105.88
434.731	95.88
434.953	83.88
435.175	97.88
435.397	100.88
435.618	93.88
435.84	99.88
436.062	101.88
436.284	99.88
436.505	106.88
436.727	92.88
436.949	92.88
437.17	86.88
437.392	96.88
437.614	93.88
437.835	104.88
438.057	101.88
438.278	114.88
438.5	101.88
438.721	114.88
438.943	85.88
439.165	79.88
439.386	98.88
439.608	112.88
439.829	99.88
440.05	122.88
440.272	123.88
440.493	94.88
440.715	88.88
440.936	102.88
441.158	95.88
441.379	85.88
441.6	94.88
441.822	94.88
442.043	103.88
442.264	88.88
442.486	92.88
442.707	105.88
442.928	105.88
443.149	135.88
443.371	127.88
443.592	111.88
443.813	109.88
444.034	97.88
444.255	84.88
444.476	88.88
444.698	91.88
444.919	90.88
445.14	136.88
445.361	129.88
445.582	102.88
445.803	116.88
446.024	131.88
446.245	128.88
446.466	105.88
446.687	92.88
446.908	94.88
447.129	86.88
447.35	103.88
447.571	98.88
447.792	99.88
448.013	96.88
448.234	128.88
448.455	95.88
448.675	115.88
448.896	123.88
449.117	87.88
449.338	90.88
449.559	123.88
449.779	116.88
450	101.88
450.221	82.88
450.442	84.88
450.662	90.88
450.883	116.88
451.104	123.88
451.324	107.88
451.545	99.88
451.766	84.88
451.986	84.88
452.207	83.88
452.428	92.88
452.648	109.88
452.869	103.88
453.089	120.88
453.31	120.88
453.53	110.88
453.751	90.88
453.971	109.88
454.192	100.88
454.412	100.88
454.633	93.88
454.853	84.88
455.073	92.88
455.294	92.88
455.514	101.88
455.734	98.88
455.955	102.88
456.175	81.88
456.395	81.88
456.616	93.88
456.836	87.88
457.056	78.88
457.276	80.88
457.497	91.88
457.717	97.88
457.937	95.88
458.157	89.88
458.377	94.88
458.598	102.88
458.818	158.88
459.038	152.88
459.258	114.88
459.478	91.88
459.698	94.88
459.918	89.88
460.138	104.88
460.358	89.88
460.578	90.88
460.798	101.88
461.018	89.88
461.238	84.88
461.458	72.88
461.678	85.88
461.898	85.88
462.118	84.88
462.338	91.88
462.558	81.88
462.777	80.88
462.997	91.88
463.217	90.88
463.437	94.88
463.657	75.88
463.876	96.88
464.096	91.88
464.316	100.88
464.536	88.88
464.755	84.88
464.975	111.88
465.195	180.88
465.414	166.88
465.634	97.88
465.854	100.88
466.073	83.88
466.293	95.88
466.512	105.88
466.732	87.88
466.951	84.88
467.171	85.88
467.391	95.88
467.61	94.88
467.829	98.88
468.049	141.88
468.268	165.88
468.488	84.88
468.707	81.88
468.927	87.88
469.146	106.88
469.365	85.88
469.585	94.88
469.804	100.88
470.023	96.88
470.243	99.88
470.462	109.88
470.681	117.88
470.901	92.88
471.12	91.88
471.339	92.88
471.558	83.88
471.777	89.88
471.997	115.88
472.216	196.88
472.435	338.88
472.654	142.88
472.873	90.88
473.092	95.88
473.311	94.88
473.53	93.88
473.749	89.88
473.968	86.88
474.187	95.88
474.406	102.88
474.625	110.88
474.844	89.88
475.063	85.88
475.282	89.88
475.501	85.88
475.72	109.88
475.939	95.88
476.158	83.88
476.377	85.88
476.596	73.88
476.814	80.88
477.033	92.88
477.252	92.88
477.471	93.88
477.69	90.88
477.908	105.88
478.127	100.88
478.346	99.88
478.564	84.88
478.783	93.88
479.002	94.88
479.22	93.88
479.439	106.88
479.658	98.88
479.876	97.88
480.095	86.88
480.313	92.88
480.532	88.88
480.751	114.88
480.969	197.88
481.188	550.88
481.406	323.88
481.624	113.88
481.843	86.88
482.061	89.88
482.28	86.88
482.498	88.88
482.717	82.88
482.935	85.88
483.153	92.88
483.372	100.88
483.59	102.88
483.808	74.88
484.027	93.88
484.245	90.88
484.463	97.88
484.681	89.88
484.9	96.88
485.118	102.88
485.336	91.88
485.554	99.88
485.772	103.88
485.99	94.88
486.209	101.88
486.427	99.88
486.645	106.88
486.863	97.88
487.081	95.88
487.299	101.88
487.517	107.88
487.735	90.88
487.953	74.88
488.171	91.88
488.389	97.88
488.607	113.88
488.825	83.88
489.043	102.88
489.261	93.88
489.479	86.88
489.696	87.88
489.914	84.88
490.132	93.88
490.35	93.88
490.568	85.88
490.786	98.88
491.003	88.88
491.221	81.88
491.439	102.88
491.657	89.88
491.874	78.88
492.092	90.88
492.31	91.88
492.527	93.88
492.745	95.88
492.963	98.88
493.18	90.88
493.398	92.88
493.615	103.88
493.833	113.88
494.05	102.88
494.268	88.88
494.485	88.88
494.703	104.88
494.92	110.88
495.138	85.88
495.355	92.88
495.573	96.88
495.79	88.88
496.008	97.88
496.225	116.88
496.442	85.88
496.66	93.88
496.877	92.88
497.094	81.88
497.312	91.88
497.529	96.88
497.746	80.88
497.963	107.88
498.181	106.88
498.398	99.88
498.615	109.88
498.832	104.88
499.049	83.88
499.267	97.88
499.484	80.88
499.701	94.88
499.918	85.88
500.135	81.88
500.352	105.88
500.569	82.88
500.786	86.88
501.003	95.88
501.22	87.88
501.437	95.88
501.654	100.88
501.871	112.88
502.088	100.88
502.305	79.88
502.522	91.88
502.739	78.88
502.956	101.88
503.172	106.88
503.389	110.88
503.606	100.88
503.823	93.88
504.04	80.88
504.256	92.88
504.473	96.88
504.69	90.88
504.907	92.88
505.123	97.88
505.34	84.88
505.557	93.88
505.773	75.88
505.99	99.88
506.207	89.88
506.423	105.88
506.64	83.88
506.856	100.88
507.073	79.88
507.289	93.88
507.506	97.88
507.722	120.88
507.939	112.88
508.155	108.88
508.372	100.88
508.588	85.88
508.805	101.88
509.021	90.88
509.238	97.88
509.454	93.88
509.67	103.88
509.887	102.88
510.103	123.88
510.319	222.88
510.536	853.88
510.752	2908.88
510.968	770.88
511.184	170.88
511.401	125.88
511.617	106.88
511.833	92.88
512.049	86.88
512.265	88.88
512.481	97.88
512.698	99.88
512.914	90.88
513.13	105.88
513.346	95.88
513.562	99.88
513.778	90.88
513.994	107.88
514.21	103.88
514.426	118.88
514.642	145.88
514.858	142.88
