Data from Circ_1996_H10_HRD10591_00021.txt Node
Date: Wed Jan 03 11:33:10 EST 2024
User: Yrep
Spectrometer: HR+D1059
Trigger mode: 1
Integration Time (sec): 1.000000E-1
Scans to average: 1
Electric dark correction enabled: true
Nonlinearity correction enabled: false
Boxcar width: 0
XAxis mode: Wavelengths
Number of Pixels in Spectrum: 2048
>>>>>Begin Spectral Data<<<<<
223.165	-23.75
223.4	-23.75
223.635	-23.75
223.869	-19.75
224.104	-21.75
224.338	-19.75
224.573	-8.75
224.808	-2.75
225.042	-5.75
225.277	-15.75
225.511	10.25
225.746	-9.75
225.98	11.25
226.215	19.25
226.449	14.25
226.683	29.25
226.918	7.25
227.152	36.25
227.387	39.25
227.621	49.25
227.856	31.25
228.09	38.25
228.324	46.25
228.559	66.25
228.793	64.25
229.027	74.25
229.262	78.25
229.496	66.25
229.73	84.25
229.964	73.25
230.199	64.25
230.433	76.25
230.667	69.25
230.901	86.25
231.136	80.25
231.37	85.25
231.604	86.25
231.838	96.25
232.072	87.25
232.306	78.25
232.541	88.25
232.775	87.25
233.009	90.25
233.243	87.25
233.477	84.25
233.711	79.25
233.945	84.25
234.179	87.25
234.413	86.25
234.647	91.25
234.881	87.25
235.115	80.25
235.349	79.25
235.583	72.25
235.817	76.25
236.051	71.25
236.285	76.25
236.519	68.25
236.753	72.25
236.987	87.25
237.221	87.25
237.455	91.25
237.689	94.25
237.922	84.25
238.156	84.25
238.39	84.25
238.624	87.25
238.858	81.25
239.091	79.25
239.325	84.25
239.559	78.25
239.793	91.25
240.027	66.25
240.26	81.25
240.494	82.25
240.728	77.25
240.961	80.25
241.195	80.25
241.429	81.25
241.662	69.25
241.896	71.25
242.13	95.25
242.363	67.25
242.597	71.25
242.83	66.25
243.064	69.25
243.298	81.25
243.531	81.25
243.765	75.25
243.998	91.25
244.232	79.25
244.465	66.25
244.699	96.25
244.932	87.25
245.166	81.25
245.399	82.25
245.633	73.25
245.866	76.25
246.099	77.25
246.333	76.25
246.566	87.25
246.8	89.25
247.033	84.25
247.266	71.25
247.5	82.25
247.733	66.25
247.966	88.25
248.2	71.25
248.433	77.25
248.666	100.25
248.899	82.25
249.133	93.25
249.366	102.25
249.599	104.25
249.832	78.25
250.066	67.25
250.299	73.25
250.532	87.25
250.765	76.25
250.998	72.25
251.231	75.25
251.465	66.25
251.698	66.25
251.931	79.25
252.164	82.25
252.397	91.25
252.63	104.25
252.863	75.25
253.096	68.25
253.329	96.25
253.562	65.25
253.795	88.25
254.028	95.25
254.261	84.25
254.494	87.25
254.727	75.25
254.96	83.25
255.193	80.25
255.426	85.25
255.659	89.25
255.892	88.25
256.124	87.25
256.357	101.25
256.59	82.25
256.823	88.25
257.056	77.25
257.289	73.25
257.521	88.25
257.754	77.25
257.987	83.25
258.22	91.25
258.452	84.25
258.685	66.25
258.918	91.25
259.151	95.25
259.383	79.25
259.616	87.25
259.849	82.25
260.081	88.25
260.314	82.25
260.547	87.25
260.779	71.25
261.012	85.25
261.244	92.25
261.477	89.25
261.71	92.25
261.942	128.25
262.175	122.25
262.407	87.25
262.64	97.25
262.872	89.25
263.105	93.25
263.337	82.25
263.57	79.25
263.802	92.25
264.035	99.25
264.267	88.25
264.499	90.25
264.732	84.25
264.964	90.25
265.197	75.25
265.429	82.25
265.661	86.25
265.894	83.25
266.126	75.25
266.358	86.25
266.591	87.25
266.823	74.25
267.055	89.25
267.287	76.25
267.52	83.25
267.752	74.25
267.984	86.25
268.216	83.25
268.448	96.25
268.681	88.25
268.913	77.25
269.145	73.25
269.377	83.25
269.609	85.25
269.841	86.25
270.073	85.25
270.306	76.25
270.538	83.25
270.77	87.25
271.002	85.25
271.234	90.25
271.466	88.25
271.698	108.25
271.93	69.25
272.162	82.25
272.394	98.25
272.626	86.25
272.858	105.25
273.09	88.25
273.322	81.25
273.553	82.25
273.785	74.25
274.017	97.25
274.249	95.25
274.481	75.25
274.713	91.25
274.945	97.25
275.176	89.25
275.408	97.25
275.64	76.25
275.872	88.25
276.104	84.25
276.335	112.25
276.567	95.25
276.799	103.25
277.031	97.25
277.262	100.25
277.494	85.25
277.726	100.25
277.957	92.25
278.189	82.25
278.421	80.25
278.652	72.25
278.884	95.25
279.115	84.25
279.347	96.25
279.579	83.25
279.81	88.25
280.042	76.25
280.273	89.25
280.505	99.25
280.736	85.25
280.968	93.25
281.199	76.25
281.431	76.25
281.662	88.25
281.894	83.25
282.125	106.25
282.356	128.25
282.588	161.25
282.819	116.25
283.051	95.25
283.282	83.25
283.513	85.25
283.745	85.25
283.976	77.25
284.207	77.25
284.439	85.25
284.67	81.25
284.901	81.25
285.132	83.25
285.364	88.25
285.595	100.25
285.826	92.25
286.057	91.25
286.288	94.25
286.52	87.25
286.751	81.25
286.982	87.25
287.213	83.25
287.444	92.25
287.675	68.25
287.906	97.25
288.138	85.25
288.369	107.25
288.6	99.25
288.831	74.25
289.062	82.25
289.293	85.25
289.524	95.25
289.755	75.25
289.986	98.25
290.217	86.25
290.448	89.25
290.679	99.25
290.91	91.25
291.141	87.25
291.371	94.25
291.602	90.25
291.833	79.25
292.064	91.25
292.295	85.25
292.526	79.25
292.757	85.25
292.987	89.25
293.218	95.25
293.449	87.25
293.68	92.25
293.91	93.25
294.141	81.25
294.372	84.25
294.603	96.25
294.833	90.25
295.064	88.25
295.295	94.25
295.525	91.25
295.756	106.25
295.987	121.25
296.217	153.25
296.448	128.25
296.679	100.25
296.909	99.25
297.14	99.25
297.37	82.25
297.601	87.25
297.831	111.25
298.062	107.25
298.292	91.25
298.523	95.25
298.753	94.25
298.984	85.25
299.214	92.25
299.445	87.25
299.675	98.25
299.905	97.25
300.136	99.25
300.366	102.25
300.597	95.25
300.827	92.25
301.057	117.25
301.288	112.25
301.518	79.25
301.748	95.25
301.979	112.25
302.209	92.25
302.439	88.25
302.669	95.25
302.9	87.25
303.13	89.25
303.36	105.25
303.59	106.25
303.82	94.25
304.051	100.25
304.281	105.25
304.511	99.25
304.741	97.25
304.971	86.25
305.201	75.25
305.431	83.25
305.661	90.25
305.891	94.25
306.121	81.25
306.352	93.25
306.582	95.25
306.812	101.25
307.042	86.25
307.272	92.25
307.502	102.25
307.731	100.25
307.961	94.25
308.191	89.25
308.421	79.25
308.651	98.25
308.881	82.25
309.111	96.25
309.341	102.25
309.571	104.25
309.8	87.25
310.03	101.25
310.26	93.25
310.49	87.25
310.72	114.25
310.949	113.25
311.179	99.25
311.409	83.25
311.639	89.25
311.868	102.25
312.098	97.25
312.328	103.25
312.557	116.25
312.787	113.25
313.017	111.25
313.246	102.25
313.476	88.25
313.706	93.25
313.935	95.25
314.165	101.25
314.394	101.25
314.624	108.25
314.853	101.25
315.083	87.25
315.312	107.25
315.542	91.25
315.771	99.25
316.001	93.25
316.23	80.25
316.46	91.25
316.689	96.25
316.919	97.25
317.148	98.25
317.377	101.25
317.607	99.25
317.836	91.25
318.065	96.25
318.295	85.25
318.524	95.25
318.753	85.25
318.983	107.25
319.212	108.25
319.441	109.25
319.67	108.25
319.9	93.25
320.129	87.25
320.358	100.25
320.587	95.25
320.816	105.25
321.046	109.25
321.275	95.25
321.504	83.25
321.733	93.25
321.962	88.25
322.191	111.25
322.42	107.25
322.649	110.25
322.878	121.25
323.108	121.25
323.337	109.25
323.566	137.25
323.795	156.25
324.024	183.25
324.253	365.25
324.482	771.25
324.71	1536.25
324.939	1943.25
325.168	753.25
325.397	240.25
325.626	141.25
325.855	126.25
326.084	119.25
326.313	123.25
326.542	148.25
326.77	189.25
326.999	405.25
327.228	793.25
327.457	1436.25
327.686	1128.25
327.914	338.25
328.143	213.25
328.372	184.25
328.6	136.25
328.829	130.25
329.058	117.25
329.287	134.25
329.515	122.25
329.744	114.25
329.972	128.25
330.201	163.25
330.43	194.25
330.658	147.25
330.887	159.25
331.115	129.25
331.344	93.25
331.572	103.25
331.801	93.25
332.03	122.25
332.258	118.25
332.486	93.25
332.715	105.25
332.943	106.25
333.172	97.25
333.4	93.25
333.629	104.25
333.857	122.25
334.085	123.25
334.314	135.25
334.542	193.25
334.771	188.25
334.999	121.25
335.227	99.25
335.455	110.25
335.684	108.25
335.912	96.25
336.14	89.25
336.369	95.25
336.597	118.25
336.825	103.25
337.053	93.25
337.281	84.25
337.51	101.25
337.738	96.25
337.966	90.25
338.194	93.25
338.422	99.25
338.65	104.25
338.878	85.25
339.106	89.25
339.334	81.25
339.562	77.25
339.79	88.25
340.018	96.25
340.246	103.25
340.474	88.25
340.702	98.25
340.93	99.25
341.158	94.25
341.386	92.25
341.614	86.25
341.842	98.25
342.07	94.25
342.298	93.25
342.526	87.25
342.754	86.25
342.981	79.25
343.209	89.25
343.437	96.25
343.665	90.25
343.893	107.25
344.12	89.25
344.348	86.25
344.576	87.25
344.804	87.25
345.031	101.25
345.259	104.25
345.487	96.25
345.714	90.25
345.942	103.25
346.17	84.25
346.397	99.25
346.625	89.25
346.853	98.25
347.08	97.25
347.308	90.25
347.535	96.25
347.763	113.25
347.99	116.25
348.218	112.25
348.445	117.25
348.673	109.25
348.9	98.25
349.128	95.25
349.355	98.25
349.583	94.25
349.81	81.25
350.037	94.25
350.265	99.25
350.492	96.25
350.72	83.25
350.947	105.25
351.174	117.25
351.402	115.25
351.629	119.25
351.856	100.25
352.083	99.25
352.311	110.25
352.538	98.25
352.765	111.25
352.992	114.25
353.22	110.25
353.447	115.25
353.674	103.25
353.901	91.25
354.128	94.25
354.355	102.25
354.583	93.25
354.81	93.25
355.037	99.25
355.264	102.25
355.491	88.25
355.718	90.25
355.945	101.25
356.172	100.25
356.399	105.25
356.626	95.25
356.853	109.25
357.08	97.25
357.307	84.25
357.534	84.25
357.761	86.25
357.988	85.25
358.215	96.25
358.441	97.25
358.668	89.25
358.895	87.25
359.122	91.25
359.349	86.25
359.576	90.25
359.802	103.25
360.029	143.25
360.256	120.25
360.483	77.25
360.709	87.25
360.936	91.25
361.163	100.25
361.39	90.25
361.616	104.25
361.843	100.25
362.07	99.25
362.296	111.25
362.523	96.25
362.749	97.25
362.976	86.25
363.203	102.25
363.429	90.25
363.656	87.25
363.882	109.25
364.109	90.25
364.335	83.25
364.562	109.25
364.788	97.25
365.015	88.25
365.241	102.25
365.468	112.25
365.694	87.25
365.92	99.25
366.147	100.25
366.373	85.25
366.599	92.25
366.826	73.25
367.052	101.25
367.278	87.25
367.505	87.25
367.731	90.25
367.957	82.25
368.184	111.25
368.41	110.25
368.636	106.25
368.862	109.25
369.089	112.25
369.315	96.25
369.541	91.25
369.767	92.25
369.993	99.25
370.219	91.25
370.445	96.25
370.672	79.25
370.898	92.25
371.124	83.25
371.35	81.25
371.576	65.25
371.802	82.25
372.028	75.25
372.254	93.25
372.48	87.25
372.706	93.25
372.932	88.25
373.158	88.25
373.384	99.25
373.61	91.25
373.835	86.25
374.061	100.25
374.287	89.25
374.513	86.25
374.739	96.25
374.965	92.25
375.191	88.25
375.416	84.25
375.642	91.25
375.868	95.25
376.094	98.25
376.319	92.25
376.545	82.25
376.771	92.25
376.997	91.25
377.222	103.25
377.448	105.25
377.674	95.25
377.899	103.25
378.125	88.25
378.35	100.25
378.576	83.25
378.802	80.25
379.027	90.25
379.253	89.25
379.478	87.25
379.704	91.25
379.929	113.25
380.155	89.25
380.38	110.25
380.606	112.25
380.831	93.25
381.057	101.25
381.282	88.25
381.507	100.25
381.733	101.25
381.958	100.25
382.184	105.25
382.409	96.25
382.634	107.25
382.86	97.25
383.085	114.25
383.31	107.25
383.535	99.25
383.761	94.25
383.986	121.25
384.211	103.25
384.436	112.25
384.662	97.25
384.887	96.25
385.112	106.25
385.337	120.25
385.562	121.25
385.787	108.25
386.013	97.25
386.238	119.25
386.463	103.25
386.688	136.25
386.913	108.25
387.138	112.25
387.363	108.25
387.588	101.25
387.813	115.25
388.038	115.25
388.263	109.25
388.488	123.25
388.713	96.25
388.938	105.25
389.163	94.25
389.387	92.25
389.612	100.25
389.837	92.25
390.062	85.25
390.287	91.25
390.512	96.25
390.736	89.25
390.961	104.25
391.186	105.25
391.411	98.25
391.636	77.25
391.86	77.25
392.085	79.25
392.31	71.25
392.534	74.25
392.759	92.25
392.984	80.25
393.208	101.25
393.433	121.25
393.658	104.25
393.882	87.25
394.107	72.25
394.331	91.25
394.556	83.25
394.78	97.25
395.005	89.25
395.229	71.25
395.454	86.25
395.678	97.25
395.903	87.25
396.127	76.25
396.352	78.25
396.576	93.25
396.801	98.25
397.025	98.25
397.249	99.25
397.474	88.25
397.698	87.25
397.922	75.25
398.147	78.25
398.371	73.25
398.595	98.25
398.82	75.25
399.044	85.25
399.268	88.25
399.492	83.25
399.717	90.25
399.941	105.25
400.165	95.25
400.389	85.25
400.613	94.25
400.837	99.25
401.062	100.25
401.286	84.25
401.51	95.25
401.734	108.25
401.958	107.25
402.182	127.25
402.406	166.25
402.63	132.25
402.854	95.25
403.078	97.25
403.302	86.25
403.526	103.25
403.75	89.25
403.974	93.25
404.198	91.25
404.422	97.25
404.645	90.25
404.869	95.25
405.093	100.25
405.317	99.25
405.541	97.25
405.765	110.25
405.988	120.25
406.212	195.25
406.436	261.25
406.66	160.25
406.883	99.25
407.107	107.25
407.331	100.25
407.555	93.25
407.778	89.25
408.002	90.25
408.226	93.25
408.449	90.25
408.673	84.25
408.896	103.25
409.12	95.25
409.344	88.25
409.567	90.25
409.791	93.25
410.014	96.25
410.238	90.25
410.461	103.25
410.685	91.25
410.908	107.25
411.132	96.25
411.355	95.25
411.578	93.25
411.802	91.25
412.025	100.25
412.249	106.25
412.472	93.25
412.695	81.25
412.919	87.25
413.142	85.25
413.365	95.25
413.589	85.25
413.812	90.25
414.035	89.25
414.258	84.25
414.482	91.25
414.705	83.25
414.928	100.25
415.151	93.25
415.374	96.25
415.597	95.25
415.821	91.25
416.044	82.25
416.267	84.25
416.49	92.25
416.713	74.25
416.936	109.25
417.159	87.25
417.382	82.25
417.605	89.25
417.828	88.25
418.051	98.25
418.274	74.25
418.497	89.25
418.72	91.25
418.943	90.25
419.166	101.25
419.389	100.25
419.611	97.25
419.834	89.25
420.057	87.25
420.28	81.25
420.503	94.25
420.726	95.25
420.948	89.25
421.171	95.25
421.394	101.25
421.617	88.25
421.839	86.25
422.062	84.25
422.285	83.25
422.507	96.25
422.73	99.25
422.953	91.25
423.175	92.25
423.398	81.25
423.621	80.25
423.843	77.25
424.066	93.25
424.288	74.25
424.511	96.25
424.733	111.25
424.956	90.25
425.178	114.25
425.401	115.25
425.623	93.25
425.846	95.25
426.068	95.25
426.291	87.25
426.513	78.25
426.735	87.25
426.958	98.25
427.18	99.25
427.402	125.25
427.625	173.25
427.847	123.25
428.069	109.25
428.292	87.25
428.514	89.25
428.736	91.25
428.958	104.25
429.181	102.25
429.403	78.25
429.625	90.25
429.847	84.25
430.069	98.25
430.292	83.25
430.514	91.25
430.736	77.25
430.958	79.25
431.18	79.25
431.402	82.25
431.624	81.25
431.846	98.25
432.068	87.25
432.29	86.25
432.512	84.25
432.734	87.25
432.956	105.25
433.178	107.25
433.4	95.25
433.622	96.25
433.844	104.25
434.066	88.25
434.287	97.25
434.509	87.25
434.731	99.25
434.953	74.25
435.175	83.25
435.397	100.25
435.618	89.25
435.84	105.25
436.062	126.25
436.284	111.25
436.505	105.25
436.727	92.25
436.949	99.25
437.17	78.25
437.392	87.25
437.614	97.25
437.835	100.25
438.057	121.25
438.278	100.25
438.5	109.25
438.721	126.25
438.943	105.25
439.165	76.25
439.386	103.25
439.608	113.25
439.829	100.25
440.05	126.25
440.272	151.25
440.493	101.25
440.715	97.25
440.936	91.25
441.158	93.25
441.379	97.25
441.6	95.25
441.822	83.25
442.043	113.25
442.264	98.25
442.486	108.25
442.707	108.25
442.928	111.25
443.149	137.25
443.371	139.25
443.592	114.25
443.813	116.25
444.034	115.25
444.255	95.25
444.476	88.25
444.698	81.25
444.919	85.25
445.14	147.25
445.361	130.25
445.582	129.25
445.803	136.25
446.024	128.25
446.245	123.25
446.466	98.25
446.687	68.25
446.908	89.25
447.129	105.25
447.35	90.25
447.571	93.25
447.792	95.25
448.013	108.25
448.234	111.25
448.455	103.25
448.675	121.25
448.896	109.25
449.117	100.25
449.338	110.25
449.559	116.25
449.779	125.25
450	91.25
450.221	83.25
450.442	100.25
450.662	89.25
450.883	99.25
451.104	121.25
451.324	105.25
451.545	83.25
451.766	79.25
451.986	94.25
452.207	85.25
452.428	92.25
452.648	100.25
452.869	100.25
453.089	109.25
453.31	120.25
453.53	94.25
453.751	97.25
453.971	104.25
454.192	116.25
454.412	96.25
454.633	73.25
454.853	81.25
455.073	78.25
455.294	93.25
455.514	89.25
455.734	107.25
455.955	94.25
456.175	96.25
456.395	96.25
456.616	96.25
456.836	85.25
457.056	87.25
457.276	89.25
457.497	80.25
457.717	90.25
457.937	82.25
458.157	89.25
458.377	82.25
458.598	114.25
458.818	154.25
459.038	166.25
459.258	113.25
459.478	104.25
459.698	91.25
459.918	80.25
460.138	82.25
460.358	83.25
460.578	84.25
460.798	80.25
461.018	89.25
461.238	92.25
461.458	85.25
461.678	84.25
461.898	80.25
462.118	75.25
462.338	72.25
462.558	95.25
462.777	91.25
462.997	85.25
463.217	90.25
463.437	90.25
463.657	80.25
463.876	97.25
464.096	101.25
464.316	92.25
464.536	85.25
464.755	100.25
464.975	105.25
465.195	178.25
465.414	176.25
465.634	96.25
465.854	93.25
466.073	96.25
466.293	79.25
466.512	98.25
466.732	99.25
466.951	89.25
467.171	91.25
467.391	92.25
467.61	117.25
467.829	109.25
468.049	101.25
468.268	115.25
468.488	102.25
468.707	93.25
468.927	94.25
469.146	94.25
469.365	80.25
469.585	91.25
469.804	99.25
470.023	84.25
470.243	83.25
470.462	100.25
470.681	127.25
470.901	81.25
471.12	96.25
471.339	88.25
471.558	69.25
471.777	88.25
471.997	99.25
472.216	164.25
472.435	240.25
472.654	105.25
472.873	87.25
473.092	101.25
473.311	96.25
473.53	82.25
473.749	99.25
473.968	81.25
474.187	105.25
474.406	108.25
474.625	82.25
474.844	97.25
475.063	80.25
475.282	72.25
475.501	92.25
475.72	87.25
475.939	71.25
476.158	87.25
476.377	84.25
476.596	76.25
476.814	95.25
477.033	101.25
477.252	91.25
477.471	89.25
477.69	92.25
477.908	98.25
478.127	89.25
478.346	88.25
478.564	85.25
478.783	96.25
479.002	86.25
479.22	89.25
479.439	104.25
479.658	94.25
479.876	95.25
480.095	89.25
480.313	95.25
480.532	93.25
480.751	105.25
480.969	169.25
481.188	376.25
481.406	235.25
481.624	94.25
481.843	83.25
482.061	89.25
482.28	92.25
482.498	90.25
482.717	83.25
482.935	86.25
483.153	94.25
483.372	92.25
483.59	92.25
483.808	93.25
484.027	106.25
484.245	108.25
484.463	89.25
484.681	96.25
484.9	111.25
485.118	92.25
485.336	101.25
485.554	97.25
485.772	89.25
485.99	107.25
486.209	106.25
486.427	106.25
486.645	101.25
486.863	106.25
487.081	98.25
487.299	89.25
487.517	95.25
487.735	86.25
487.953	99.25
488.171	87.25
488.389	94.25
488.607	119.25
488.825	98.25
489.043	82.25
489.261	106.25
489.479	92.25
489.696	91.25
489.914	79.25
490.132	95.25
490.35	96.25
490.568	100.25
490.786	91.25
491.003	101.25
491.221	84.25
491.439	99.25
491.657	93.25
491.874	90.25
492.092	90.25
492.31	87.25
492.527	79.25
492.745	104.25
492.963	91.25
493.18	82.25
493.398	96.25
493.615	84.25
493.833	94.25
494.05	81.25
494.268	82.25
494.485	85.25
494.703	93.25
494.92	97.25
495.138	90.25
495.355	86.25
495.573	97.25
495.79	82.25
496.008	97.25
496.225	93.25
496.442	88.25
496.66	97.25
496.877	84.25
497.094	88.25
497.312	91.25
497.529	89.25
497.746	104.25
497.963	87.25
498.181	97.25
498.398	88.25
498.615	111.25
498.832	114.25
499.049	84.25
499.267	84.25
499.484	81.25
499.701	94.25
499.918	83.25
500.135	94.25
500.352	84.25
500.569	94.25
500.786	100.25
501.003	88.25
501.22	86.25
501.437	84.25
501.654	96.25
501.871	106.25
502.088	87.25
502.305	89.25
502.522	87.25
502.739	75.25
502.956	83.25
503.172	103.25
503.389	81.25
503.606	120.25
503.823	99.25
504.04	103.25
504.256	79.25
504.473	95.25
504.69	96.25
504.907	91.25
505.123	108.25
505.34	96.25
505.557	95.25
505.773	90.25
505.99	85.25
506.207	97.25
506.423	94.25
506.64	85.25
506.856	85.25
507.073	91.25
507.289	105.25
507.506	101.25
507.722	117.25
507.939	119.25
508.155	110.25
508.372	105.25
508.588	98.25
508.805	107.25
509.021	104.25
509.238	91.25
509.454	93.25
509.67	106.25
509.887	119.25
510.103	151.25
510.319	246.25
510.536	885.25
510.752	2977.25
510.968	777.25
511.184	171.25
511.401	97.25
511.617	101.25
511.833	93.25
512.049	75.25
512.265	90.25
512.481	98.25
512.698	92.25
512.914	95.25
513.13	99.25
513.346	84.25
513.562	97.25
513.778	91.25
513.994	100.25
514.21	95.25
514.426	123.25
514.642	151.25
514.858	144.25
