Data from Circ_1996_H10_HRD10591_00071.txt Node
Date: Wed Jan 03 11:33:20 EST 2024
User: Yrep
Spectrometer: HR+D1059
Trigger mode: 1
Integration Time (sec): 1.000000E-1
Scans to average: 1
Electric dark correction enabled: true
Nonlinearity correction enabled: false
Boxcar width: 0
XAxis mode: Wavelengths
Number of Pixels in Spectrum: 2048
>>>>>Begin Spectral Data<<<<<
223.165	-15.44
223.4	-15.44
223.635	-15.44
223.869	-18.44
224.104	-8.44
224.338	-5.44
224.573	-14.44
224.808	1.56
225.042	-17.44
225.277	-2.44
225.511	-18.44
225.746	4.56
225.98	10.56
226.215	4.56
226.449	1.56
226.683	22.56
226.918	31.56
227.152	23.56
227.387	49.56
227.621	34.56
227.856	40.56
228.09	51.56
228.324	48.56
228.559	59.56
228.793	77.56
229.027	50.56
229.262	61.56
229.496	69.56
229.73	81.56
229.964	85.56
230.199	76.56
230.433	67.56
230.667	84.56
230.901	74.56
231.136	88.56
231.37	72.56
231.604	87.56
231.838	69.56
232.072	85.56
232.306	79.56
232.541	87.56
232.775	87.56
233.009	77.56
233.243	84.56
233.477	83.56
233.711	90.56
233.945	91.56
234.179	80.56
234.413	81.56
234.647	83.56
234.881	84.56
235.115	84.56
235.349	77.56
235.583	83.56
235.817	75.56
236.051	85.56
236.285	87.56
236.519	77.56
236.753	76.56
236.987	77.56
237.221	87.56
237.455	73.56
237.689	79.56
237.922	78.56
238.156	69.56
238.39	83.56
238.624	67.56
238.858	62.56
239.091	75.56
239.325	75.56
239.559	72.56
239.793	92.56
240.027	74.56
240.26	73.56
240.494	68.56
240.728	84.56
240.961	82.56
241.195	79.56
241.429	73.56
241.662	79.56
241.896	81.56
242.13	62.56
242.363	73.56
242.597	68.56
242.83	76.56
243.064	67.56
243.298	67.56
243.531	76.56
243.765	76.56
243.998	90.56
244.232	84.56
244.465	78.56
244.699	77.56
244.932	80.56
245.166	67.56
245.399	61.56
245.633	80.56
245.866	63.56
246.099	74.56
246.333	87.56
246.566	91.56
246.8	70.56
247.033	76.56
247.266	74.56
247.5	77.56
247.733	68.56
247.966	90.56
248.2	68.56
248.433	84.56
248.666	70.56
248.899	91.56
249.133	82.56
249.366	92.56
249.599	97.56
249.832	77.56
250.066	80.56
250.299	82.56
250.532	79.56
250.765	77.56
250.998	78.56
251.231	83.56
251.465	85.56
251.698	76.56
251.931	79.56
252.164	75.56
252.397	78.56
252.63	71.56
252.863	68.56
253.096	79.56
253.329	89.56
253.562	69.56
253.795	84.56
254.028	73.56
254.261	66.56
254.494	75.56
254.727	80.56
254.96	73.56
255.193	91.56
255.426	80.56
255.659	76.56
255.892	89.56
256.124	78.56
256.357	79.56
256.59	77.56
256.823	65.56
257.056	99.56
257.289	83.56
257.521	73.56
257.754	83.56
257.987	73.56
258.22	85.56
258.452	97.56
258.685	79.56
258.918	79.56
259.151	80.56
259.383	82.56
259.616	61.56
259.849	88.56
260.081	97.56
260.314	84.56
260.547	73.56
260.779	79.56
261.012	85.56
261.244	76.56
261.477	85.56
261.71	99.56
261.942	109.56
262.175	107.56
262.407	81.56
262.64	78.56
262.872	80.56
263.105	93.56
263.337	73.56
263.57	89.56
263.802	88.56
264.035	93.56
264.267	78.56
264.499	76.56
264.732	75.56
264.964	82.56
265.197	100.56
265.429	80.56
265.661	82.56
265.894	85.56
266.126	86.56
266.358	85.56
266.591	91.56
266.823	98.56
267.055	77.56
267.287	75.56
267.52	91.56
267.752	78.56
267.984	82.56
268.216	81.56
268.448	84.56
268.681	80.56
268.913	69.56
269.145	82.56
269.377	79.56
269.609	97.56
269.841	87.56
270.073	77.56
270.306	79.56
270.538	81.56
270.77	95.56
271.002	87.56
271.234	85.56
271.466	88.56
271.698	83.56
271.93	95.56
272.162	81.56
272.394	80.56
272.626	95.56
272.858	94.56
273.09	89.56
273.322	80.56
273.553	93.56
273.785	75.56
274.017	80.56
274.249	78.56
274.481	92.56
274.713	77.56
274.945	91.56
275.176	91.56
275.408	80.56
275.64	94.56
275.872	93.56
276.104	90.56
276.335	94.56
276.567	84.56
276.799	116.56
277.031	93.56
277.262	92.56
277.494	80.56
277.726	92.56
277.957	78.56
278.189	79.56
278.421	95.56
278.652	90.56
278.884	85.56
279.115	82.56
279.347	86.56
279.579	94.56
279.81	82.56
280.042	83.56
280.273	95.56
280.505	96.56
280.736	75.56
280.968	91.56
281.199	70.56
281.431	77.56
281.662	80.56
281.894	84.56
282.125	99.56
282.356	109.56
282.588	131.56
282.819	122.56
283.051	88.56
283.282	96.56
283.513	85.56
283.745	82.56
283.976	98.56
284.207	100.56
284.439	87.56
284.67	76.56
284.901	75.56
285.132	87.56
285.364	87.56
285.595	78.56
285.826	93.56
286.057	82.56
286.288	78.56
286.52	87.56
286.751	91.56
286.982	95.56
287.213	86.56
287.444	92.56
287.675	104.56
287.906	84.56
288.138	87.56
288.369	91.56
288.6	92.56
288.831	87.56
289.062	75.56
289.293	75.56
289.524	95.56
289.755	87.56
289.986	80.56
290.217	91.56
290.448	80.56
290.679	95.56
290.91	91.56
291.141	80.56
291.371	99.56
291.602	96.56
291.833	84.56
292.064	89.56
292.295	98.56
292.526	95.56
292.757	97.56
292.987	89.56
293.218	81.56
293.449	70.56
293.68	82.56
293.91	97.56
294.141	81.56
294.372	90.56
294.603	75.56
294.833	82.56
295.064	68.56
295.295	93.56
295.525	98.56
295.756	112.56
295.987	104.56
296.217	128.56
296.448	123.56
296.679	87.56
296.909	72.56
297.14	96.56
297.37	90.56
297.601	95.56
297.831	80.56
298.062	92.56
298.292	94.56
298.523	100.56
298.753	90.56
298.984	85.56
299.214	87.56
299.445	79.56
299.675	108.56
299.905	96.56
300.136	83.56
300.366	84.56
300.597	81.56
300.827	91.56
301.057	103.56
301.288	100.56
301.518	87.56
301.748	92.56
301.979	107.56
302.209	95.56
302.439	94.56
302.669	80.56
302.9	94.56
303.13	91.56
303.36	81.56
303.59	94.56
303.82	94.56
304.051	91.56
304.281	97.56
304.511	94.56
304.741	86.56
304.971	95.56
305.201	92.56
305.431	87.56
305.661	91.56
305.891	94.56
306.121	96.56
306.352	104.56
306.582	100.56
306.812	96.56
307.042	96.56
307.272	95.56
307.502	90.56
307.731	107.56
307.961	108.56
308.191	90.56
308.421	79.56
308.651	80.56
308.881	88.56
309.111	79.56
309.341	90.56
309.571	105.56
309.8	94.56
310.03	90.56
310.26	84.56
310.49	92.56
310.72	97.56
310.949	101.56
311.179	104.56
311.409	91.56
311.639	98.56
311.868	103.56
312.098	106.56
312.328	96.56
312.557	106.56
312.787	86.56
313.017	88.56
313.246	94.56
313.476	94.56
313.706	92.56
313.935	89.56
314.165	106.56
314.394	96.56
314.624	114.56
314.853	88.56
315.083	93.56
315.312	85.56
315.542	98.56
315.771	96.56
316.001	80.56
316.23	81.56
316.46	85.56
316.689	99.56
316.919	77.56
317.148	83.56
317.377	93.56
317.607	83.56
317.836	82.56
318.065	94.56
318.295	85.56
318.524	85.56
318.753	84.56
318.983	103.56
319.212	101.56
319.441	100.56
319.67	99.56
319.9	96.56
320.129	93.56
320.358	96.56
320.587	92.56
320.816	99.56
321.046	101.56
321.275	96.56
321.504	89.56
321.733	97.56
321.962	93.56
322.191	107.56
322.42	105.56
322.649	99.56
322.878	116.56
323.108	110.56
323.337	119.56
323.566	118.56
323.795	141.56
324.024	175.56
324.253	319.56
324.482	622.56
324.71	1181.56
324.939	1588.56
325.168	607.56
325.397	181.56
325.626	135.56
325.855	112.56
326.084	120.56
326.313	127.56
326.542	129.56
326.77	191.56
326.999	335.56
327.228	647.56
327.457	1131.56
327.686	913.56
327.914	306.56
328.143	201.56
328.372	172.56
328.6	140.56
328.829	117.56
329.058	117.56
329.287	121.56
329.515	107.56
329.744	110.56
329.972	124.56
330.201	170.56
330.43	196.56
330.658	144.56
330.887	125.56
331.115	97.56
331.344	86.56
331.572	100.56
331.801	96.56
332.03	116.56
332.258	76.56
332.486	72.56
332.715	91.56
332.943	91.56
333.172	87.56
333.4	85.56
333.629	107.56
333.857	112.56
334.085	122.56
334.314	176.56
334.542	243.56
334.771	228.56
334.999	118.56
335.227	98.56
335.455	101.56
335.684	91.56
335.912	99.56
336.14	103.56
336.369	106.56
336.597	109.56
336.825	94.56
337.053	91.56
337.281	91.56
337.51	88.56
337.738	96.56
337.966	104.56
338.194	97.56
338.422	105.56
338.65	107.56
338.878	103.56
339.106	98.56
339.334	94.56
339.562	90.56
339.79	84.56
340.018	101.56
340.246	89.56
340.474	103.56
340.702	91.56
340.93	105.56
341.158	107.56
341.386	94.56
341.614	96.56
341.842	94.56
342.07	87.56
342.298	90.56
342.526	91.56
342.754	85.56
342.981	74.56
343.209	104.56
343.437	104.56
343.665	80.56
343.893	82.56
344.12	88.56
344.348	90.56
344.576	85.56
344.804	87.56
345.031	80.56
345.259	86.56
345.487	80.56
345.714	99.56
345.942	90.56
346.17	90.56
346.397	82.56
346.625	87.56
346.853	84.56
347.08	100.56
347.308	89.56
347.535	70.56
347.763	89.56
347.99	96.56
348.218	95.56
348.445	99.56
348.673	95.56
348.9	90.56
349.128	87.56
349.355	85.56
349.583	98.56
349.81	99.56
350.037	96.56
350.265	107.56
350.492	98.56
350.72	107.56
350.947	89.56
351.174	96.56
351.402	114.56
351.629	93.56
351.856	98.56
352.083	92.56
352.311	101.56
352.538	88.56
352.765	101.56
352.992	100.56
353.22	93.56
353.447	79.56
353.674	106.56
353.901	99.56
354.128	106.56
354.355	100.56
354.583	109.56
354.81	99.56
355.037	94.56
355.264	90.56
355.491	105.56
355.718	84.56
355.945	107.56
356.172	99.56
356.399	106.56
356.626	91.56
356.853	90.56
357.08	96.56
357.307	87.56
357.534	81.56
357.761	86.56
357.988	91.56
358.215	100.56
358.441	85.56
358.668	99.56
358.895	90.56
359.122	90.56
359.349	78.56
359.576	85.56
359.802	90.56
360.029	93.56
360.256	96.56
360.483	99.56
360.709	94.56
360.936	108.56
361.163	108.56
361.39	81.56
361.616	103.56
361.843	95.56
362.07	87.56
362.296	85.56
362.523	101.56
362.749	89.56
362.976	80.56
363.203	89.56
363.429	83.56
363.656	99.56
363.882	88.56
364.109	101.56
364.335	89.56
364.562	81.56
364.788	106.56
365.015	95.56
365.241	109.56
365.468	107.56
365.694	92.56
365.92	99.56
366.147	96.56
366.373	95.56
366.599	87.56
366.826	74.56
367.052	80.56
367.278	82.56
367.505	84.56
367.731	84.56
367.957	92.56
368.184	103.56
368.41	103.56
368.636	105.56
368.862	124.56
369.089	93.56
369.315	74.56
369.541	99.56
369.767	85.56
369.993	96.56
370.219	92.56
370.445	86.56
370.672	81.56
370.898	83.56
371.124	105.56
371.35	79.56
371.576	91.56
371.802	83.56
372.028	87.56
372.254	77.56
372.48	100.56
372.706	95.56
372.932	88.56
373.158	85.56
373.384	99.56
373.61	96.56
373.835	94.56
374.061	80.56
374.287	98.56
374.513	96.56
374.739	94.56
374.965	88.56
375.191	89.56
375.416	104.56
375.642	105.56
375.868	98.56
376.094	92.56
376.319	79.56
376.545	88.56
376.771	85.56
376.997	99.56
377.222	104.56
377.448	102.56
377.674	96.56
377.899	82.56
378.125	100.56
378.35	105.56
378.576	95.56
378.802	94.56
379.027	77.56
379.253	92.56
379.478	90.56
379.704	96.56
379.929	91.56
380.155	86.56
380.38	108.56
380.606	96.56
380.831	91.56
381.057	82.56
381.282	98.56
381.507	96.56
381.733	90.56
381.958	96.56
382.184	82.56
382.409	90.56
382.634	100.56
382.86	104.56
383.085	97.56
383.31	107.56
383.535	96.56
383.761	111.56
383.986	88.56
384.211	100.56
384.436	98.56
384.662	98.56
384.887	93.56
385.112	90.56
385.337	110.56
385.562	106.56
385.787	99.56
386.013	115.56
386.238	108.56
386.463	103.56
386.688	110.56
386.913	100.56
387.138	98.56
387.363	101.56
387.588	95.56
387.813	106.56
388.038	95.56
388.263	117.56
388.488	103.56
388.713	99.56
388.938	107.56
389.163	98.56
389.387	104.56
389.612	85.56
389.837	98.56
390.062	117.56
390.287	101.56
390.512	83.56
390.736	103.56
390.961	98.56
391.186	83.56
391.411	86.56
391.636	96.56
391.86	91.56
392.085	83.56
392.31	92.56
392.534	90.56
392.759	91.56
392.984	82.56
393.208	89.56
393.433	99.56
393.658	103.56
393.882	98.56
394.107	97.56
394.331	95.56
394.556	75.56
394.78	82.56
395.005	94.56
395.229	94.56
395.454	79.56
395.678	87.56
395.903	91.56
396.127	86.56
396.352	86.56
396.576	77.56
396.801	82.56
397.025	91.56
397.249	97.56
397.474	89.56
397.698	84.56
397.922	91.56
398.147	96.56
398.371	91.56
398.595	75.56
398.82	81.56
399.044	88.56
399.268	89.56
399.492	98.56
399.717	93.56
399.941	82.56
400.165	73.56
400.389	87.56
400.613	77.56
400.837	79.56
401.062	90.56
401.286	71.56
401.51	83.56
401.734	77.56
401.958	83.56
402.182	123.56
402.406	154.56
402.63	122.56
402.854	96.56
403.078	88.56
403.302	77.56
403.526	90.56
403.75	98.56
403.974	81.56
404.198	82.56
404.422	83.56
404.645	102.56
404.869	90.56
405.093	79.56
405.317	100.56
405.541	102.56
405.765	97.56
405.988	106.56
406.212	151.56
406.436	217.56
406.66	139.56
406.883	100.56
407.107	87.56
407.331	94.56
407.555	103.56
407.778	96.56
408.002	92.56
408.226	82.56
408.449	93.56
408.673	87.56
408.896	90.56
409.12	87.56
409.344	95.56
409.567	84.56
409.791	87.56
410.014	98.56
410.238	100.56
410.461	84.56
410.685	81.56
410.908	100.56
411.132	79.56
411.355	89.56
411.578	96.56
411.802	90.56
412.025	94.56
412.249	80.56
412.472	95.56
412.695	74.56
412.919	72.56
413.142	89.56
413.365	82.56
413.589	71.56
413.812	91.56
414.035	89.56
414.258	87.56
414.482	80.56
414.705	88.56
414.928	85.56
415.151	88.56
415.374	83.56
415.597	89.56
415.821	83.56
416.044	87.56
416.267	86.56
416.49	100.56
416.713	100.56
416.936	91.56
417.159	96.56
417.382	90.56
417.605	87.56
417.828	79.56
418.051	98.56
418.274	85.56
418.497	93.56
418.72	97.56
418.943	88.56
419.166	89.56
419.389	99.56
419.611	84.56
419.834	81.56
420.057	94.56
420.28	93.56
420.503	81.56
420.726	85.56
420.948	92.56
421.171	91.56
421.394	91.56
421.617	88.56
421.839	101.56
422.062	79.56
422.285	96.56
422.507	87.56
422.73	108.56
422.953	95.56
423.175	97.56
423.398	83.56
423.621	91.56
423.843	82.56
424.066	87.56
424.288	95.56
424.511	95.56
424.733	73.56
424.956	100.56
425.178	106.56
425.401	95.56
425.623	96.56
425.846	94.56
426.068	97.56
426.291	92.56
426.513	83.56
426.735	99.56
426.958	92.56
427.18	100.56
427.402	108.56
427.625	155.56
427.847	128.56
428.069	107.56
428.292	90.56
428.514	67.56
428.736	95.56
428.958	85.56
429.181	80.56
429.403	86.56
429.625	84.56
429.847	108.56
430.069	90.56
430.292	95.56
430.514	90.56
430.736	82.56
430.958	86.56
431.18	97.56
431.402	86.56
431.624	97.56
431.846	87.56
432.068	95.56
432.29	82.56
432.512	95.56
432.734	79.56
432.956	86.56
433.178	93.56
433.4	102.56
433.622	97.56
433.844	75.56
434.066	96.56
434.287	92.56
434.509	97.56
434.731	91.56
434.953	106.56
435.175	81.56
435.397	85.56
435.618	91.56
435.84	80.56
436.062	99.56
436.284	99.56
436.505	97.56
436.727	84.56
436.949	92.56
437.17	95.56
437.392	83.56
437.614	86.56
437.835	99.56
438.057	115.56
438.278	93.56
438.5	98.56
438.721	105.56
438.943	102.56
439.165	99.56
439.386	92.56
439.608	93.56
439.829	105.56
440.05	116.56
440.272	127.56
440.493	103.56
440.715	85.56
440.936	97.56
441.158	85.56
441.379	78.56
441.6	88.56
441.822	92.56
442.043	94.56
442.264	107.56
442.486	103.56
442.707	95.56
442.928	92.56
443.149	123.56
443.371	136.56
443.592	107.56
443.813	106.56
444.034	105.56
444.255	87.56
444.476	82.56
444.698	90.56
444.919	92.56
445.14	122.56
445.361	124.56
445.582	100.56
445.803	128.56
446.024	106.56
446.245	121.56
446.466	114.56
446.687	89.56
446.908	79.56
447.129	96.56
447.35	93.56
447.571	94.56
447.792	97.56
448.013	98.56
448.234	108.56
448.455	93.56
448.675	90.56
448.896	104.56
449.117	89.56
449.338	103.56
449.559	125.56
449.779	113.56
450	86.56
450.221	97.56
450.442	90.56
450.662	91.56
450.883	107.56
451.104	106.56
451.324	96.56
451.545	87.56
451.766	79.56
451.986	82.56
452.207	91.56
452.428	95.56
452.648	107.56
452.869	104.56
453.089	123.56
453.31	111.56
453.53	88.56
453.751	94.56
453.971	114.56
454.192	100.56
454.412	87.56
454.633	87.56
454.853	79.56
455.073	90.56
455.294	96.56
455.514	87.56
455.734	81.56
455.955	97.56
456.175	87.56
456.395	79.56
456.616	86.56
456.836	91.56
457.056	87.56
457.276	99.56
457.497	82.56
457.717	79.56
457.937	83.56
458.157	80.56
458.377	88.56
458.598	107.56
458.818	132.56
459.038	141.56
459.258	117.56
459.478	87.56
459.698	93.56
459.918	80.56
460.138	87.56
460.358	81.56
460.578	98.56
460.798	87.56
461.018	82.56
461.238	99.56
461.458	96.56
461.678	93.56
461.898	98.56
462.118	83.56
462.338	84.56
462.558	77.56
462.777	88.56
462.997	87.56
463.217	68.56
463.437	104.56
463.657	89.56
463.876	100.56
464.096	97.56
464.316	83.56
464.536	85.56
464.755	82.56
464.975	98.56
465.195	171.56
465.414	159.56
465.634	108.56
465.854	86.56
466.073	82.56
466.293	70.56
466.512	81.56
466.732	85.56
466.951	90.56
467.171	95.56
467.391	89.56
467.61	99.56
467.829	100.56
468.049	135.56
468.268	141.56
468.488	99.56
468.707	90.56
468.927	77.56
469.146	95.56
469.365	87.56
469.585	86.56
469.804	103.56
470.023	99.56
470.243	96.56
470.462	96.56
470.681	101.56
470.901	91.56
471.12	88.56
471.339	104.56
471.558	88.56
471.777	89.56
471.997	128.56
472.216	188.56
472.435	293.56
472.654	116.56
472.873	87.56
473.092	89.56
473.311	87.56
473.53	77.56
473.749	85.56
473.968	84.56
474.187	100.56
474.406	95.56
474.625	83.56
474.844	80.56
475.063	94.56
475.282	90.56
475.501	86.56
475.72	81.56
475.939	99.56
476.158	77.56
476.377	84.56
476.596	87.56
476.814	84.56
477.033	80.56
477.252	100.56
477.471	96.56
477.69	88.56
477.908	93.56
478.127	100.56
478.346	83.56
478.564	94.56
478.783	99.56
479.002	94.56
479.22	80.56
479.439	96.56
479.658	91.56
479.876	98.56
480.095	89.56
480.313	84.56
480.532	97.56
480.751	108.56
480.969	166.56
481.188	494.56
481.406	307.56
481.624	110.56
481.843	75.56
482.061	91.56
482.28	104.56
482.498	90.56
482.717	84.56
482.935	101.56
483.153	87.56
483.372	95.56
483.59	87.56
483.808	93.56
484.027	102.56
484.245	84.56
484.463	81.56
484.681	99.56
484.9	79.56
485.118	100.56
485.336	83.56
485.554	83.56
485.772	110.56
485.99	96.56
486.209	106.56
486.427	104.56
486.645	124.56
486.863	113.56
487.081	96.56
487.299	100.56
487.517	92.56
487.735	90.56
487.953	99.56
488.171	94.56
488.389	83.56
488.607	88.56
488.825	93.56
489.043	94.56
489.261	87.56
489.479	80.56
489.696	94.56
489.914	91.56
490.132	84.56
490.35	79.56
490.568	89.56
490.786	105.56
491.003	97.56
491.221	74.56
491.439	83.56
491.657	102.56
491.874	99.56
492.092	104.56
492.31	99.56
492.527	92.56
492.745	86.56
492.963	101.56
493.18	96.56
493.398	81.56
493.615	82.56
493.833	94.56
494.05	83.56
494.268	92.56
494.485	90.56
494.703	83.56
494.92	89.56
495.138	75.56
495.355	97.56
495.573	99.56
495.79	90.56
496.008	97.56
496.225	90.56
496.442	106.56
496.66	101.56
496.877	77.56
497.094	95.56
497.312	90.56
497.529	90.56
497.746	94.56
497.963	79.56
498.181	87.56
498.398	98.56
498.615	111.56
498.832	88.56
499.049	100.56
499.267	79.56
499.484	76.56
499.701	95.56
499.918	100.56
500.135	97.56
500.352	102.56
500.569	101.56
500.786	78.56
501.003	83.56
501.22	79.56
501.437	79.56
501.654	80.56
501.871	111.56
502.088	102.56
502.305	98.56
502.522	89.56
502.739	97.56
502.956	90.56
503.172	92.56
503.389	98.56
503.606	106.56
503.823	103.56
504.04	84.56
504.256	96.56
504.473	83.56
504.69	79.56
504.907	75.56
505.123	76.56
505.34	85.56
505.557	92.56
505.773	88.56
505.99	86.56
506.207	69.56
506.423	98.56
506.64	94.56
506.856	91.56
507.073	107.56
507.289	96.56
507.506	93.56
507.722	107.56
507.939	89.56
508.155	100.56
508.372	83.56
508.588	99.56
508.805	107.56
509.021	120.56
509.238	110.56
509.454	106.56
509.67	102.56
509.887	104.56
510.103	128.56
510.319	210.56
510.536	791.56
510.752	2597.56
510.968	706.56
511.184	165.56
511.401	110.56
511.617	105.56
511.833	88.56
512.049	91.56
512.265	90.56
512.481	103.56
512.698	87.56
512.914	83.56
513.13	84.56
513.346	89.56
513.562	104.56
513.778	92.56
513.994	91.56
514.21	98.56
514.426	111.56
514.642	136.56
514.858	124.56
515.074	161.56
515.29	443.56
515.506	1459.56
515.721	515.56
515.937	148.56
