Data from Circ_1996_H10_HRD10591_00036.txt Node
Date: Wed Jan 03 11:33:13 EST 2024
User: Yrep
Spectrometer: HR+D1059
Trigger mode: 1
Integration Time (sec): 1.000000E-1
Scans to average: 1
Electric dark correction enabled: true
Nonlinearity correction enabled: false
Boxcar width: 0
XAxis mode: Wavelengths
Number of Pixels in Spectrum: 2048
>>>>>Begin Spectral Data<<<<<
223.165	-14.62
223.4	-14.62
223.635	-14.62
223.869	-14.62
224.104	-9.62
224.338	-15.62
224.573	-18.62
224.808	-21.62
225.042	-9.62
225.277	3.38
225.511	-16.62
225.746	5.38
225.98	13.38
226.215	14.38
226.449	23.38
226.683	17.38
226.918	25.38
227.152	18.38
227.387	34.38
227.621	35.38
227.856	50.38
228.09	47.38
228.324	39.38
228.559	58.38
228.793	56.38
229.027	54.38
229.262	55.38
229.496	71.38
229.73	77.38
229.964	81.38
230.199	69.38
230.433	81.38
230.667	91.38
230.901	87.38
231.136	77.38
231.37	84.38
231.604	74.38
231.838	79.38
232.072	60.38
232.306	71.38
232.541	69.38
232.775	66.38
233.009	79.38
233.243	77.38
233.477	63.38
233.711	86.38
233.945	97.38
234.179	87.38
234.413	79.38
234.647	81.38
234.881	78.38
235.115	86.38
235.349	94.38
235.583	72.38
235.817	73.38
236.051	88.38
236.285	80.38
236.519	78.38
236.753	85.38
236.987	81.38
237.221	67.38
237.455	72.38
237.689	89.38
237.922	97.38
238.156	71.38
238.39	71.38
238.624	70.38
238.858	81.38
239.091	70.38
239.325	63.38
239.559	73.38
239.793	70.38
240.027	66.38
240.26	75.38
240.494	86.38
240.728	85.38
240.961	72.38
241.195	85.38
241.429	62.38
241.662	67.38
241.896	77.38
242.13	71.38
242.363	70.38
242.597	81.38
242.83	75.38
243.064	75.38
243.298	69.38
243.531	67.38
243.765	83.38
243.998	79.38
244.232	85.38
244.465	87.38
244.699	76.38
244.932	87.38
245.166	64.38
245.399	69.38
245.633	67.38
245.866	85.38
246.099	69.38
246.333	70.38
246.566	78.38
246.8	81.38
247.033	68.38
247.266	65.38
247.5	87.38
247.733	77.38
247.966	71.38
248.2	87.38
248.433	80.38
248.666	75.38
248.899	81.38
249.133	79.38
249.366	77.38
249.599	96.38
249.832	70.38
250.066	71.38
250.299	82.38
250.532	81.38
250.765	80.38
250.998	77.38
251.231	76.38
251.465	81.38
251.698	73.38
251.931	72.38
252.164	84.38
252.397	66.38
252.63	71.38
252.863	81.38
253.096	78.38
253.329	83.38
253.562	62.38
253.795	69.38
254.028	82.38
254.261	81.38
254.494	80.38
254.727	73.38
254.96	82.38
255.193	88.38
255.426	68.38
255.659	79.38
255.892	79.38
256.124	74.38
256.357	85.38
256.59	86.38
256.823	76.38
257.056	73.38
257.289	79.38
257.521	79.38
257.754	70.38
257.987	76.38
258.22	77.38
258.452	80.38
258.685	90.38
258.918	91.38
259.151	83.38
259.383	78.38
259.616	76.38
259.849	89.38
260.081	78.38
260.314	79.38
260.547	79.38
260.779	91.38
261.012	86.38
261.244	96.38
261.477	62.38
261.71	81.38
261.942	107.38
262.175	108.38
262.407	95.38
262.64	87.38
262.872	76.38
263.105	85.38
263.337	79.38
263.57	78.38
263.802	79.38
264.035	78.38
264.267	90.38
264.499	76.38
264.732	75.38
264.964	81.38
265.197	77.38
265.429	62.38
265.661	79.38
265.894	81.38
266.126	85.38
266.358	73.38
266.591	90.38
266.823	93.38
267.055	81.38
267.287	96.38
267.52	94.38
267.752	67.38
267.984	88.38
268.216	78.38
268.448	83.38
268.681	89.38
268.913	92.38
269.145	81.38
269.377	81.38
269.609	79.38
269.841	77.38
270.073	83.38
270.306	74.38
270.538	75.38
270.77	87.38
271.002	78.38
271.234	76.38
271.466	85.38
271.698	85.38
271.93	85.38
272.162	81.38
272.394	83.38
272.626	90.38
272.858	94.38
273.09	99.38
273.322	89.38
273.553	86.38
273.785	86.38
274.017	67.38
274.249	65.38
274.481	74.38
274.713	90.38
274.945	80.38
275.176	84.38
275.408	84.38
275.64	82.38
275.872	80.38
276.104	87.38
276.335	84.38
276.567	99.38
276.799	116.38
277.031	83.38
277.262	96.38
277.494	88.38
277.726	84.38
277.957	86.38
278.189	89.38
278.421	86.38
278.652	83.38
278.884	81.38
279.115	81.38
279.347	87.38
279.579	95.38
279.81	88.38
280.042	88.38
280.273	81.38
280.505	80.38
280.736	82.38
280.968	94.38
281.199	101.38
281.431	96.38
281.662	93.38
281.894	87.38
282.125	103.38
282.356	107.38
282.588	135.38
282.819	115.38
283.051	93.38
283.282	91.38
283.513	96.38
283.745	82.38
283.976	86.38
284.207	97.38
284.439	77.38
284.67	101.38
284.901	98.38
285.132	91.38
285.364	78.38
285.595	91.38
285.826	78.38
286.057	78.38
286.288	87.38
286.52	92.38
286.751	92.38
286.982	99.38
287.213	90.38
287.444	88.38
287.675	97.38
287.906	98.38
288.138	76.38
288.369	86.38
288.6	94.38
288.831	87.38
289.062	100.38
289.293	82.38
289.524	89.38
289.755	91.38
289.986	99.38
290.217	71.38
290.448	86.38
290.679	89.38
290.91	86.38
291.141	85.38
291.371	98.38
291.602	92.38
291.833	91.38
292.064	88.38
292.295	98.38
292.526	81.38
292.757	92.38
292.987	85.38
293.218	92.38
293.449	87.38
293.68	97.38
293.91	98.38
294.141	77.38
294.372	85.38
294.603	80.38
294.833	89.38
295.064	73.38
295.295	87.38
295.525	86.38
295.756	99.38
295.987	117.38
296.217	125.38
296.448	127.38
296.679	90.38
296.909	89.38
297.14	96.38
297.37	76.38
297.601	88.38
297.831	85.38
298.062	93.38
298.292	84.38
298.523	78.38
298.753	74.38
298.984	89.38
299.214	93.38
299.445	95.38
299.675	90.38
299.905	89.38
300.136	87.38
300.366	98.38
300.597	89.38
300.827	93.38
301.057	87.38
301.288	106.38
301.518	93.38
301.748	75.38
301.979	93.38
302.209	73.38
302.439	89.38
302.669	80.38
302.9	74.38
303.13	107.38
303.36	94.38
303.59	106.38
303.82	101.38
304.051	95.38
304.281	81.38
304.511	90.38
304.741	93.38
304.971	73.38
305.201	93.38
305.431	83.38
305.661	89.38
305.891	94.38
306.121	97.38
306.352	97.38
306.582	97.38
306.812	103.38
307.042	88.38
307.272	109.38
307.502	109.38
307.731	90.38
307.961	107.38
308.191	95.38
308.421	84.38
308.651	89.38
308.881	102.38
309.111	90.38
309.341	89.38
309.571	86.38
309.8	87.38
310.03	91.38
310.26	104.38
310.49	103.38
310.72	106.38
310.949	114.38
311.179	105.38
311.409	106.38
311.639	105.38
311.868	79.38
312.098	81.38
312.328	85.38
312.557	90.38
312.787	98.38
313.017	96.38
313.246	83.38
313.476	79.38
313.706	90.38
313.935	85.38
314.165	94.38
314.394	103.38
314.624	91.38
314.853	90.38
315.083	95.38
315.312	103.38
315.542	91.38
315.771	94.38
316.001	88.38
316.23	89.38
316.46	97.38
316.689	86.38
316.919	102.38
317.148	96.38
317.377	103.38
317.607	101.38
317.836	84.38
318.065	88.38
318.295	98.38
318.524	80.38
318.753	91.38
318.983	90.38
319.212	101.38
319.441	97.38
319.67	91.38
319.9	98.38
320.129	97.38
320.358	100.38
320.587	101.38
320.816	90.38
321.046	101.38
321.275	90.38
321.504	91.38
321.733	99.38
321.962	97.38
322.191	97.38
322.42	96.38
322.649	98.38
322.878	111.38
323.108	112.38
323.337	117.38
323.566	107.38
323.795	126.38
324.024	168.38
324.253	302.38
324.482	606.38
324.71	1165.38
324.939	1499.38
325.168	591.38
325.397	206.38
325.626	133.38
325.855	113.38
326.084	119.38
326.313	121.38
326.542	126.38
326.77	186.38
326.999	335.38
327.228	640.38
327.457	1102.38
327.686	856.38
327.914	294.38
328.143	179.38
328.372	165.38
328.6	126.38
328.829	119.38
329.058	110.38
329.287	136.38
329.515	119.38
329.744	105.38
329.972	127.38
330.201	141.38
330.43	177.38
330.658	141.38
330.887	142.38
331.115	114.38
331.344	105.38
331.572	104.38
331.801	92.38
332.03	104.38
332.258	105.38
332.486	88.38
332.715	93.38
332.943	109.38
333.172	95.38
333.4	94.38
333.629	107.38
333.857	115.38
334.085	129.38
334.314	142.38
334.542	201.38
334.771	187.38
334.999	107.38
335.227	95.38
335.455	82.38
335.684	103.38
335.912	97.38
336.14	93.38
336.369	108.38
336.597	89.38
336.825	120.38
337.053	95.38
337.281	89.38
337.51	97.38
337.738	90.38
337.966	87.38
338.194	86.38
338.422	80.38
338.65	97.38
338.878	93.38
339.106	90.38
339.334	87.38
339.562	89.38
339.79	86.38
340.018	76.38
340.246	79.38
340.474	84.38
340.702	81.38
340.93	87.38
341.158	94.38
341.386	91.38
341.614	96.38
341.842	98.38
342.07	98.38
342.298	97.38
342.526	92.38
342.754	93.38
342.981	92.38
343.209	102.38
343.437	104.38
343.665	82.38
343.893	86.38
344.12	87.38
344.348	88.38
344.576	109.38
344.804	98.38
345.031	100.38
345.259	99.38
345.487	82.38
345.714	73.38
345.942	93.38
346.17	110.38
346.397	86.38
346.625	91.38
346.853	93.38
347.08	83.38
347.308	96.38
347.535	105.38
347.763	96.38
347.99	91.38
348.218	86.38
348.445	87.38
348.673	93.38
348.9	88.38
349.128	109.38
349.355	93.38
349.583	96.38
349.81	79.38
350.037	94.38
350.265	80.38
350.492	96.38
350.72	91.38
350.947	93.38
351.174	113.38
351.402	110.38
351.629	117.38
351.856	90.38
352.083	96.38
352.311	98.38
352.538	95.38
352.765	96.38
352.992	105.38
353.22	115.38
353.447	106.38
353.674	105.38
353.901	94.38
354.128	83.38
354.355	94.38
354.583	104.38
354.81	105.38
355.037	93.38
355.264	81.38
355.491	98.38
355.718	90.38
355.945	85.38
356.172	91.38
356.399	101.38
356.626	90.38
356.853	103.38
357.08	94.38
357.307	93.38
357.534	86.38
357.761	91.38
357.988	88.38
358.215	95.38
358.441	90.38
358.668	92.38
358.895	93.38
359.122	95.38
359.349	90.38
359.576	94.38
359.802	90.38
360.029	94.38
360.256	107.38
360.483	90.38
360.709	77.38
360.936	85.38
361.163	108.38
361.39	87.38
361.616	99.38
361.843	96.38
362.07	81.38
362.296	86.38
362.523	79.38
362.749	89.38
362.976	84.38
363.203	102.38
363.429	81.38
363.656	79.38
363.882	96.38
364.109	93.38
364.335	83.38
364.562	80.38
364.788	80.38
365.015	91.38
365.241	100.38
365.468	105.38
365.694	95.38
365.92	96.38
366.147	96.38
366.373	106.38
366.599	90.38
366.826	81.38
367.052	82.38
367.278	94.38
367.505	89.38
367.731	81.38
367.957	85.38
368.184	89.38
368.41	95.38
368.636	112.38
368.862	116.38
369.089	104.38
369.315	80.38
369.541	97.38
369.767	87.38
369.993	87.38
370.219	94.38
370.445	81.38
370.672	97.38
370.898	98.38
371.124	100.38
371.35	89.38
371.576	91.38
371.802	77.38
372.028	71.38
372.254	88.38
372.48	89.38
372.706	80.38
372.932	92.38
373.158	84.38
373.384	93.38
373.61	96.38
373.835	74.38
374.061	87.38
374.287	76.38
374.513	77.38
374.739	101.38
374.965	97.38
375.191	89.38
375.416	98.38
375.642	89.38
375.868	88.38
376.094	83.38
376.319	87.38
376.545	77.38
376.771	79.38
376.997	87.38
377.222	96.38
377.448	101.38
377.674	94.38
377.899	89.38
378.125	82.38
378.35	86.38
378.576	97.38
378.802	99.38
379.027	96.38
379.253	85.38
379.478	86.38
379.704	95.38
379.929	76.38
380.155	94.38
380.38	66.38
380.606	81.38
380.831	104.38
381.057	98.38
381.282	88.38
381.507	96.38
381.733	97.38
381.958	94.38
382.184	105.38
382.409	96.38
382.634	104.38
382.86	93.38
383.085	94.38
383.31	109.38
383.535	96.38
383.761	99.38
383.986	91.38
384.211	102.38
384.436	101.38
384.662	100.38
384.887	104.38
385.112	100.38
385.337	96.38
385.562	76.38
385.787	101.38
386.013	108.38
386.238	117.38
386.463	106.38
386.688	119.38
386.913	100.38
387.138	108.38
387.363	118.38
387.588	92.38
387.813	103.38
388.038	117.38
388.263	116.38
388.488	121.38
388.713	106.38
388.938	98.38
389.163	105.38
389.387	99.38
389.612	91.38
389.837	97.38
390.062	84.38
390.287	89.38
390.512	94.38
390.736	86.38
390.961	90.38
391.186	86.38
391.411	83.38
391.636	97.38
391.86	93.38
392.085	89.38
392.31	83.38
392.534	82.38
392.759	90.38
392.984	97.38
393.208	85.38
393.433	96.38
393.658	85.38
393.882	82.38
394.107	75.38
394.331	66.38
394.556	97.38
394.78	90.38
395.005	84.38
395.229	89.38
395.454	94.38
395.678	76.38
395.903	97.38
396.127	88.38
396.352	88.38
396.576	94.38
396.801	97.38
397.025	86.38
397.249	82.38
397.474	71.38
397.698	81.38
397.922	74.38
398.147	70.38
398.371	90.38
398.595	77.38
398.82	80.38
399.044	77.38
399.268	91.38
399.492	92.38
399.717	88.38
399.941	88.38
400.165	79.38
400.389	92.38
400.613	82.38
400.837	90.38
401.062	86.38
401.286	96.38
401.51	90.38
401.734	86.38
401.958	89.38
402.182	121.38
402.406	139.38
402.63	105.38
402.854	86.38
403.078	83.38
403.302	81.38
403.526	78.38
403.75	82.38
403.974	72.38
404.198	80.38
404.422	91.38
404.645	82.38
404.869	84.38
405.093	82.38
405.317	110.38
405.541	88.38
405.765	100.38
405.988	110.38
406.212	166.38
406.436	217.38
406.66	134.38
406.883	116.38
407.107	86.38
407.331	87.38
407.555	96.38
407.778	107.38
408.002	104.38
408.226	90.38
408.449	84.38
408.673	91.38
408.896	90.38
409.12	88.38
409.344	101.38
409.567	87.38
409.791	85.38
410.014	99.38
410.238	104.38
410.461	96.38
410.685	82.38
410.908	95.38
411.132	92.38
411.355	81.38
411.578	95.38
411.802	95.38
412.025	90.38
412.249	89.38
412.472	86.38
412.695	101.38
412.919	79.38
413.142	96.38
413.365	87.38
413.589	90.38
413.812	98.38
414.035	93.38
414.258	79.38
414.482	85.38
414.705	95.38
414.928	89.38
415.151	83.38
415.374	99.38
415.597	85.38
415.821	80.38
416.044	77.38
416.267	90.38
416.49	92.38
416.713	90.38
416.936	97.38
417.159	76.38
417.382	85.38
417.605	90.38
417.828	99.38
418.051	87.38
418.274	87.38
418.497	77.38
418.72	74.38
418.943	85.38
419.166	80.38
419.389	91.38
419.611	93.38
419.834	82.38
420.057	85.38
420.28	81.38
420.503	100.38
420.726	90.38
420.948	93.38
421.171	90.38
421.394	85.38
421.617	90.38
421.839	84.38
422.062	80.38
422.285	91.38
422.507	122.38
422.73	107.38
422.953	88.38
423.175	96.38
423.398	80.38
423.621	88.38
423.843	95.38
424.066	96.38
424.288	80.38
424.511	74.38
424.733	86.38
424.956	90.38
425.178	83.38
425.401	104.38
425.623	90.38
425.846	100.38
426.068	98.38
426.291	92.38
426.513	81.38
426.735	97.38
426.958	80.38
427.18	109.38
427.402	127.38
427.625	135.38
427.847	138.38
428.069	103.38
428.292	84.38
428.514	86.38
428.736	81.38
428.958	73.38
429.181	84.38
429.403	73.38
429.625	80.38
429.847	82.38
430.069	78.38
430.292	80.38
430.514	79.38
430.736	78.38
430.958	95.38
431.18	82.38
431.402	88.38
431.624	88.38
431.846	80.38
432.068	83.38
432.29	97.38
432.512	80.38
432.734	81.38
432.956	81.38
433.178	73.38
433.4	104.38
433.622	103.38
433.844	89.38
434.066	92.38
434.287	85.38
434.509	80.38
434.731	77.38
434.953	85.38
435.175	87.38
435.397	93.38
435.618	73.38
435.84	85.38
436.062	100.38
436.284	88.38
436.505	93.38
436.727	89.38
436.949	89.38
437.17	89.38
437.392	85.38
437.614	86.38
437.835	98.38
438.057	102.38
438.278	105.38
438.5	77.38
438.721	103.38
438.943	96.38
439.165	76.38
439.386	88.38
439.608	100.38
439.829	77.38
440.05	103.38
440.272	113.38
440.493	83.38
440.715	84.38
440.936	77.38
441.158	95.38
441.379	80.38
441.6	86.38
441.822	78.38
442.043	93.38
442.264	98.38
442.486	97.38
442.707	97.38
442.928	103.38
443.149	125.38
443.371	131.38
443.592	111.38
443.813	108.38
444.034	96.38
444.255	83.38
444.476	93.38
444.698	92.38
444.919	95.38
445.14	130.38
445.361	108.38
445.582	106.38
445.803	102.38
446.024	105.38
446.245	122.38
446.466	101.38
446.687	86.38
446.908	106.38
447.129	97.38
447.35	95.38
447.571	93.38
447.792	103.38
448.013	92.38
448.234	98.38
448.455	81.38
448.675	106.38
448.896	95.38
449.117	107.38
449.338	93.38
449.559	114.38
449.779	104.38
450	78.38
450.221	83.38
450.442	77.38
450.662	87.38
450.883	112.38
451.104	91.38
451.324	96.38
451.545	94.38
451.766	90.38
451.986	71.38
452.207	80.38
452.428	85.38
452.648	105.38
452.869	94.38
453.089	100.38
453.31	95.38
453.53	90.38
453.751	87.38
453.971	87.38
454.192	107.38
454.412	95.38
454.633	78.38
454.853	84.38
455.073	95.38
455.294	81.38
455.514	98.38
455.734	85.38
455.955	89.38
456.175	94.38
456.395	83.38
456.616	73.38
456.836	90.38
457.056	77.38
457.276	79.38
457.497	75.38
457.717	80.38
457.937	90.38
458.157	83.38
458.377	96.38
458.598	97.38
458.818	127.38
459.038	152.38
459.258	111.38
459.478	79.38
459.698	95.38
459.918	86.38
460.138	82.38
460.358	95.38
460.578	95.38
460.798	95.38
461.018	82.38
461.238	81.38
461.458	85.38
461.678	65.38
461.898	81.38
462.118	80.38
462.338	88.38
462.558	91.38
462.777	92.38
462.997	97.38
463.217	81.38
463.437	86.38
463.657	93.38
463.876	92.38
464.096	69.38
464.316	88.38
464.536	94.38
464.755	96.38
464.975	90.38
465.195	144.38
465.414	119.38
465.634	98.38
465.854	74.38
466.073	65.38
466.293	82.38
466.512	82.38
466.732	94.38
466.951	80.38
467.171	88.38
467.391	84.38
467.61	109.38
467.829	93.38
468.049	107.38
468.268	108.38
468.488	84.38
468.707	103.38
468.927	70.38
469.146	88.38
469.365	79.38
469.585	104.38
469.804	82.38
470.023	92.38
470.243	90.38
470.462	99.38
470.681	99.38
470.901	86.38
471.12	79.38
471.339	86.38
471.558	72.38
471.777	82.38
471.997	100.38
472.216	164.38
472.435	241.38
472.654	110.38
472.873	77.38
473.092	82.38
473.311	89.38
473.53	81.38
473.749	96.38
473.968	87.38
474.187	100.38
474.406	93.38
474.625	82.38
474.844	82.38
475.063	66.38
475.282	86.38
475.501	81.38
475.72	81.38
475.939	71.38
476.158	89.38
476.377	78.38
476.596	85.38
476.814	93.38
477.033	82.38
477.252	81.38
477.471	92.38
477.69	80.38
477.908	96.38
478.127	97.38
478.346	80.38
478.564	90.38
478.783	89.38
479.002	86.38
479.22	88.38
479.439	103.38
479.658	103.38
479.876	91.38
480.095	93.38
480.313	85.38
480.532	89.38
480.751	91.38
480.969	149.38
481.188	370.38
481.406	238.38
481.624	97.38
481.843	85.38
482.061	87.38
482.28	87.38
482.498	92.38
482.717	90.38
482.935	93.38
483.153	94.38
483.372	93.38
483.59	86.38
483.808	98.38
484.027	96.38
484.245	79.38
484.463	85.38
484.681	96.38
484.9	69.38
485.118	90.38
485.336	91.38
485.554	93.38
485.772	94.38
485.99	95.38
486.209	107.38
486.427	97.38
486.645	100.38
486.863	110.38
487.081	97.38
487.299	89.38
487.517	105.38
487.735	95.38
487.953	84.38
488.171	83.38
488.389	92.38
488.607	90.38
488.825	100.38
489.043	74.38
489.261	92.38
489.479	84.38
489.696	86.38
489.914	92.38
490.132	82.38
490.35	85.38
490.568	74.38
490.786	71.38
491.003	90.38
491.221	76.38
491.439	94.38
491.657	86.38
491.874	87.38
492.092	76.38
492.31	83.38
492.527	88.38
492.745	85.38
492.963	82.38
493.18	86.38
493.398	92.38
493.615	98.38
493.833	89.38
494.05	78.38
494.268	72.38
494.485	80.38
494.703	91.38
494.92	100.38
495.138	89.38
495.355	83.38
495.573	93.38
495.79	87.38
496.008	78.38
496.225	67.38
496.442	85.38
496.66	90.38
496.877	82.38
497.094	91.38
497.312	94.38
497.529	87.38
497.746	85.38
497.963	82.38
498.181	87.38
498.398	91.38
498.615	115.38
498.832	89.38
499.049	97.38
499.267	86.38
499.484	85.38
499.701	94.38
499.918	97.38
500.135	102.38
500.352	97.38
500.569	97.38
500.786	85.38
501.003	98.38
501.22	81.38
501.437	80.38
501.654	95.38
501.871	110.38
502.088	82.38
502.305	90.38
502.522	90.38
502.739	94.38
502.956	91.38
503.172	87.38
503.389	104.38
503.606	96.38
503.823	98.38
504.04	93.38
504.256	93.38
504.473	86.38
504.69	95.38
504.907	81.38
505.123	80.38
505.34	89.38
505.557	87.38
505.773	94.38
505.99	81.38
506.207	76.38
506.423	95.38
506.64	80.38
506.856	90.38
507.073	83.38
507.289	105.38
507.506	101.38
507.722	105.38
507.939	104.38
508.155	90.38
508.372	88.38
508.588	80.38
508.805	85.38
509.021	101.38
509.238	89.38
509.454	104.38
509.67	90.38
509.887	101.38
510.103	130.38
510.319	198.38
510.536	735.38
510.752	2338.38
510.968	653.38
511.184	160.38
511.401	107.38
511.617	91.38
511.833	101.38
512.049	85.38
512.265	88.38
512.481	88.38
512.698	86.38
512.914	86.38
513.13	74.38
513.346	94.38
513.562	99.38
513.778	105.38
513.994	89.38
514.21	105.38
514.426	116.38
514.642	127.38
514.858	111.38
515.074	151.38
515.29	413.38
515.506	1339.38
515.721	494.38
515.937	149.38
516.153	116.38
516.369	101.38
