Data from Circ_1996_H10_HRD10591_00049.txt Node
Date: Wed Jan 03 11:33:15 EST 2024
User: Yrep
Spectrometer: HR+D1059
Trigger mode: 1
Integration Time (sec): 1.000000E-1
Scans to average: 1
Electric dark correction enabled: true
Nonlinearity correction enabled: false
Boxcar width: 0
XAxis mode: Wavelengths
Number of Pixels in Spectrum: 2048
>>>>>Begin Spectral Data<<<<<
223.165	-18.69
223.4	-18.69
223.635	-18.69
223.869	-10.69
224.104	-9.69
224.338	-13.69
224.573	-22.69
224.808	-22.69
225.042	-15.69
225.277	-13.69
225.511	-3.69
225.746	3.31
225.98	4.31
226.215	19.31
226.449	19.31
226.683	9.31
226.918	40.31
227.152	35.31
227.387	35.31
227.621	43.31
227.856	49.31
228.09	47.31
228.324	65.31
228.559	77.31
228.793	61.31
229.027	76.31
229.262	78.31
229.496	69.31
229.73	68.31
229.964	82.31
230.199	74.31
230.433	69.31
230.667	77.31
230.901	69.31
231.136	77.31
231.37	81.31
231.604	66.31
231.838	93.31
232.072	87.31
232.306	90.31
232.541	82.31
232.775	78.31
233.009	87.31
233.243	77.31
233.477	95.31
233.711	80.31
233.945	79.31
234.179	74.31
234.413	83.31
234.647	73.31
234.881	87.31
235.115	82.31
235.349	79.31
235.583	79.31
235.817	88.31
236.051	65.31
236.285	81.31
236.519	75.31
236.753	78.31
236.987	82.31
237.221	83.31
237.455	73.31
237.689	81.31
237.922	83.31
238.156	87.31
238.39	81.31
238.624	84.31
238.858	66.31
239.091	88.31
239.325	79.31
239.559	81.31
239.793	86.31
240.027	74.31
240.26	69.31
240.494	96.31
240.728	78.31
240.961	77.31
241.195	89.31
241.429	82.31
241.662	67.31
241.896	78.31
242.13	65.31
242.363	78.31
242.597	88.31
242.83	80.31
243.064	94.31
243.298	67.31
243.531	93.31
243.765	75.31
243.998	93.31
244.232	80.31
244.465	83.31
244.699	97.31
244.932	89.31
245.166	79.31
245.399	63.31
245.633	70.31
245.866	73.31
246.099	85.31
246.333	78.31
246.566	78.31
246.8	76.31
247.033	81.31
247.266	85.31
247.5	93.31
247.733	83.31
247.966	80.31
248.2	84.31
248.433	78.31
248.666	83.31
248.899	77.31
249.133	77.31
249.366	87.31
249.599	88.31
249.832	83.31
250.066	83.31
250.299	86.31
250.532	83.31
250.765	83.31
250.998	77.31
251.231	78.31
251.465	75.31
251.698	92.31
251.931	85.31
252.164	84.31
252.397	77.31
252.63	88.31
252.863	85.31
253.096	89.31
253.329	79.31
253.562	79.31
253.795	82.31
254.028	94.31
254.261	75.31
254.494	77.31
254.727	80.31
254.96	84.31
255.193	72.31
255.426	77.31
255.659	70.31
255.892	86.31
256.124	87.31
256.357	86.31
256.59	80.31
256.823	85.31
257.056	89.31
257.289	78.31
257.521	85.31
257.754	87.31
257.987	89.31
258.22	80.31
258.452	77.31
258.685	85.31
258.918	90.31
259.151	89.31
259.383	96.31
259.616	86.31
259.849	91.31
260.081	78.31
260.314	90.31
260.547	79.31
260.779	76.31
261.012	87.31
261.244	84.31
261.477	80.31
261.71	102.31
261.942	112.31
262.175	117.31
262.407	98.31
262.64	96.31
262.872	94.31
263.105	84.31
263.337	91.31
263.57	87.31
263.802	96.31
264.035	90.31
264.267	81.31
264.499	94.31
264.732	94.31
264.964	86.31
265.197	83.31
265.429	80.31
265.661	71.31
265.894	86.31
266.126	93.31
266.358	93.31
266.591	88.31
266.823	72.31
267.055	73.31
267.287	90.31
267.52	83.31
267.752	90.31
267.984	92.31
268.216	106.31
268.448	86.31
268.681	80.31
268.913	74.31
269.145	89.31
269.377	80.31
269.609	85.31
269.841	88.31
270.073	98.31
270.306	95.31
270.538	81.31
270.77	89.31
271.002	93.31
271.234	82.31
271.466	89.31
271.698	75.31
271.93	76.31
272.162	81.31
272.394	81.31
272.626	83.31
272.858	95.31
273.09	88.31
273.322	85.31
273.553	80.31
273.785	84.31
274.017	94.31
274.249	82.31
274.481	89.31
274.713	90.31
274.945	94.31
275.176	89.31
275.408	85.31
275.64	86.31
275.872	101.31
276.104	95.31
276.335	94.31
276.567	103.31
276.799	109.31
277.031	111.31
277.262	115.31
277.494	92.31
277.726	87.31
277.957	93.31
278.189	92.31
278.421	77.31
278.652	88.31
278.884	89.31
279.115	78.31
279.347	83.31
279.579	95.31
279.81	74.31
280.042	89.31
280.273	107.31
280.505	85.31
280.736	96.31
280.968	85.31
281.199	90.31
281.431	88.31
281.662	94.31
281.894	96.31
282.125	97.31
282.356	117.31
282.588	147.31
282.819	119.31
283.051	95.31
283.282	83.31
283.513	92.31
283.745	95.31
283.976	90.31
284.207	89.31
284.439	97.31
284.67	93.31
284.901	89.31
285.132	91.31
285.364	90.31
285.595	96.31
285.826	97.31
286.057	90.31
286.288	76.31
286.52	89.31
286.751	87.31
286.982	84.31
287.213	82.31
287.444	89.31
287.675	95.31
287.906	97.31
288.138	108.31
288.369	101.31
288.6	85.31
288.831	74.31
289.062	88.31
289.293	88.31
289.524	80.31
289.755	78.31
289.986	89.31
290.217	90.31
290.448	80.31
290.679	84.31
290.91	95.31
291.141	94.31
291.371	98.31
291.602	103.31
291.833	97.31
292.064	98.31
292.295	88.31
292.526	81.31
292.757	95.31
292.987	87.31
293.218	90.31
293.449	87.31
293.68	89.31
293.91	83.31
294.141	81.31
294.372	84.31
294.603	104.31
294.833	86.31
295.064	91.31
295.295	91.31
295.525	93.31
295.756	109.31
295.987	123.31
296.217	141.31
296.448	129.31
296.679	97.31
296.909	85.31
297.14	95.31
297.37	98.31
297.601	97.31
297.831	81.31
298.062	84.31
298.292	83.31
298.523	93.31
298.753	108.31
298.984	73.31
299.214	97.31
299.445	78.31
299.675	79.31
299.905	89.31
300.136	89.31
300.366	98.31
300.597	96.31
300.827	95.31
301.057	113.31
301.288	111.31
301.518	94.31
301.748	97.31
301.979	103.31
302.209	89.31
302.439	99.31
302.669	98.31
302.9	94.31
303.13	93.31
303.36	85.31
303.59	101.31
303.82	115.31
304.051	85.31
304.281	82.31
304.511	99.31
304.741	103.31
304.971	90.31
305.201	85.31
305.431	97.31
305.661	82.31
305.891	87.31
306.121	96.31
306.352	85.31
306.582	101.31
306.812	101.31
307.042	106.31
307.272	103.31
307.502	107.31
307.731	110.31
307.961	83.31
308.191	100.31
308.421	87.31
308.651	82.31
308.881	103.31
309.111	100.31
309.341	93.31
309.571	93.31
309.8	95.31
310.03	88.31
310.26	84.31
310.49	89.31
310.72	94.31
310.949	90.31
311.179	95.31
311.409	90.31
311.639	101.31
311.868	99.31
312.098	101.31
312.328	101.31
312.557	100.31
312.787	103.31
313.017	93.31
313.246	98.31
313.476	93.31
313.706	99.31
313.935	101.31
314.165	105.31
314.394	99.31
314.624	89.31
314.853	93.31
315.083	100.31
315.312	111.31
315.542	97.31
315.771	101.31
316.001	100.31
316.23	91.31
316.46	86.31
316.689	85.31
316.919	81.31
317.148	89.31
317.377	103.31
317.607	94.31
317.836	83.31
318.065	85.31
318.295	86.31
318.524	93.31
318.753	93.31
318.983	88.31
319.212	103.31
319.441	124.31
319.67	100.31
319.9	99.31
320.129	85.31
320.358	97.31
320.587	90.31
320.816	93.31
321.046	105.31
321.275	96.31
321.504	99.31
321.733	99.31
321.962	102.31
322.191	114.31
322.42	103.31
322.649	112.31
322.878	95.31
323.108	114.31
323.337	118.31
323.566	128.31
323.795	139.31
324.024	175.31
324.253	325.31
324.482	630.31
324.71	1249.31
324.939	1658.31
325.168	660.31
325.397	220.31
325.626	133.31
325.855	128.31
326.084	116.31
326.313	131.31
326.542	146.31
326.77	179.31
326.999	337.31
327.228	683.31
327.457	1191.31
327.686	956.31
327.914	309.31
328.143	178.31
328.372	174.31
328.6	142.31
328.829	129.31
329.058	124.31
329.287	135.31
329.515	128.31
329.744	120.31
329.972	134.31
330.201	166.31
330.43	191.31
330.658	160.31
330.887	152.31
331.115	110.31
331.344	113.31
331.572	97.31
331.801	111.31
332.03	100.31
332.258	107.31
332.486	87.31
332.715	117.31
332.943	96.31
333.172	103.31
333.4	106.31
333.629	117.31
333.857	130.31
334.085	145.31
334.314	162.31
334.542	238.31
334.771	203.31
334.999	110.31
335.227	97.31
335.455	97.31
335.684	100.31
335.912	92.31
336.14	83.31
336.369	98.31
336.597	107.31
336.825	105.31
337.053	98.31
337.281	97.31
337.51	88.31
337.738	101.31
337.966	93.31
338.194	98.31
338.422	94.31
338.65	85.31
338.878	108.31
339.106	89.31
339.334	94.31
339.562	101.31
339.79	89.31
340.018	93.31
340.246	94.31
340.474	97.31
340.702	93.31
340.93	90.31
341.158	98.31
341.386	99.31
341.614	98.31
341.842	97.31
342.07	97.31
342.298	97.31
342.526	91.31
342.754	89.31
342.981	79.31
343.209	90.31
343.437	91.31
343.665	94.31
343.893	103.31
344.12	91.31
344.348	87.31
344.576	108.31
344.804	81.31
345.031	103.31
345.259	100.31
345.487	91.31
345.714	88.31
345.942	112.31
346.17	92.31
346.397	102.31
346.625	89.31
346.853	84.31
347.08	96.31
347.308	101.31
347.535	107.31
347.763	103.31
347.99	117.31
348.218	97.31
348.445	104.31
348.673	105.31
348.9	112.31
349.128	100.31
349.355	94.31
349.583	94.31
349.81	112.31
350.037	114.31
350.265	105.31
350.492	104.31
350.72	108.31
350.947	114.31
351.174	117.31
351.402	108.31
351.629	109.31
351.856	94.31
352.083	114.31
352.311	99.31
352.538	97.31
352.765	90.31
352.992	105.31
353.22	115.31
353.447	106.31
353.674	96.31
353.901	96.31
354.128	96.31
354.355	102.31
354.583	103.31
354.81	105.31
355.037	96.31
355.264	99.31
355.491	108.31
355.718	93.31
355.945	107.31
356.172	99.31
356.399	106.31
356.626	90.31
356.853	97.31
357.08	88.31
357.307	102.31
357.534	83.31
357.761	94.31
357.988	109.31
358.215	106.31
358.441	81.31
358.668	91.31
358.895	98.31
359.122	90.31
359.349	89.31
359.576	105.31
359.802	99.31
360.029	116.31
360.256	113.31
360.483	104.31
360.709	106.31
360.936	111.31
361.163	97.31
361.39	89.31
361.616	96.31
361.843	93.31
362.07	105.31
362.296	100.31
362.523	115.31
362.749	84.31
362.976	95.31
363.203	93.31
363.429	83.31
363.656	102.31
363.882	89.31
364.109	77.31
364.335	91.31
364.562	97.31
364.788	87.31
365.015	102.31
365.241	97.31
365.468	110.31
365.694	106.31
365.92	94.31
366.147	107.31
366.373	83.31
366.599	106.31
366.826	101.31
367.052	84.31
367.278	87.31
367.505	85.31
367.731	109.31
367.957	91.31
368.184	94.31
368.41	114.31
368.636	132.31
368.862	118.31
369.089	114.31
369.315	95.31
369.541	83.31
369.767	86.31
369.993	89.31
370.219	89.31
370.445	85.31
370.672	87.31
370.898	80.31
371.124	86.31
371.35	86.31
371.576	97.31
371.802	99.31
372.028	98.31
372.254	87.31
372.48	117.31
372.706	84.31
372.932	92.31
373.158	102.31
373.384	97.31
373.61	98.31
373.835	99.31
374.061	90.31
374.287	78.31
374.513	102.31
374.739	99.31
374.965	98.31
375.191	83.31
375.416	96.31
375.642	92.31
375.868	75.31
376.094	84.31
376.319	84.31
376.545	93.31
376.771	95.31
376.997	84.31
377.222	104.31
377.448	90.31
377.674	93.31
377.899	93.31
378.125	82.31
378.35	94.31
378.576	94.31
378.802	91.31
379.027	84.31
379.253	93.31
379.478	97.31
379.704	105.31
379.929	110.31
380.155	97.31
380.38	94.31
380.606	97.31
380.831	96.31
381.057	104.31
381.282	89.31
381.507	92.31
381.733	111.31
381.958	99.31
382.184	104.31
382.409	121.31
382.634	104.31
382.86	102.31
383.085	106.31
383.31	106.31
383.535	93.31
383.761	95.31
383.986	107.31
384.211	100.31
384.436	94.31
384.662	102.31
384.887	102.31
385.112	116.31
385.337	119.31
385.562	114.31
385.787	106.31
386.013	123.31
386.238	122.31
386.463	101.31
386.688	116.31
386.913	99.31
387.138	122.31
387.363	110.31
387.588	107.31
387.813	104.31
388.038	109.31
388.263	126.31
388.488	114.31
388.713	97.31
388.938	107.31
389.163	99.31
389.387	97.31
389.612	108.31
389.837	93.31
390.062	93.31
390.287	99.31
390.512	101.31
390.736	108.31
390.961	91.31
391.186	96.31
391.411	98.31
391.636	81.31
391.86	99.31
392.085	90.31
392.31	99.31
392.534	102.31
392.759	84.31
392.984	97.31
393.208	114.31
393.433	118.31
393.658	100.31
393.882	77.31
394.107	95.31
394.331	82.31
394.556	86.31
394.78	78.31
395.005	79.31
395.229	79.31
395.454	81.31
395.678	92.31
395.903	93.31
396.127	83.31
396.352	93.31
396.576	81.31
396.801	85.31
397.025	102.31
397.249	87.31
397.474	86.31
397.698	100.31
397.922	86.31
398.147	106.31
398.371	83.31
398.595	83.31
398.82	98.31
399.044	89.31
399.268	92.31
399.492	95.31
399.717	93.31
399.941	90.31
400.165	87.31
400.389	96.31
400.613	75.31
400.837	99.31
401.062	96.31
401.286	82.31
401.51	87.31
401.734	91.31
401.958	110.31
402.182	132.31
402.406	167.31
402.63	122.31
402.854	96.31
403.078	92.31
403.302	86.31
403.526	94.31
403.75	100.31
403.974	96.31
404.198	82.31
404.422	91.31
404.645	90.31
404.869	92.31
405.093	82.31
405.317	97.31
405.541	98.31
405.765	96.31
405.988	119.31
406.212	175.31
406.436	225.31
406.66	151.31
406.883	106.31
407.107	107.31
407.331	99.31
407.555	112.31
407.778	94.31
408.002	106.31
408.226	89.31
408.449	88.31
408.673	104.31
408.896	105.31
409.12	97.31
409.344	92.31
409.567	76.31
409.791	84.31
410.014	91.31
410.238	94.31
410.461	92.31
410.685	83.31
410.908	105.31
411.132	113.31
411.355	108.31
411.578	84.31
411.802	84.31
412.025	97.31
412.249	97.31
412.472	93.31
412.695	111.31
412.919	87.31
413.142	94.31
413.365	97.31
413.589	89.31
413.812	93.31
414.035	92.31
414.258	83.31
414.482	90.31
414.705	92.31
414.928	106.31
415.151	91.31
415.374	96.31
415.597	77.31
415.821	105.31
416.044	103.31
416.267	91.31
416.49	102.31
416.713	86.31
416.936	84.31
417.159	91.31
417.382	104.31
417.605	105.31
417.828	103.31
418.051	101.31
418.274	85.31
418.497	99.31
418.72	99.31
418.943	97.31
419.166	86.31
419.389	94.31
419.611	101.31
419.834	86.31
420.057	94.31
420.28	91.31
420.503	87.31
420.726	99.31
420.948	91.31
421.171	94.31
421.394	100.31
421.617	98.31
421.839	107.31
422.062	81.31
422.285	94.31
422.507	99.31
422.73	94.31
422.953	101.31
423.175	90.31
423.398	74.31
423.621	84.31
423.843	92.31
424.066	79.31
424.288	102.31
424.511	94.31
424.733	83.31
424.956	103.31
425.178	77.31
425.401	97.31
425.623	76.31
425.846	97.31
426.068	99.31
426.291	84.31
426.513	91.31
426.735	91.31
426.958	95.31
427.18	101.31
427.402	114.31
427.625	155.31
427.847	133.31
428.069	116.31
428.292	112.31
428.514	97.31
428.736	92.31
428.958	91.31
429.181	82.31
429.403	85.31
429.625	97.31
429.847	91.31
430.069	98.31
430.292	91.31
430.514	91.31
430.736	93.31
430.958	73.31
431.18	90.31
431.402	85.31
431.624	90.31
431.846	78.31
432.068	85.31
432.29	95.31
432.512	89.31
432.734	98.31
432.956	75.31
433.178	85.31
433.4	100.31
433.622	90.31
433.844	82.31
434.066	102.31
434.287	86.31
434.509	93.31
434.731	99.31
434.953	85.31
435.175	85.31
435.397	81.31
435.618	87.31
435.84	100.31
436.062	118.31
436.284	110.31
436.505	87.31
436.727	94.31
436.949	93.31
437.17	83.31
437.392	77.31
437.614	94.31
437.835	99.31
438.057	116.31
438.278	104.31
438.5	106.31
438.721	128.31
438.943	95.31
439.165	85.31
439.386	91.31
439.608	83.31
439.829	106.31
440.05	108.31
440.272	122.31
440.493	99.31
440.715	91.31
440.936	92.31
441.158	93.31
441.379	89.31
441.6	107.31
441.822	101.31
442.043	99.31
442.264	90.31
442.486	96.31
442.707	90.31
442.928	104.31
443.149	137.31
443.371	123.31
443.592	109.31
443.813	100.31
444.034	89.31
444.255	95.31
444.476	100.31
444.698	103.31
444.919	100.31
445.14	137.31
445.361	123.31
445.582	112.31
445.803	126.31
446.024	122.31
446.245	126.31
446.466	94.31
446.687	89.31
446.908	69.31
447.129	83.31
447.35	81.31
447.571	87.31
447.792	82.31
448.013	96.31
448.234	108.31
448.455	99.31
448.675	107.31
448.896	118.31
449.117	95.31
449.338	106.31
449.559	114.31
449.779	120.31
450	97.31
450.221	85.31
450.442	95.31
450.662	94.31
450.883	94.31
451.104	109.31
451.324	80.31
451.545	89.31
451.766	89.31
451.986	85.31
452.207	107.31
452.428	103.31
452.648	110.31
452.869	107.31
453.089	125.31
453.31	124.31
453.53	92.31
453.751	94.31
453.971	106.31
454.192	101.31
454.412	91.31
454.633	100.31
454.853	94.31
455.073	95.31
455.294	86.31
455.514	94.31
455.734	95.31
455.955	98.31
456.175	89.31
456.395	90.31
456.616	113.31
456.836	95.31
457.056	90.31
457.276	78.31
457.497	101.31
457.717	101.31
457.937	89.31
458.157	98.31
458.377	85.31
458.598	109.31
458.818	133.31
459.038	141.31
459.258	122.31
459.478	96.31
459.698	94.31
459.918	93.31
460.138	82.31
460.358	103.31
460.578	97.31
460.798	97.31
461.018	85.31
461.238	90.31
461.458	98.31
461.678	88.31
461.898	83.31
462.118	86.31
462.338	95.31
462.558	94.31
462.777	85.31
462.997	79.31
463.217	95.31
463.437	96.31
463.657	83.31
463.876	113.31
464.096	93.31
464.316	92.31
464.536	89.31
464.755	97.31
464.975	94.31
465.195	153.31
465.414	146.31
465.634	102.31
465.854	91.31
466.073	78.31
466.293	84.31
466.512	77.31
466.732	87.31
466.951	94.31
467.171	98.31
467.391	103.31
467.61	101.31
467.829	119.31
468.049	124.31
468.268	153.31
468.488	93.31
468.707	90.31
468.927	84.31
469.146	83.31
469.365	87.31
469.585	94.31
469.804	87.31
470.023	96.31
470.243	94.31
470.462	88.31
470.681	113.31
470.901	91.31
471.12	88.31
471.339	94.31
471.558	86.31
471.777	104.31
471.997	96.31
472.216	189.31
472.435	272.31
472.654	130.31
472.873	98.31
473.092	93.31
473.311	90.31
473.53	79.31
473.749	93.31
473.968	89.31
474.187	96.31
474.406	102.31
474.625	99.31
474.844	89.31
475.063	76.31
475.282	91.31
475.501	78.31
475.72	81.31
475.939	89.31
476.158	87.31
476.377	79.31
476.596	99.31
476.814	86.31
477.033	88.31
477.252	89.31
477.471	93.31
477.69	94.31
477.908	103.31
478.127	82.31
478.346	95.31
478.564	86.31
478.783	95.31
479.002	89.31
479.22	94.31
479.439	95.31
479.658	112.31
479.876	85.31
480.095	87.31
480.313	83.31
480.532	110.31
480.751	111.31
480.969	167.31
481.188	456.31
481.406	283.31
481.624	102.31
481.843	93.31
482.061	101.31
482.28	95.31
482.498	90.31
482.717	101.31
482.935	82.31
483.153	94.31
483.372	86.31
483.59	102.31
483.808	94.31
484.027	91.31
484.245	92.31
484.463	105.31
484.681	88.31
484.9	95.31
485.118	86.31
485.336	106.31
485.554	104.31
485.772	90.31
485.99	113.31
486.209	107.31
486.427	103.31
486.645	112.31
486.863	107.31
487.081	111.31
487.299	104.31
487.517	96.31
487.735	96.31
487.953	96.31
488.171	94.31
488.389	104.31
488.607	110.31
488.825	89.31
489.043	92.31
489.261	96.31
489.479	80.31
489.696	86.31
489.914	103.31
490.132	81.31
490.35	85.31
490.568	82.31
490.786	89.31
491.003	91.31
491.221	88.31
491.439	87.31
491.657	92.31
491.874	97.31
492.092	81.31
492.31	80.31
492.527	93.31
492.745	92.31
492.963	83.31
493.18	87.31
493.398	92.31
493.615	95.31
493.833	87.31
494.05	99.31
494.268	97.31
494.485	106.31
494.703	100.31
494.92	105.31
495.138	90.31
495.355	92.31
495.573	102.31
495.79	79.31
496.008	87.31
496.225	91.31
496.442	90.31
496.66	86.31
496.877	93.31
497.094	98.31
497.312	110.31
497.529	93.31
497.746	89.31
497.963	91.31
498.181	92.31
498.398	107.31
498.615	116.31
498.832	105.31
499.049	89.31
499.267	83.31
499.484	83.31
499.701	76.31
499.918	96.31
500.135	93.31
500.352	85.31
500.569	94.31
500.786	99.31
501.003	85.31
501.22	83.31
501.437	99.31
501.654	91.31
501.871	118.31
502.088	91.31
502.305	98.31
502.522	81.31
502.739	70.31
502.956	85.31
503.172	92.31
503.389	92.31
503.606	114.31
503.823	104.31
504.04	86.31
504.256	94.31
504.473	97.31
504.69	74.31
504.907	87.31
505.123	99.31
505.34	87.31
505.557	92.31
505.773	108.31
505.99	97.31
506.207	85.31
506.423	93.31
506.64	99.31
506.856	97.31
507.073	81.31
507.289	102.31
507.506	108.31
507.722	110.31
507.939	112.31
508.155	89.31
508.372	85.31
508.588	86.31
508.805	89.31
509.021	90.31
509.238	106.31
509.454	105.31
509.67	113.31
509.887	109.31
510.103	145.31
510.319	230.31
510.536	832.31
510.752	2625.31
510.968	767.31
511.184	172.31
511.401	130.31
511.617	98.31
511.833	100.31
512.049	92.31
512.265	98.31
512.481	89.31
512.698	96.31
512.914	107.31
513.13	101.31
513.346	91.31
513.562	97.31
513.778	81.31
513.994	105.31
514.21	106.31
514.426	115.31
514.642	128.31
