Data from Circ_1996_H10_HRD10591_00045.txt Node
Date: Wed Jan 03 11:33:15 EST 2024
User: Yrep
Spectrometer: HR+D1059
Trigger mode: 1
Integration Time (sec): 1.000000E-1
Scans to average: 1
Electric dark correction enabled: true
Nonlinearity correction enabled: false
Boxcar width: 0
XAxis mode: Wavelengths
Number of Pixels in Spectrum: 2048
>>>>>Begin Spectral Data<<<<<
223.165	-11.88
223.4	-11.88
223.635	-11.88
223.869	-15.88
224.104	-21.88
224.338	-14.88
224.573	-19.88
224.808	-10.88
225.042	-0.88
225.277	-20.88
225.511	-9.88
225.746	8.12
225.98	7.12
226.215	15.12
226.449	23.12
226.683	19.12
226.918	23.12
227.152	31.12
227.387	24.12
227.621	37.12
227.856	39.12
228.09	57.12
228.324	44.12
228.559	53.12
228.793	59.12
229.027	70.12
229.262	65.12
229.496	78.12
229.73	81.12
229.964	80.12
230.199	59.12
230.433	73.12
230.667	75.12
230.901	80.12
231.136	70.12
231.37	73.12
231.604	80.12
231.838	65.12
232.072	69.12
232.306	86.12
232.541	81.12
232.775	83.12
233.009	87.12
233.243	87.12
233.477	78.12
233.711	73.12
233.945	71.12
234.179	69.12
234.413	64.12
234.647	79.12
234.881	79.12
235.115	80.12
235.349	63.12
235.583	80.12
235.817	72.12
236.051	80.12
236.285	79.12
236.519	85.12
236.753	70.12
236.987	78.12
237.221	89.12
237.455	69.12
237.689	78.12
237.922	68.12
238.156	79.12
238.39	67.12
238.624	51.12
238.858	69.12
239.091	68.12
239.325	79.12
239.559	83.12
239.793	71.12
240.027	83.12
240.26	76.12
240.494	80.12
240.728	72.12
240.961	88.12
241.195	73.12
241.429	84.12
241.662	63.12
241.896	71.12
242.13	77.12
242.363	67.12
242.597	57.12
242.83	69.12
243.064	59.12
243.298	71.12
243.531	71.12
243.765	76.12
243.998	57.12
244.232	64.12
244.465	71.12
244.699	89.12
244.932	76.12
245.166	76.12
245.399	77.12
245.633	77.12
245.866	82.12
246.099	85.12
246.333	59.12
246.566	83.12
246.8	90.12
247.033	87.12
247.266	60.12
247.5	75.12
247.733	67.12
247.966	83.12
248.2	62.12
248.433	70.12
248.666	88.12
248.899	61.12
249.133	93.12
249.366	103.12
249.599	94.12
249.832	80.12
250.066	73.12
250.299	88.12
250.532	65.12
250.765	61.12
250.998	74.12
251.231	89.12
251.465	86.12
251.698	81.12
251.931	84.12
252.164	74.12
252.397	73.12
252.63	70.12
252.863	82.12
253.096	65.12
253.329	72.12
253.562	69.12
253.795	85.12
254.028	83.12
254.261	79.12
254.494	79.12
254.727	94.12
254.96	81.12
255.193	79.12
255.426	77.12
255.659	80.12
255.892	80.12
256.124	73.12
256.357	67.12
256.59	90.12
256.823	88.12
257.056	88.12
257.289	63.12
257.521	76.12
257.754	83.12
257.987	85.12
258.22	79.12
258.452	83.12
258.685	76.12
258.918	81.12
259.151	74.12
259.383	78.12
259.616	75.12
259.849	84.12
260.081	88.12
260.314	79.12
260.547	86.12
260.779	78.12
261.012	68.12
261.244	72.12
261.477	80.12
261.71	81.12
261.942	111.12
262.175	113.12
262.407	96.12
262.64	82.12
262.872	81.12
263.105	74.12
263.337	81.12
263.57	80.12
263.802	74.12
264.035	76.12
264.267	78.12
264.499	95.12
264.732	75.12
264.964	78.12
265.197	82.12
265.429	76.12
265.661	69.12
265.894	82.12
266.126	92.12
266.358	80.12
266.591	79.12
266.823	84.12
267.055	84.12
267.287	76.12
267.52	64.12
267.752	77.12
267.984	85.12
268.216	87.12
268.448	73.12
268.681	84.12
268.913	84.12
269.145	86.12
269.377	78.12
269.609	78.12
269.841	94.12
270.073	80.12
270.306	64.12
270.538	70.12
270.77	63.12
271.002	73.12
271.234	78.12
271.466	76.12
271.698	81.12
271.93	71.12
272.162	80.12
272.394	80.12
272.626	69.12
272.858	77.12
273.09	72.12
273.322	88.12
273.553	88.12
273.785	73.12
274.017	82.12
274.249	79.12
274.481	61.12
274.713	72.12
274.945	84.12
275.176	76.12
275.408	89.12
275.64	91.12
275.872	77.12
276.104	85.12
276.335	82.12
276.567	81.12
276.799	104.12
277.031	77.12
277.262	78.12
277.494	79.12
277.726	76.12
277.957	81.12
278.189	73.12
278.421	75.12
278.652	80.12
278.884	80.12
279.115	82.12
279.347	74.12
279.579	71.12
279.81	91.12
280.042	81.12
280.273	83.12
280.505	79.12
280.736	74.12
280.968	72.12
281.199	80.12
281.431	68.12
281.662	80.12
281.894	96.12
282.125	94.12
282.356	113.12
282.588	126.12
282.819	109.12
283.051	92.12
283.282	74.12
283.513	63.12
283.745	82.12
283.976	88.12
284.207	75.12
284.439	76.12
284.67	94.12
284.901	91.12
285.132	78.12
285.364	78.12
285.595	88.12
285.826	97.12
286.057	95.12
286.288	84.12
286.52	83.12
286.751	88.12
286.982	69.12
287.213	82.12
287.444	76.12
287.675	85.12
287.906	88.12
288.138	82.12
288.369	82.12
288.6	90.12
288.831	80.12
289.062	76.12
289.293	58.12
289.524	86.12
289.755	72.12
289.986	90.12
290.217	76.12
290.448	89.12
290.679	62.12
290.91	73.12
291.141	77.12
291.371	72.12
291.602	81.12
291.833	77.12
292.064	91.12
292.295	77.12
292.526	81.12
292.757	83.12
292.987	70.12
293.218	88.12
293.449	79.12
293.68	83.12
293.91	70.12
294.141	90.12
294.372	84.12
294.603	91.12
294.833	94.12
295.064	78.12
295.295	99.12
295.525	77.12
295.756	84.12
295.987	109.12
296.217	138.12
296.448	108.12
296.679	89.12
296.909	78.12
297.14	89.12
297.37	94.12
297.601	78.12
297.831	81.12
298.062	79.12
298.292	82.12
298.523	76.12
298.753	78.12
298.984	89.12
299.214	78.12
299.445	92.12
299.675	84.12
299.905	93.12
300.136	77.12
300.366	84.12
300.597	99.12
300.827	96.12
301.057	88.12
301.288	99.12
301.518	86.12
301.748	76.12
301.979	85.12
302.209	91.12
302.439	87.12
302.669	91.12
302.9	86.12
303.13	80.12
303.36	75.12
303.59	108.12
303.82	109.12
304.051	98.12
304.281	84.12
304.511	107.12
304.741	83.12
304.971	72.12
305.201	80.12
305.431	83.12
305.661	90.12
305.891	88.12
306.121	91.12
306.352	95.12
306.582	112.12
306.812	103.12
307.042	87.12
307.272	95.12
307.502	79.12
307.731	84.12
307.961	95.12
308.191	77.12
308.421	84.12
308.651	87.12
308.881	91.12
309.111	86.12
309.341	93.12
309.571	90.12
309.8	89.12
310.03	98.12
310.26	90.12
310.49	87.12
310.72	81.12
310.949	111.12
311.179	91.12
311.409	88.12
311.639	97.12
311.868	84.12
312.098	99.12
312.328	93.12
312.557	90.12
312.787	112.12
313.017	94.12
313.246	90.12
313.476	100.12
313.706	90.12
313.935	102.12
314.165	90.12
314.394	108.12
314.624	101.12
314.853	94.12
315.083	97.12
315.312	110.12
315.542	105.12
315.771	83.12
316.001	79.12
316.23	69.12
316.46	90.12
316.689	78.12
316.919	83.12
317.148	90.12
317.377	88.12
317.607	91.12
317.836	93.12
318.065	96.12
318.295	87.12
318.524	93.12
318.753	87.12
318.983	79.12
319.212	90.12
319.441	115.12
319.67	110.12
319.9	91.12
320.129	86.12
320.358	95.12
320.587	90.12
320.816	86.12
321.046	86.12
321.275	99.12
321.504	90.12
321.733	91.12
321.962	92.12
322.191	88.12
322.42	105.12
322.649	99.12
322.878	107.12
323.108	100.12
323.337	112.12
323.566	127.12
323.795	138.12
324.024	180.12
324.253	297.12
324.482	625.12
324.71	1239.12
324.939	1651.12
325.168	608.12
325.397	207.12
325.626	120.12
325.855	116.12
326.084	135.12
326.313	111.12
326.542	129.12
326.77	182.12
326.999	343.12
327.228	645.12
327.457	1151.12
327.686	949.12
327.914	295.12
328.143	191.12
328.372	151.12
328.6	130.12
328.829	108.12
329.058	133.12
329.287	132.12
329.515	109.12
329.744	102.12
329.972	123.12
330.201	161.12
330.43	180.12
330.658	144.12
330.887	131.12
331.115	125.12
331.344	95.12
331.572	97.12
331.801	91.12
332.03	101.12
332.258	92.12
332.486	80.12
332.715	91.12
332.943	95.12
333.172	93.12
333.4	90.12
333.629	110.12
333.857	124.12
334.085	114.12
334.314	149.12
334.542	216.12
334.771	178.12
334.999	124.12
335.227	94.12
335.455	82.12
335.684	109.12
335.912	96.12
336.14	107.12
336.369	110.12
336.597	103.12
336.825	103.12
337.053	83.12
337.281	80.12
337.51	90.12
337.738	83.12
337.966	93.12
338.194	91.12
338.422	84.12
338.65	105.12
338.878	83.12
339.106	88.12
339.334	86.12
339.562	77.12
339.79	85.12
340.018	91.12
340.246	101.12
340.474	93.12
340.702	90.12
340.93	77.12
341.158	88.12
341.386	94.12
341.614	97.12
341.842	86.12
342.07	94.12
342.298	83.12
342.526	92.12
342.754	83.12
342.981	79.12
343.209	82.12
343.437	103.12
343.665	93.12
343.893	83.12
344.12	86.12
344.348	76.12
344.576	72.12
344.804	94.12
345.031	102.12
345.259	89.12
345.487	96.12
345.714	84.12
345.942	84.12
346.17	85.12
346.397	88.12
346.625	84.12
346.853	84.12
347.08	88.12
347.308	77.12
347.535	91.12
347.763	97.12
347.99	100.12
348.218	103.12
348.445	89.12
348.673	105.12
348.9	97.12
349.128	94.12
349.355	99.12
349.583	80.12
349.81	84.12
350.037	109.12
350.265	95.12
350.492	97.12
350.72	97.12
350.947	98.12
351.174	99.12
351.402	104.12
351.629	95.12
351.856	82.12
352.083	107.12
352.311	106.12
352.538	120.12
352.765	88.12
352.992	101.12
353.22	118.12
353.447	89.12
353.674	92.12
353.901	96.12
354.128	91.12
354.355	87.12
354.583	92.12
354.81	89.12
355.037	93.12
355.264	87.12
355.491	83.12
355.718	95.12
355.945	112.12
356.172	93.12
356.399	91.12
356.626	93.12
356.853	86.12
357.08	89.12
357.307	96.12
357.534	95.12
357.761	98.12
357.988	103.12
358.215	92.12
358.441	101.12
358.668	102.12
358.895	96.12
359.122	84.12
359.349	98.12
359.576	67.12
359.802	87.12
360.029	97.12
360.256	102.12
360.483	77.12
360.709	78.12
360.936	89.12
361.163	86.12
361.39	83.12
361.616	86.12
361.843	91.12
362.07	89.12
362.296	91.12
362.523	91.12
362.749	87.12
362.976	79.12
363.203	86.12
363.429	83.12
363.656	82.12
363.882	72.12
364.109	89.12
364.335	97.12
364.562	75.12
364.788	85.12
365.015	98.12
365.241	92.12
365.468	102.12
365.694	102.12
365.92	90.12
366.147	91.12
366.373	96.12
366.599	85.12
366.826	95.12
367.052	95.12
367.278	87.12
367.505	81.12
367.731	89.12
367.957	92.12
368.184	92.12
368.41	114.12
368.636	108.12
368.862	100.12
369.089	96.12
369.315	84.12
369.541	103.12
369.767	83.12
369.993	87.12
370.219	82.12
370.445	102.12
370.672	95.12
370.898	85.12
371.124	94.12
371.35	76.12
371.576	90.12
371.802	73.12
372.028	90.12
372.254	98.12
372.48	93.12
372.706	75.12
372.932	79.12
373.158	86.12
373.384	89.12
373.61	97.12
373.835	89.12
374.061	84.12
374.287	91.12
374.513	91.12
374.739	93.12
374.965	97.12
375.191	94.12
375.416	102.12
375.642	89.12
375.868	98.12
376.094	92.12
376.319	92.12
376.545	89.12
376.771	92.12
376.997	78.12
377.222	94.12
377.448	92.12
377.674	94.12
377.899	92.12
378.125	83.12
378.35	97.12
378.576	86.12
378.802	98.12
379.027	83.12
379.253	98.12
379.478	78.12
379.704	83.12
379.929	93.12
380.155	95.12
380.38	105.12
380.606	110.12
380.831	82.12
381.057	88.12
381.282	94.12
381.507	94.12
381.733	89.12
381.958	103.12
382.184	104.12
382.409	102.12
382.634	89.12
382.86	101.12
383.085	94.12
383.31	100.12
383.535	93.12
383.761	103.12
383.986	90.12
384.211	101.12
384.436	91.12
384.662	107.12
384.887	101.12
385.112	106.12
385.337	107.12
385.562	110.12
385.787	98.12
386.013	118.12
386.238	107.12
386.463	108.12
386.688	111.12
386.913	110.12
387.138	109.12
387.363	100.12
387.588	97.12
387.813	99.12
388.038	110.12
388.263	120.12
388.488	101.12
388.713	103.12
388.938	97.12
389.163	92.12
389.387	96.12
389.612	85.12
389.837	95.12
390.062	89.12
390.287	86.12
390.512	78.12
390.736	89.12
390.961	83.12
391.186	100.12
391.411	104.12
391.636	93.12
391.86	82.12
392.085	91.12
392.31	78.12
392.534	86.12
392.759	83.12
392.984	93.12
393.208	105.12
393.433	108.12
393.658	116.12
393.882	85.12
394.107	79.12
394.331	92.12
394.556	87.12
394.78	68.12
395.005	81.12
395.229	76.12
395.454	72.12
395.678	80.12
395.903	94.12
396.127	78.12
396.352	89.12
396.576	87.12
396.801	76.12
397.025	84.12
397.249	79.12
397.474	80.12
397.698	76.12
397.922	83.12
398.147	82.12
398.371	74.12
398.595	89.12
398.82	97.12
399.044	71.12
399.268	87.12
399.492	94.12
399.717	94.12
399.941	79.12
400.165	74.12
400.389	86.12
400.613	100.12
400.837	85.12
401.062	71.12
401.286	80.12
401.51	86.12
401.734	84.12
401.958	90.12
402.182	107.12
402.406	146.12
402.63	108.12
402.854	83.12
403.078	86.12
403.302	80.12
403.526	89.12
403.75	87.12
403.974	83.12
404.198	73.12
404.422	79.12
404.645	101.12
404.869	81.12
405.093	99.12
405.317	96.12
405.541	89.12
405.765	106.12
405.988	112.12
406.212	181.12
406.436	244.12
406.66	137.12
406.883	90.12
407.107	87.12
407.331	101.12
407.555	92.12
407.778	100.12
408.002	74.12
408.226	80.12
408.449	88.12
408.673	93.12
408.896	93.12
409.12	95.12
409.344	80.12
409.567	99.12
409.791	80.12
410.014	85.12
410.238	104.12
410.461	93.12
410.685	87.12
410.908	95.12
411.132	108.12
411.355	92.12
411.578	92.12
411.802	83.12
412.025	80.12
412.249	79.12
412.472	78.12
412.695	92.12
412.919	87.12
413.142	85.12
413.365	83.12
413.589	76.12
413.812	70.12
414.035	94.12
414.258	90.12
414.482	78.12
414.705	83.12
414.928	80.12
415.151	92.12
415.374	83.12
415.597	77.12
415.821	89.12
416.044	98.12
416.267	98.12
416.49	88.12
416.713	80.12
416.936	77.12
417.159	87.12
417.382	89.12
417.605	78.12
417.828	86.12
418.051	96.12
418.274	76.12
418.497	87.12
418.72	87.12
418.943	91.12
419.166	85.12
419.389	85.12
419.611	95.12
419.834	75.12
420.057	80.12
420.28	90.12
420.503	86.12
420.726	79.12
420.948	91.12
421.171	90.12
421.394	96.12
421.617	91.12
421.839	83.12
422.062	95.12
422.285	101.12
422.507	101.12
422.73	99.12
422.953	90.12
423.175	84.12
423.398	80.12
423.621	91.12
423.843	81.12
424.066	89.12
424.288	87.12
424.511	88.12
424.733	88.12
424.956	97.12
425.178	100.12
425.401	90.12
425.623	81.12
425.846	87.12
426.068	93.12
426.291	94.12
426.513	84.12
426.735	87.12
426.958	90.12
427.18	87.12
427.402	115.12
427.625	155.12
427.847	120.12
428.069	101.12
428.292	87.12
428.514	89.12
428.736	86.12
428.958	91.12
429.181	81.12
429.403	78.12
429.625	85.12
429.847	87.12
430.069	74.12
430.292	75.12
430.514	85.12
430.736	82.12
430.958	88.12
431.18	73.12
431.402	92.12
431.624	85.12
431.846	91.12
432.068	72.12
432.29	87.12
432.512	88.12
432.734	97.12
432.956	89.12
433.178	104.12
433.4	94.12
433.622	83.12
433.844	87.12
434.066	86.12
434.287	87.12
434.509	90.12
434.731	79.12
434.953	85.12
435.175	96.12
435.397	75.12
435.618	80.12
435.84	87.12
436.062	123.12
436.284	100.12
436.505	97.12
436.727	98.12
436.949	77.12
437.17	94.12
437.392	98.12
437.614	76.12
437.835	107.12
438.057	122.12
438.278	107.12
438.5	99.12
438.721	98.12
438.943	97.12
439.165	85.12
439.386	99.12
439.608	99.12
439.829	99.12
440.05	108.12
440.272	104.12
440.493	93.12
440.715	86.12
440.936	76.12
441.158	101.12
441.379	93.12
441.6	96.12
441.822	93.12
442.043	83.12
442.264	102.12
442.486	83.12
442.707	89.12
442.928	100.12
443.149	115.12
443.371	121.12
443.592	102.12
443.813	110.12
444.034	94.12
444.255	79.12
444.476	87.12
444.698	71.12
444.919	77.12
445.14	127.12
445.361	106.12
445.582	101.12
445.803	103.12
446.024	129.12
446.245	114.12
446.466	102.12
446.687	88.12
446.908	71.12
447.129	77.12
447.35	75.12
447.571	91.12
447.792	94.12
448.013	91.12
448.234	99.12
448.455	88.12
448.675	93.12
448.896	119.12
449.117	104.12
449.338	104.12
449.559	101.12
449.779	117.12
450	95.12
450.221	96.12
450.442	90.12
450.662	90.12
450.883	94.12
451.104	93.12
451.324	85.12
451.545	79.12
451.766	70.12
451.986	82.12
452.207	93.12
452.428	90.12
452.648	87.12
452.869	90.12
453.089	105.12
453.31	109.12
453.53	87.12
453.751	72.12
453.971	111.12
454.192	97.12
454.412	84.12
454.633	90.12
454.853	86.12
455.073	89.12
455.294	77.12
455.514	102.12
455.734	79.12
455.955	79.12
456.175	86.12
456.395	79.12
456.616	91.12
456.836	82.12
457.056	64.12
457.276	91.12
457.497	73.12
457.717	74.12
457.937	69.12
458.157	93.12
458.377	88.12
458.598	99.12
458.818	134.12
459.038	151.12
459.258	95.12
459.478	84.12
459.698	67.12
459.918	90.12
460.138	79.12
460.358	84.12
460.578	82.12
460.798	86.12
461.018	90.12
461.238	75.12
461.458	88.12
461.678	79.12
461.898	85.12
462.118	83.12
462.338	81.12
462.558	83.12
462.777	84.12
462.997	87.12
463.217	84.12
463.437	81.12
463.657	60.12
463.876	90.12
464.096	95.12
464.316	97.12
464.536	106.12
464.755	83.12
464.975	92.12
465.195	135.12
465.414	151.12
465.634	85.12
465.854	93.12
466.073	87.12
466.293	77.12
466.512	89.12
466.732	91.12
466.951	79.12
467.171	83.12
467.391	86.12
467.61	99.12
467.829	102.12
468.049	111.12
468.268	124.12
468.488	89.12
468.707	83.12
468.927	92.12
469.146	94.12
469.365	90.12
469.585	72.12
469.804	91.12
470.023	83.12
470.243	83.12
470.462	93.12
470.681	100.12
470.901	84.12
471.12	77.12
471.339	86.12
471.558	94.12
471.777	76.12
471.997	88.12
472.216	159.12
472.435	245.12
472.654	125.12
472.873	94.12
473.092	92.12
473.311	93.12
473.53	84.12
473.749	85.12
473.968	101.12
474.187	89.12
474.406	79.12
474.625	87.12
474.844	67.12
475.063	88.12
475.282	89.12
475.501	90.12
475.72	89.12
475.939	84.12
476.158	72.12
476.377	84.12
476.596	89.12
476.814	87.12
477.033	95.12
477.252	77.12
477.471	77.12
477.69	88.12
477.908	81.12
478.127	80.12
478.346	91.12
478.564	80.12
478.783	99.12
479.002	87.12
479.22	77.12
479.439	102.12
479.658	94.12
479.876	83.12
480.095	95.12
480.313	81.12
480.532	93.12
480.751	103.12
480.969	177.12
481.188	421.12
481.406	259.12
481.624	105.12
481.843	96.12
482.061	80.12
482.28	81.12
482.498	83.12
482.717	78.12
482.935	92.12
483.153	95.12
483.372	86.12
483.59	81.12
483.808	108.12
484.027	95.12
484.245	76.12
484.463	74.12
484.681	100.12
484.9	90.12
485.118	94.12
485.336	97.12
485.554	104.12
485.772	89.12
485.99	97.12
486.209	96.12
486.427	104.12
486.645	116.12
486.863	113.12
487.081	93.12
487.299	104.12
487.517	94.12
487.735	79.12
487.953	91.12
488.171	92.12
488.389	95.12
488.607	84.12
488.825	98.12
489.043	95.12
489.261	90.12
489.479	89.12
489.696	87.12
489.914	86.12
490.132	87.12
490.35	92.12
490.568	78.12
490.786	89.12
491.003	88.12
491.221	107.12
491.439	81.12
491.657	87.12
491.874	84.12
492.092	91.12
492.31	84.12
492.527	94.12
492.745	96.12
492.963	82.12
493.18	83.12
493.398	96.12
493.615	87.12
493.833	87.12
494.05	93.12
494.268	102.12
494.485	85.12
494.703	103.12
494.92	94.12
495.138	92.12
495.355	91.12
495.573	95.12
495.79	94.12
496.008	76.12
496.225	74.12
496.442	84.12
496.66	85.12
496.877	93.12
497.094	71.12
497.312	87.12
497.529	90.12
497.746	85.12
497.963	80.12
498.181	71.12
498.398	89.12
498.615	107.12
498.832	93.12
499.049	95.12
499.267	92.12
499.484	100.12
499.701	75.12
499.918	95.12
500.135	94.12
500.352	88.12
500.569	98.12
500.786	83.12
501.003	76.12
501.22	78.12
501.437	93.12
501.654	88.12
501.871	111.12
502.088	96.12
502.305	80.12
502.522	75.12
502.739	88.12
502.956	83.12
503.172	79.12
503.389	87.12
503.606	93.12
503.823	111.12
504.04	81.12
504.256	80.12
504.473	67.12
504.69	84.12
504.907	89.12
505.123	93.12
505.34	84.12
505.557	102.12
505.773	82.12
505.99	97.12
506.207	91.12
506.423	87.12
506.64	88.12
506.856	92.12
507.073	85.12
507.289	85.12
507.506	87.12
507.722	108.12
507.939	113.12
508.155	88.12
508.372	98.12
508.588	89.12
508.805	103.12
509.021	96.12
509.238	86.12
509.454	89.12
509.67	102.12
509.887	107.12
510.103	120.12
510.319	211.12
510.536	794.12
510.752	2619.12
510.968	713.12
511.184	160.12
511.401	100.12
511.617	112.12
511.833	95.12
512.049	92.12
512.265	93.12
512.481	81.12
512.698	86.12
512.914	78.12
513.13	92.12
513.346	90.12
513.562	83.12
513.778	94.12
513.994	105.12
514.21	92.12
514.426	112.12
514.642	117.12
514.858	109.12
515.074	152.12
515.29	430.12
515.506	1481.12
515.721	552.12
515.937	137.12
516.153	95.12
516.369	88.12
516.585	102.12
