Data from Circ_1996_H10_HRD10591_00015.txt Node
Date: Wed Jan 03 11:33:09 EST 2024
User: Yrep
Spectrometer: HR+D1059
Trigger mode: 1
Integration Time (sec): 1.000000E-1
Scans to average: 1
Electric dark correction enabled: true
Nonlinearity correction enabled: false
Boxcar width: 0
XAxis mode: Wavelengths
Number of Pixels in Spectrum: 2048
>>>>>Begin Spectral Data<<<<<
223.165	-15.56
223.4	-15.56
223.635	-15.56
223.869	-15.56
224.104	-12.56
224.338	-19.56
224.573	-22.56
224.808	-5.56
225.042	11.44
225.277	-11.56
225.511	1.44
225.746	3.44
225.98	6.44
226.215	15.44
226.449	12.44
226.683	2.44
226.918	22.44
227.152	27.44
227.387	36.44
227.621	32.44
227.856	44.44
228.09	44.44
228.324	50.44
228.559	60.44
228.793	54.44
229.027	68.44
229.262	63.44
229.496	79.44
229.73	97.44
229.964	111.44
230.199	84.44
230.433	70.44
230.667	80.44
230.901	80.44
231.136	87.44
231.37	77.44
231.604	74.44
231.838	84.44
232.072	84.44
232.306	75.44
232.541	78.44
232.775	85.44
233.009	72.44
233.243	85.44
233.477	84.44
233.711	88.44
233.945	99.44
234.179	76.44
234.413	82.44
234.647	88.44
234.881	84.44
235.115	79.44
235.349	74.44
235.583	89.44
235.817	78.44
236.051	92.44
236.285	82.44
236.519	52.44
236.753	77.44
236.987	79.44
237.221	92.44
237.455	98.44
237.689	80.44
237.922	74.44
238.156	83.44
238.39	68.44
238.624	76.44
238.858	76.44
239.091	74.44
239.325	78.44
239.559	80.44
239.793	99.44
240.027	80.44
240.26	82.44
240.494	93.44
240.728	89.44
240.961	84.44
241.195	81.44
241.429	87.44
241.662	74.44
241.896	66.44
242.13	92.44
242.363	78.44
242.597	68.44
242.83	77.44
243.064	78.44
243.298	79.44
243.531	91.44
243.765	82.44
243.998	72.44
244.232	80.44
244.465	89.44
244.699	89.44
244.932	84.44
245.166	89.44
245.399	78.44
245.633	84.44
245.866	73.44
246.099	84.44
246.333	92.44
246.566	69.44
246.8	74.44
247.033	75.44
247.266	96.44
247.5	79.44
247.733	94.44
247.966	94.44
248.2	75.44
248.433	72.44
248.666	81.44
248.899	85.44
249.133	86.44
249.366	97.44
249.599	85.44
249.832	99.44
250.066	94.44
250.299	72.44
250.532	93.44
250.765	88.44
250.998	95.44
251.231	69.44
251.465	101.44
251.698	90.44
251.931	84.44
252.164	91.44
252.397	82.44
252.63	89.44
252.863	83.44
253.096	82.44
253.329	86.44
253.562	77.44
253.795	87.44
254.028	85.44
254.261	83.44
254.494	78.44
254.727	81.44
254.96	81.44
255.193	76.44
255.426	76.44
255.659	85.44
255.892	78.44
256.124	88.44
256.357	92.44
256.59	77.44
256.823	77.44
257.056	79.44
257.289	65.44
257.521	83.44
257.754	82.44
257.987	82.44
258.22	89.44
258.452	81.44
258.685	84.44
258.918	88.44
259.151	84.44
259.383	92.44
259.616	78.44
259.849	81.44
260.081	90.44
260.314	94.44
260.547	76.44
260.779	74.44
261.012	86.44
261.244	87.44
261.477	105.44
261.71	107.44
261.942	99.44
262.175	108.44
262.407	81.44
262.64	90.44
262.872	67.44
263.105	99.44
263.337	70.44
263.57	76.44
263.802	97.44
264.035	85.44
264.267	87.44
264.499	81.44
264.732	98.44
264.964	87.44
265.197	101.44
265.429	83.44
265.661	68.44
265.894	74.44
266.126	81.44
266.358	78.44
266.591	90.44
266.823	85.44
267.055	93.44
267.287	96.44
267.52	84.44
267.752	86.44
267.984	82.44
268.216	79.44
268.448	96.44
268.681	69.44
268.913	86.44
269.145	94.44
269.377	93.44
269.609	96.44
269.841	76.44
270.073	74.44
270.306	81.44
270.538	75.44
270.77	88.44
271.002	89.44
271.234	80.44
271.466	81.44
271.698	101.44
271.93	95.44
272.162	91.44
272.394	79.44
272.626	91.44
272.858	78.44
273.09	88.44
273.322	92.44
273.553	84.44
273.785	96.44
274.017	77.44
274.249	82.44
274.481	89.44
274.713	90.44
274.945	88.44
275.176	88.44
275.408	92.44
275.64	90.44
275.872	100.44
276.104	74.44
276.335	81.44
276.567	96.44
276.799	122.44
277.031	107.44
277.262	98.44
277.494	94.44
277.726	87.44
277.957	86.44
278.189	82.44
278.421	83.44
278.652	90.44
278.884	83.44
279.115	88.44
279.347	86.44
279.579	94.44
279.81	89.44
280.042	102.44
280.273	96.44
280.505	87.44
280.736	89.44
280.968	81.44
281.199	94.44
281.431	72.44
281.662	79.44
281.894	90.44
282.125	106.44
282.356	123.44
282.588	137.44
282.819	98.44
283.051	89.44
283.282	91.44
283.513	76.44
283.745	89.44
283.976	88.44
284.207	82.44
284.439	92.44
284.67	94.44
284.901	85.44
285.132	91.44
285.364	86.44
285.595	89.44
285.826	94.44
286.057	93.44
286.288	90.44
286.52	93.44
286.751	77.44
286.982	101.44
287.213	90.44
287.444	98.44
287.675	91.44
287.906	96.44
288.138	90.44
288.369	96.44
288.6	85.44
288.831	82.44
289.062	84.44
289.293	91.44
289.524	92.44
289.755	95.44
289.986	83.44
290.217	94.44
290.448	96.44
290.679	83.44
290.91	96.44
291.141	83.44
291.371	92.44
291.602	91.44
291.833	83.44
292.064	85.44
292.295	91.44
292.526	92.44
292.757	89.44
292.987	83.44
293.218	99.44
293.449	83.44
293.68	89.44
293.91	93.44
294.141	100.44
294.372	94.44
294.603	84.44
294.833	98.44
295.064	95.44
295.295	83.44
295.525	98.44
295.756	100.44
295.987	105.44
296.217	132.44
296.448	111.44
296.679	106.44
296.909	88.44
297.14	86.44
297.37	93.44
297.601	91.44
297.831	97.44
298.062	78.44
298.292	85.44
298.523	78.44
298.753	90.44
298.984	93.44
299.214	84.44
299.445	108.44
299.675	101.44
299.905	82.44
300.136	89.44
300.366	76.44
300.597	84.44
300.827	98.44
301.057	100.44
301.288	109.44
301.518	91.44
301.748	86.44
301.979	96.44
302.209	105.44
302.439	89.44
302.669	94.44
302.9	83.44
303.13	93.44
303.36	102.44
303.59	91.44
303.82	108.44
304.051	95.44
304.281	94.44
304.511	84.44
304.741	101.44
304.971	93.44
305.201	86.44
305.431	90.44
305.661	86.44
305.891	81.44
306.121	85.44
306.352	94.44
306.582	99.44
306.812	94.44
307.042	94.44
307.272	89.44
307.502	113.44
307.731	113.44
307.961	91.44
308.191	104.44
308.421	84.44
308.651	72.44
308.881	90.44
309.111	101.44
309.341	99.44
309.571	98.44
309.8	96.44
310.03	93.44
310.26	96.44
310.49	91.44
310.72	95.44
310.949	113.44
311.179	97.44
311.409	95.44
311.639	90.44
311.868	94.44
312.098	99.44
312.328	102.44
312.557	98.44
312.787	96.44
313.017	111.44
313.246	82.44
313.476	101.44
313.706	86.44
313.935	100.44
314.165	97.44
314.394	89.44
314.624	102.44
314.853	98.44
315.083	101.44
315.312	108.44
315.542	100.44
315.771	97.44
316.001	92.44
316.23	102.44
316.46	103.44
316.689	97.44
316.919	87.44
317.148	90.44
317.377	92.44
317.607	84.44
317.836	89.44
318.065	109.44
318.295	86.44
318.524	96.44
318.753	92.44
318.983	94.44
319.212	105.44
319.441	97.44
319.67	98.44
319.9	93.44
320.129	93.44
320.358	97.44
320.587	85.44
320.816	101.44
321.046	101.44
321.275	84.44
321.504	112.44
321.733	109.44
321.962	92.44
322.191	92.44
322.42	107.44
322.649	119.44
322.878	102.44
323.108	108.44
323.337	125.44
323.566	124.44
323.795	123.44
324.024	162.44
324.253	330.44
324.482	621.44
324.71	1235.44
324.939	1615.44
325.168	614.44
325.397	210.44
325.626	126.44
325.855	129.44
326.084	116.44
326.313	132.44
326.542	146.44
326.77	181.44
326.999	365.44
327.228	688.44
327.457	1190.44
327.686	953.44
327.914	320.44
328.143	190.44
328.372	157.44
328.6	138.44
328.829	117.44
329.058	116.44
329.287	141.44
329.515	122.44
329.744	117.44
329.972	144.44
330.201	182.44
330.43	201.44
330.658	152.44
330.887	129.44
331.115	121.44
331.344	100.44
331.572	103.44
331.801	102.44
332.03	99.44
332.258	90.44
332.486	96.44
332.715	83.44
332.943	94.44
333.172	108.44
333.4	103.44
333.629	115.44
333.857	117.44
334.085	130.44
334.314	180.44
334.542	255.44
334.771	218.44
334.999	105.44
335.227	106.44
335.455	97.44
335.684	100.44
335.912	93.44
336.14	108.44
336.369	102.44
336.597	108.44
336.825	85.44
337.053	83.44
337.281	91.44
337.51	102.44
337.738	85.44
337.966	100.44
338.194	91.44
338.422	97.44
338.65	84.44
338.878	104.44
339.106	82.44
339.334	103.44
339.562	80.44
339.79	82.44
340.018	103.44
340.246	106.44
340.474	82.44
340.702	94.44
340.93	86.44
341.158	88.44
341.386	84.44
341.614	103.44
341.842	88.44
342.07	96.44
342.298	102.44
342.526	89.44
342.754	93.44
342.981	99.44
343.209	89.44
343.437	92.44
343.665	86.44
343.893	86.44
344.12	99.44
344.348	98.44
344.576	91.44
344.804	94.44
345.031	101.44
345.259	98.44
345.487	93.44
345.714	87.44
345.942	100.44
346.17	82.44
346.397	115.44
346.625	94.44
346.853	86.44
347.08	96.44
347.308	105.44
347.535	102.44
347.763	102.44
347.99	101.44
348.218	102.44
348.445	95.44
348.673	100.44
348.9	84.44
349.128	106.44
349.355	84.44
349.583	80.44
349.81	82.44
350.037	85.44
350.265	76.44
350.492	90.44
350.72	96.44
350.947	85.44
351.174	109.44
351.402	96.44
351.629	103.44
351.856	90.44
352.083	91.44
352.311	108.44
352.538	107.44
352.765	111.44
352.992	111.44
353.22	101.44
353.447	108.44
353.674	94.44
353.901	96.44
354.128	99.44
354.355	84.44
354.583	102.44
354.81	94.44
355.037	103.44
355.264	83.44
355.491	76.44
355.718	91.44
355.945	99.44
356.172	98.44
356.399	95.44
356.626	92.44
356.853	91.44
357.08	90.44
357.307	91.44
357.534	98.44
357.761	97.44
357.988	101.44
358.215	98.44
358.441	99.44
358.668	96.44
358.895	89.44
359.122	80.44
359.349	95.44
359.576	100.44
359.802	102.44
360.029	102.44
360.256	117.44
360.483	102.44
360.709	102.44
360.936	102.44
361.163	89.44
361.39	110.44
361.616	99.44
361.843	96.44
362.07	103.44
362.296	98.44
362.523	76.44
362.749	81.44
362.976	81.44
363.203	96.44
363.429	92.44
363.656	100.44
363.882	92.44
364.109	88.44
364.335	102.44
364.562	89.44
364.788	83.44
365.015	67.44
365.241	105.44
365.468	101.44
365.694	88.44
365.92	107.44
366.147	86.44
366.373	81.44
366.599	78.44
366.826	80.44
367.052	91.44
367.278	101.44
367.505	86.44
367.731	98.44
367.957	77.44
368.184	88.44
368.41	102.44
368.636	114.44
368.862	118.44
369.089	107.44
369.315	94.44
369.541	85.44
369.767	93.44
369.993	85.44
370.219	84.44
370.445	96.44
370.672	89.44
370.898	90.44
371.124	85.44
371.35	97.44
371.576	87.44
371.802	93.44
372.028	84.44
372.254	88.44
372.48	93.44
372.706	105.44
372.932	97.44
373.158	75.44
373.384	105.44
373.61	89.44
373.835	83.44
374.061	76.44
374.287	92.44
374.513	90.44
374.739	80.44
374.965	95.44
375.191	88.44
375.416	98.44
375.642	86.44
375.868	86.44
376.094	87.44
376.319	78.44
376.545	93.44
376.771	90.44
376.997	100.44
377.222	98.44
377.448	100.44
377.674	98.44
377.899	101.44
378.125	76.44
378.35	94.44
378.576	91.44
378.802	105.44
379.027	99.44
379.253	103.44
379.478	84.44
379.704	82.44
379.929	92.44
380.155	94.44
380.38	94.44
380.606	95.44
380.831	103.44
381.057	99.44
381.282	101.44
381.507	104.44
381.733	100.44
381.958	84.44
382.184	106.44
382.409	106.44
382.634	106.44
382.86	115.44
383.085	110.44
383.31	111.44
383.535	99.44
383.761	95.44
383.986	115.44
384.211	110.44
384.436	112.44
384.662	106.44
384.887	100.44
385.112	110.44
385.337	121.44
385.562	119.44
385.787	122.44
386.013	113.44
386.238	121.44
386.463	94.44
386.688	113.44
386.913	113.44
387.138	112.44
387.363	106.44
387.588	111.44
387.813	99.44
388.038	118.44
388.263	132.44
388.488	122.44
388.713	96.44
388.938	92.44
389.163	92.44
389.387	89.44
389.612	85.44
389.837	93.44
390.062	93.44
390.287	92.44
390.512	85.44
390.736	77.44
390.961	93.44
391.186	88.44
391.411	100.44
391.636	97.44
391.86	94.44
392.085	82.44
392.31	85.44
392.534	76.44
392.759	90.44
392.984	94.44
393.208	101.44
393.433	121.44
393.658	122.44
393.882	76.44
394.107	72.44
394.331	81.44
394.556	84.44
394.78	87.44
395.005	102.44
395.229	85.44
395.454	99.44
395.678	90.44
395.903	86.44
396.127	108.44
396.352	83.44
396.576	96.44
396.801	103.44
397.025	121.44
397.249	102.44
397.474	89.44
397.698	76.44
397.922	80.44
398.147	92.44
398.371	96.44
398.595	79.44
398.82	89.44
399.044	97.44
399.268	91.44
399.492	97.44
399.717	93.44
399.941	85.44
400.165	94.44
400.389	89.44
400.613	96.44
400.837	84.44
401.062	93.44
401.286	83.44
401.51	98.44
401.734	95.44
401.958	97.44
402.182	113.44
402.406	158.44
402.63	120.44
402.854	78.44
403.078	89.44
403.302	86.44
403.526	72.44
403.75	81.44
403.974	77.44
404.198	84.44
404.422	84.44
404.645	92.44
404.869	88.44
405.093	93.44
405.317	97.44
405.541	93.44
405.765	92.44
405.988	111.44
406.212	176.44
406.436	224.44
406.66	143.44
406.883	109.44
407.107	93.44
407.331	85.44
407.555	94.44
407.778	75.44
408.002	100.44
408.226	75.44
408.449	76.44
408.673	80.44
408.896	93.44
409.12	98.44
409.344	86.44
409.567	112.44
409.791	98.44
410.014	93.44
410.238	91.44
410.461	96.44
410.685	101.44
410.908	100.44
411.132	86.44
411.355	87.44
411.578	78.44
411.802	76.44
412.025	78.44
412.249	90.44
412.472	83.44
412.695	102.44
412.919	94.44
413.142	94.44
413.365	90.44
413.589	92.44
413.812	93.44
414.035	81.44
414.258	101.44
414.482	94.44
414.705	86.44
414.928	91.44
415.151	99.44
415.374	98.44
415.597	86.44
415.821	97.44
416.044	78.44
416.267	82.44
416.49	94.44
416.713	84.44
416.936	97.44
417.159	87.44
417.382	83.44
417.605	84.44
417.828	98.44
418.051	106.44
418.274	89.44
418.497	90.44
418.72	80.44
418.943	85.44
419.166	96.44
419.389	96.44
419.611	97.44
419.834	98.44
420.057	91.44
420.28	88.44
420.503	101.44
420.726	92.44
420.948	92.44
421.171	83.44
421.394	75.44
421.617	87.44
421.839	92.44
422.062	90.44
422.285	100.44
422.507	101.44
422.73	95.44
422.953	107.44
423.175	84.44
423.398	85.44
423.621	90.44
423.843	78.44
424.066	87.44
424.288	80.44
424.511	85.44
424.733	97.44
424.956	91.44
425.178	93.44
425.401	98.44
425.623	82.44
425.846	95.44
426.068	96.44
426.291	101.44
426.513	93.44
426.735	109.44
426.958	78.44
427.18	105.44
427.402	111.44
427.625	161.44
427.847	138.44
428.069	100.44
428.292	78.44
428.514	74.44
428.736	79.44
428.958	88.44
429.181	99.44
429.403	74.44
429.625	86.44
429.847	92.44
430.069	86.44
430.292	80.44
430.514	92.44
430.736	86.44
430.958	106.44
431.18	85.44
431.402	89.44
431.624	90.44
431.846	95.44
432.068	84.44
432.29	86.44
432.512	92.44
432.734	94.44
432.956	90.44
433.178	103.44
433.4	83.44
433.622	85.44
433.844	72.44
434.066	95.44
434.287	91.44
434.509	100.44
434.731	96.44
434.953	97.44
435.175	79.44
435.397	85.44
435.618	97.44
435.84	94.44
436.062	117.44
436.284	102.44
436.505	85.44
436.727	98.44
436.949	100.44
437.17	82.44
437.392	91.44
437.614	95.44
437.835	91.44
438.057	102.44
438.278	97.44
438.5	113.44
438.721	103.44
438.943	86.44
439.165	81.44
439.386	85.44
439.608	90.44
439.829	92.44
440.05	113.44
440.272	118.44
440.493	101.44
440.715	80.44
440.936	99.44
441.158	102.44
441.379	83.44
441.6	94.44
441.822	92.44
442.043	94.44
442.264	94.44
442.486	86.44
442.707	88.44
442.928	97.44
443.149	130.44
443.371	110.44
443.592	97.44
443.813	94.44
444.034	96.44
444.255	86.44
444.476	91.44
444.698	85.44
444.919	93.44
445.14	124.44
445.361	114.44
445.582	109.44
445.803	131.44
446.024	111.44
446.245	112.44
446.466	106.44
446.687	91.44
446.908	86.44
447.129	97.44
447.35	87.44
447.571	84.44
447.792	81.44
448.013	103.44
448.234	93.44
448.455	108.44
448.675	102.44
448.896	98.44
449.117	99.44
449.338	102.44
449.559	124.44
449.779	120.44
450	88.44
450.221	88.44
450.442	98.44
450.662	94.44
450.883	105.44
451.104	104.44
451.324	106.44
451.545	101.44
451.766	86.44
451.986	95.44
452.207	94.44
452.428	91.44
452.648	73.44
452.869	123.44
453.089	114.44
453.31	117.44
453.53	97.44
453.751	107.44
453.971	96.44
454.192	117.44
454.412	74.44
454.633	88.44
454.853	88.44
455.073	90.44
455.294	79.44
455.514	87.44
455.734	95.44
455.955	85.44
456.175	84.44
456.395	92.44
456.616	81.44
456.836	93.44
457.056	76.44
457.276	90.44
457.497	102.44
457.717	90.44
457.937	75.44
458.157	97.44
458.377	82.44
458.598	95.44
458.818	151.44
459.038	150.44
459.258	112.44
459.478	82.44
459.698	91.44
459.918	79.44
460.138	93.44
460.358	81.44
460.578	86.44
460.798	96.44
461.018	104.44
461.238	80.44
461.458	92.44
461.678	98.44
461.898	84.44
462.118	74.44
462.338	91.44
462.558	74.44
462.777	80.44
462.997	88.44
463.217	95.44
463.437	82.44
463.657	89.44
463.876	100.44
464.096	100.44
464.316	92.44
464.536	92.44
464.755	108.44
464.975	109.44
465.195	161.44
465.414	166.44
465.634	115.44
465.854	81.44
466.073	97.44
466.293	76.44
466.512	84.44
466.732	80.44
466.951	84.44
467.171	100.44
467.391	105.44
467.61	99.44
467.829	100.44
468.049	130.44
468.268	143.44
468.488	100.44
468.707	85.44
468.927	81.44
469.146	84.44
469.365	83.44
469.585	93.44
469.804	82.44
470.023	92.44
470.243	90.44
470.462	96.44
470.681	102.44
470.901	97.44
471.12	89.44
471.339	78.44
471.558	99.44
471.777	93.44
471.997	111.44
472.216	185.44
472.435	276.44
472.654	139.44
472.873	105.44
473.092	85.44
473.311	81.44
473.53	82.44
473.749	80.44
473.968	100.44
474.187	80.44
474.406	92.44
474.625	90.44
474.844	86.44
475.063	98.44
475.282	91.44
475.501	92.44
475.72	108.44
475.939	91.44
476.158	86.44
476.377	85.44
476.596	84.44
476.814	92.44
477.033	85.44
477.252	84.44
477.471	92.44
477.69	76.44
477.908	98.44
478.127	78.44
478.346	89.44
478.564	98.44
478.783	102.44
479.002	96.44
479.22	96.44
479.439	89.44
479.658	94.44
479.876	98.44
480.095	86.44
480.313	89.44
480.532	101.44
480.751	100.44
480.969	208.44
481.188	484.44
481.406	282.44
481.624	100.44
481.843	91.44
482.061	91.44
482.28	92.44
482.498	93.44
482.717	84.44
482.935	95.44
483.153	89.44
483.372	74.44
483.59	92.44
483.808	83.44
484.027	102.44
484.245	103.44
484.463	100.44
484.681	93.44
484.9	95.44
485.118	85.44
485.336	98.44
485.554	98.44
485.772	105.44
485.99	98.44
486.209	98.44
486.427	112.44
486.645	127.44
486.863	116.44
487.081	97.44
487.299	92.44
487.517	88.44
487.735	101.44
487.953	107.44
488.171	89.44
488.389	101.44
488.607	96.44
488.825	90.44
489.043	97.44
489.261	97.44
489.479	97.44
489.696	87.44
489.914	80.44
490.132	94.44
490.35	93.44
490.568	84.44
490.786	94.44
491.003	107.44
491.221	102.44
491.439	93.44
491.657	109.44
491.874	85.44
492.092	99.44
492.31	89.44
492.527	84.44
492.745	100.44
492.963	93.44
493.18	92.44
493.398	78.44
493.615	96.44
493.833	103.44
494.05	93.44
494.268	98.44
494.485	95.44
494.703	105.44
494.92	98.44
495.138	97.44
495.355	90.44
495.573	86.44
495.79	102.44
496.008	92.44
496.225	90.44
496.442	86.44
496.66	81.44
496.877	86.44
497.094	77.44
497.312	79.44
497.529	78.44
497.746	87.44
497.963	97.44
498.181	76.44
498.398	102.44
498.615	124.44
498.832	94.44
499.049	98.44
499.267	101.44
499.484	82.44
499.701	93.44
499.918	78.44
500.135	95.44
500.352	98.44
500.569	93.44
500.786	97.44
501.003	92.44
501.22	106.44
501.437	89.44
501.654	90.44
501.871	100.44
502.088	82.44
502.305	83.44
502.522	99.44
502.739	90.44
502.956	94.44
503.172	102.44
503.389	107.44
503.606	101.44
503.823	110.44
504.04	97.44
504.256	77.44
504.473	91.44
504.69	88.44
504.907	98.44
505.123	105.44
505.34	100.44
505.557	92.44
505.773	86.44
505.99	88.44
506.207	75.44
506.423	89.44
506.64	95.44
506.856	93.44
507.073	93.44
507.289	102.44
507.506	84.44
507.722	109.44
507.939	113.44
508.155	97.44
508.372	88.44
508.588	94.44
508.805	113.44
509.021	93.44
509.238	99.44
509.454	108.44
509.67	105.44
509.887	104.44
510.103	138.44
510.319	233.44
510.536	804.44
510.752	2622.44
510.968	696.44
511.184	156.44
511.401	101.44
511.617	90.44
511.833	101.44
512.049	101.44
512.265	102.44
512.481	102.44
512.698	86.44
512.914	98.44
513.13	97.44
513.346	91.44
513.562	101.44
513.778	74.44
513.994	102.44
514.21	102.44
514.426	118.44
514.642	124.44
514.858	128.44
515.074	173.44
