Data from Circ_1996_H10_HRD10591_00010.txt Node
Date: Wed Jan 03 11:33:08 EST 2024
User: Yrep
Spectrometer: HR+D1059
Trigger mode: 1
Integration Time (sec): 1.000000E-1
Scans to average: 1
Electric dark correction enabled: true
Nonlinearity correction enabled: false
Boxcar width: 0
XAxis mode: Wavelengths
Number of Pixels in Spectrum: 2048
>>>>>Begin Spectral Data<<<<<
223.165	-24.62
223.4	-24.62
223.635	-24.62
223.869	-23.62
224.104	-13.62
224.338	-13.62
224.573	-17.62
224.808	-14.62
225.042	-0.62
225.277	-10.62
225.511	-4.62
225.746	10.38
225.98	14.38
226.215	15.38
226.449	19.38
226.683	7.38
226.918	29.38
227.152	27.38
227.387	19.38
227.621	34.38
227.856	39.38
228.09	39.38
228.324	38.38
228.559	52.38
228.793	57.38
229.027	66.38
229.262	61.38
229.496	72.38
229.73	89.38
229.964	94.38
230.199	65.38
230.433	73.38
230.667	77.38
230.901	88.38
231.136	74.38
231.37	94.38
231.604	79.38
231.838	72.38
232.072	71.38
232.306	75.38
232.541	81.38
232.775	83.38
233.009	74.38
233.243	73.38
233.477	85.38
233.711	80.38
233.945	81.38
234.179	74.38
234.413	83.38
234.647	80.38
234.881	73.38
235.115	81.38
235.349	79.38
235.583	89.38
235.817	63.38
236.051	83.38
236.285	63.38
236.519	85.38
236.753	73.38
236.987	76.38
237.221	73.38
237.455	71.38
237.689	73.38
237.922	90.38
238.156	74.38
238.39	79.38
238.624	85.38
238.858	72.38
239.091	77.38
239.325	95.38
239.559	86.38
239.793	80.38
240.027	79.38
240.26	66.38
240.494	77.38
240.728	75.38
240.961	76.38
241.195	80.38
241.429	75.38
241.662	76.38
241.896	75.38
242.13	83.38
242.363	79.38
242.597	85.38
242.83	88.38
243.064	63.38
243.298	64.38
243.531	92.38
243.765	82.38
243.998	70.38
244.232	90.38
244.465	77.38
244.699	74.38
244.932	61.38
245.166	81.38
245.399	75.38
245.633	73.38
245.866	81.38
246.099	56.38
246.333	79.38
246.566	79.38
246.8	87.38
247.033	85.38
247.266	75.38
247.5	87.38
247.733	78.38
247.966	79.38
248.2	68.38
248.433	79.38
248.666	89.38
248.899	75.38
249.133	87.38
249.366	109.38
249.599	103.38
249.832	86.38
250.066	71.38
250.299	73.38
250.532	74.38
250.765	63.38
250.998	77.38
251.231	75.38
251.465	74.38
251.698	83.38
251.931	79.38
252.164	64.38
252.397	64.38
252.63	75.38
252.863	68.38
253.096	73.38
253.329	90.38
253.562	73.38
253.795	81.38
254.028	75.38
254.261	85.38
254.494	81.38
254.727	81.38
254.96	77.38
255.193	81.38
255.426	85.38
255.659	70.38
255.892	76.38
256.124	79.38
256.357	78.38
256.59	77.38
256.823	76.38
257.056	77.38
257.289	80.38
257.521	81.38
257.754	82.38
257.987	78.38
258.22	83.38
258.452	97.38
258.685	78.38
258.918	78.38
259.151	81.38
259.383	78.38
259.616	78.38
259.849	86.38
260.081	81.38
260.314	69.38
260.547	78.38
260.779	89.38
261.012	90.38
261.244	79.38
261.477	93.38
261.71	70.38
261.942	106.38
262.175	102.38
262.407	95.38
262.64	80.38
262.872	79.38
263.105	81.38
263.337	85.38
263.57	75.38
263.802	73.38
264.035	86.38
264.267	85.38
264.499	82.38
264.732	77.38
264.964	89.38
265.197	93.38
265.429	85.38
265.661	79.38
265.894	90.38
266.126	78.38
266.358	82.38
266.591	81.38
266.823	81.38
267.055	79.38
267.287	77.38
267.52	89.38
267.752	86.38
267.984	87.38
268.216	70.38
268.448	74.38
268.681	89.38
268.913	88.38
269.145	95.38
269.377	88.38
269.609	78.38
269.841	80.38
270.073	85.38
270.306	79.38
270.538	81.38
270.77	98.38
271.002	86.38
271.234	83.38
271.466	65.38
271.698	83.38
271.93	83.38
272.162	94.38
272.394	85.38
272.626	99.38
272.858	88.38
273.09	78.38
273.322	86.38
273.553	81.38
273.785	85.38
274.017	84.38
274.249	101.38
274.481	79.38
274.713	87.38
274.945	84.38
275.176	73.38
275.408	88.38
275.64	79.38
275.872	85.38
276.104	86.38
276.335	91.38
276.567	94.38
276.799	100.38
277.031	97.38
277.262	88.38
277.494	91.38
277.726	89.38
277.957	90.38
278.189	96.38
278.421	86.38
278.652	75.38
278.884	77.38
279.115	83.38
279.347	77.38
279.579	81.38
279.81	89.38
280.042	84.38
280.273	103.38
280.505	82.38
280.736	103.38
280.968	86.38
281.199	96.38
281.431	81.38
281.662	79.38
281.894	93.38
282.125	82.38
282.356	117.38
282.588	124.38
282.819	100.38
283.051	104.38
283.282	80.38
283.513	96.38
283.745	67.38
283.976	80.38
284.207	67.38
284.439	88.38
284.67	85.38
284.901	74.38
285.132	90.38
285.364	94.38
285.595	79.38
285.826	86.38
286.057	82.38
286.288	101.38
286.52	88.38
286.751	84.38
286.982	75.38
287.213	83.38
287.444	89.38
287.675	85.38
287.906	97.38
288.138	83.38
288.369	88.38
288.6	83.38
288.831	87.38
289.062	78.38
289.293	72.38
289.524	86.38
289.755	95.38
289.986	79.38
290.217	76.38
290.448	90.38
290.679	103.38
290.91	88.38
291.141	79.38
291.371	91.38
291.602	90.38
291.833	80.38
292.064	94.38
292.295	94.38
292.526	79.38
292.757	85.38
292.987	82.38
293.218	92.38
293.449	91.38
293.68	77.38
293.91	88.38
294.141	103.38
294.372	94.38
294.603	81.38
294.833	87.38
295.064	96.38
295.295	102.38
295.525	97.38
295.756	112.38
295.987	99.38
296.217	133.38
296.448	118.38
296.679	88.38
296.909	74.38
297.14	88.38
297.37	89.38
297.601	83.38
297.831	92.38
298.062	98.38
298.292	97.38
298.523	99.38
298.753	88.38
298.984	85.38
299.214	85.38
299.445	92.38
299.675	94.38
299.905	94.38
300.136	90.38
300.366	97.38
300.597	94.38
300.827	89.38
301.057	94.38
301.288	100.38
301.518	67.38
301.748	85.38
301.979	109.38
302.209	91.38
302.439	95.38
302.669	74.38
302.9	85.38
303.13	90.38
303.36	95.38
303.59	86.38
303.82	103.38
304.051	98.38
304.281	94.38
304.511	85.38
304.741	72.38
304.971	87.38
305.201	89.38
305.431	81.38
305.661	79.38
305.891	97.38
306.121	87.38
306.352	103.38
306.582	96.38
306.812	78.38
307.042	89.38
307.272	106.38
307.502	105.38
307.731	111.38
307.961	88.38
308.191	79.38
308.421	82.38
308.651	95.38
308.881	81.38
309.111	87.38
309.341	97.38
309.571	96.38
309.8	106.38
310.03	89.38
310.26	98.38
310.49	103.38
310.72	97.38
310.949	103.38
311.179	98.38
311.409	87.38
311.639	95.38
311.868	90.38
312.098	101.38
312.328	82.38
312.557	88.38
312.787	95.38
313.017	104.38
313.246	90.38
313.476	93.38
313.706	80.38
313.935	84.38
314.165	96.38
314.394	111.38
314.624	104.38
314.853	98.38
315.083	87.38
315.312	89.38
315.542	90.38
315.771	92.38
316.001	97.38
316.23	86.38
316.46	101.38
316.689	94.38
316.919	81.38
317.148	81.38
317.377	91.38
317.607	94.38
317.836	86.38
318.065	91.38
318.295	80.38
318.524	89.38
318.753	88.38
318.983	91.38
319.212	110.38
319.441	106.38
319.67	103.38
319.9	101.38
320.129	97.38
320.358	96.38
320.587	111.38
320.816	106.38
321.046	86.38
321.275	97.38
321.504	93.38
321.733	79.38
321.962	108.38
322.191	94.38
322.42	96.38
322.649	113.38
322.878	101.38
323.108	114.38
323.337	126.38
323.566	112.38
323.795	125.38
324.024	154.38
324.253	319.38
324.482	603.38
324.71	1146.38
324.939	1519.38
325.168	573.38
325.397	181.38
325.626	131.38
325.855	121.38
326.084	119.38
326.313	105.38
326.542	127.38
326.77	175.38
326.999	319.38
327.228	627.38
327.457	1114.38
327.686	919.38
327.914	276.38
328.143	183.38
328.372	157.38
328.6	124.38
328.829	113.38
329.058	106.38
329.287	102.38
329.515	102.38
329.744	108.38
329.972	126.38
330.201	165.38
330.43	185.38
330.658	153.38
330.887	134.38
331.115	99.38
331.344	89.38
331.572	115.38
331.801	90.38
332.03	99.38
332.258	85.38
332.486	92.38
332.715	88.38
332.943	103.38
333.172	85.38
333.4	95.38
333.629	103.38
333.857	135.38
334.085	126.38
334.314	177.38
334.542	225.38
334.771	223.38
334.999	113.38
335.227	95.38
335.455	95.38
335.684	97.38
335.912	94.38
336.14	109.38
336.369	100.38
336.597	89.38
336.825	81.38
337.053	89.38
337.281	100.38
337.51	92.38
337.738	86.38
337.966	105.38
338.194	107.38
338.422	92.38
338.65	98.38
338.878	79.38
339.106	97.38
339.334	91.38
339.562	92.38
339.79	99.38
340.018	96.38
340.246	110.38
340.474	100.38
340.702	93.38
340.93	83.38
341.158	99.38
341.386	94.38
341.614	97.38
341.842	95.38
342.07	92.38
342.298	88.38
342.526	88.38
342.754	72.38
342.981	82.38
343.209	95.38
343.437	95.38
343.665	96.38
343.893	89.38
344.12	103.38
344.348	100.38
344.576	91.38
344.804	105.38
345.031	83.38
345.259	89.38
345.487	91.38
345.714	91.38
345.942	91.38
346.17	83.38
346.397	100.38
346.625	81.38
346.853	85.38
347.08	96.38
347.308	104.38
347.535	106.38
347.763	97.38
347.99	90.38
348.218	81.38
348.445	103.38
348.673	119.38
348.9	103.38
349.128	98.38
349.355	78.38
349.583	95.38
349.81	94.38
350.037	78.38
350.265	92.38
350.492	94.38
350.72	88.38
350.947	110.38
351.174	109.38
351.402	98.38
351.629	105.38
351.856	93.38
352.083	92.38
352.311	99.38
352.538	97.38
352.765	104.38
352.992	119.38
353.22	112.38
353.447	103.38
353.674	89.38
353.901	96.38
354.128	95.38
354.355	100.38
354.583	94.38
354.81	105.38
355.037	101.38
355.264	101.38
355.491	94.38
355.718	94.38
355.945	103.38
356.172	105.38
356.399	98.38
356.626	90.38
356.853	88.38
357.08	86.38
357.307	93.38
357.534	85.38
357.761	100.38
357.988	94.38
358.215	88.38
358.441	103.38
358.668	107.38
358.895	86.38
359.122	77.38
359.349	98.38
359.576	90.38
359.802	105.38
360.029	109.38
360.256	118.38
360.483	90.38
360.709	91.38
360.936	89.38
361.163	75.38
361.39	93.38
361.616	72.38
361.843	90.38
362.07	99.38
362.296	92.38
362.523	87.38
362.749	99.38
362.976	99.38
363.203	88.38
363.429	87.38
363.656	91.38
363.882	97.38
364.109	93.38
364.335	90.38
364.562	86.38
364.788	80.38
365.015	92.38
365.241	93.38
365.468	108.38
365.694	91.38
365.92	105.38
366.147	82.38
366.373	83.38
366.599	71.38
366.826	87.38
367.052	94.38
367.278	96.38
367.505	93.38
367.731	94.38
367.957	87.38
368.184	99.38
368.41	106.38
368.636	104.38
368.862	110.38
369.089	100.38
369.315	88.38
369.541	90.38
369.767	106.38
369.993	91.38
370.219	85.38
370.445	101.38
370.672	82.38
370.898	78.38
371.124	82.38
371.35	89.38
371.576	80.38
371.802	91.38
372.028	95.38
372.254	99.38
372.48	86.38
372.706	83.38
372.932	103.38
373.158	97.38
373.384	78.38
373.61	83.38
373.835	87.38
374.061	95.38
374.287	89.38
374.513	89.38
374.739	81.38
374.965	93.38
375.191	83.38
375.416	109.38
375.642	89.38
375.868	99.38
376.094	100.38
376.319	83.38
376.545	97.38
376.771	97.38
376.997	86.38
377.222	90.38
377.448	91.38
377.674	83.38
377.899	82.38
378.125	91.38
378.35	99.38
378.576	103.38
378.802	101.38
379.027	104.38
379.253	104.38
379.478	87.38
379.704	99.38
379.929	112.38
380.155	94.38
380.38	100.38
380.606	91.38
380.831	101.38
381.057	101.38
381.282	105.38
381.507	100.38
381.733	108.38
381.958	104.38
382.184	116.38
382.409	106.38
382.634	106.38
382.86	118.38
383.085	106.38
383.31	104.38
383.535	113.38
383.761	114.38
383.986	113.38
384.211	105.38
384.436	108.38
384.662	121.38
384.887	107.38
385.112	115.38
385.337	127.38
385.562	118.38
385.787	120.38
386.013	114.38
386.238	141.38
386.463	122.38
386.688	113.38
386.913	124.38
387.138	125.38
387.363	118.38
387.588	97.38
387.813	120.38
388.038	130.38
388.263	121.38
388.488	113.38
388.713	98.38
388.938	87.38
389.163	101.38
389.387	95.38
389.612	89.38
389.837	85.38
390.062	101.38
390.287	94.38
390.512	71.38
390.736	86.38
390.961	97.38
391.186	91.38
391.411	86.38
391.636	101.38
391.86	87.38
392.085	94.38
392.31	77.38
392.534	82.38
392.759	94.38
392.984	93.38
393.208	94.38
393.433	133.38
393.658	124.38
393.882	67.38
394.107	82.38
394.331	77.38
394.556	87.38
394.78	85.38
395.005	87.38
395.229	94.38
395.454	83.38
395.678	87.38
395.903	83.38
396.127	87.38
396.352	80.38
396.576	82.38
396.801	104.38
397.025	113.38
397.249	109.38
397.474	97.38
397.698	89.38
397.922	81.38
398.147	85.38
398.371	86.38
398.595	78.38
398.82	87.38
399.044	85.38
399.268	80.38
399.492	85.38
399.717	87.38
399.941	83.38
400.165	91.38
400.389	93.38
400.613	97.38
400.837	90.38
401.062	92.38
401.286	86.38
401.51	98.38
401.734	76.38
401.958	99.38
402.182	99.38
402.406	155.38
402.63	113.38
402.854	103.38
403.078	78.38
403.302	95.38
403.526	89.38
403.75	85.38
403.974	74.38
404.198	70.38
404.422	88.38
404.645	94.38
404.869	89.38
405.093	99.38
405.317	98.38
405.541	86.38
405.765	99.38
405.988	114.38
406.212	153.38
406.436	209.38
406.66	139.38
406.883	80.38
407.107	100.38
407.331	94.38
407.555	91.38
407.778	95.38
408.002	91.38
408.226	80.38
408.449	94.38
408.673	99.38
408.896	98.38
409.12	83.38
409.344	84.38
409.567	86.38
409.791	93.38
410.014	86.38
410.238	87.38
410.461	90.38
410.685	83.38
410.908	103.38
411.132	95.38
411.355	79.38
411.578	103.38
411.802	89.38
412.025	90.38
412.249	88.38
412.472	78.38
412.695	107.38
412.919	92.38
413.142	84.38
413.365	88.38
413.589	90.38
413.812	90.38
414.035	101.38
414.258	92.38
414.482	89.38
414.705	82.38
414.928	79.38
415.151	97.38
415.374	110.38
415.597	104.38
415.821	77.38
416.044	89.38
416.267	86.38
416.49	79.38
416.713	96.38
416.936	93.38
417.159	78.38
417.382	98.38
417.605	90.38
417.828	82.38
418.051	90.38
418.274	93.38
418.497	72.38
418.72	86.38
418.943	86.38
419.166	84.38
419.389	71.38
419.611	94.38
419.834	78.38
420.057	81.38
420.28	80.38
420.503	81.38
420.726	87.38
420.948	82.38
421.171	89.38
421.394	88.38
421.617	97.38
421.839	89.38
422.062	89.38
422.285	93.38
422.507	91.38
422.73	96.38
422.953	90.38
423.175	89.38
423.398	103.38
423.621	82.38
423.843	77.38
424.066	82.38
424.288	77.38
424.511	99.38
424.733	83.38
424.956	90.38
425.178	102.38
425.401	85.38
425.623	86.38
425.846	87.38
426.068	91.38
426.291	81.38
426.513	85.38
426.735	87.38
426.958	89.38
427.18	99.38
427.402	131.38
427.625	149.38
427.847	116.38
428.069	116.38
428.292	89.38
428.514	86.38
428.736	89.38
428.958	98.38
429.181	77.38
429.403	82.38
429.625	81.38
429.847	86.38
430.069	108.38
430.292	90.38
430.514	91.38
430.736	86.38
430.958	82.38
431.18	75.38
431.402	79.38
431.624	88.38
431.846	93.38
432.068	90.38
432.29	86.38
432.512	81.38
432.734	81.38
432.956	102.38
433.178	96.38
433.4	83.38
433.622	89.38
433.844	86.38
434.066	87.38
434.287	118.38
434.509	97.38
434.731	91.38
434.953	95.38
435.175	89.38
435.397	89.38
435.618	91.38
435.84	98.38
436.062	108.38
436.284	102.38
436.505	93.38
436.727	107.38
436.949	85.38
437.17	99.38
437.392	89.38
437.614	96.38
437.835	106.38
438.057	117.38
438.278	96.38
438.5	99.38
438.721	100.38
438.943	108.38
439.165	76.38
439.386	91.38
439.608	98.38
439.829	105.38
440.05	111.38
440.272	117.38
440.493	99.38
440.715	93.38
440.936	81.38
441.158	77.38
441.379	77.38
441.6	85.38
441.822	84.38
442.043	91.38
442.264	86.38
442.486	93.38
442.707	103.38
442.928	87.38
443.149	107.38
443.371	112.38
443.592	110.38
443.813	111.38
444.034	101.38
444.255	81.38
444.476	81.38
444.698	83.38
444.919	89.38
445.14	129.38
445.361	107.38
445.582	107.38
445.803	121.38
446.024	117.38
446.245	113.38
446.466	92.38
446.687	80.38
446.908	104.38
447.129	78.38
447.35	91.38
447.571	96.38
447.792	103.38
448.013	96.38
448.234	97.38
448.455	94.38
448.675	96.38
448.896	96.38
449.117	86.38
449.338	91.38
449.559	106.38
449.779	115.38
450	92.38
450.221	82.38
450.442	88.38
450.662	89.38
450.883	88.38
451.104	84.38
451.324	93.38
451.545	89.38
451.766	85.38
451.986	94.38
452.207	84.38
452.428	88.38
452.648	102.38
452.869	109.38
453.089	109.38
453.31	108.38
453.53	92.38
453.751	81.38
453.971	115.38
454.192	110.38
454.412	90.38
454.633	86.38
454.853	88.38
455.073	83.38
455.294	78.38
455.514	87.38
455.734	89.38
455.955	81.38
456.175	80.38
456.395	85.38
456.616	81.38
456.836	91.38
457.056	81.38
457.276	91.38
457.497	85.38
457.717	86.38
457.937	88.38
458.157	74.38
458.377	103.38
458.598	109.38
458.818	138.38
459.038	135.38
459.258	112.38
459.478	88.38
459.698	98.38
459.918	88.38
460.138	77.38
460.358	85.38
460.578	79.38
460.798	91.38
461.018	89.38
461.238	77.38
461.458	89.38
461.678	88.38
461.898	80.38
462.118	81.38
462.338	67.38
462.558	82.38
462.777	83.38
462.997	88.38
463.217	82.38
463.437	93.38
463.657	80.38
463.876	83.38
464.096	96.38
464.316	79.38
464.536	82.38
464.755	100.38
464.975	92.38
465.195	152.38
465.414	145.38
465.634	90.38
465.854	92.38
466.073	76.38
466.293	89.38
466.512	94.38
466.732	78.38
466.951	98.38
467.171	88.38
467.391	91.38
467.61	97.38
467.829	99.38
468.049	133.38
468.268	137.38
468.488	96.38
468.707	80.38
468.927	95.38
469.146	87.38
469.365	84.38
469.585	93.38
469.804	83.38
470.023	98.38
470.243	97.38
470.462	107.38
470.681	106.38
470.901	95.38
471.12	89.38
471.339	90.38
471.558	96.38
471.777	93.38
471.997	111.38
472.216	184.38
472.435	275.38
472.654	127.38
472.873	86.38
473.092	101.38
473.311	99.38
473.53	86.38
473.749	89.38
473.968	81.38
474.187	92.38
474.406	103.38
474.625	82.38
474.844	94.38
475.063	85.38
475.282	82.38
475.501	82.38
475.72	94.38
475.939	87.38
476.158	94.38
476.377	89.38
476.596	97.38
476.814	90.38
477.033	77.38
477.252	79.38
477.471	86.38
477.69	72.38
477.908	84.38
478.127	78.38
478.346	80.38
478.564	81.38
478.783	93.38
479.002	92.38
479.22	95.38
479.439	99.38
479.658	102.38
479.876	99.38
480.095	91.38
480.313	96.38
480.532	93.38
480.751	101.38
480.969	173.38
481.188	478.38
481.406	303.38
481.624	113.38
481.843	91.38
482.061	89.38
482.28	87.38
482.498	93.38
482.717	90.38
482.935	80.38
483.153	83.38
483.372	78.38
483.59	94.38
483.808	73.38
484.027	89.38
484.245	90.38
484.463	106.38
484.681	105.38
484.9	96.38
485.118	85.38
485.336	113.38
485.554	109.38
485.772	103.38
485.99	109.38
486.209	113.38
486.427	107.38
486.645	110.38
486.863	112.38
487.081	98.38
487.299	89.38
487.517	105.38
487.735	86.38
487.953	92.38
488.171	96.38
488.389	88.38
488.607	99.38
488.825	93.38
489.043	89.38
489.261	88.38
489.479	79.38
489.696	89.38
489.914	86.38
490.132	80.38
490.35	103.38
490.568	92.38
490.786	89.38
491.003	81.38
491.221	89.38
491.439	89.38
491.657	90.38
491.874	89.38
492.092	81.38
492.31	81.38
492.527	93.38
492.745	93.38
492.963	94.38
493.18	89.38
493.398	94.38
493.615	99.38
493.833	94.38
494.05	88.38
494.268	75.38
494.485	88.38
494.703	84.38
494.92	85.38
495.138	88.38
495.355	90.38
495.573	87.38
495.79	94.38
496.008	98.38
496.225	93.38
496.442	81.38
496.66	89.38
496.877	99.38
497.094	80.38
497.312	91.38
497.529	84.38
497.746	78.38
497.963	75.38
498.181	98.38
498.398	92.38
498.615	105.38
498.832	88.38
499.049	88.38
499.267	81.38
499.484	88.38
499.701	85.38
499.918	109.38
500.135	85.38
500.352	79.38
500.569	85.38
500.786	84.38
501.003	87.38
501.22	83.38
501.437	85.38
501.654	88.38
501.871	96.38
502.088	80.38
502.305	76.38
502.522	107.38
502.739	97.38
502.956	97.38
503.172	101.38
503.389	83.38
503.606	92.38
503.823	86.38
504.04	76.38
504.256	79.38
504.473	98.38
504.69	80.38
504.907	88.38
505.123	85.38
505.34	90.38
505.557	90.38
505.773	83.38
505.99	91.38
506.207	78.38
506.423	86.38
506.64	107.38
506.856	84.38
507.073	91.38
507.289	105.38
507.506	88.38
507.722	107.38
507.939	110.38
508.155	85.38
508.372	88.38
508.588	95.38
508.805	99.38
509.021	93.38
509.238	82.38
509.454	95.38
509.67	91.38
509.887	124.38
510.103	121.38
510.319	200.38
510.536	739.38
510.752	2461.38
510.968	681.38
511.184	160.38
511.401	98.38
511.617	91.38
511.833	97.38
512.049	94.38
512.265	83.38
512.481	92.38
512.698	87.38
512.914	96.38
513.13	96.38
513.346	97.38
513.562	80.38
513.778	98.38
513.994	92.38
514.21	88.38
514.426	103.38
514.642	130.38
514.858	114.38
515.074	154.38
515.29	430.38
515.506	1353.38
515.721	510.38
515.937	147.38
