Data from Circ_1996_H10_HRD10591_00034.txt Node
Date: Wed Jan 03 11:33:12 EST 2024
User: Yrep
Spectrometer: HR+D1059
Trigger mode: 1
Integration Time (sec): 1.000000E-1
Scans to average: 1
Electric dark correction enabled: true
Nonlinearity correction enabled: false
Boxcar width: 0
XAxis mode: Wavelengths
Number of Pixels in Spectrum: 2048
>>>>>Begin Spectral Data<<<<<
223.165	-14.81
223.4	-14.81
223.635	-14.81
223.869	-17.81
224.104	-16.81
224.338	-14.81
224.573	-15.81
224.808	-17.81
225.042	-1.81
225.277	-3.81
225.511	6.19
225.746	10.19
225.98	-8.81
226.215	22.19
226.449	10.19
226.683	10.19
226.918	27.19
227.152	26.19
227.387	35.19
227.621	47.19
227.856	42.19
228.09	44.19
228.324	51.19
228.559	42.19
228.793	54.19
229.027	68.19
229.262	62.19
229.496	75.19
229.73	84.19
229.964	86.19
230.199	73.19
230.433	70.19
230.667	80.19
230.901	88.19
231.136	71.19
231.37	78.19
231.604	70.19
231.838	88.19
232.072	78.19
232.306	76.19
232.541	78.19
232.775	82.19
233.009	77.19
233.243	74.19
233.477	78.19
233.711	84.19
233.945	87.19
234.179	80.19
234.413	92.19
234.647	74.19
234.881	66.19
235.115	80.19
235.349	70.19
235.583	65.19
235.817	70.19
236.051	81.19
236.285	72.19
236.519	64.19
236.753	67.19
236.987	74.19
237.221	79.19
237.455	90.19
237.689	85.19
237.922	71.19
238.156	84.19
238.39	84.19
238.624	74.19
238.858	81.19
239.091	74.19
239.325	83.19
239.559	72.19
239.793	66.19
240.027	65.19
240.26	84.19
240.494	75.19
240.728	71.19
240.961	66.19
241.195	70.19
241.429	76.19
241.662	83.19
241.896	68.19
242.13	81.19
242.363	74.19
242.597	82.19
242.83	81.19
243.064	70.19
243.298	57.19
243.531	81.19
243.765	68.19
243.998	85.19
244.232	84.19
244.465	84.19
244.699	89.19
244.932	77.19
245.166	83.19
245.399	76.19
245.633	90.19
245.866	65.19
246.099	86.19
246.333	74.19
246.566	73.19
246.8	78.19
247.033	75.19
247.266	78.19
247.5	71.19
247.733	75.19
247.966	86.19
248.2	82.19
248.433	71.19
248.666	87.19
248.899	87.19
249.133	85.19
249.366	99.19
249.599	86.19
249.832	74.19
250.066	94.19
250.299	89.19
250.532	76.19
250.765	84.19
250.998	88.19
251.231	80.19
251.465	66.19
251.698	81.19
251.931	86.19
252.164	91.19
252.397	78.19
252.63	87.19
252.863	77.19
253.096	88.19
253.329	95.19
253.562	70.19
253.795	83.19
254.028	81.19
254.261	79.19
254.494	80.19
254.727	80.19
254.96	82.19
255.193	82.19
255.426	89.19
255.659	81.19
255.892	80.19
256.124	87.19
256.357	97.19
256.59	86.19
256.823	88.19
257.056	83.19
257.289	87.19
257.521	88.19
257.754	86.19
257.987	83.19
258.22	90.19
258.452	82.19
258.685	93.19
258.918	77.19
259.151	88.19
259.383	81.19
259.616	94.19
259.849	83.19
260.081	81.19
260.314	86.19
260.547	90.19
260.779	82.19
261.012	86.19
261.244	73.19
261.477	70.19
261.71	86.19
261.942	95.19
262.175	122.19
262.407	95.19
262.64	76.19
262.872	66.19
263.105	95.19
263.337	93.19
263.57	89.19
263.802	85.19
264.035	97.19
264.267	87.19
264.499	93.19
264.732	84.19
264.964	74.19
265.197	100.19
265.429	90.19
265.661	77.19
265.894	87.19
266.126	97.19
266.358	79.19
266.591	94.19
266.823	93.19
267.055	73.19
267.287	86.19
267.52	104.19
267.752	74.19
267.984	83.19
268.216	78.19
268.448	78.19
268.681	93.19
268.913	92.19
269.145	82.19
269.377	79.19
269.609	78.19
269.841	92.19
270.073	90.19
270.306	82.19
270.538	95.19
270.77	80.19
271.002	82.19
271.234	86.19
271.466	81.19
271.698	86.19
271.93	82.19
272.162	92.19
272.394	106.19
272.626	79.19
272.858	88.19
273.09	80.19
273.322	78.19
273.553	91.19
273.785	92.19
274.017	77.19
274.249	72.19
274.481	82.19
274.713	86.19
274.945	87.19
275.176	90.19
275.408	83.19
275.64	86.19
275.872	81.19
276.104	82.19
276.335	91.19
276.567	102.19
276.799	101.19
277.031	94.19
277.262	89.19
277.494	94.19
277.726	83.19
277.957	78.19
278.189	91.19
278.421	78.19
278.652	91.19
278.884	92.19
279.115	99.19
279.347	84.19
279.579	63.19
279.81	98.19
280.042	93.19
280.273	85.19
280.505	104.19
280.736	83.19
280.968	88.19
281.199	83.19
281.431	75.19
281.662	89.19
281.894	93.19
282.125	92.19
282.356	125.19
282.588	150.19
282.819	121.19
283.051	102.19
283.282	90.19
283.513	83.19
283.745	78.19
283.976	83.19
284.207	94.19
284.439	81.19
284.67	96.19
284.901	101.19
285.132	88.19
285.364	86.19
285.595	91.19
285.826	92.19
286.057	84.19
286.288	80.19
286.52	64.19
286.751	81.19
286.982	87.19
287.213	77.19
287.444	83.19
287.675	93.19
287.906	89.19
288.138	92.19
288.369	87.19
288.6	85.19
288.831	87.19
289.062	84.19
289.293	86.19
289.524	94.19
289.755	106.19
289.986	78.19
290.217	87.19
290.448	75.19
290.679	100.19
290.91	94.19
291.141	81.19
291.371	92.19
291.602	80.19
291.833	99.19
292.064	87.19
292.295	106.19
292.526	79.19
292.757	87.19
292.987	88.19
293.218	84.19
293.449	89.19
293.68	64.19
293.91	90.19
294.141	92.19
294.372	79.19
294.603	89.19
294.833	90.19
295.064	88.19
295.295	98.19
295.525	95.19
295.756	88.19
295.987	129.19
296.217	144.19
296.448	136.19
296.679	93.19
296.909	89.19
297.14	99.19
297.37	96.19
297.601	98.19
297.831	88.19
298.062	99.19
298.292	87.19
298.523	83.19
298.753	96.19
298.984	89.19
299.214	106.19
299.445	75.19
299.675	79.19
299.905	110.19
300.136	91.19
300.366	86.19
300.597	90.19
300.827	85.19
301.057	97.19
301.288	115.19
301.518	99.19
301.748	96.19
301.979	92.19
302.209	90.19
302.439	93.19
302.669	104.19
302.9	83.19
303.13	96.19
303.36	91.19
303.59	91.19
303.82	100.19
304.051	99.19
304.281	99.19
304.511	92.19
304.741	73.19
304.971	86.19
305.201	86.19
305.431	92.19
305.661	87.19
305.891	96.19
306.121	87.19
306.352	99.19
306.582	112.19
306.812	104.19
307.042	96.19
307.272	94.19
307.502	100.19
307.731	97.19
307.961	106.19
308.191	88.19
308.421	93.19
308.651	98.19
308.881	90.19
309.111	98.19
309.341	75.19
309.571	105.19
309.8	92.19
310.03	99.19
310.26	95.19
310.49	84.19
310.72	102.19
310.949	101.19
311.179	93.19
311.409	92.19
311.639	95.19
311.868	99.19
312.098	97.19
312.328	93.19
312.557	107.19
312.787	111.19
313.017	108.19
313.246	86.19
313.476	78.19
313.706	91.19
313.935	94.19
314.165	107.19
314.394	93.19
314.624	88.19
314.853	94.19
315.083	102.19
315.312	91.19
315.542	92.19
315.771	87.19
316.001	93.19
316.23	96.19
316.46	95.19
316.689	93.19
316.919	87.19
317.148	99.19
317.377	92.19
317.607	97.19
317.836	84.19
318.065	86.19
318.295	85.19
318.524	99.19
318.753	91.19
318.983	97.19
319.212	99.19
319.441	96.19
319.67	113.19
319.9	102.19
320.129	95.19
320.358	83.19
320.587	93.19
320.816	104.19
321.046	111.19
321.275	104.19
321.504	103.19
321.733	88.19
321.962	97.19
322.191	94.19
322.42	98.19
322.649	118.19
322.878	99.19
323.108	98.19
323.337	109.19
323.566	120.19
323.795	135.19
324.024	170.19
324.253	307.19
324.482	622.19
324.71	1251.19
324.939	1592.19
325.168	640.19
325.397	215.19
325.626	145.19
325.855	106.19
326.084	110.19
326.313	127.19
326.542	136.19
326.77	186.19
326.999	336.19
327.228	641.19
327.457	1150.19
327.686	920.19
327.914	301.19
328.143	178.19
328.372	158.19
328.6	130.19
328.829	98.19
329.058	119.19
329.287	128.19
329.515	105.19
329.744	127.19
329.972	131.19
330.201	155.19
330.43	191.19
330.658	147.19
330.887	142.19
331.115	116.19
331.344	100.19
331.572	96.19
331.801	104.19
332.03	99.19
332.258	95.19
332.486	96.19
332.715	100.19
332.943	83.19
333.172	107.19
333.4	99.19
333.629	114.19
333.857	115.19
334.085	132.19
334.314	150.19
334.542	221.19
334.771	185.19
334.999	111.19
335.227	98.19
335.455	92.19
335.684	92.19
335.912	98.19
336.14	114.19
336.369	106.19
336.597	89.19
336.825	103.19
337.053	90.19
337.281	92.19
337.51	88.19
337.738	75.19
337.966	99.19
338.194	105.19
338.422	105.19
338.65	94.19
338.878	85.19
339.106	117.19
339.334	82.19
339.562	82.19
339.79	78.19
340.018	84.19
340.246	87.19
340.474	85.19
340.702	90.19
340.93	104.19
341.158	93.19
341.386	92.19
341.614	94.19
341.842	104.19
342.07	79.19
342.298	89.19
342.526	93.19
342.754	99.19
342.981	102.19
343.209	89.19
343.437	97.19
343.665	90.19
343.893	103.19
344.12	90.19
344.348	89.19
344.576	83.19
344.804	95.19
345.031	99.19
345.259	95.19
345.487	88.19
345.714	80.19
345.942	80.19
346.17	92.19
346.397	89.19
346.625	91.19
346.853	77.19
347.08	96.19
347.308	89.19
347.535	90.19
347.763	106.19
347.99	109.19
348.218	91.19
348.445	116.19
348.673	95.19
348.9	97.19
349.128	96.19
349.355	81.19
349.583	98.19
349.81	100.19
350.037	93.19
350.265	107.19
350.492	94.19
350.72	86.19
350.947	91.19
351.174	103.19
351.402	116.19
351.629	103.19
351.856	108.19
352.083	106.19
352.311	111.19
352.538	100.19
352.765	105.19
352.992	110.19
353.22	106.19
353.447	115.19
353.674	91.19
353.901	88.19
354.128	98.19
354.355	96.19
354.583	87.19
354.81	94.19
355.037	98.19
355.264	92.19
355.491	99.19
355.718	100.19
355.945	108.19
356.172	104.19
356.399	95.19
356.626	84.19
356.853	81.19
357.08	92.19
357.307	94.19
357.534	99.19
357.761	93.19
357.988	76.19
358.215	106.19
358.441	88.19
358.668	85.19
358.895	94.19
359.122	90.19
359.349	79.19
359.576	83.19
359.802	96.19
360.029	103.19
360.256	103.19
360.483	96.19
360.709	83.19
360.936	86.19
361.163	97.19
361.39	84.19
361.616	90.19
361.843	82.19
362.07	100.19
362.296	96.19
362.523	102.19
362.749	88.19
362.976	103.19
363.203	92.19
363.429	81.19
363.656	80.19
363.882	88.19
364.109	95.19
364.335	79.19
364.562	107.19
364.788	77.19
365.015	81.19
365.241	94.19
365.468	110.19
365.694	90.19
365.92	105.19
366.147	91.19
366.373	82.19
366.599	86.19
366.826	87.19
367.052	94.19
367.278	86.19
367.505	85.19
367.731	88.19
367.957	90.19
368.184	89.19
368.41	88.19
368.636	107.19
368.862	120.19
369.089	104.19
369.315	91.19
369.541	78.19
369.767	86.19
369.993	92.19
370.219	78.19
370.445	88.19
370.672	105.19
370.898	88.19
371.124	89.19
371.35	83.19
371.576	71.19
371.802	96.19
372.028	85.19
372.254	104.19
372.48	87.19
372.706	84.19
372.932	75.19
373.158	90.19
373.384	98.19
373.61	67.19
373.835	92.19
374.061	84.19
374.287	94.19
374.513	76.19
374.739	95.19
374.965	80.19
375.191	101.19
375.416	82.19
375.642	70.19
375.868	86.19
376.094	87.19
376.319	87.19
376.545	81.19
376.771	78.19
376.997	86.19
377.222	74.19
377.448	99.19
377.674	89.19
377.899	75.19
378.125	91.19
378.35	81.19
378.576	89.19
378.802	100.19
379.027	76.19
379.253	99.19
379.478	95.19
379.704	88.19
379.929	76.19
380.155	92.19
380.38	96.19
380.606	97.19
380.831	92.19
381.057	100.19
381.282	93.19
381.507	102.19
381.733	100.19
381.958	93.19
382.184	79.19
382.409	107.19
382.634	105.19
382.86	99.19
383.085	105.19
383.31	92.19
383.535	104.19
383.761	88.19
383.986	91.19
384.211	96.19
384.436	113.19
384.662	87.19
384.887	106.19
385.112	111.19
385.337	96.19
385.562	97.19
385.787	98.19
386.013	114.19
386.238	113.19
386.463	111.19
386.688	107.19
386.913	104.19
387.138	100.19
387.363	109.19
387.588	112.19
387.813	100.19
388.038	109.19
388.263	102.19
388.488	105.19
388.713	89.19
388.938	84.19
389.163	99.19
389.387	105.19
389.612	102.19
389.837	97.19
390.062	95.19
390.287	84.19
390.512	90.19
390.736	97.19
390.961	89.19
391.186	102.19
391.411	89.19
391.636	84.19
391.86	92.19
392.085	78.19
392.31	88.19
392.534	86.19
392.759	82.19
392.984	88.19
393.208	89.19
393.433	120.19
393.658	108.19
393.882	92.19
394.107	83.19
394.331	87.19
394.556	88.19
394.78	82.19
395.005	79.19
395.229	88.19
395.454	75.19
395.678	78.19
395.903	87.19
396.127	79.19
396.352	88.19
396.576	82.19
396.801	98.19
397.025	91.19
397.249	79.19
397.474	82.19
397.698	74.19
397.922	80.19
398.147	80.19
398.371	85.19
398.595	87.19
398.82	98.19
399.044	74.19
399.268	83.19
399.492	87.19
399.717	87.19
399.941	84.19
400.165	88.19
400.389	87.19
400.613	82.19
400.837	83.19
401.062	66.19
401.286	89.19
401.51	90.19
401.734	94.19
401.958	84.19
402.182	123.19
402.406	156.19
402.63	105.19
402.854	97.19
403.078	92.19
403.302	86.19
403.526	88.19
403.75	89.19
403.974	89.19
404.198	83.19
404.422	75.19
404.645	79.19
404.869	87.19
405.093	82.19
405.317	92.19
405.541	97.19
405.765	106.19
405.988	102.19
406.212	159.19
406.436	234.19
406.66	141.19
406.883	105.19
407.107	82.19
407.331	89.19
407.555	91.19
407.778	96.19
408.002	96.19
408.226	90.19
408.449	87.19
408.673	86.19
408.896	92.19
409.12	83.19
409.344	97.19
409.567	101.19
409.791	92.19
410.014	103.19
410.238	68.19
410.461	100.19
410.685	87.19
410.908	87.19
411.132	96.19
411.355	111.19
411.578	99.19
411.802	92.19
412.025	87.19
412.249	91.19
412.472	84.19
412.695	82.19
412.919	90.19
413.142	92.19
413.365	82.19
413.589	88.19
413.812	89.19
414.035	90.19
414.258	82.19
414.482	85.19
414.705	93.19
414.928	90.19
415.151	106.19
415.374	106.19
415.597	98.19
415.821	88.19
416.044	84.19
416.267	83.19
416.49	86.19
416.713	62.19
416.936	74.19
417.159	94.19
417.382	94.19
417.605	85.19
417.828	99.19
418.051	95.19
418.274	92.19
418.497	93.19
418.72	97.19
418.943	97.19
419.166	84.19
419.389	90.19
419.611	82.19
419.834	90.19
420.057	91.19
420.28	81.19
420.503	90.19
420.726	88.19
420.948	100.19
421.171	76.19
421.394	97.19
421.617	92.19
421.839	89.19
422.062	91.19
422.285	81.19
422.507	105.19
422.73	105.19
422.953	97.19
423.175	93.19
423.398	68.19
423.621	84.19
423.843	91.19
424.066	82.19
424.288	93.19
424.511	88.19
424.733	70.19
424.956	95.19
425.178	91.19
425.401	93.19
425.623	88.19
425.846	94.19
426.068	92.19
426.291	95.19
426.513	106.19
426.735	86.19
426.958	95.19
427.18	108.19
427.402	127.19
427.625	144.19
427.847	132.19
428.069	115.19
428.292	97.19
428.514	76.19
428.736	74.19
428.958	89.19
429.181	94.19
429.403	76.19
429.625	86.19
429.847	83.19
430.069	87.19
430.292	72.19
430.514	79.19
430.736	74.19
430.958	93.19
431.18	83.19
431.402	96.19
431.624	100.19
431.846	79.19
432.068	89.19
432.29	78.19
432.512	90.19
432.734	76.19
432.956	83.19
433.178	91.19
433.4	91.19
433.622	78.19
433.844	84.19
434.066	99.19
434.287	91.19
434.509	73.19
434.731	78.19
434.953	80.19
435.175	80.19
435.397	94.19
435.618	92.19
435.84	99.19
436.062	106.19
436.284	94.19
436.505	91.19
436.727	84.19
436.949	86.19
437.17	86.19
437.392	91.19
437.614	87.19
437.835	101.19
438.057	104.19
438.278	104.19
438.5	91.19
438.721	113.19
438.943	94.19
439.165	76.19
439.386	88.19
439.608	83.19
439.829	99.19
440.05	99.19
440.272	131.19
440.493	90.19
440.715	92.19
440.936	93.19
441.158	80.19
441.379	72.19
441.6	90.19
441.822	91.19
442.043	92.19
442.264	92.19
442.486	91.19
442.707	90.19
442.928	87.19
443.149	124.19
443.371	122.19
443.592	108.19
443.813	97.19
444.034	89.19
444.255	102.19
444.476	86.19
444.698	102.19
444.919	92.19
445.14	124.19
445.361	118.19
445.582	100.19
445.803	114.19
446.024	123.19
446.245	117.19
446.466	103.19
446.687	91.19
446.908	79.19
447.129	104.19
447.35	86.19
447.571	87.19
447.792	77.19
448.013	98.19
448.234	96.19
448.455	96.19
448.675	98.19
448.896	101.19
449.117	92.19
449.338	88.19
449.559	121.19
449.779	111.19
450	98.19
450.221	96.19
450.442	105.19
450.662	87.19
450.883	98.19
451.104	94.19
451.324	94.19
451.545	80.19
451.766	76.19
451.986	73.19
452.207	81.19
452.428	88.19
452.648	99.19
452.869	117.19
453.089	105.19
453.31	112.19
453.53	103.19
453.751	100.19
453.971	111.19
454.192	99.19
454.412	86.19
454.633	86.19
454.853	93.19
455.073	95.19
455.294	91.19
455.514	76.19
455.734	80.19
455.955	78.19
456.175	90.19
456.395	97.19
456.616	83.19
456.836	95.19
457.056	77.19
457.276	102.19
457.497	81.19
457.717	59.19
457.937	83.19
458.157	86.19
458.377	92.19
458.598	103.19
458.818	134.19
459.038	150.19
459.258	103.19
459.478	88.19
459.698	83.19
459.918	92.19
460.138	74.19
460.358	83.19
460.578	88.19
460.798	79.19
461.018	81.19
461.238	78.19
461.458	74.19
461.678	78.19
461.898	84.19
462.118	74.19
462.338	90.19
462.558	80.19
462.777	87.19
462.997	72.19
463.217	76.19
463.437	71.19
463.657	89.19
463.876	80.19
464.096	87.19
464.316	72.19
464.536	92.19
464.755	93.19
464.975	94.19
465.195	160.19
465.414	140.19
465.634	101.19
465.854	99.19
466.073	91.19
466.293	79.19
466.512	81.19
466.732	87.19
466.951	82.19
467.171	86.19
467.391	78.19
467.61	102.19
467.829	97.19
468.049	116.19
468.268	139.19
468.488	87.19
468.707	80.19
468.927	85.19
469.146	84.19
469.365	83.19
469.585	79.19
469.804	97.19
470.023	96.19
470.243	102.19
470.462	107.19
470.681	104.19
470.901	92.19
471.12	83.19
471.339	86.19
471.558	90.19
471.777	85.19
471.997	107.19
472.216	190.19
472.435	260.19
472.654	119.19
472.873	85.19
473.092	85.19
473.311	96.19
473.53	72.19
473.749	85.19
473.968	96.19
474.187	102.19
474.406	103.19
474.625	68.19
474.844	78.19
475.063	78.19
475.282	85.19
475.501	86.19
475.72	82.19
475.939	91.19
476.158	93.19
476.377	83.19
476.596	86.19
476.814	91.19
477.033	90.19
477.252	92.19
477.471	77.19
477.69	95.19
477.908	86.19
478.127	90.19
478.346	97.19
478.564	81.19
478.783	92.19
479.002	84.19
479.22	80.19
479.439	83.19
479.658	106.19
479.876	82.19
480.095	77.19
480.313	79.19
480.532	91.19
480.751	98.19
480.969	164.19
481.188	421.19
481.406	262.19
481.624	99.19
481.843	92.19
482.061	88.19
482.28	81.19
482.498	84.19
482.717	83.19
482.935	82.19
483.153	90.19
483.372	94.19
483.59	81.19
483.808	97.19
484.027	74.19
484.245	92.19
484.463	78.19
484.681	95.19
484.9	89.19
485.118	93.19
485.336	90.19
485.554	99.19
485.772	107.19
485.99	96.19
486.209	116.19
486.427	112.19
486.645	102.19
486.863	118.19
487.081	110.19
487.299	84.19
487.517	96.19
487.735	95.19
487.953	82.19
488.171	90.19
488.389	83.19
488.607	102.19
488.825	73.19
489.043	88.19
489.261	87.19
489.479	75.19
489.696	98.19
489.914	84.19
490.132	82.19
490.35	80.19
490.568	97.19
490.786	84.19
491.003	94.19
491.221	97.19
491.439	102.19
491.657	92.19
491.874	98.19
492.092	87.19
492.31	94.19
492.527	92.19
492.745	105.19
492.963	87.19
493.18	93.19
493.398	98.19
493.615	98.19
493.833	106.19
494.05	85.19
494.268	110.19
494.485	97.19
494.703	85.19
494.92	81.19
495.138	78.19
495.355	76.19
495.573	91.19
495.79	86.19
496.008	76.19
496.225	88.19
496.442	84.19
496.66	103.19
496.877	88.19
497.094	94.19
497.312	89.19
497.529	82.19
497.746	85.19
497.963	100.19
498.181	99.19
498.398	91.19
498.615	96.19
498.832	97.19
499.049	83.19
499.267	77.19
499.484	93.19
499.701	84.19
499.918	90.19
500.135	83.19
500.352	99.19
500.569	75.19
500.786	87.19
501.003	97.19
501.22	87.19
501.437	90.19
501.654	97.19
501.871	101.19
502.088	96.19
502.305	94.19
502.522	78.19
502.739	98.19
502.956	99.19
503.172	89.19
503.389	91.19
503.606	90.19
503.823	93.19
504.04	80.19
504.256	93.19
504.473	84.19
504.69	90.19
504.907	97.19
505.123	78.19
505.34	85.19
505.557	105.19
505.773	81.19
505.99	94.19
506.207	110.19
506.423	88.19
506.64	93.19
506.856	92.19
507.073	91.19
507.289	95.19
507.506	103.19
507.722	96.19
507.939	96.19
508.155	94.19
508.372	92.19
508.588	93.19
508.805	76.19
509.021	94.19
509.238	90.19
509.454	99.19
509.67	99.19
509.887	116.19
510.103	132.19
510.319	220.19
510.536	769.19
510.752	2664.19
510.968	723.19
511.184	143.19
511.401	106.19
511.617	106.19
511.833	83.19
512.049	105.19
512.265	95.19
512.481	98.19
512.698	106.19
512.914	91.19
513.13	87.19
513.346	106.19
513.562	88.19
513.778	98.19
513.994	86.19
514.21	111.19
514.426	116.19
514.642	141.19
514.858	99.19
515.074	156.19
515.29	442.19
515.506	1475.19
515.721	538.19
515.937	158.19
516.153	97.19
