Data from Circ_1996_H10_HRD10591_00075.txt Node
Date: Wed Jan 03 11:33:21 EST 2024
User: Yrep
Spectrometer: HR+D1059
Trigger mode: 1
Integration Time (sec): 1.000000E-1
Scans to average: 1
Electric dark correction enabled: true
Nonlinearity correction enabled: false
Boxcar width: 0
XAxis mode: Wavelengths
Number of Pixels in Spectrum: 2048
>>>>>Begin Spectral Data<<<<<
223.165	-21.69
223.4	-21.69
223.635	-21.69
223.869	-13.69
224.104	-16.69
224.338	-28.69
224.573	-22.69
224.808	-11.69
225.042	-22.69
225.277	-8.69
225.511	2.31
225.746	1.31
225.98	-3.69
226.215	8.31
226.449	33.31
226.683	30.31
226.918	38.31
227.152	36.31
227.387	21.31
227.621	36.31
227.856	36.31
228.09	41.31
228.324	55.31
228.559	54.31
228.793	67.31
229.027	65.31
229.262	71.31
229.496	52.31
229.73	90.31
229.964	90.31
230.199	66.31
230.433	73.31
230.667	81.31
230.901	79.31
231.136	79.31
231.37	68.31
231.604	71.31
231.838	78.31
232.072	62.31
232.306	91.31
232.541	87.31
232.775	86.31
233.009	73.31
233.243	80.31
233.477	74.31
233.711	97.31
233.945	87.31
234.179	73.31
234.413	65.31
234.647	79.31
234.881	80.31
235.115	74.31
235.349	75.31
235.583	74.31
235.817	80.31
236.051	71.31
236.285	83.31
236.519	83.31
236.753	80.31
236.987	71.31
237.221	80.31
237.455	85.31
237.689	76.31
237.922	77.31
238.156	65.31
238.39	80.31
238.624	84.31
238.858	86.31
239.091	85.31
239.325	71.31
239.559	86.31
239.793	81.31
240.027	80.31
240.26	76.31
240.494	87.31
240.728	82.31
240.961	63.31
241.195	74.31
241.429	80.31
241.662	80.31
241.896	69.31
242.13	67.31
242.363	81.31
242.597	74.31
242.83	82.31
243.064	73.31
243.298	85.31
243.531	74.31
243.765	71.31
243.998	81.31
244.232	86.31
244.465	80.31
244.699	88.31
244.932	85.31
245.166	70.31
245.399	72.31
245.633	72.31
245.866	70.31
246.099	77.31
246.333	76.31
246.566	80.31
246.8	66.31
247.033	79.31
247.266	70.31
247.5	86.31
247.733	74.31
247.966	90.31
248.2	73.31
248.433	82.31
248.666	74.31
248.899	66.31
249.133	75.31
249.366	88.31
249.599	96.31
249.832	72.31
250.066	85.31
250.299	76.31
250.532	86.31
250.765	82.31
250.998	86.31
251.231	86.31
251.465	75.31
251.698	83.31
251.931	74.31
252.164	75.31
252.397	73.31
252.63	81.31
252.863	75.31
253.096	72.31
253.329	95.31
253.562	88.31
253.795	83.31
254.028	76.31
254.261	75.31
254.494	85.31
254.727	75.31
254.96	75.31
255.193	77.31
255.426	77.31
255.659	80.31
255.892	90.31
256.124	75.31
256.357	80.31
256.59	87.31
256.823	76.31
257.056	74.31
257.289	91.31
257.521	80.31
257.754	80.31
257.987	81.31
258.22	90.31
258.452	79.31
258.685	87.31
258.918	81.31
259.151	59.31
259.383	87.31
259.616	89.31
259.849	86.31
260.081	86.31
260.314	80.31
260.547	79.31
260.779	79.31
261.012	91.31
261.244	89.31
261.477	82.31
261.71	87.31
261.942	103.31
262.175	122.31
262.407	85.31
262.64	74.31
262.872	75.31
263.105	85.31
263.337	94.31
263.57	78.31
263.802	91.31
264.035	78.31
264.267	70.31
264.499	83.31
264.732	81.31
264.964	81.31
265.197	74.31
265.429	74.31
265.661	85.31
265.894	74.31
266.126	75.31
266.358	88.31
266.591	85.31
266.823	97.31
267.055	96.31
267.287	88.31
267.52	65.31
267.752	87.31
267.984	107.31
268.216	76.31
268.448	81.31
268.681	82.31
268.913	71.31
269.145	93.31
269.377	81.31
269.609	84.31
269.841	73.31
270.073	88.31
270.306	80.31
270.538	77.31
270.77	66.31
271.002	89.31
271.234	81.31
271.466	74.31
271.698	87.31
271.93	71.31
272.162	83.31
272.394	92.31
272.626	78.31
272.858	79.31
273.09	72.31
273.322	96.31
273.553	100.31
273.785	82.31
274.017	89.31
274.249	89.31
274.481	83.31
274.713	83.31
274.945	92.31
275.176	82.31
275.408	84.31
275.64	96.31
275.872	94.31
276.104	85.31
276.335	85.31
276.567	95.31
276.799	109.31
277.031	96.31
277.262	96.31
277.494	91.31
277.726	87.31
277.957	83.31
278.189	93.31
278.421	79.31
278.652	67.31
278.884	70.31
279.115	74.31
279.347	92.31
279.579	90.31
279.81	103.31
280.042	88.31
280.273	99.31
280.505	101.31
280.736	96.31
280.968	89.31
281.199	81.31
281.431	89.31
281.662	73.31
281.894	88.31
282.125	105.31
282.356	120.31
282.588	144.31
282.819	111.31
283.051	96.31
283.282	83.31
283.513	91.31
283.745	90.31
283.976	81.31
284.207	91.31
284.439	87.31
284.67	82.31
284.901	98.31
285.132	80.31
285.364	74.31
285.595	77.31
285.826	89.31
286.057	90.31
286.288	97.31
286.52	70.31
286.751	67.31
286.982	73.31
287.213	73.31
287.444	83.31
287.675	78.31
287.906	86.31
288.138	90.31
288.369	106.31
288.6	92.31
288.831	69.31
289.062	96.31
289.293	79.31
289.524	79.31
289.755	76.31
289.986	93.31
290.217	89.31
290.448	107.31
290.679	81.31
290.91	85.31
291.141	95.31
291.371	97.31
291.602	71.31
291.833	93.31
292.064	79.31
292.295	99.31
292.526	73.31
292.757	85.31
292.987	91.31
293.218	85.31
293.449	72.31
293.68	92.31
293.91	88.31
294.141	85.31
294.372	85.31
294.603	96.31
294.833	94.31
295.064	88.31
295.295	90.31
295.525	92.31
295.756	102.31
295.987	119.31
296.217	151.31
296.448	122.31
296.679	99.31
296.909	90.31
297.14	86.31
297.37	91.31
297.601	82.31
297.831	83.31
298.062	103.31
298.292	80.31
298.523	83.31
298.753	90.31
298.984	85.31
299.214	80.31
299.445	94.31
299.675	81.31
299.905	93.31
300.136	92.31
300.366	101.31
300.597	92.31
300.827	85.31
301.057	95.31
301.288	110.31
301.518	96.31
301.748	84.31
301.979	89.31
302.209	97.31
302.439	105.31
302.669	89.31
302.9	96.31
303.13	90.31
303.36	92.31
303.59	107.31
303.82	109.31
304.051	106.31
304.281	98.31
304.511	91.31
304.741	95.31
304.971	98.31
305.201	84.31
305.431	73.31
305.661	92.31
305.891	91.31
306.121	100.31
306.352	95.31
306.582	104.31
306.812	92.31
307.042	78.31
307.272	99.31
307.502	97.31
307.731	96.31
307.961	82.31
308.191	78.31
308.421	86.31
308.651	77.31
308.881	93.31
309.111	91.31
309.341	105.31
309.571	90.31
309.8	103.31
310.03	89.31
310.26	98.31
310.49	102.31
310.72	89.31
310.949	82.31
311.179	81.31
311.409	99.31
311.639	84.31
311.868	95.31
312.098	91.31
312.328	93.31
312.557	94.31
312.787	101.31
313.017	90.31
313.246	91.31
313.476	93.31
313.706	101.31
313.935	97.31
314.165	94.31
314.394	108.31
314.624	90.31
314.853	87.31
315.083	81.31
315.312	85.31
315.542	80.31
315.771	93.31
316.001	82.31
316.23	100.31
316.46	94.31
316.689	81.31
316.919	80.31
317.148	89.31
317.377	81.31
317.607	96.31
317.836	104.31
318.065	100.31
318.295	87.31
318.524	90.31
318.753	85.31
318.983	91.31
319.212	111.31
319.441	106.31
319.67	107.31
319.9	97.31
320.129	105.31
320.358	102.31
320.587	85.31
320.816	102.31
321.046	91.31
321.275	91.31
321.504	102.31
321.733	103.31
321.962	93.31
322.191	107.31
322.42	102.31
322.649	114.31
322.878	119.31
323.108	115.31
323.337	124.31
323.566	126.31
323.795	140.31
324.024	186.31
324.253	314.31
324.482	640.31
324.71	1266.31
324.939	1661.31
325.168	622.31
325.397	211.31
325.626	133.31
325.855	115.31
326.084	125.31
326.313	119.31
326.542	147.31
326.77	192.31
326.999	346.31
327.228	681.31
327.457	1209.31
327.686	942.31
327.914	309.31
328.143	191.31
328.372	174.31
328.6	131.31
328.829	113.31
329.058	119.31
329.287	128.31
329.515	103.31
329.744	106.31
329.972	122.31
330.201	173.31
330.43	200.31
330.658	146.31
330.887	148.31
331.115	120.31
331.344	89.31
331.572	102.31
331.801	93.31
332.03	103.31
332.258	93.31
332.486	83.31
332.715	109.31
332.943	98.31
333.172	97.31
333.4	96.31
333.629	99.31
333.857	110.31
334.085	129.31
334.314	179.31
334.542	267.31
334.771	217.31
334.999	111.31
335.227	104.31
335.455	101.31
335.684	106.31
335.912	97.31
336.14	100.31
336.369	84.31
336.597	88.31
336.825	103.31
337.053	71.31
337.281	89.31
337.51	93.31
337.738	96.31
337.966	87.31
338.194	90.31
338.422	90.31
338.65	87.31
338.878	86.31
339.106	99.31
339.334	85.31
339.562	103.31
339.79	74.31
340.018	103.31
340.246	99.31
340.474	94.31
340.702	91.31
340.93	89.31
341.158	93.31
341.386	84.31
341.614	104.31
341.842	97.31
342.07	94.31
342.298	94.31
342.526	94.31
342.754	84.31
342.981	72.31
343.209	87.31
343.437	92.31
343.665	77.31
343.893	86.31
344.12	103.31
344.348	96.31
344.576	97.31
344.804	97.31
345.031	103.31
345.259	100.31
345.487	88.31
345.714	105.31
345.942	95.31
346.17	84.31
346.397	89.31
346.625	92.31
346.853	86.31
347.08	95.31
347.308	95.31
347.535	88.31
347.763	105.31
347.99	90.31
348.218	93.31
348.445	108.31
348.673	80.31
348.9	86.31
349.128	88.31
349.355	94.31
349.583	80.31
349.81	98.31
350.037	90.31
350.265	95.31
350.492	100.31
350.72	100.31
350.947	91.31
351.174	105.31
351.402	116.31
351.629	101.31
351.856	102.31
352.083	102.31
352.311	102.31
352.538	112.31
352.765	108.31
352.992	99.31
353.22	113.31
353.447	85.31
353.674	90.31
353.901	84.31
354.128	91.31
354.355	88.31
354.583	98.31
354.81	101.31
355.037	85.31
355.264	105.31
355.491	93.31
355.718	90.31
355.945	96.31
356.172	82.31
356.399	89.31
356.626	100.31
356.853	85.31
357.08	89.31
357.307	88.31
357.534	99.31
357.761	96.31
357.988	90.31
358.215	92.31
358.441	97.31
358.668	82.31
358.895	88.31
359.122	82.31
359.349	78.31
359.576	89.31
359.802	106.31
360.029	113.31
360.256	95.31
360.483	91.31
360.709	82.31
360.936	86.31
361.163	83.31
361.39	97.31
361.616	81.31
361.843	85.31
362.07	110.31
362.296	95.31
362.523	106.31
362.749	92.31
362.976	90.31
363.203	77.31
363.429	74.31
363.656	88.31
363.882	86.31
364.109	84.31
364.335	94.31
364.562	94.31
364.788	80.31
365.015	89.31
365.241	92.31
365.468	98.31
365.694	107.31
365.92	92.31
366.147	74.31
366.373	79.31
366.599	85.31
366.826	81.31
367.052	81.31
367.278	86.31
367.505	89.31
367.731	94.31
367.957	81.31
368.184	89.31
368.41	88.31
368.636	102.31
368.862	99.31
369.089	101.31
369.315	88.31
369.541	87.31
369.767	97.31
369.993	86.31
370.219	94.31
370.445	93.31
370.672	95.31
370.898	73.31
371.124	89.31
371.35	63.31
371.576	95.31
371.802	78.31
372.028	87.31
372.254	81.31
372.48	87.31
372.706	81.31
372.932	89.31
373.158	84.31
373.384	86.31
373.61	93.31
373.835	88.31
374.061	94.31
374.287	85.31
374.513	74.31
374.739	98.31
374.965	85.31
375.191	81.31
375.416	82.31
375.642	80.31
375.868	94.31
376.094	87.31
376.319	77.31
376.545	80.31
376.771	79.31
376.997	99.31
377.222	78.31
377.448	86.31
377.674	94.31
377.899	81.31
378.125	97.31
378.35	99.31
378.576	92.31
378.802	85.31
379.027	88.31
379.253	86.31
379.478	99.31
379.704	79.31
379.929	91.31
380.155	83.31
380.38	102.31
380.606	86.31
380.831	87.31
381.057	97.31
381.282	90.31
381.507	90.31
381.733	105.31
381.958	83.31
382.184	100.31
382.409	103.31
382.634	110.31
382.86	96.31
383.085	109.31
383.31	102.31
383.535	108.31
383.761	102.31
383.986	106.31
384.211	96.31
384.436	81.31
384.662	79.31
384.887	94.31
385.112	90.31
385.337	102.31
385.562	101.31
385.787	101.31
386.013	110.31
386.238	106.31
386.463	98.31
386.688	99.31
386.913	97.31
387.138	103.31
387.363	105.31
387.588	86.31
387.813	92.31
388.038	86.31
388.263	123.31
388.488	105.31
388.713	87.31
388.938	97.31
389.163	102.31
389.387	92.31
389.612	100.31
389.837	101.31
390.062	96.31
390.287	79.31
390.512	73.31
390.736	77.31
390.961	95.31
391.186	105.31
391.411	103.31
391.636	100.31
391.86	81.31
392.085	85.31
392.31	87.31
392.534	98.31
392.759	88.31
392.984	80.31
393.208	90.31
393.433	89.31
393.658	89.31
393.882	91.31
394.107	97.31
394.331	87.31
394.556	89.31
394.78	90.31
395.005	90.31
395.229	80.31
395.454	79.31
395.678	70.31
395.903	85.31
396.127	80.31
396.352	70.31
396.576	89.31
396.801	88.31
397.025	85.31
397.249	102.31
397.474	82.31
397.698	75.31
397.922	84.31
398.147	92.31
398.371	78.31
398.595	74.31
398.82	72.31
399.044	78.31
399.268	69.31
399.492	90.31
399.717	73.31
399.941	83.31
400.165	87.31
400.389	97.31
400.613	89.31
400.837	89.31
401.062	80.31
401.286	86.31
401.51	88.31
401.734	90.31
401.958	113.31
402.182	125.31
402.406	142.31
402.63	129.31
402.854	87.31
403.078	103.31
403.302	97.31
403.526	88.31
403.75	96.31
403.974	73.31
404.198	92.31
404.422	80.31
404.645	81.31
404.869	79.31
405.093	90.31
405.317	91.31
405.541	91.31
405.765	103.31
405.988	125.31
406.212	174.31
406.436	227.31
406.66	141.31
406.883	107.31
407.107	96.31
407.331	93.31
407.555	96.31
407.778	90.31
408.002	89.31
408.226	85.31
408.449	74.31
408.673	94.31
408.896	80.31
409.12	96.31
409.344	97.31
409.567	87.31
409.791	109.31
410.014	103.31
410.238	93.31
410.461	77.31
410.685	81.31
410.908	83.31
411.132	98.31
411.355	94.31
411.578	86.31
411.802	79.31
412.025	85.31
412.249	103.31
412.472	95.31
412.695	108.31
412.919	99.31
413.142	96.31
413.365	67.31
413.589	72.31
413.812	80.31
414.035	78.31
414.258	81.31
414.482	81.31
414.705	81.31
414.928	81.31
415.151	82.31
415.374	91.31
415.597	84.31
415.821	85.31
416.044	62.31
416.267	87.31
416.49	90.31
416.713	86.31
416.936	83.31
417.159	81.31
417.382	80.31
417.605	90.31
417.828	75.31
418.051	88.31
418.274	73.31
418.497	80.31
418.72	87.31
418.943	90.31
419.166	89.31
419.389	85.31
419.611	89.31
419.834	94.31
420.057	97.31
420.28	80.31
420.503	90.31
420.726	93.31
420.948	67.31
421.171	81.31
421.394	88.31
421.617	81.31
421.839	81.31
422.062	66.31
422.285	102.31
422.507	99.31
422.73	86.31
422.953	81.31
423.175	82.31
423.398	69.31
423.621	82.31
423.843	90.31
424.066	89.31
424.288	75.31
424.511	86.31
424.733	94.31
424.956	105.31
425.178	103.31
425.401	96.31
425.623	96.31
425.846	89.31
426.068	99.31
426.291	85.31
426.513	85.31
426.735	94.31
426.958	87.31
427.18	93.31
427.402	117.31
427.625	142.31
427.847	134.31
428.069	109.31
428.292	96.31
428.514	98.31
428.736	88.31
428.958	70.31
429.181	92.31
429.403	74.31
429.625	89.31
429.847	93.31
430.069	95.31
430.292	92.31
430.514	84.31
430.736	94.31
430.958	79.31
431.18	94.31
431.402	89.31
431.624	85.31
431.846	99.31
432.068	89.31
432.29	83.31
432.512	80.31
432.734	93.31
432.956	90.31
433.178	86.31
433.4	91.31
433.622	92.31
433.844	90.31
434.066	85.31
434.287	100.31
434.509	92.31
434.731	81.31
434.953	87.31
435.175	94.31
435.397	93.31
435.618	81.31
435.84	99.31
436.062	105.31
436.284	106.31
436.505	113.31
436.727	98.31
436.949	85.31
437.17	75.31
437.392	73.31
437.614	93.31
437.835	98.31
438.057	99.31
438.278	108.31
438.5	103.31
438.721	102.31
438.943	71.31
439.165	73.31
439.386	91.31
439.608	88.31
439.829	103.31
440.05	118.31
440.272	129.31
440.493	91.31
440.715	93.31
440.936	78.31
441.158	77.31
441.379	89.31
441.6	82.31
441.822	87.31
442.043	87.31
442.264	102.31
442.486	98.31
442.707	82.31
442.928	109.31
443.149	123.31
443.371	116.31
443.592	89.31
443.813	113.31
444.034	87.31
444.255	93.31
444.476	73.31
444.698	80.31
444.919	87.31
445.14	119.31
445.361	115.31
445.582	113.31
445.803	115.31
446.024	105.31
446.245	109.31
446.466	95.31
446.687	88.31
446.908	97.31
447.129	65.31
447.35	82.31
447.571	107.31
447.792	96.31
448.013	89.31
448.234	99.31
448.455	113.31
448.675	109.31
448.896	120.31
449.117	100.31
449.338	103.31
449.559	119.31
449.779	122.31
450	88.31
450.221	98.31
450.442	107.31
450.662	72.31
450.883	94.31
451.104	109.31
451.324	77.31
451.545	74.31
451.766	93.31
451.986	80.31
452.207	80.31
452.428	85.31
452.648	92.31
452.869	106.31
453.089	100.31
453.31	111.31
453.53	93.31
453.751	92.31
453.971	105.31
454.192	106.31
454.412	104.31
454.633	87.31
454.853	98.31
455.073	88.31
455.294	90.31
455.514	99.31
455.734	98.31
455.955	90.31
456.175	96.31
456.395	70.31
456.616	70.31
456.836	97.31
457.056	88.31
457.276	90.31
457.497	69.31
457.717	70.31
457.937	83.31
458.157	97.31
458.377	103.31
458.598	94.31
458.818	141.31
459.038	172.31
459.258	105.31
459.478	99.31
459.698	101.31
459.918	79.31
460.138	75.31
460.358	94.31
460.578	81.31
460.798	105.31
461.018	91.31
461.238	79.31
461.458	79.31
461.678	90.31
461.898	73.31
462.118	81.31
462.338	79.31
462.558	86.31
462.777	89.31
462.997	82.31
463.217	66.31
463.437	89.31
463.657	98.31
463.876	88.31
464.096	77.31
464.316	83.31
464.536	81.31
464.755	94.31
464.975	105.31
465.195	161.31
465.414	163.31
465.634	83.31
465.854	89.31
466.073	87.31
466.293	81.31
466.512	88.31
466.732	80.31
466.951	97.31
467.171	88.31
467.391	85.31
467.61	92.31
467.829	110.31
468.049	134.31
468.268	154.31
468.488	101.31
468.707	89.31
468.927	86.31
469.146	79.31
469.365	88.31
469.585	78.31
469.804	80.31
470.023	110.31
470.243	86.31
470.462	93.31
470.681	126.31
470.901	91.31
471.12	99.31
471.339	83.31
471.558	76.31
471.777	101.31
471.997	98.31
472.216	173.31
472.435	320.31
472.654	130.31
472.873	102.31
473.092	83.31
473.311	98.31
473.53	78.31
473.749	83.31
473.968	94.31
474.187	100.31
474.406	87.31
474.625	83.31
474.844	95.31
475.063	94.31
475.282	84.31
475.501	79.31
475.72	86.31
475.939	78.31
476.158	85.31
476.377	85.31
476.596	72.31
476.814	97.31
477.033	81.31
477.252	100.31
477.471	93.31
477.69	87.31
477.908	77.31
478.127	85.31
478.346	81.31
478.564	97.31
478.783	89.31
479.002	87.31
479.22	99.31
479.439	105.31
479.658	103.31
479.876	113.31
480.095	98.31
480.313	85.31
480.532	109.31
480.751	113.31
480.969	183.31
481.188	519.31
481.406	303.31
481.624	96.31
481.843	89.31
482.061	87.31
482.28	89.31
482.498	95.31
482.717	87.31
482.935	81.31
483.153	83.31
483.372	82.31
483.59	99.31
483.808	75.31
484.027	90.31
484.245	90.31
484.463	75.31
484.681	96.31
484.9	102.31
485.118	96.31
485.336	90.31
485.554	92.31
485.772	94.31
485.99	104.31
486.209	105.31
486.427	95.31
486.645	109.31
486.863	114.31
487.081	91.31
487.299	105.31
487.517	85.31
487.735	78.31
487.953	93.31
488.171	99.31
488.389	104.31
488.607	89.31
488.825	99.31
489.043	87.31
489.261	95.31
489.479	81.31
489.696	91.31
489.914	94.31
490.132	107.31
490.35	93.31
490.568	87.31
490.786	81.31
491.003	75.31
491.221	75.31
491.439	97.31
491.657	85.31
491.874	88.31
492.092	87.31
492.31	90.31
492.527	71.31
492.745	90.31
492.963	79.31
493.18	87.31
493.398	101.31
493.615	95.31
493.833	85.31
494.05	79.31
494.268	83.31
494.485	90.31
494.703	95.31
494.92	83.31
495.138	75.31
495.355	78.31
495.573	76.31
495.79	86.31
496.008	96.31
496.225	96.31
496.442	88.31
496.66	104.31
496.877	80.31
497.094	84.31
497.312	91.31
497.529	81.31
497.746	94.31
497.963	89.31
498.181	86.31
498.398	92.31
498.615	119.31
498.832	96.31
499.049	83.31
499.267	83.31
499.484	92.31
499.701	86.31
499.918	88.31
500.135	84.31
500.352	96.31
500.569	78.31
500.786	89.31
501.003	99.31
501.22	115.31
501.437	105.31
501.654	98.31
501.871	89.31
502.088	83.31
502.305	102.31
502.522	90.31
502.739	86.31
502.956	90.31
503.172	100.31
503.389	98.31
503.606	87.31
503.823	91.31
504.04	82.31
504.256	87.31
504.473	69.31
504.69	95.31
504.907	100.31
505.123	105.31
505.34	100.31
505.557	97.31
505.773	91.31
505.99	94.31
506.207	90.31
506.423	90.31
506.64	93.31
506.856	108.31
507.073	98.31
507.289	74.31
507.506	88.31
507.722	104.31
507.939	106.31
508.155	75.31
508.372	79.31
508.588	85.31
508.805	96.31
509.021	103.31
509.238	112.31
509.454	103.31
509.67	111.31
509.887	115.31
510.103	128.31
510.319	233.31
510.536	804.31
510.752	2745.31
510.968	758.31
511.184	163.31
511.401	121.31
511.617	91.31
511.833	99.31
512.049	89.31
512.265	78.31
512.481	92.31
512.698	90.31
512.914	88.31
513.13	97.31
513.346	86.31
513.562	77.31
513.778	99.31
513.994	109.31
514.21	94.31
514.426	113.31
514.642	143.31
514.858	135.31
515.074	167.31
515.29	467.31
515.506	1562.31
515.721	562.31
515.937	159.31
