Data from Circ_1996_H10_HRD10591_00012.txt Node
Date: Wed Jan 03 11:33:08 EST 2024
User: Yrep
Spectrometer: HR+D1059
Trigger mode: 1
Integration Time (sec): 1.000000E-1
Scans to average: 1
Electric dark correction enabled: true
Nonlinearity correction enabled: false
Boxcar width: 0
XAxis mode: Wavelengths
Number of Pixels in Spectrum: 2048
>>>>>Begin Spectral Data<<<<<
223.165	-28.12
223.4	-28.12
223.635	-28.12
223.869	-19.12
224.104	-19.12
224.338	-20.12
224.573	-11.12
224.808	-16.12
225.042	-8.12
225.277	8.88
225.511	-1.12
225.746	-9.12
225.98	-6.12
226.215	15.88
226.449	22.88
226.683	16.88
226.918	28.88
227.152	44.88
227.387	23.88
227.621	44.88
227.856	27.88
228.09	59.88
228.324	53.88
228.559	52.88
228.793	59.88
229.027	73.88
229.262	68.88
229.496	62.88
229.73	81.88
229.964	66.88
230.199	69.88
230.433	71.88
230.667	75.88
230.901	76.88
231.136	75.88
231.37	86.88
231.604	80.88
231.838	86.88
232.072	83.88
232.306	72.88
232.541	67.88
232.775	78.88
233.009	72.88
233.243	85.88
233.477	79.88
233.711	91.88
233.945	75.88
234.179	96.88
234.413	63.88
234.647	81.88
234.881	90.88
235.115	86.88
235.349	79.88
235.583	91.88
235.817	77.88
236.051	70.88
236.285	76.88
236.519	82.88
236.753	78.88
236.987	85.88
237.221	70.88
237.455	82.88
237.689	77.88
237.922	88.88
238.156	71.88
238.39	78.88
238.624	67.88
238.858	74.88
239.091	80.88
239.325	74.88
239.559	84.88
239.793	78.88
240.027	61.88
240.26	60.88
240.494	70.88
240.728	70.88
240.961	81.88
241.195	75.88
241.429	64.88
241.662	71.88
241.896	71.88
242.13	80.88
242.363	70.88
242.597	84.88
242.83	71.88
243.064	71.88
243.298	80.88
243.531	78.88
243.765	87.88
243.998	79.88
244.232	84.88
244.465	78.88
244.699	66.88
244.932	70.88
245.166	80.88
245.399	92.88
245.633	65.88
245.866	85.88
246.099	79.88
246.333	70.88
246.566	82.88
246.8	85.88
247.033	79.88
247.266	82.88
247.5	77.88
247.733	82.88
247.966	76.88
248.2	86.88
248.433	82.88
248.666	59.88
248.899	92.88
249.133	78.88
249.366	91.88
249.599	81.88
249.832	78.88
250.066	63.88
250.299	76.88
250.532	83.88
250.765	78.88
250.998	72.88
251.231	82.88
251.465	79.88
251.698	74.88
251.931	73.88
252.164	71.88
252.397	89.88
252.63	88.88
252.863	55.88
253.096	84.88
253.329	86.88
253.562	78.88
253.795	74.88
254.028	82.88
254.261	80.88
254.494	72.88
254.727	80.88
254.96	75.88
255.193	84.88
255.426	96.88
255.659	80.88
255.892	77.88
256.124	74.88
256.357	74.88
256.59	76.88
256.823	83.88
257.056	67.88
257.289	61.88
257.521	71.88
257.754	85.88
257.987	82.88
258.22	79.88
258.452	82.88
258.685	75.88
258.918	80.88
259.151	68.88
259.383	88.88
259.616	97.88
259.849	87.88
260.081	88.88
260.314	92.88
260.547	72.88
260.779	79.88
261.012	86.88
261.244	71.88
261.477	75.88
261.71	98.88
261.942	121.88
262.175	122.88
262.407	85.88
262.64	91.88
262.872	81.88
263.105	83.88
263.337	67.88
263.57	87.88
263.802	92.88
264.035	85.88
264.267	77.88
264.499	92.88
264.732	92.88
264.964	82.88
265.197	81.88
265.429	72.88
265.661	78.88
265.894	82.88
266.126	80.88
266.358	87.88
266.591	81.88
266.823	88.88
267.055	71.88
267.287	74.88
267.52	77.88
267.752	82.88
267.984	89.88
268.216	90.88
268.448	89.88
268.681	77.88
268.913	86.88
269.145	77.88
269.377	91.88
269.609	83.88
269.841	74.88
270.073	81.88
270.306	93.88
270.538	91.88
270.77	76.88
271.002	80.88
271.234	76.88
271.466	93.88
271.698	88.88
271.93	84.88
272.162	94.88
272.394	93.88
272.626	69.88
272.858	69.88
273.09	85.88
273.322	65.88
273.553	89.88
273.785	86.88
274.017	82.88
274.249	94.88
274.481	87.88
274.713	95.88
274.945	81.88
275.176	80.88
275.408	75.88
275.64	92.88
275.872	87.88
276.104	78.88
276.335	82.88
276.567	96.88
276.799	107.88
277.031	95.88
277.262	96.88
277.494	91.88
277.726	83.88
277.957	79.88
278.189	84.88
278.421	80.88
278.652	83.88
278.884	88.88
279.115	80.88
279.347	79.88
279.579	80.88
279.81	86.88
280.042	93.88
280.273	88.88
280.505	95.88
280.736	87.88
280.968	89.88
281.199	80.88
281.431	90.88
281.662	87.88
281.894	85.88
282.125	82.88
282.356	107.88
282.588	123.88
282.819	103.88
283.051	97.88
283.282	92.88
283.513	94.88
283.745	83.88
283.976	91.88
284.207	82.88
284.439	73.88
284.67	91.88
284.901	80.88
285.132	86.88
285.364	70.88
285.595	83.88
285.826	96.88
286.057	90.88
286.288	86.88
286.52	91.88
286.751	93.88
286.982	88.88
287.213	79.88
287.444	98.88
287.675	82.88
287.906	85.88
288.138	87.88
288.369	90.88
288.6	94.88
288.831	89.88
289.062	97.88
289.293	73.88
289.524	76.88
289.755	89.88
289.986	92.88
290.217	99.88
290.448	74.88
290.679	84.88
290.91	78.88
291.141	80.88
291.371	92.88
291.602	74.88
291.833	81.88
292.064	90.88
292.295	77.88
292.526	91.88
292.757	89.88
292.987	71.88
293.218	78.88
293.449	93.88
293.68	88.88
293.91	89.88
294.141	113.88
294.372	91.88
294.603	82.88
294.833	89.88
295.064	75.88
295.295	81.88
295.525	97.88
295.756	88.88
295.987	109.88
296.217	126.88
296.448	121.88
296.679	86.88
296.909	91.88
297.14	87.88
297.37	97.88
297.601	86.88
297.831	86.88
298.062	91.88
298.292	98.88
298.523	94.88
298.753	95.88
298.984	86.88
299.214	85.88
299.445	87.88
299.675	94.88
299.905	106.88
300.136	89.88
300.366	95.88
300.597	95.88
300.827	80.88
301.057	83.88
301.288	91.88
301.518	90.88
301.748	98.88
301.979	101.88
302.209	87.88
302.439	90.88
302.669	84.88
302.9	97.88
303.13	86.88
303.36	98.88
303.59	101.88
303.82	88.88
304.051	87.88
304.281	89.88
304.511	98.88
304.741	94.88
304.971	82.88
305.201	80.88
305.431	99.88
305.661	105.88
305.891	88.88
306.121	91.88
306.352	97.88
306.582	97.88
306.812	84.88
307.042	97.88
307.272	97.88
307.502	98.88
307.731	113.88
307.961	91.88
308.191	98.88
308.421	100.88
308.651	91.88
308.881	94.88
309.111	81.88
309.341	86.88
309.571	93.88
309.8	90.88
310.03	89.88
310.26	95.88
310.49	94.88
310.72	94.88
310.949	100.88
311.179	94.88
311.409	85.88
311.639	79.88
311.868	93.88
312.098	97.88
312.328	94.88
312.557	88.88
312.787	91.88
313.017	99.88
313.246	89.88
313.476	82.88
313.706	79.88
313.935	117.88
314.165	81.88
314.394	111.88
314.624	86.88
314.853	94.88
315.083	98.88
315.312	97.88
315.542	100.88
315.771	99.88
316.001	96.88
316.23	93.88
316.46	87.88
316.689	85.88
316.919	84.88
317.148	88.88
317.377	97.88
317.607	92.88
317.836	91.88
318.065	92.88
318.295	87.88
318.524	86.88
318.753	74.88
318.983	99.88
319.212	95.88
319.441	107.88
319.67	98.88
319.9	102.88
320.129	93.88
320.358	92.88
320.587	94.88
320.816	105.88
321.046	92.88
321.275	104.88
321.504	97.88
321.733	92.88
321.962	97.88
322.191	84.88
322.42	94.88
322.649	106.88
322.878	85.88
323.108	119.88
323.337	103.88
323.566	124.88
323.795	119.88
324.024	174.88
324.253	307.88
324.482	600.88
324.71	1174.88
324.939	1532.88
325.168	575.88
325.397	204.88
325.626	131.88
325.855	129.88
326.084	111.88
326.313	138.88
326.542	126.88
326.77	179.88
326.999	320.88
327.228	635.88
327.457	1158.88
327.686	935.88
327.914	284.88
328.143	178.88
328.372	152.88
328.6	125.88
328.829	100.88
329.058	113.88
329.287	125.88
329.515	90.88
329.744	114.88
329.972	128.88
330.201	182.88
330.43	182.88
330.658	125.88
330.887	120.88
331.115	117.88
331.344	109.88
331.572	96.88
331.801	94.88
332.03	98.88
332.258	98.88
332.486	99.88
332.715	99.88
332.943	84.88
333.172	91.88
333.4	107.88
333.629	118.88
333.857	105.88
334.085	127.88
334.314	139.88
334.542	199.88
334.771	197.88
334.999	130.88
335.227	87.88
335.455	106.88
335.684	99.88
335.912	93.88
336.14	89.88
336.369	100.88
336.597	103.88
336.825	94.88
337.053	82.88
337.281	87.88
337.51	68.88
337.738	94.88
337.966	88.88
338.194	98.88
338.422	92.88
338.65	94.88
338.878	108.88
339.106	114.88
339.334	90.88
339.562	88.88
339.79	93.88
340.018	87.88
340.246	79.88
340.474	98.88
340.702	95.88
340.93	97.88
341.158	96.88
341.386	102.88
341.614	90.88
341.842	89.88
342.07	95.88
342.298	90.88
342.526	94.88
342.754	92.88
342.981	101.88
343.209	90.88
343.437	86.88
343.665	95.88
343.893	97.88
344.12	87.88
344.348	87.88
344.576	90.88
344.804	94.88
345.031	100.88
345.259	92.88
345.487	98.88
345.714	91.88
345.942	94.88
346.17	94.88
346.397	75.88
346.625	86.88
346.853	103.88
347.08	90.88
347.308	84.88
347.535	107.88
347.763	97.88
347.99	106.88
348.218	102.88
348.445	103.88
348.673	95.88
348.9	102.88
349.128	94.88
349.355	107.88
349.583	87.88
349.81	97.88
350.037	93.88
350.265	85.88
350.492	96.88
350.72	87.88
350.947	103.88
351.174	111.88
351.402	110.88
351.629	88.88
351.856	98.88
352.083	106.88
352.311	93.88
352.538	123.88
352.765	112.88
352.992	106.88
353.22	102.88
353.447	98.88
353.674	93.88
353.901	95.88
354.128	96.88
354.355	94.88
354.583	80.88
354.81	94.88
355.037	92.88
355.264	108.88
355.491	88.88
355.718	97.88
355.945	95.88
356.172	106.88
356.399	93.88
356.626	94.88
356.853	86.88
357.08	100.88
357.307	94.88
357.534	84.88
357.761	103.88
357.988	95.88
358.215	95.88
358.441	109.88
358.668	89.88
358.895	100.88
359.122	99.88
359.349	88.88
359.576	96.88
359.802	106.88
360.029	100.88
360.256	98.88
360.483	123.88
360.709	82.88
360.936	85.88
361.163	104.88
361.39	104.88
361.616	109.88
361.843	95.88
362.07	81.88
362.296	88.88
362.523	84.88
362.749	86.88
362.976	78.88
363.203	92.88
363.429	94.88
363.656	99.88
363.882	75.88
364.109	92.88
364.335	88.88
364.562	105.88
364.788	82.88
365.015	78.88
365.241	82.88
365.468	103.88
365.694	100.88
365.92	97.88
366.147	89.88
366.373	98.88
366.599	77.88
366.826	84.88
367.052	85.88
367.278	86.88
367.505	93.88
367.731	78.88
367.957	90.88
368.184	95.88
368.41	88.88
368.636	106.88
368.862	107.88
369.089	104.88
369.315	75.88
369.541	102.88
369.767	91.88
369.993	98.88
370.219	88.88
370.445	87.88
370.672	96.88
370.898	88.88
371.124	86.88
371.35	86.88
371.576	92.88
371.802	93.88
372.028	86.88
372.254	92.88
372.48	79.88
372.706	93.88
372.932	90.88
373.158	85.88
373.384	89.88
373.61	79.88
373.835	90.88
374.061	97.88
374.287	90.88
374.513	91.88
374.739	106.88
374.965	104.88
375.191	75.88
375.416	89.88
375.642	94.88
375.868	103.88
376.094	81.88
376.319	73.88
376.545	90.88
376.771	96.88
376.997	91.88
377.222	103.88
377.448	89.88
377.674	112.88
377.899	97.88
378.125	90.88
378.35	108.88
378.576	99.88
378.802	78.88
379.027	82.88
379.253	99.88
379.478	88.88
379.704	90.88
379.929	104.88
380.155	88.88
380.38	97.88
380.606	100.88
380.831	92.88
381.057	92.88
381.282	98.88
381.507	111.88
381.733	126.88
381.958	110.88
382.184	103.88
382.409	102.88
382.634	106.88
382.86	95.88
383.085	108.88
383.31	108.88
383.535	93.88
383.761	103.88
383.986	108.88
384.211	110.88
384.436	122.88
384.662	112.88
384.887	119.88
385.112	115.88
385.337	123.88
385.562	110.88
385.787	125.88
386.013	116.88
386.238	128.88
386.463	108.88
386.688	112.88
386.913	106.88
387.138	120.88
387.363	114.88
387.588	116.88
387.813	110.88
388.038	112.88
388.263	140.88
388.488	122.88
388.713	105.88
388.938	96.88
389.163	98.88
389.387	114.88
389.612	96.88
389.837	96.88
390.062	96.88
390.287	92.88
390.512	100.88
390.736	85.88
390.961	92.88
391.186	88.88
391.411	91.88
391.636	98.88
391.86	82.88
392.085	86.88
392.31	77.88
392.534	94.88
392.759	84.88
392.984	95.88
393.208	119.88
393.433	122.88
393.658	103.88
393.882	93.88
394.107	93.88
394.331	99.88
394.556	76.88
394.78	113.88
395.005	86.88
395.229	69.88
395.454	86.88
395.678	91.88
395.903	83.88
396.127	98.88
396.352	94.88
396.576	92.88
396.801	100.88
397.025	106.88
397.249	87.88
397.474	82.88
397.698	80.88
397.922	84.88
398.147	89.88
398.371	95.88
398.595	81.88
398.82	87.88
399.044	77.88
399.268	89.88
399.492	96.88
399.717	105.88
399.941	96.88
400.165	103.88
400.389	94.88
400.613	82.88
400.837	91.88
401.062	87.88
401.286	87.88
401.51	87.88
401.734	90.88
401.958	85.88
402.182	105.88
402.406	140.88
402.63	111.88
402.854	92.88
403.078	88.88
403.302	93.88
403.526	87.88
403.75	79.88
403.974	70.88
404.198	89.88
404.422	95.88
404.645	100.88
404.869	96.88
405.093	96.88
405.317	95.88
405.541	96.88
405.765	97.88
405.988	113.88
406.212	159.88
406.436	204.88
406.66	129.88
406.883	105.88
407.107	95.88
407.331	89.88
407.555	85.88
407.778	92.88
408.002	98.88
408.226	102.88
408.449	87.88
408.673	87.88
408.896	90.88
409.12	100.88
409.344	92.88
409.567	86.88
409.791	96.88
410.014	92.88
410.238	95.88
410.461	83.88
410.685	93.88
410.908	104.88
411.132	103.88
411.355	93.88
411.578	96.88
411.802	93.88
412.025	70.88
412.249	85.88
412.472	105.88
412.695	92.88
412.919	78.88
413.142	79.88
413.365	86.88
413.589	84.88
413.812	106.88
414.035	89.88
414.258	91.88
414.482	98.88
414.705	64.88
414.928	95.88
415.151	96.88
415.374	89.88
415.597	105.88
415.821	99.88
416.044	99.88
416.267	87.88
416.49	90.88
416.713	87.88
416.936	91.88
417.159	94.88
417.382	90.88
417.605	90.88
417.828	85.88
418.051	109.88
418.274	74.88
418.497	80.88
418.72	92.88
418.943	92.88
419.166	96.88
419.389	93.88
419.611	84.88
419.834	96.88
420.057	88.88
420.28	83.88
420.503	95.88
420.726	89.88
420.948	82.88
421.171	80.88
421.394	104.88
421.617	99.88
421.839	98.88
422.062	78.88
422.285	90.88
422.507	98.88
422.73	104.88
422.953	102.88
423.175	91.88
423.398	95.88
423.621	86.88
423.843	82.88
424.066	82.88
424.288	88.88
424.511	88.88
424.733	97.88
424.956	106.88
425.178	88.88
425.401	103.88
425.623	92.88
425.846	77.88
426.068	87.88
426.291	84.88
426.513	81.88
426.735	83.88
426.958	73.88
427.18	97.88
427.402	123.88
427.625	150.88
427.847	130.88
428.069	109.88
428.292	94.88
428.514	77.88
428.736	87.88
428.958	102.88
429.181	91.88
429.403	80.88
429.625	93.88
429.847	97.88
430.069	96.88
430.292	102.88
430.514	89.88
430.736	84.88
430.958	84.88
431.18	80.88
431.402	91.88
431.624	79.88
431.846	77.88
432.068	75.88
432.29	71.88
432.512	86.88
432.734	88.88
432.956	97.88
433.178	100.88
433.4	95.88
433.622	88.88
433.844	86.88
434.066	84.88
434.287	93.88
434.509	81.88
434.731	77.88
434.953	94.88
435.175	76.88
435.397	78.88
435.618	96.88
435.84	85.88
436.062	106.88
436.284	101.88
436.505	94.88
436.727	85.88
436.949	83.88
437.17	86.88
437.392	77.88
437.614	99.88
437.835	97.88
438.057	116.88
438.278	88.88
438.5	83.88
438.721	115.88
438.943	82.88
439.165	81.88
439.386	75.88
439.608	82.88
439.829	98.88
440.05	107.88
440.272	118.88
440.493	93.88
440.715	90.88
440.936	76.88
441.158	83.88
441.379	104.88
441.6	74.88
441.822	90.88
442.043	82.88
442.264	97.88
442.486	72.88
442.707	78.88
442.928	99.88
443.149	120.88
443.371	130.88
443.592	108.88
443.813	100.88
444.034	92.88
444.255	99.88
444.476	94.88
444.698	90.88
444.919	82.88
445.14	130.88
445.361	127.88
445.582	100.88
445.803	130.88
446.024	115.88
446.245	116.88
446.466	88.88
446.687	86.88
446.908	89.88
447.129	76.88
447.35	79.88
447.571	88.88
447.792	84.88
448.013	103.88
448.234	94.88
448.455	87.88
448.675	100.88
448.896	109.88
449.117	103.88
449.338	93.88
449.559	108.88
449.779	102.88
450	96.88
450.221	80.88
450.442	86.88
450.662	91.88
450.883	114.88
451.104	108.88
451.324	88.88
451.545	81.88
451.766	96.88
451.986	83.88
452.207	88.88
452.428	104.88
452.648	105.88
452.869	107.88
453.089	113.88
453.31	116.88
453.53	75.88
453.751	104.88
453.971	110.88
454.192	104.88
454.412	94.88
454.633	88.88
454.853	91.88
455.073	86.88
455.294	80.88
455.514	90.88
455.734	86.88
455.955	95.88
456.175	96.88
456.395	92.88
456.616	80.88
456.836	92.88
457.056	89.88
457.276	83.88
457.497	91.88
457.717	92.88
457.937	100.88
458.157	109.88
458.377	86.88
458.598	88.88
458.818	128.88
459.038	138.88
459.258	105.88
459.478	98.88
459.698	93.88
459.918	82.88
460.138	80.88
460.358	84.88
460.578	84.88
460.798	86.88
461.018	99.88
461.238	104.88
461.458	86.88
461.678	94.88
461.898	84.88
462.118	91.88
462.338	102.88
462.558	65.88
462.777	74.88
462.997	78.88
463.217	80.88
463.437	89.88
463.657	93.88
463.876	88.88
464.096	93.88
464.316	73.88
464.536	86.88
464.755	86.88
464.975	93.88
465.195	148.88
465.414	132.88
465.634	87.88
465.854	96.88
466.073	96.88
466.293	92.88
466.512	79.88
466.732	83.88
466.951	77.88
467.171	88.88
467.391	107.88
467.61	101.88
467.829	112.88
468.049	119.88
468.268	132.88
468.488	85.88
468.707	104.88
468.927	84.88
469.146	87.88
469.365	80.88
469.585	91.88
469.804	94.88
470.023	92.88
470.243	94.88
470.462	96.88
470.681	93.88
470.901	109.88
471.12	94.88
471.339	97.88
471.558	88.88
471.777	85.88
471.997	107.88
472.216	186.88
472.435	268.88
472.654	112.88
472.873	90.88
473.092	82.88
473.311	71.88
473.53	76.88
473.749	82.88
473.968	102.88
474.187	105.88
474.406	88.88
474.625	86.88
474.844	86.88
475.063	104.88
475.282	89.88
475.501	81.88
475.72	100.88
475.939	87.88
476.158	75.88
476.377	92.88
476.596	93.88
476.814	72.88
477.033	86.88
477.252	92.88
477.471	88.88
477.69	90.88
477.908	82.88
478.127	92.88
478.346	98.88
478.564	102.88
478.783	94.88
479.002	97.88
479.22	95.88
479.439	102.88
479.658	90.88
479.876	102.88
480.095	78.88
480.313	90.88
480.532	99.88
480.751	115.88
480.969	161.88
481.188	431.88
481.406	248.88
481.624	118.88
481.843	82.88
482.061	86.88
482.28	95.88
482.498	79.88
482.717	81.88
482.935	74.88
483.153	95.88
483.372	100.88
483.59	95.88
483.808	80.88
484.027	99.88
484.245	88.88
484.463	85.88
484.681	103.88
484.9	100.88
485.118	94.88
485.336	95.88
485.554	89.88
485.772	112.88
485.99	104.88
486.209	99.88
486.427	108.88
486.645	112.88
486.863	97.88
487.081	109.88
487.299	90.88
487.517	99.88
487.735	107.88
487.953	92.88
488.171	103.88
488.389	119.88
488.607	88.88
488.825	79.88
489.043	94.88
489.261	85.88
489.479	88.88
489.696	91.88
489.914	83.88
490.132	89.88
490.35	86.88
490.568	71.88
490.786	91.88
491.003	86.88
491.221	91.88
491.439	83.88
491.657	88.88
491.874	92.88
492.092	93.88
492.31	99.88
492.527	98.88
492.745	88.88
492.963	93.88
493.18	87.88
493.398	88.88
493.615	84.88
493.833	90.88
494.05	88.88
494.268	80.88
494.485	84.88
494.703	87.88
494.92	82.88
495.138	105.88
495.355	88.88
495.573	79.88
495.79	96.88
496.008	100.88
496.225	93.88
496.442	96.88
496.66	94.88
496.877	99.88
497.094	97.88
497.312	83.88
497.529	81.88
497.746	79.88
497.963	99.88
498.181	85.88
498.398	90.88
498.615	100.88
498.832	96.88
499.049	92.88
499.267	86.88
499.484	88.88
499.701	96.88
499.918	98.88
500.135	86.88
500.352	95.88
500.569	90.88
500.786	88.88
501.003	84.88
501.22	87.88
501.437	92.88
501.654	101.88
501.871	84.88
502.088	97.88
502.305	89.88
502.522	91.88
502.739	91.88
502.956	88.88
503.172	70.88
503.389	92.88
503.606	94.88
503.823	97.88
504.04	74.88
504.256	91.88
504.473	90.88
504.69	86.88
504.907	77.88
505.123	84.88
505.34	97.88
505.557	86.88
505.773	83.88
505.99	89.88
506.207	94.88
506.423	90.88
506.64	67.88
506.856	86.88
507.073	96.88
507.289	86.88
507.506	103.88
507.722	105.88
507.939	111.88
508.155	92.88
508.372	86.88
508.588	87.88
508.805	82.88
509.021	97.88
509.238	82.88
509.454	96.88
509.67	98.88
509.887	103.88
510.103	126.88
510.319	211.88
510.536	749.88
510.752	2320.88
510.968	635.88
511.184	162.88
511.401	117.88
511.617	100.88
511.833	92.88
512.049	87.88
512.265	87.88
512.481	93.88
512.698	90.88
512.914	93.88
513.13	78.88
513.346	96.88
513.562	79.88
513.778	98.88
513.994	94.88
514.21	94.88
514.426	98.88
514.642	135.88
514.858	113.88
515.074	127.88
515.29	386.88
515.506	1314.88
515.721	464.88
515.937	138.88
