Data from Circ_1996_H10_HRD10591_00033.txt Node
Date: Wed Jan 03 11:33:12 EST 2024
User: Yrep
Spectrometer: HR+D1059
Trigger mode: 1
Integration Time (sec): 1.000000E-1
Scans to average: 1
Electric dark correction enabled: true
Nonlinearity correction enabled: false
Boxcar width: 0
XAxis mode: Wavelengths
Number of Pixels in Spectrum: 2048
>>>>>Begin Spectral Data<<<<<
223.165	-22.75
223.4	-22.75
223.635	-22.75
223.869	-6.75
224.104	-17.75
224.338	-15.75
224.573	-24.75
224.808	-4.75
225.042	13.25
225.277	-4.75
225.511	8.25
225.746	-12.75
225.98	-1.75
226.215	12.25
226.449	19.25
226.683	11.25
226.918	21.25
227.152	26.25
227.387	34.25
227.621	43.25
227.856	56.25
228.09	42.25
228.324	46.25
228.559	62.25
228.793	71.25
229.027	65.25
229.262	74.25
229.496	65.25
229.73	79.25
229.964	80.25
230.199	80.25
230.433	78.25
230.667	64.25
230.901	80.25
231.136	66.25
231.37	79.25
231.604	77.25
231.838	90.25
232.072	75.25
232.306	78.25
232.541	82.25
232.775	77.25
233.009	86.25
233.243	82.25
233.477	84.25
233.711	77.25
233.945	81.25
234.179	79.25
234.413	82.25
234.647	81.25
234.881	80.25
235.115	86.25
235.349	93.25
235.583	83.25
235.817	68.25
236.051	82.25
236.285	81.25
236.519	76.25
236.753	76.25
236.987	80.25
237.221	89.25
237.455	85.25
237.689	68.25
237.922	72.25
238.156	68.25
238.39	80.25
238.624	57.25
238.858	80.25
239.091	71.25
239.325	86.25
239.559	74.25
239.793	88.25
240.027	67.25
240.26	77.25
240.494	73.25
240.728	69.25
240.961	85.25
241.195	81.25
241.429	85.25
241.662	89.25
241.896	69.25
242.13	76.25
242.363	77.25
242.597	72.25
242.83	68.25
243.064	87.25
243.298	85.25
243.531	75.25
243.765	92.25
243.998	84.25
244.232	75.25
244.465	91.25
244.699	79.25
244.932	78.25
245.166	77.25
245.399	89.25
245.633	80.25
245.866	76.25
246.099	75.25
246.333	73.25
246.566	73.25
246.8	84.25
247.033	83.25
247.266	68.25
247.5	80.25
247.733	86.25
247.966	89.25
248.2	82.25
248.433	70.25
248.666	74.25
248.899	82.25
249.133	77.25
249.366	97.25
249.599	101.25
249.832	82.25
250.066	82.25
250.299	80.25
250.532	89.25
250.765	84.25
250.998	90.25
251.231	97.25
251.465	77.25
251.698	80.25
251.931	92.25
252.164	91.25
252.397	81.25
252.63	82.25
252.863	72.25
253.096	72.25
253.329	88.25
253.562	84.25
253.795	83.25
254.028	84.25
254.261	74.25
254.494	92.25
254.727	88.25
254.96	96.25
255.193	79.25
255.426	90.25
255.659	86.25
255.892	79.25
256.124	89.25
256.357	78.25
256.59	78.25
256.823	77.25
257.056	79.25
257.289	69.25
257.521	82.25
257.754	87.25
257.987	79.25
258.22	83.25
258.452	64.25
258.685	69.25
258.918	93.25
259.151	80.25
259.383	85.25
259.616	80.25
259.849	83.25
260.081	94.25
260.314	104.25
260.547	76.25
260.779	94.25
261.012	89.25
261.244	71.25
261.477	84.25
261.71	102.25
261.942	109.25
262.175	112.25
262.407	80.25
262.64	80.25
262.872	92.25
263.105	80.25
263.337	81.25
263.57	87.25
263.802	86.25
264.035	72.25
264.267	74.25
264.499	92.25
264.732	82.25
264.964	79.25
265.197	78.25
265.429	87.25
265.661	89.25
265.894	93.25
266.126	89.25
266.358	90.25
266.591	86.25
266.823	77.25
267.055	79.25
267.287	72.25
267.52	80.25
267.752	77.25
267.984	82.25
268.216	90.25
268.448	92.25
268.681	92.25
268.913	81.25
269.145	89.25
269.377	84.25
269.609	78.25
269.841	89.25
270.073	90.25
270.306	80.25
270.538	90.25
270.77	84.25
271.002	94.25
271.234	66.25
271.466	77.25
271.698	80.25
271.93	86.25
272.162	90.25
272.394	89.25
272.626	100.25
272.858	89.25
273.09	86.25
273.322	86.25
273.553	82.25
273.785	91.25
274.017	85.25
274.249	78.25
274.481	79.25
274.713	89.25
274.945	88.25
275.176	97.25
275.408	93.25
275.64	91.25
275.872	72.25
276.104	93.25
276.335	99.25
276.567	101.25
276.799	105.25
277.031	98.25
277.262	83.25
277.494	96.25
277.726	84.25
277.957	79.25
278.189	85.25
278.421	97.25
278.652	80.25
278.884	92.25
279.115	75.25
279.347	85.25
279.579	64.25
279.81	77.25
280.042	100.25
280.273	82.25
280.505	89.25
280.736	88.25
280.968	77.25
281.199	72.25
281.431	78.25
281.662	85.25
281.894	90.25
282.125	105.25
282.356	123.25
282.588	140.25
282.819	115.25
283.051	76.25
283.282	86.25
283.513	80.25
283.745	91.25
283.976	84.25
284.207	89.25
284.439	103.25
284.67	106.25
284.901	77.25
285.132	72.25
285.364	82.25
285.595	78.25
285.826	95.25
286.057	100.25
286.288	81.25
286.52	85.25
286.751	87.25
286.982	102.25
287.213	77.25
287.444	82.25
287.675	88.25
287.906	84.25
288.138	93.25
288.369	94.25
288.6	100.25
288.831	80.25
289.062	98.25
289.293	82.25
289.524	76.25
289.755	100.25
289.986	90.25
290.217	99.25
290.448	90.25
290.679	92.25
290.91	93.25
291.141	97.25
291.371	76.25
291.602	100.25
291.833	93.25
292.064	96.25
292.295	82.25
292.526	76.25
292.757	100.25
292.987	89.25
293.218	86.25
293.449	97.25
293.68	93.25
293.91	101.25
294.141	83.25
294.372	96.25
294.603	94.25
294.833	89.25
295.064	89.25
295.295	93.25
295.525	109.25
295.756	99.25
295.987	122.25
296.217	148.25
296.448	131.25
296.679	84.25
296.909	95.25
297.14	77.25
297.37	84.25
297.601	90.25
297.831	80.25
298.062	89.25
298.292	90.25
298.523	97.25
298.753	88.25
298.984	91.25
299.214	91.25
299.445	91.25
299.675	85.25
299.905	99.25
300.136	95.25
300.366	83.25
300.597	91.25
300.827	94.25
301.057	103.25
301.288	104.25
301.518	99.25
301.748	86.25
301.979	114.25
302.209	99.25
302.439	103.25
302.669	93.25
302.9	94.25
303.13	91.25
303.36	91.25
303.59	95.25
303.82	103.25
304.051	83.25
304.281	97.25
304.511	100.25
304.741	90.25
304.971	90.25
305.201	96.25
305.431	88.25
305.661	96.25
305.891	95.25
306.121	110.25
306.352	105.25
306.582	112.25
306.812	101.25
307.042	103.25
307.272	100.25
307.502	102.25
307.731	109.25
307.961	88.25
308.191	92.25
308.421	112.25
308.651	98.25
308.881	110.25
309.111	109.25
309.341	104.25
309.571	98.25
309.8	90.25
310.03	99.25
310.26	94.25
310.49	106.25
310.72	88.25
310.949	108.25
311.179	101.25
311.409	99.25
311.639	100.25
311.868	104.25
312.098	90.25
312.328	98.25
312.557	95.25
312.787	101.25
313.017	102.25
313.246	103.25
313.476	94.25
313.706	83.25
313.935	91.25
314.165	98.25
314.394	97.25
314.624	92.25
314.853	96.25
315.083	107.25
315.312	91.25
315.542	93.25
315.771	95.25
316.001	100.25
316.23	76.25
316.46	89.25
316.689	102.25
316.919	102.25
317.148	101.25
317.377	98.25
317.607	89.25
317.836	95.25
318.065	86.25
318.295	88.25
318.524	86.25
318.753	90.25
318.983	93.25
319.212	93.25
319.441	110.25
319.67	110.25
319.9	97.25
320.129	109.25
320.358	96.25
320.587	92.25
320.816	98.25
321.046	102.25
321.275	93.25
321.504	99.25
321.733	92.25
321.962	105.25
322.191	95.25
322.42	101.25
322.649	101.25
322.878	110.25
323.108	92.25
323.337	124.25
323.566	112.25
323.795	130.25
324.024	174.25
324.253	321.25
324.482	613.25
324.71	1221.25
324.939	1606.25
325.168	621.25
325.397	198.25
325.626	154.25
325.855	108.25
326.084	112.25
326.313	112.25
326.542	144.25
326.77	178.25
326.999	342.25
327.228	676.25
327.457	1189.25
327.686	958.25
327.914	301.25
328.143	181.25
328.372	172.25
328.6	140.25
328.829	113.25
329.058	117.25
329.287	130.25
329.515	106.25
329.744	121.25
329.972	133.25
330.201	144.25
330.43	182.25
330.658	148.25
330.887	147.25
331.115	130.25
331.344	105.25
331.572	101.25
331.801	97.25
332.03	109.25
332.258	108.25
332.486	105.25
332.715	95.25
332.943	96.25
333.172	86.25
333.4	108.25
333.629	115.25
333.857	126.25
334.085	138.25
334.314	156.25
334.542	223.25
334.771	190.25
334.999	120.25
335.227	95.25
335.455	106.25
335.684	102.25
335.912	91.25
336.14	94.25
336.369	87.25
336.597	96.25
336.825	105.25
337.053	95.25
337.281	105.25
337.51	99.25
337.738	95.25
337.966	73.25
338.194	98.25
338.422	97.25
338.65	78.25
338.878	95.25
339.106	96.25
339.334	97.25
339.562	96.25
339.79	89.25
340.018	93.25
340.246	100.25
340.474	115.25
340.702	92.25
340.93	101.25
341.158	95.25
341.386	83.25
341.614	106.25
341.842	98.25
342.07	91.25
342.298	101.25
342.526	75.25
342.754	97.25
342.981	105.25
343.209	98.25
343.437	99.25
343.665	93.25
343.893	97.25
344.12	87.25
344.348	96.25
344.576	102.25
344.804	96.25
345.031	104.25
345.259	100.25
345.487	91.25
345.714	90.25
345.942	99.25
346.17	92.25
346.397	99.25
346.625	107.25
346.853	99.25
347.08	95.25
347.308	96.25
347.535	96.25
347.763	93.25
347.99	103.25
348.218	98.25
348.445	98.25
348.673	99.25
348.9	93.25
349.128	88.25
349.355	93.25
349.583	81.25
349.81	98.25
350.037	82.25
350.265	106.25
350.492	112.25
350.72	97.25
350.947	85.25
351.174	108.25
351.402	99.25
351.629	99.25
351.856	104.25
352.083	86.25
352.311	100.25
352.538	100.25
352.765	112.25
352.992	111.25
353.22	107.25
353.447	92.25
353.674	91.25
353.901	104.25
354.128	92.25
354.355	86.25
354.583	99.25
354.81	98.25
355.037	96.25
355.264	107.25
355.491	92.25
355.718	92.25
355.945	95.25
356.172	99.25
356.399	91.25
356.626	97.25
356.853	89.25
357.08	84.25
357.307	93.25
357.534	98.25
357.761	109.25
357.988	91.25
358.215	106.25
358.441	89.25
358.668	108.25
358.895	96.25
359.122	107.25
359.349	81.25
359.576	94.25
359.802	112.25
360.029	119.25
360.256	114.25
360.483	99.25
360.709	110.25
360.936	101.25
361.163	91.25
361.39	93.25
361.616	89.25
361.843	101.25
362.07	90.25
362.296	109.25
362.523	99.25
362.749	84.25
362.976	92.25
363.203	80.25
363.429	79.25
363.656	96.25
363.882	84.25
364.109	79.25
364.335	100.25
364.562	84.25
364.788	83.25
365.015	98.25
365.241	89.25
365.468	94.25
365.694	85.25
365.92	100.25
366.147	96.25
366.373	94.25
366.599	100.25
366.826	93.25
367.052	100.25
367.278	96.25
367.505	80.25
367.731	86.25
367.957	88.25
368.184	110.25
368.41	115.25
368.636	118.25
368.862	115.25
369.089	115.25
369.315	90.25
369.541	88.25
369.767	85.25
369.993	85.25
370.219	101.25
370.445	87.25
370.672	83.25
370.898	76.25
371.124	81.25
371.35	89.25
371.576	83.25
371.802	90.25
372.028	83.25
372.254	95.25
372.48	98.25
372.706	95.25
372.932	85.25
373.158	83.25
373.384	90.25
373.61	94.25
373.835	83.25
374.061	93.25
374.287	97.25
374.513	90.25
374.739	97.25
374.965	91.25
375.191	91.25
375.416	93.25
375.642	97.25
375.868	102.25
376.094	100.25
376.319	94.25
376.545	89.25
376.771	82.25
376.997	80.25
377.222	92.25
377.448	94.25
377.674	94.25
377.899	95.25
378.125	93.25
378.35	98.25
378.576	84.25
378.802	100.25
379.027	96.25
379.253	92.25
379.478	91.25
379.704	96.25
379.929	96.25
380.155	91.25
380.38	107.25
380.606	83.25
380.831	97.25
381.057	99.25
381.282	88.25
381.507	99.25
381.733	101.25
381.958	99.25
382.184	112.25
382.409	108.25
382.634	107.25
382.86	104.25
383.085	108.25
383.31	98.25
383.535	109.25
383.761	112.25
383.986	98.25
384.211	89.25
384.436	105.25
384.662	97.25
384.887	94.25
385.112	112.25
385.337	117.25
385.562	121.25
385.787	125.25
386.013	124.25
386.238	108.25
386.463	107.25
386.688	105.25
386.913	104.25
387.138	128.25
387.363	105.25
387.588	100.25
387.813	99.25
388.038	99.25
388.263	121.25
388.488	111.25
388.713	91.25
388.938	87.25
389.163	95.25
389.387	98.25
389.612	93.25
389.837	89.25
390.062	89.25
390.287	105.25
390.512	102.25
390.736	81.25
390.961	84.25
391.186	90.25
391.411	94.25
391.636	109.25
391.86	113.25
392.085	94.25
392.31	86.25
392.534	100.25
392.759	89.25
392.984	94.25
393.208	101.25
393.433	112.25
393.658	114.25
393.882	87.25
394.107	81.25
394.331	96.25
394.556	86.25
394.78	90.25
395.005	94.25
395.229	82.25
395.454	91.25
395.678	98.25
395.903	96.25
396.127	100.25
396.352	109.25
396.576	90.25
396.801	91.25
397.025	95.25
397.249	92.25
397.474	97.25
397.698	88.25
397.922	95.25
398.147	81.25
398.371	86.25
398.595	102.25
398.82	97.25
399.044	80.25
399.268	80.25
399.492	85.25
399.717	87.25
399.941	88.25
400.165	95.25
400.389	83.25
400.613	83.25
400.837	95.25
401.062	83.25
401.286	88.25
401.51	87.25
401.734	99.25
401.958	95.25
402.182	141.25
402.406	164.25
402.63	121.25
402.854	90.25
403.078	95.25
403.302	102.25
403.526	102.25
403.75	70.25
403.974	106.25
404.198	96.25
404.422	83.25
404.645	64.25
404.869	101.25
405.093	84.25
405.317	98.25
405.541	100.25
405.765	97.25
405.988	112.25
406.212	160.25
406.436	224.25
406.66	150.25
406.883	94.25
407.107	89.25
407.331	113.25
407.555	91.25
407.778	93.25
408.002	99.25
408.226	84.25
408.449	95.25
408.673	88.25
408.896	83.25
409.12	98.25
409.344	95.25
409.567	92.25
409.791	85.25
410.014	91.25
410.238	99.25
410.461	87.25
410.685	97.25
410.908	99.25
411.132	110.25
411.355	96.25
411.578	91.25
411.802	93.25
412.025	98.25
412.249	94.25
412.472	112.25
412.695	90.25
412.919	84.25
413.142	85.25
413.365	77.25
413.589	109.25
413.812	93.25
414.035	90.25
414.258	94.25
414.482	101.25
414.705	94.25
414.928	91.25
415.151	96.25
415.374	85.25
415.597	82.25
415.821	92.25
416.044	93.25
416.267	88.25
416.49	80.25
416.713	78.25
416.936	98.25
417.159	78.25
417.382	97.25
417.605	79.25
417.828	102.25
418.051	92.25
418.274	90.25
418.497	97.25
418.72	78.25
418.943	87.25
419.166	86.25
419.389	97.25
419.611	104.25
419.834	81.25
420.057	109.25
420.28	85.25
420.503	84.25
420.726	75.25
420.948	93.25
421.171	100.25
421.394	102.25
421.617	90.25
421.839	95.25
422.062	99.25
422.285	91.25
422.507	87.25
422.73	94.25
422.953	105.25
423.175	93.25
423.398	90.25
423.621	97.25
423.843	88.25
424.066	92.25
424.288	84.25
424.511	94.25
424.733	105.25
424.956	105.25
425.178	96.25
425.401	94.25
425.623	101.25
425.846	91.25
426.068	96.25
426.291	89.25
426.513	93.25
426.735	89.25
426.958	79.25
427.18	111.25
427.402	116.25
427.625	154.25
427.847	119.25
428.069	102.25
428.292	91.25
428.514	101.25
428.736	87.25
428.958	92.25
429.181	78.25
429.403	93.25
429.625	82.25
429.847	92.25
430.069	103.25
430.292	91.25
430.514	82.25
430.736	84.25
430.958	101.25
431.18	83.25
431.402	93.25
431.624	96.25
431.846	93.25
432.068	81.25
432.29	83.25
432.512	91.25
432.734	92.25
432.956	107.25
433.178	96.25
433.4	104.25
433.622	89.25
433.844	93.25
434.066	111.25
434.287	82.25
434.509	100.25
434.731	104.25
434.953	96.25
435.175	90.25
435.397	94.25
435.618	101.25
435.84	92.25
436.062	96.25
436.284	108.25
436.505	92.25
436.727	101.25
436.949	94.25
437.17	66.25
437.392	81.25
437.614	94.25
437.835	96.25
438.057	114.25
438.278	107.25
438.5	102.25
438.721	113.25
438.943	108.25
439.165	92.25
439.386	75.25
439.608	79.25
439.829	92.25
440.05	102.25
440.272	120.25
440.493	98.25
440.715	93.25
440.936	88.25
441.158	88.25
441.379	106.25
441.6	85.25
441.822	92.25
442.043	100.25
442.264	94.25
442.486	102.25
442.707	102.25
442.928	94.25
443.149	131.25
443.371	120.25
443.592	111.25
443.813	102.25
444.034	104.25
444.255	96.25
444.476	85.25
444.698	96.25
444.919	82.25
445.14	121.25
445.361	115.25
445.582	92.25
445.803	121.25
446.024	100.25
446.245	121.25
446.466	103.25
446.687	97.25
446.908	76.25
447.129	94.25
447.35	98.25
447.571	103.25
447.792	97.25
448.013	100.25
448.234	108.25
448.455	100.25
448.675	108.25
448.896	106.25
449.117	109.25
449.338	101.25
449.559	122.25
449.779	115.25
450	90.25
450.221	86.25
450.442	94.25
450.662	94.25
450.883	124.25
451.104	108.25
451.324	86.25
451.545	86.25
451.766	76.25
451.986	79.25
452.207	88.25
452.428	98.25
452.648	101.25
452.869	109.25
453.089	98.25
453.31	108.25
453.53	93.25
453.751	90.25
453.971	118.25
454.192	123.25
454.412	102.25
454.633	86.25
454.853	87.25
455.073	90.25
455.294	88.25
455.514	112.25
455.734	116.25
455.955	83.25
456.175	84.25
456.395	92.25
456.616	85.25
456.836	81.25
457.056	79.25
457.276	73.25
457.497	86.25
457.717	81.25
457.937	92.25
458.157	98.25
458.377	97.25
458.598	107.25
458.818	152.25
459.038	152.25
459.258	110.25
459.478	95.25
459.698	74.25
459.918	90.25
460.138	89.25
460.358	78.25
460.578	78.25
460.798	91.25
461.018	104.25
461.238	106.25
461.458	93.25
461.678	97.25
461.898	96.25
462.118	99.25
462.338	84.25
462.558	82.25
462.777	93.25
462.997	82.25
463.217	91.25
463.437	94.25
463.657	92.25
463.876	87.25
464.096	97.25
464.316	79.25
464.536	96.25
464.755	103.25
464.975	104.25
465.195	148.25
465.414	146.25
465.634	104.25
465.854	85.25
466.073	85.25
466.293	86.25
466.512	79.25
466.732	80.25
466.951	88.25
467.171	92.25
467.391	97.25
467.61	102.25
467.829	105.25
468.049	126.25
468.268	138.25
468.488	95.25
468.707	96.25
468.927	82.25
469.146	92.25
469.365	95.25
469.585	91.25
469.804	107.25
470.023	92.25
470.243	96.25
470.462	92.25
470.681	105.25
470.901	89.25
471.12	82.25
471.339	97.25
471.558	86.25
471.777	95.25
471.997	94.25
472.216	172.25
472.435	267.25
472.654	110.25
472.873	82.25
473.092	97.25
473.311	82.25
473.53	93.25
473.749	93.25
473.968	104.25
474.187	105.25
474.406	103.25
474.625	84.25
474.844	85.25
475.063	90.25
475.282	91.25
475.501	93.25
475.72	91.25
475.939	85.25
476.158	86.25
476.377	106.25
476.596	83.25
476.814	77.25
477.033	94.25
477.252	101.25
477.471	91.25
477.69	94.25
477.908	91.25
478.127	96.25
478.346	89.25
478.564	98.25
478.783	87.25
479.002	94.25
479.22	100.25
479.439	96.25
479.658	108.25
479.876	94.25
480.095	93.25
480.313	95.25
480.532	91.25
480.751	105.25
480.969	180.25
481.188	452.25
481.406	281.25
481.624	122.25
481.843	88.25
482.061	92.25
482.28	100.25
482.498	96.25
482.717	84.25
482.935	93.25
483.153	93.25
483.372	97.25
483.59	92.25
483.808	97.25
484.027	101.25
484.245	99.25
484.463	101.25
484.681	94.25
484.9	101.25
485.118	98.25
485.336	95.25
485.554	111.25
485.772	101.25
485.99	100.25
486.209	102.25
486.427	101.25
486.645	110.25
486.863	124.25
487.081	96.25
487.299	100.25
487.517	102.25
487.735	89.25
487.953	103.25
488.171	92.25
488.389	113.25
488.607	98.25
488.825	92.25
489.043	90.25
489.261	81.25
489.479	94.25
489.696	76.25
489.914	85.25
490.132	94.25
490.35	99.25
490.568	101.25
490.786	79.25
491.003	85.25
491.221	89.25
491.439	86.25
491.657	96.25
491.874	76.25
492.092	91.25
492.31	95.25
492.527	95.25
492.745	102.25
492.963	94.25
493.18	92.25
493.398	97.25
493.615	89.25
493.833	96.25
494.05	94.25
494.268	118.25
494.485	96.25
494.703	91.25
494.92	93.25
495.138	84.25
495.355	89.25
495.573	94.25
495.79	89.25
496.008	100.25
496.225	94.25
496.442	85.25
496.66	84.25
496.877	100.25
497.094	96.25
497.312	79.25
497.529	89.25
497.746	85.25
497.963	100.25
498.181	89.25
498.398	84.25
498.615	120.25
498.832	105.25
499.049	91.25
499.267	90.25
499.484	96.25
499.701	82.25
499.918	75.25
500.135	94.25
500.352	88.25
500.569	86.25
500.786	96.25
501.003	83.25
501.22	90.25
501.437	86.25
501.654	101.25
501.871	112.25
502.088	82.25
502.305	77.25
502.522	86.25
502.739	83.25
502.956	100.25
503.172	96.25
503.389	102.25
503.606	105.25
503.823	99.25
504.04	98.25
504.256	85.25
504.473	91.25
504.69	97.25
504.907	105.25
505.123	96.25
505.34	93.25
505.557	78.25
505.773	94.25
505.99	93.25
506.207	77.25
506.423	84.25
506.64	90.25
506.856	100.25
507.073	95.25
507.289	109.25
507.506	84.25
507.722	113.25
507.939	112.25
508.155	91.25
508.372	108.25
508.588	88.25
508.805	93.25
509.021	101.25
509.238	90.25
509.454	109.25
509.67	99.25
509.887	108.25
510.103	139.25
510.319	226.25
510.536	815.25
510.752	2533.25
510.968	691.25
511.184	170.25
511.401	117.25
511.617	97.25
511.833	93.25
512.049	98.25
512.265	87.25
512.481	96.25
512.698	100.25
512.914	104.25
513.13	104.25
513.346	97.25
513.562	88.25
513.778	96.25
513.994	106.25
514.21	98.25
514.426	102.25
514.642	125.25
514.858	118.25
