Data from Circ_1996_H10_HRD10591_00026.txt Node
Date: Wed Jan 03 11:33:11 EST 2024
User: Yrep
Spectrometer: HR+D1059
Trigger mode: 1
Integration Time (sec): 1.000000E-1
Scans to average: 1
Electric dark correction enabled: true
Nonlinearity correction enabled: false
Boxcar width: 0
XAxis mode: Wavelengths
Number of Pixels in Spectrum: 2048
>>>>>Begin Spectral Data<<<<<
223.165	-20.69
223.4	-20.69
223.635	-20.69
223.869	-19.69
224.104	-10.69
224.338	-12.69
224.573	-19.69
224.808	-18.69
225.042	-4.69
225.277	2.31
225.511	-14.69
225.746	-1.69
225.98	0.31
226.215	24.31
226.449	18.31
226.683	16.31
226.918	36.31
227.152	25.31
227.387	27.31
227.621	47.31
227.856	33.31
228.09	42.31
228.324	56.31
228.559	57.31
228.793	65.31
229.027	65.31
229.262	73.31
229.496	72.31
229.73	102.31
229.964	79.31
230.199	75.31
230.433	71.31
230.667	104.31
230.901	98.31
231.136	76.31
231.37	79.31
231.604	91.31
231.838	90.31
232.072	78.31
232.306	81.31
232.541	89.31
232.775	89.31
233.009	102.31
233.243	85.31
233.477	86.31
233.711	97.31
233.945	81.31
234.179	84.31
234.413	80.31
234.647	76.31
234.881	76.31
235.115	82.31
235.349	94.31
235.583	73.31
235.817	88.31
236.051	90.31
236.285	81.31
236.519	79.31
236.753	95.31
236.987	88.31
237.221	86.31
237.455	83.31
237.689	94.31
237.922	83.31
238.156	95.31
238.39	84.31
238.624	96.31
238.858	69.31
239.091	90.31
239.325	83.31
239.559	101.31
239.793	91.31
240.027	89.31
240.26	95.31
240.494	80.31
240.728	65.31
240.961	81.31
241.195	82.31
241.429	85.31
241.662	85.31
241.896	82.31
242.13	81.31
242.363	84.31
242.597	84.31
242.83	80.31
243.064	88.31
243.298	81.31
243.531	72.31
243.765	80.31
243.998	64.31
244.232	85.31
244.465	89.31
244.699	73.31
244.932	81.31
245.166	77.31
245.399	76.31
245.633	71.31
245.866	85.31
246.099	76.31
246.333	84.31
246.566	90.31
246.8	84.31
247.033	88.31
247.266	89.31
247.5	81.31
247.733	78.31
247.966	81.31
248.2	96.31
248.433	86.31
248.666	85.31
248.899	92.31
249.133	79.31
249.366	97.31
249.599	101.31
249.832	95.31
250.066	88.31
250.299	81.31
250.532	82.31
250.765	93.31
250.998	97.31
251.231	85.31
251.465	83.31
251.698	83.31
251.931	78.31
252.164	96.31
252.397	99.31
252.63	96.31
252.863	88.31
253.096	78.31
253.329	78.31
253.562	93.31
253.795	90.31
254.028	82.31
254.261	85.31
254.494	95.31
254.727	92.31
254.96	69.31
255.193	85.31
255.426	73.31
255.659	84.31
255.892	89.31
256.124	81.31
256.357	76.31
256.59	76.31
256.823	88.31
257.056	84.31
257.289	82.31
257.521	86.31
257.754	85.31
257.987	80.31
258.22	81.31
258.452	95.31
258.685	93.31
258.918	106.31
259.151	74.31
259.383	77.31
259.616	105.31
259.849	93.31
260.081	96.31
260.314	91.31
260.547	92.31
260.779	79.31
261.012	79.31
261.244	75.31
261.477	75.31
261.71	95.31
261.942	113.31
262.175	140.31
262.407	102.31
262.64	95.31
262.872	82.31
263.105	88.31
263.337	106.31
263.57	91.31
263.802	94.31
264.035	87.31
264.267	79.31
264.499	87.31
264.732	98.31
264.964	84.31
265.197	92.31
265.429	86.31
265.661	84.31
265.894	101.31
266.126	98.31
266.358	93.31
266.591	100.31
266.823	88.31
267.055	78.31
267.287	75.31
267.52	83.31
267.752	92.31
267.984	96.31
268.216	91.31
268.448	88.31
268.681	97.31
268.913	88.31
269.145	73.31
269.377	91.31
269.609	85.31
269.841	93.31
270.073	90.31
270.306	87.31
270.538	96.31
270.77	86.31
271.002	96.31
271.234	85.31
271.466	78.31
271.698	96.31
271.93	96.31
272.162	94.31
272.394	78.31
272.626	97.31
272.858	86.31
273.09	86.31
273.322	93.31
273.553	81.31
273.785	81.31
274.017	84.31
274.249	102.31
274.481	96.31
274.713	79.31
274.945	99.31
275.176	93.31
275.408	93.31
275.64	96.31
275.872	108.31
276.104	80.31
276.335	93.31
276.567	108.31
276.799	115.31
277.031	109.31
277.262	96.31
277.494	90.31
277.726	90.31
277.957	94.31
278.189	98.31
278.421	102.31
278.652	92.31
278.884	80.31
279.115	87.31
279.347	93.31
279.579	81.31
279.81	75.31
280.042	92.31
280.273	92.31
280.505	92.31
280.736	99.31
280.968	96.31
281.199	93.31
281.431	104.31
281.662	107.31
281.894	83.31
282.125	113.31
282.356	117.31
282.588	147.31
282.819	125.31
283.051	103.31
283.282	87.31
283.513	105.31
283.745	104.31
283.976	81.31
284.207	85.31
284.439	91.31
284.67	102.31
284.901	90.31
285.132	94.31
285.364	77.31
285.595	70.31
285.826	94.31
286.057	86.31
286.288	84.31
286.52	89.31
286.751	91.31
286.982	86.31
287.213	88.31
287.444	85.31
287.675	85.31
287.906	94.31
288.138	96.31
288.369	95.31
288.6	91.31
288.831	100.31
289.062	93.31
289.293	93.31
289.524	91.31
289.755	97.31
289.986	79.31
290.217	68.31
290.448	84.31
290.679	104.31
290.91	79.31
291.141	81.31
291.371	91.31
291.602	84.31
291.833	91.31
292.064	84.31
292.295	81.31
292.526	81.31
292.757	94.31
292.987	93.31
293.218	84.31
293.449	101.31
293.68	90.31
293.91	98.31
294.141	80.31
294.372	89.31
294.603	94.31
294.833	100.31
295.064	100.31
295.295	100.31
295.525	101.31
295.756	111.31
295.987	125.31
296.217	156.31
296.448	136.31
296.679	99.31
296.909	88.31
297.14	97.31
297.37	94.31
297.601	104.31
297.831	84.31
298.062	93.31
298.292	88.31
298.523	92.31
298.753	92.31
298.984	87.31
299.214	86.31
299.445	84.31
299.675	88.31
299.905	109.31
300.136	85.31
300.366	100.31
300.597	93.31
300.827	96.31
301.057	112.31
301.288	101.31
301.518	95.31
301.748	91.31
301.979	110.31
302.209	104.31
302.439	80.31
302.669	103.31
302.9	109.31
303.13	85.31
303.36	100.31
303.59	115.31
303.82	117.31
304.051	99.31
304.281	105.31
304.511	107.31
304.741	95.31
304.971	83.31
305.201	95.31
305.431	92.31
305.661	101.31
305.891	111.31
306.121	101.31
306.352	115.31
306.582	127.31
306.812	109.31
307.042	94.31
307.272	93.31
307.502	109.31
307.731	104.31
307.961	89.31
308.191	87.31
308.421	88.31
308.651	94.31
308.881	110.31
309.111	97.31
309.341	104.31
309.571	109.31
309.8	105.31
310.03	108.31
310.26	101.31
310.49	87.31
310.72	99.31
310.949	109.31
311.179	107.31
311.409	99.31
311.639	96.31
311.868	100.31
312.098	90.31
312.328	107.31
312.557	90.31
312.787	103.31
313.017	116.31
313.246	96.31
313.476	94.31
313.706	113.31
313.935	113.31
314.165	92.31
314.394	102.31
314.624	100.31
314.853	92.31
315.083	91.31
315.312	95.31
315.542	84.31
315.771	92.31
316.001	97.31
316.23	102.31
316.46	95.31
316.689	87.31
316.919	84.31
317.148	95.31
317.377	99.31
317.607	103.31
317.836	102.31
318.065	104.31
318.295	88.31
318.524	109.31
318.753	104.31
318.983	100.31
319.212	100.31
319.441	123.31
319.67	106.31
319.9	99.31
320.129	98.31
320.358	107.31
320.587	96.31
320.816	101.31
321.046	115.31
321.275	104.31
321.504	98.31
321.733	100.31
321.962	109.31
322.191	101.31
322.42	96.31
322.649	106.31
322.878	117.31
323.108	123.31
323.337	139.31
323.566	120.31
323.795	141.31
324.024	171.31
324.253	307.31
324.482	701.31
324.71	1365.31
324.939	1779.31
325.168	689.31
325.397	229.31
325.626	162.31
325.855	130.31
326.084	128.31
326.313	125.31
326.542	147.31
326.77	197.31
326.999	378.31
327.228	733.31
327.457	1288.31
327.686	1017.31
327.914	310.31
328.143	218.31
328.372	171.31
328.6	144.31
328.829	119.31
329.058	132.31
329.287	122.31
329.515	132.31
329.744	101.31
329.972	127.31
330.201	147.31
330.43	190.31
330.658	150.31
330.887	144.31
331.115	141.31
331.344	106.31
331.572	105.31
331.801	116.31
332.03	105.31
332.258	105.31
332.486	104.31
332.715	95.31
332.943	116.31
333.172	103.31
333.4	116.31
333.629	109.31
333.857	125.31
334.085	139.31
334.314	160.31
334.542	222.31
334.771	195.31
334.999	123.31
335.227	100.31
335.455	93.31
335.684	101.31
335.912	103.31
336.14	99.31
336.369	98.31
336.597	109.31
336.825	91.31
337.053	96.31
337.281	90.31
337.51	82.31
337.738	103.31
337.966	110.31
338.194	93.31
338.422	111.31
338.65	90.31
338.878	101.31
339.106	106.31
339.334	103.31
339.562	109.31
339.79	83.31
340.018	83.31
340.246	100.31
340.474	104.31
340.702	96.31
340.93	102.31
341.158	97.31
341.386	104.31
341.614	96.31
341.842	101.31
342.07	82.31
342.298	104.31
342.526	99.31
342.754	106.31
342.981	95.31
343.209	86.31
343.437	89.31
343.665	90.31
343.893	81.31
344.12	90.31
344.348	102.31
344.576	106.31
344.804	94.31
345.031	91.31
345.259	116.31
345.487	104.31
345.714	97.31
345.942	107.31
346.17	101.31
346.397	109.31
346.625	103.31
346.853	90.31
347.08	92.31
347.308	88.31
347.535	81.31
347.763	88.31
347.99	95.31
348.218	110.31
348.445	119.31
348.673	109.31
348.9	97.31
349.128	94.31
349.355	94.31
349.583	102.31
349.81	102.31
350.037	110.31
350.265	92.31
350.492	93.31
350.72	100.31
350.947	107.31
351.174	120.31
351.402	106.31
351.629	102.31
351.856	96.31
352.083	108.31
352.311	118.31
352.538	107.31
352.765	105.31
352.992	114.31
353.22	120.31
353.447	129.31
353.674	102.31
353.901	83.31
354.128	113.31
354.355	114.31
354.583	96.31
354.81	93.31
355.037	105.31
355.264	97.31
355.491	96.31
355.718	92.31
355.945	116.31
356.172	103.31
356.399	98.31
356.626	109.31
356.853	101.31
357.08	107.31
357.307	97.31
357.534	94.31
357.761	81.31
357.988	94.31
358.215	103.31
358.441	101.31
358.668	107.31
358.895	111.31
359.122	91.31
359.349	88.31
359.576	94.31
359.802	117.31
360.029	117.31
360.256	114.31
360.483	89.31
360.709	91.31
360.936	102.31
361.163	105.31
361.39	96.31
361.616	107.31
361.843	102.31
362.07	112.31
362.296	107.31
362.523	113.31
362.749	96.31
362.976	100.31
363.203	94.31
363.429	79.31
363.656	89.31
363.882	103.31
364.109	88.31
364.335	84.31
364.562	100.31
364.788	95.31
365.015	108.31
365.241	102.31
365.468	124.31
365.694	124.31
365.92	87.31
366.147	97.31
366.373	98.31
366.599	105.31
366.826	87.31
367.052	92.31
367.278	93.31
367.505	99.31
367.731	92.31
367.957	88.31
368.184	89.31
368.41	120.31
368.636	123.31
368.862	123.31
369.089	113.31
369.315	98.31
369.541	109.31
369.767	92.31
369.993	77.31
370.219	81.31
370.445	90.31
370.672	90.31
370.898	99.31
371.124	90.31
371.35	90.31
371.576	87.31
371.802	71.31
372.028	95.31
372.254	94.31
372.48	86.31
372.706	86.31
372.932	94.31
373.158	105.31
373.384	102.31
373.61	101.31
373.835	92.31
374.061	94.31
374.287	98.31
374.513	99.31
374.739	97.31
374.965	77.31
375.191	97.31
375.416	102.31
375.642	84.31
375.868	104.31
376.094	86.31
376.319	94.31
376.545	86.31
376.771	101.31
376.997	105.31
377.222	95.31
377.448	105.31
377.674	102.31
377.899	88.31
378.125	97.31
378.35	101.31
378.576	97.31
378.802	86.31
379.027	92.31
379.253	71.31
379.478	108.31
379.704	101.31
379.929	92.31
380.155	109.31
380.38	102.31
380.606	105.31
380.831	108.31
381.057	107.31
381.282	111.31
381.507	110.31
381.733	95.31
381.958	109.31
382.184	108.31
382.409	89.31
382.634	118.31
382.86	79.31
383.085	113.31
383.31	100.31
383.535	102.31
383.761	100.31
383.986	113.31
384.211	108.31
384.436	121.31
384.662	104.31
384.887	102.31
385.112	107.31
385.337	119.31
385.562	121.31
385.787	124.31
386.013	128.31
386.238	146.31
386.463	129.31
386.688	106.31
386.913	114.31
387.138	129.31
387.363	107.31
387.588	103.31
387.813	115.31
388.038	122.31
388.263	117.31
388.488	120.31
388.713	106.31
388.938	107.31
389.163	104.31
389.387	95.31
389.612	109.31
389.837	104.31
390.062	97.31
390.287	81.31
390.512	93.31
390.736	103.31
390.961	99.31
391.186	124.31
391.411	101.31
391.636	92.31
391.86	98.31
392.085	96.31
392.31	90.31
392.534	86.31
392.759	83.31
392.984	81.31
393.208	110.31
393.433	121.31
393.658	113.31
393.882	91.31
394.107	94.31
394.331	82.31
394.556	89.31
394.78	104.31
395.005	78.31
395.229	92.31
395.454	87.31
395.678	88.31
395.903	96.31
396.127	89.31
396.352	95.31
396.576	98.31
396.801	99.31
397.025	98.31
397.249	87.31
397.474	95.31
397.698	104.31
397.922	92.31
398.147	88.31
398.371	79.31
398.595	89.31
398.82	99.31
399.044	85.31
399.268	92.31
399.492	94.31
399.717	102.31
399.941	100.31
400.165	101.31
400.389	97.31
400.613	107.31
400.837	97.31
401.062	87.31
401.286	103.31
401.51	99.31
401.734	99.31
401.958	113.31
402.182	130.31
402.406	185.31
402.63	147.31
402.854	102.31
403.078	97.31
403.302	108.31
403.526	96.31
403.75	103.31
403.974	96.31
404.198	95.31
404.422	90.31
404.645	97.31
404.869	97.31
405.093	103.31
405.317	105.31
405.541	110.31
405.765	102.31
405.988	125.31
406.212	195.31
406.436	261.31
406.66	164.31
406.883	101.31
407.107	108.31
407.331	109.31
407.555	102.31
407.778	115.31
408.002	85.31
408.226	79.31
408.449	98.31
408.673	99.31
408.896	106.31
409.12	112.31
409.344	112.31
409.567	91.31
409.791	83.31
410.014	91.31
410.238	104.31
410.461	99.31
410.685	96.31
410.908	97.31
411.132	97.31
411.355	96.31
411.578	103.31
411.802	100.31
412.025	92.31
412.249	89.31
412.472	105.31
412.695	96.31
412.919	94.31
413.142	74.31
413.365	96.31
413.589	79.31
413.812	87.31
414.035	103.31
414.258	86.31
414.482	102.31
414.705	88.31
414.928	92.31
415.151	108.31
415.374	105.31
415.597	93.31
415.821	93.31
416.044	92.31
416.267	98.31
416.49	90.31
416.713	100.31
416.936	85.31
417.159	103.31
417.382	96.31
417.605	87.31
417.828	100.31
418.051	99.31
418.274	88.31
418.497	92.31
418.72	88.31
418.943	95.31
419.166	96.31
419.389	103.31
419.611	99.31
419.834	91.31
420.057	89.31
420.28	90.31
420.503	96.31
420.726	95.31
420.948	93.31
421.171	101.31
421.394	96.31
421.617	90.31
421.839	97.31
422.062	102.31
422.285	96.31
422.507	113.31
422.73	112.31
422.953	96.31
423.175	99.31
423.398	100.31
423.621	94.31
423.843	97.31
424.066	95.31
424.288	109.31
424.511	94.31
424.733	102.31
424.956	100.31
425.178	101.31
425.401	102.31
425.623	91.31
425.846	95.31
426.068	98.31
426.291	103.31
426.513	91.31
426.735	111.31
426.958	96.31
427.18	100.31
427.402	129.31
427.625	175.31
427.847	153.31
428.069	116.31
428.292	99.31
428.514	92.31
428.736	100.31
428.958	105.31
429.181	107.31
429.403	91.31
429.625	89.31
429.847	102.31
430.069	108.31
430.292	89.31
430.514	102.31
430.736	95.31
430.958	96.31
431.18	95.31
431.402	99.31
431.624	100.31
431.846	80.31
432.068	88.31
432.29	94.31
432.512	97.31
432.734	94.31
432.956	99.31
433.178	102.31
433.4	99.31
433.622	101.31
433.844	92.31
434.066	97.31
434.287	95.31
434.509	79.31
434.731	95.31
434.953	99.31
435.175	100.31
435.397	95.31
435.618	101.31
435.84	106.31
436.062	117.31
436.284	103.31
436.505	92.31
436.727	98.31
436.949	76.31
437.17	92.31
437.392	94.31
437.614	85.31
437.835	118.31
438.057	128.31
438.278	126.31
438.5	104.31
438.721	134.31
438.943	93.31
439.165	103.31
439.386	100.31
439.608	94.31
439.829	98.31
440.05	117.31
440.272	130.31
440.493	101.31
440.715	99.31
440.936	99.31
441.158	91.31
441.379	84.31
441.6	87.31
441.822	94.31
442.043	85.31
442.264	114.31
442.486	115.31
442.707	102.31
442.928	125.31
443.149	139.31
443.371	144.31
443.592	114.31
443.813	117.31
444.034	107.31
444.255	90.31
444.476	90.31
444.698	94.31
444.919	100.31
445.14	138.31
445.361	124.31
445.582	142.31
445.803	139.31
446.024	128.31
446.245	131.31
446.466	112.31
446.687	90.31
446.908	101.31
447.129	96.31
447.35	85.31
447.571	97.31
447.792	82.31
448.013	103.31
448.234	118.31
448.455	92.31
448.675	108.31
448.896	135.31
449.117	111.31
449.338	99.31
449.559	130.31
449.779	131.31
450	96.31
450.221	87.31
450.442	86.31
450.662	93.31
450.883	108.31
451.104	112.31
451.324	101.31
451.545	91.31
451.766	91.31
451.986	81.31
452.207	90.31
452.428	99.31
452.648	91.31
452.869	123.31
453.089	115.31
453.31	126.31
453.53	98.31
453.751	90.31
453.971	104.31
454.192	110.31
454.412	103.31
454.633	90.31
454.853	95.31
455.073	83.31
455.294	75.31
455.514	96.31
455.734	89.31
455.955	106.31
456.175	99.31
456.395	91.31
456.616	87.31
456.836	97.31
457.056	87.31
457.276	81.31
457.497	90.31
457.717	79.31
457.937	97.31
458.157	97.31
458.377	111.31
458.598	100.31
458.818	169.31
459.038	161.31
459.258	112.31
459.478	100.31
459.698	94.31
459.918	102.31
460.138	102.31
460.358	116.31
460.578	88.31
460.798	92.31
461.018	85.31
461.238	65.31
461.458	89.31
461.678	93.31
461.898	85.31
462.118	88.31
462.338	97.31
462.558	69.31
462.777	93.31
462.997	92.31
463.217	84.31
463.437	85.31
463.657	93.31
463.876	102.31
464.096	92.31
464.316	99.31
464.536	95.31
464.755	103.31
464.975	113.31
465.195	168.31
465.414	180.31
465.634	115.31
465.854	103.31
466.073	87.31
466.293	103.31
466.512	85.31
466.732	92.31
466.951	97.31
467.171	102.31
467.391	91.31
467.61	105.31
467.829	109.31
468.049	133.31
468.268	144.31
468.488	100.31
468.707	70.31
468.927	85.31
469.146	93.31
469.365	95.31
469.585	98.31
469.804	97.31
470.023	119.31
470.243	94.31
470.462	103.31
470.681	111.31
470.901	93.31
471.12	101.31
471.339	94.31
471.558	99.31
471.777	110.31
471.997	115.31
472.216	166.31
472.435	256.31
472.654	115.31
472.873	91.31
473.092	71.31
473.311	96.31
473.53	85.31
473.749	88.31
473.968	102.31
474.187	108.31
474.406	117.31
474.625	98.31
474.844	96.31
475.063	96.31
475.282	82.31
475.501	95.31
475.72	105.31
475.939	96.31
476.158	98.31
476.377	91.31
476.596	77.31
476.814	111.31
477.033	86.31
477.252	87.31
477.471	96.31
477.69	102.31
477.908	98.31
478.127	94.31
478.346	94.31
478.564	90.31
478.783	101.31
479.002	104.31
479.22	109.31
479.439	98.31
479.658	98.31
479.876	99.31
480.095	96.31
480.313	114.31
480.532	91.31
480.751	108.31
480.969	174.31
481.188	406.31
481.406	264.31
481.624	125.31
481.843	95.31
482.061	65.31
482.28	88.31
482.498	91.31
482.717	84.31
482.935	88.31
483.153	99.31
483.372	94.31
483.59	78.31
483.808	99.31
484.027	93.31
484.245	105.31
484.463	94.31
484.681	104.31
484.9	110.31
485.118	100.31
485.336	107.31
485.554	105.31
485.772	111.31
485.99	100.31
486.209	103.31
486.427	104.31
486.645	126.31
486.863	120.31
487.081	115.31
487.299	103.31
487.517	95.31
487.735	107.31
487.953	104.31
488.171	115.31
488.389	94.31
488.607	96.31
488.825	102.31
489.043	95.31
489.261	101.31
489.479	93.31
489.696	102.31
489.914	96.31
490.132	98.31
490.35	86.31
490.568	101.31
490.786	94.31
491.003	92.31
491.221	94.31
491.439	97.31
491.657	102.31
491.874	97.31
492.092	93.31
492.31	92.31
492.527	88.31
492.745	100.31
492.963	108.31
493.18	99.31
493.398	95.31
493.615	98.31
493.833	104.31
494.05	87.31
494.268	104.31
494.485	88.31
494.703	87.31
494.92	96.31
495.138	102.31
495.355	94.31
495.573	99.31
495.79	101.31
496.008	99.31
496.225	100.31
496.442	83.31
496.66	99.31
496.877	101.31
497.094	90.31
497.312	77.31
497.529	87.31
497.746	101.31
497.963	96.31
498.181	78.31
498.398	103.31
498.615	116.31
498.832	109.31
499.049	93.31
499.267	79.31
499.484	83.31
499.701	95.31
499.918	101.31
500.135	94.31
500.352	104.31
500.569	100.31
500.786	93.31
501.003	96.31
501.22	83.31
501.437	87.31
501.654	103.31
501.871	104.31
502.088	107.31
502.305	89.31
502.522	87.31
502.739	100.31
502.956	89.31
503.172	96.31
503.389	99.31
503.606	111.31
503.823	111.31
504.04	101.31
504.256	105.31
504.473	102.31
504.69	95.31
504.907	97.31
505.123	92.31
505.34	93.31
505.557	92.31
505.773	96.31
505.99	99.31
506.207	92.31
506.423	91.31
506.64	100.31
506.856	100.31
507.073	100.31
507.289	100.31
507.506	99.31
507.722	123.31
507.939	125.31
508.155	112.31
508.372	72.31
508.588	100.31
508.805	104.31
509.021	101.31
509.238	105.31
509.454	111.31
509.67	125.31
509.887	108.31
510.103	146.31
510.319	243.31
510.536	863.31
510.752	2955.31
510.968	799.31
511.184	172.31
511.401	111.31
511.617	104.31
511.833	108.31
512.049	94.31
512.265	103.31
512.481	83.31
