Data from Circ_1996_H10_HRD10591_00066.txt Node
Date: Wed Jan 03 11:33:19 EST 2024
User: Yrep
Spectrometer: HR+D1059
Trigger mode: 1
Integration Time (sec): 1.000000E-1
Scans to average: 1
Electric dark correction enabled: true
Nonlinearity correction enabled: false
Boxcar width: 0
XAxis mode: Wavelengths
Number of Pixels in Spectrum: 2048
>>>>>Begin Spectral Data<<<<<
223.165	-9.12
223.4	-9.12
223.635	-9.12
223.869	-11.12
224.104	-17.12
224.338	-10.12
224.573	-20.12
224.808	-15.12
225.042	-4.12
225.277	-4.12
225.511	13.88
225.746	1.88
225.98	4.88
226.215	-13.12
226.449	9.88
226.683	14.88
226.918	31.88
227.152	26.88
227.387	28.88
227.621	37.88
227.856	41.88
228.09	44.88
228.324	40.88
228.559	52.88
228.793	67.88
229.027	62.88
229.262	53.88
229.496	80.88
229.73	80.88
229.964	93.88
230.199	67.88
230.433	58.88
230.667	79.88
230.901	74.88
231.136	70.88
231.37	76.88
231.604	81.88
231.838	80.88
232.072	63.88
232.306	66.88
232.541	82.88
232.775	83.88
233.009	59.88
233.243	70.88
233.477	71.88
233.711	69.88
233.945	75.88
234.179	76.88
234.413	76.88
234.647	76.88
234.881	78.88
235.115	79.88
235.349	75.88
235.583	61.88
235.817	89.88
236.051	75.88
236.285	72.88
236.519	57.88
236.753	77.88
236.987	70.88
237.221	68.88
237.455	73.88
237.689	68.88
237.922	73.88
238.156	69.88
238.39	78.88
238.624	73.88
238.858	68.88
239.091	66.88
239.325	70.88
239.559	84.88
239.793	71.88
240.027	75.88
240.26	59.88
240.494	76.88
240.728	60.88
240.961	72.88
241.195	76.88
241.429	70.88
241.662	75.88
241.896	70.88
242.13	59.88
242.363	81.88
242.597	68.88
242.83	78.88
243.064	63.88
243.298	77.88
243.531	69.88
243.765	68.88
243.998	72.88
244.232	84.88
244.465	91.88
244.699	70.88
244.932	68.88
245.166	78.88
245.399	82.88
245.633	82.88
245.866	93.88
246.099	73.88
246.333	75.88
246.566	66.88
246.8	68.88
247.033	85.88
247.266	70.88
247.5	75.88
247.733	80.88
247.966	79.88
248.2	76.88
248.433	74.88
248.666	89.88
248.899	82.88
249.133	82.88
249.366	101.88
249.599	99.88
249.832	89.88
250.066	84.88
250.299	57.88
250.532	91.88
250.765	78.88
250.998	70.88
251.231	72.88
251.465	83.88
251.698	79.88
251.931	67.88
252.164	76.88
252.397	78.88
252.63	83.88
252.863	78.88
253.096	77.88
253.329	78.88
253.562	70.88
253.795	87.88
254.028	64.88
254.261	66.88
254.494	76.88
254.727	75.88
254.96	77.88
255.193	72.88
255.426	75.88
255.659	74.88
255.892	82.88
256.124	76.88
256.357	70.88
256.59	79.88
256.823	70.88
257.056	71.88
257.289	81.88
257.521	71.88
257.754	77.88
257.987	75.88
258.22	69.88
258.452	91.88
258.685	84.88
258.918	70.88
259.151	67.88
259.383	71.88
259.616	70.88
259.849	80.88
260.081	72.88
260.314	67.88
260.547	70.88
260.779	75.88
261.012	84.88
261.244	84.88
261.477	94.88
261.71	99.88
261.942	111.88
262.175	109.88
262.407	92.88
262.64	84.88
262.872	72.88
263.105	72.88
263.337	96.88
263.57	75.88
263.802	75.88
264.035	76.88
264.267	75.88
264.499	67.88
264.732	76.88
264.964	82.88
265.197	82.88
265.429	71.88
265.661	78.88
265.894	70.88
266.126	90.88
266.358	84.88
266.591	76.88
266.823	74.88
267.055	69.88
267.287	79.88
267.52	90.88
267.752	80.88
267.984	86.88
268.216	84.88
268.448	93.88
268.681	79.88
268.913	80.88
269.145	101.88
269.377	77.88
269.609	77.88
269.841	81.88
270.073	69.88
270.306	74.88
270.538	75.88
270.77	78.88
271.002	74.88
271.234	87.88
271.466	74.88
271.698	63.88
271.93	80.88
272.162	72.88
272.394	76.88
272.626	87.88
272.858	82.88
273.09	72.88
273.322	92.88
273.553	68.88
273.785	78.88
274.017	82.88
274.249	80.88
274.481	80.88
274.713	81.88
274.945	89.88
275.176	86.88
275.408	74.88
275.64	74.88
275.872	83.88
276.104	83.88
276.335	94.88
276.567	91.88
276.799	95.88
277.031	94.88
277.262	82.88
277.494	82.88
277.726	86.88
277.957	77.88
278.189	74.88
278.421	88.88
278.652	78.88
278.884	81.88
279.115	92.88
279.347	77.88
279.579	73.88
279.81	83.88
280.042	103.88
280.273	96.88
280.505	99.88
280.736	82.88
280.968	87.88
281.199	87.88
281.431	81.88
281.662	93.88
281.894	89.88
282.125	99.88
282.356	118.88
282.588	149.88
282.819	115.88
283.051	91.88
283.282	79.88
283.513	78.88
283.745	71.88
283.976	84.88
284.207	84.88
284.439	80.88
284.67	93.88
284.901	85.88
285.132	75.88
285.364	84.88
285.595	86.88
285.826	82.88
286.057	80.88
286.288	77.88
286.52	80.88
286.751	91.88
286.982	71.88
287.213	82.88
287.444	82.88
287.675	84.88
287.906	74.88
288.138	93.88
288.369	78.88
288.6	88.88
288.831	76.88
289.062	96.88
289.293	85.88
289.524	88.88
289.755	85.88
289.986	85.88
290.217	89.88
290.448	87.88
290.679	70.88
290.91	89.88
291.141	86.88
291.371	94.88
291.602	96.88
291.833	89.88
292.064	78.88
292.295	87.88
292.526	82.88
292.757	76.88
292.987	93.88
293.218	74.88
293.449	83.88
293.68	83.88
293.91	73.88
294.141	68.88
294.372	75.88
294.603	85.88
294.833	89.88
295.064	98.88
295.295	82.88
295.525	78.88
295.756	97.88
295.987	104.88
296.217	125.88
296.448	132.88
296.679	90.88
296.909	88.88
297.14	91.88
297.37	83.88
297.601	74.88
297.831	82.88
298.062	94.88
298.292	67.88
298.523	78.88
298.753	80.88
298.984	86.88
299.214	90.88
299.445	102.88
299.675	89.88
299.905	96.88
300.136	82.88
300.366	93.88
300.597	85.88
300.827	85.88
301.057	92.88
301.288	87.88
301.518	97.88
301.748	90.88
301.979	100.88
302.209	95.88
302.439	86.88
302.669	87.88
302.9	87.88
303.13	100.88
303.36	87.88
303.59	111.88
303.82	110.88
304.051	99.88
304.281	87.88
304.511	93.88
304.741	69.88
304.971	94.88
305.201	80.88
305.431	91.88
305.661	97.88
305.891	78.88
306.121	88.88
306.352	84.88
306.582	107.88
306.812	105.88
307.042	95.88
307.272	89.88
307.502	99.88
307.731	91.88
307.961	95.88
308.191	73.88
308.421	83.88
308.651	89.88
308.881	83.88
309.111	80.88
309.341	102.88
309.571	80.88
309.8	101.88
310.03	81.88
310.26	92.88
310.49	99.88
310.72	93.88
310.949	100.88
311.179	91.88
311.409	76.88
311.639	92.88
311.868	87.88
312.098	89.88
312.328	81.88
312.557	106.88
312.787	103.88
313.017	107.88
313.246	91.88
313.476	80.88
313.706	86.88
313.935	86.88
314.165	100.88
314.394	86.88
314.624	77.88
314.853	84.88
315.083	94.88
315.312	94.88
315.542	93.88
315.771	80.88
316.001	76.88
316.23	89.88
316.46	79.88
316.689	88.88
316.919	88.88
317.148	91.88
317.377	92.88
317.607	89.88
317.836	91.88
318.065	86.88
318.295	89.88
318.524	91.88
318.753	87.88
318.983	84.88
319.212	93.88
319.441	95.88
319.67	110.88
319.9	83.88
320.129	92.88
320.358	96.88
320.587	93.88
320.816	106.88
321.046	92.88
321.275	83.88
321.504	90.88
321.733	89.88
321.962	92.88
322.191	96.88
322.42	99.88
322.649	118.88
322.878	105.88
323.108	114.88
323.337	103.88
323.566	118.88
323.795	130.88
324.024	154.88
324.253	331.88
324.482	642.88
324.71	1269.88
324.939	1709.88
325.168	670.88
325.397	223.88
325.626	130.88
325.855	128.88
326.084	118.88
326.313	116.88
326.542	141.88
326.77	201.88
326.999	353.88
327.228	686.88
327.457	1213.88
327.686	959.88
327.914	299.88
328.143	203.88
328.372	168.88
328.6	135.88
328.829	111.88
329.058	122.88
329.287	119.88
329.515	94.88
329.744	107.88
329.972	110.88
330.201	174.88
330.43	188.88
330.658	164.88
330.887	144.88
331.115	116.88
331.344	107.88
331.572	96.88
331.801	87.88
332.03	87.88
332.258	88.88
332.486	96.88
332.715	99.88
332.943	88.88
333.172	93.88
333.4	85.88
333.629	93.88
333.857	100.88
334.085	130.88
334.314	151.88
334.542	238.88
334.771	226.88
334.999	107.88
335.227	87.88
335.455	93.88
335.684	93.88
335.912	102.88
336.14	98.88
336.369	100.88
336.597	94.88
336.825	103.88
337.053	84.88
337.281	96.88
337.51	90.88
337.738	88.88
337.966	91.88
338.194	85.88
338.422	87.88
338.65	87.88
338.878	82.88
339.106	75.88
339.334	89.88
339.562	82.88
339.79	102.88
340.018	91.88
340.246	85.88
340.474	94.88
340.702	90.88
340.93	75.88
341.158	86.88
341.386	95.88
341.614	78.88
341.842	94.88
342.07	83.88
342.298	84.88
342.526	70.88
342.754	85.88
342.981	80.88
343.209	89.88
343.437	106.88
343.665	91.88
343.893	85.88
344.12	94.88
344.348	84.88
344.576	85.88
344.804	86.88
345.031	88.88
345.259	92.88
345.487	86.88
345.714	95.88
345.942	91.88
346.17	94.88
346.397	90.88
346.625	100.88
346.853	103.88
347.08	86.88
347.308	93.88
347.535	83.88
347.763	99.88
347.99	107.88
348.218	85.88
348.445	95.88
348.673	96.88
348.9	96.88
349.128	102.88
349.355	66.88
349.583	78.88
349.81	83.88
350.037	85.88
350.265	84.88
350.492	83.88
350.72	95.88
350.947	100.88
351.174	84.88
351.402	86.88
351.629	96.88
351.856	89.88
352.083	85.88
352.311	88.88
352.538	94.88
352.765	108.88
352.992	109.88
353.22	111.88
353.447	89.88
353.674	110.88
353.901	107.88
354.128	91.88
354.355	80.88
354.583	88.88
354.81	92.88
355.037	90.88
355.264	85.88
355.491	75.88
355.718	86.88
355.945	99.88
356.172	102.88
356.399	103.88
356.626	97.88
356.853	96.88
357.08	82.88
357.307	87.88
357.534	86.88
357.761	87.88
357.988	103.88
358.215	82.88
358.441	88.88
358.668	104.88
358.895	90.88
359.122	94.88
359.349	76.88
359.576	87.88
359.802	95.88
360.029	98.88
360.256	85.88
360.483	95.88
360.709	92.88
360.936	98.88
361.163	91.88
361.39	110.88
361.616	85.88
361.843	95.88
362.07	91.88
362.296	94.88
362.523	74.88
362.749	75.88
362.976	89.88
363.203	88.88
363.429	84.88
363.656	78.88
363.882	75.88
364.109	88.88
364.335	96.88
364.562	94.88
364.788	87.88
365.015	78.88
365.241	91.88
365.468	106.88
365.694	89.88
365.92	88.88
366.147	78.88
366.373	96.88
366.599	92.88
366.826	78.88
367.052	96.88
367.278	88.88
367.505	71.88
367.731	101.88
367.957	89.88
368.184	91.88
368.41	101.88
368.636	109.88
368.862	126.88
369.089	100.88
369.315	85.88
369.541	86.88
369.767	82.88
369.993	84.88
370.219	80.88
370.445	76.88
370.672	70.88
370.898	89.88
371.124	80.88
371.35	78.88
371.576	90.88
371.802	88.88
372.028	89.88
372.254	80.88
372.48	76.88
372.706	97.88
372.932	69.88
373.158	83.88
373.384	91.88
373.61	84.88
373.835	85.88
374.061	70.88
374.287	84.88
374.513	77.88
374.739	87.88
374.965	86.88
375.191	92.88
375.416	78.88
375.642	86.88
375.868	85.88
376.094	83.88
376.319	72.88
376.545	82.88
376.771	88.88
376.997	84.88
377.222	79.88
377.448	89.88
377.674	90.88
377.899	75.88
378.125	78.88
378.35	85.88
378.576	90.88
378.802	80.88
379.027	82.88
379.253	89.88
379.478	85.88
379.704	82.88
379.929	84.88
380.155	99.88
380.38	99.88
380.606	94.88
380.831	82.88
381.057	99.88
381.282	90.88
381.507	87.88
381.733	94.88
381.958	112.88
382.184	87.88
382.409	95.88
382.634	97.88
382.86	89.88
383.085	78.88
383.31	82.88
383.535	95.88
383.761	93.88
383.986	96.88
384.211	93.88
384.436	102.88
384.662	104.88
384.887	100.88
385.112	93.88
385.337	94.88
385.562	78.88
385.787	84.88
386.013	91.88
386.238	104.88
386.463	108.88
386.688	101.88
386.913	104.88
387.138	100.88
387.363	101.88
387.588	92.88
387.813	84.88
388.038	111.88
388.263	110.88
388.488	83.88
388.713	92.88
388.938	84.88
389.163	104.88
389.387	96.88
389.612	101.88
389.837	100.88
390.062	94.88
390.287	92.88
390.512	77.88
390.736	95.88
390.961	108.88
391.186	92.88
391.411	94.88
391.636	100.88
391.86	96.88
392.085	88.88
392.31	78.88
392.534	82.88
392.759	74.88
392.984	100.88
393.208	79.88
393.433	89.88
393.658	98.88
393.882	81.88
394.107	95.88
394.331	82.88
394.556	75.88
394.78	89.88
395.005	101.88
395.229	90.88
395.454	80.88
395.678	84.88
395.903	88.88
396.127	88.88
396.352	82.88
396.576	87.88
396.801	88.88
397.025	102.88
397.249	75.88
397.474	78.88
397.698	86.88
397.922	76.88
398.147	70.88
398.371	104.88
398.595	93.88
398.82	85.88
399.044	74.88
399.268	85.88
399.492	82.88
399.717	83.88
399.941	90.88
400.165	91.88
400.389	81.88
400.613	93.88
400.837	78.88
401.062	83.88
401.286	84.88
401.51	84.88
401.734	88.88
401.958	90.88
402.182	104.88
402.406	152.88
402.63	103.88
402.854	82.88
403.078	82.88
403.302	78.88
403.526	88.88
403.75	69.88
403.974	68.88
404.198	77.88
404.422	73.88
404.645	90.88
404.869	88.88
405.093	96.88
405.317	102.88
405.541	87.88
405.765	88.88
405.988	100.88
406.212	172.88
406.436	221.88
406.66	142.88
406.883	114.88
407.107	102.88
407.331	96.88
407.555	93.88
407.778	96.88
408.002	95.88
408.226	84.88
408.449	75.88
408.673	96.88
408.896	69.88
409.12	91.88
409.344	84.88
409.567	84.88
409.791	97.88
410.014	82.88
410.238	91.88
410.461	81.88
410.685	93.88
410.908	88.88
411.132	96.88
411.355	108.88
411.578	96.88
411.802	74.88
412.025	85.88
412.249	79.88
412.472	78.88
412.695	88.88
412.919	76.88
413.142	80.88
413.365	91.88
413.589	93.88
413.812	86.88
414.035	83.88
414.258	90.88
414.482	62.88
414.705	86.88
414.928	94.88
415.151	98.88
415.374	89.88
415.597	82.88
415.821	82.88
416.044	82.88
416.267	77.88
416.49	83.88
416.713	85.88
416.936	88.88
417.159	77.88
417.382	77.88
417.605	93.88
417.828	96.88
418.051	88.88
418.274	81.88
418.497	80.88
418.72	79.88
418.943	83.88
419.166	83.88
419.389	69.88
419.611	89.88
419.834	93.88
420.057	82.88
420.28	83.88
420.503	78.88
420.726	79.88
420.948	73.88
421.171	74.88
421.394	81.88
421.617	90.88
421.839	79.88
422.062	87.88
422.285	80.88
422.507	96.88
422.73	96.88
422.953	77.88
423.175	92.88
423.398	76.88
423.621	78.88
423.843	90.88
424.066	63.88
424.288	81.88
424.511	95.88
424.733	91.88
424.956	88.88
425.178	87.88
425.401	86.88
425.623	95.88
425.846	83.88
426.068	104.88
426.291	88.88
426.513	91.88
426.735	78.88
426.958	90.88
427.18	98.88
427.402	116.88
427.625	155.88
427.847	123.88
428.069	110.88
428.292	93.88
428.514	76.88
428.736	82.88
428.958	100.88
429.181	85.88
429.403	98.88
429.625	92.88
429.847	70.88
430.069	92.88
430.292	76.88
430.514	84.88
430.736	69.88
430.958	77.88
431.18	83.88
431.402	79.88
431.624	88.88
431.846	72.88
432.068	84.88
432.29	77.88
432.512	87.88
432.734	68.88
432.956	82.88
433.178	89.88
433.4	79.88
433.622	78.88
433.844	92.88
434.066	84.88
434.287	92.88
434.509	87.88
434.731	76.88
434.953	90.88
435.175	91.88
435.397	90.88
435.618	84.88
435.84	89.88
436.062	110.88
436.284	99.88
436.505	94.88
436.727	114.88
436.949	95.88
437.17	82.88
437.392	99.88
437.614	92.88
437.835	95.88
438.057	119.88
438.278	104.88
438.5	98.88
438.721	87.88
438.943	99.88
439.165	73.88
439.386	91.88
439.608	86.88
439.829	89.88
440.05	126.88
440.272	122.88
440.493	98.88
440.715	78.88
440.936	95.88
441.158	87.88
441.379	80.88
441.6	104.88
441.822	107.88
442.043	88.88
442.264	92.88
442.486	89.88
442.707	85.88
442.928	76.88
443.149	101.88
443.371	112.88
443.592	96.88
443.813	110.88
444.034	90.88
444.255	83.88
444.476	84.88
444.698	89.88
444.919	84.88
445.14	127.88
445.361	107.88
445.582	102.88
445.803	123.88
446.024	119.88
446.245	112.88
446.466	117.88
446.687	100.88
446.908	74.88
447.129	98.88
447.35	93.88
447.571	95.88
447.792	79.88
448.013	99.88
448.234	94.88
448.455	101.88
448.675	105.88
448.896	100.88
449.117	93.88
449.338	94.88
449.559	117.88
449.779	103.88
450	98.88
450.221	91.88
450.442	79.88
450.662	93.88
450.883	90.88
451.104	90.88
451.324	101.88
451.545	75.88
451.766	78.88
451.986	86.88
452.207	74.88
452.428	84.88
452.648	100.88
452.869	100.88
453.089	121.88
453.31	111.88
453.53	85.88
453.751	84.88
453.971	101.88
454.192	91.88
454.412	95.88
454.633	80.88
454.853	74.88
455.073	81.88
455.294	91.88
455.514	95.88
455.734	78.88
455.955	78.88
456.175	103.88
456.395	73.88
456.616	78.88
456.836	69.88
457.056	83.88
457.276	77.88
457.497	78.88
457.717	85.88
457.937	103.88
458.157	83.88
458.377	85.88
458.598	93.88
458.818	137.88
459.038	144.88
459.258	107.88
459.478	78.88
459.698	95.88
459.918	103.88
460.138	75.88
460.358	79.88
460.578	83.88
460.798	87.88
461.018	63.88
461.238	86.88
461.458	91.88
461.678	75.88
461.898	96.88
462.118	84.88
462.338	84.88
462.558	81.88
462.777	91.88
462.997	60.88
463.217	89.88
463.437	85.88
463.657	93.88
463.876	78.88
464.096	91.88
464.316	94.88
464.536	90.88
464.755	89.88
464.975	87.88
465.195	168.88
465.414	150.88
465.634	88.88
465.854	62.88
466.073	84.88
466.293	78.88
466.512	87.88
466.732	88.88
466.951	73.88
467.171	85.88
467.391	92.88
467.61	94.88
467.829	119.88
468.049	123.88
468.268	139.88
468.488	102.88
468.707	96.88
468.927	94.88
469.146	72.88
469.365	85.88
469.585	77.88
469.804	85.88
470.023	91.88
470.243	88.88
470.462	95.88
470.681	109.88
470.901	84.88
471.12	78.88
471.339	80.88
471.558	94.88
471.777	79.88
471.997	118.88
472.216	185.88
472.435	284.88
472.654	123.88
472.873	97.88
473.092	86.88
473.311	93.88
473.53	76.88
473.749	88.88
473.968	98.88
474.187	108.88
474.406	85.88
474.625	77.88
474.844	84.88
475.063	65.88
475.282	81.88
475.501	87.88
475.72	97.88
475.939	89.88
476.158	73.88
476.377	63.88
476.596	78.88
476.814	91.88
477.033	91.88
477.252	76.88
477.471	78.88
477.69	80.88
477.908	79.88
478.127	76.88
478.346	87.88
478.564	95.88
478.783	81.88
479.002	91.88
479.22	90.88
479.439	83.88
479.658	90.88
479.876	92.88
480.095	88.88
480.313	94.88
480.532	95.88
480.751	112.88
480.969	184.88
481.188	496.88
481.406	322.88
481.624	95.88
481.843	94.88
482.061	75.88
482.28	89.88
482.498	90.88
482.717	94.88
482.935	91.88
483.153	82.88
483.372	79.88
483.59	82.88
483.808	75.88
484.027	92.88
484.245	92.88
484.463	82.88
484.681	83.88
484.9	81.88
485.118	90.88
485.336	86.88
485.554	78.88
485.772	97.88
485.99	96.88
486.209	95.88
486.427	96.88
486.645	104.88
486.863	110.88
487.081	96.88
487.299	83.88
487.517	94.88
487.735	79.88
487.953	95.88
488.171	117.88
488.389	97.88
488.607	82.88
488.825	63.88
489.043	84.88
489.261	91.88
489.479	82.88
489.696	90.88
489.914	74.88
490.132	85.88
490.35	98.88
490.568	78.88
490.786	79.88
491.003	76.88
491.221	76.88
491.439	86.88
491.657	85.88
491.874	83.88
492.092	79.88
492.31	85.88
492.527	92.88
492.745	94.88
492.963	98.88
493.18	74.88
493.398	86.88
493.615	94.88
493.833	81.88
494.05	77.88
494.268	97.88
494.485	82.88
494.703	90.88
494.92	84.88
495.138	93.88
495.355	66.88
495.573	80.88
495.79	77.88
496.008	90.88
496.225	86.88
496.442	78.88
496.66	85.88
496.877	83.88
497.094	88.88
497.312	82.88
497.529	83.88
497.746	80.88
497.963	85.88
498.181	74.88
498.398	89.88
498.615	94.88
498.832	84.88
499.049	75.88
499.267	88.88
499.484	84.88
499.701	84.88
499.918	76.88
500.135	76.88
500.352	78.88
500.569	79.88
500.786	90.88
501.003	86.88
501.22	97.88
501.437	85.88
501.654	86.88
501.871	101.88
502.088	90.88
502.305	83.88
502.522	100.88
502.739	78.88
502.956	102.88
503.172	96.88
503.389	92.88
503.606	91.88
503.823	93.88
504.04	103.88
504.256	82.88
504.473	90.88
504.69	90.88
504.907	91.88
505.123	94.88
505.34	100.88
505.557	69.88
505.773	75.88
505.99	80.88
506.207	89.88
506.423	87.88
506.64	95.88
506.856	78.88
507.073	94.88
507.289	96.88
507.506	100.88
507.722	110.88
507.939	101.88
508.155	79.88
508.372	93.88
508.588	85.88
508.805	95.88
509.021	96.88
509.238	96.88
509.454	95.88
509.67	100.88
509.887	106.88
510.103	131.88
510.319	218.88
510.536	790.88
510.752	2722.88
510.968	753.88
511.184	175.88
511.401	79.88
511.617	101.88
511.833	94.88
512.049	86.88
512.265	89.88
512.481	86.88
512.698	85.88
512.914	83.88
513.13	87.88
513.346	94.88
513.562	92.88
513.778	91.88
513.994	103.88
514.21	95.88
514.426	123.88
514.642	122.88
514.858	120.88
515.074	174.88
515.29	457.88
515.506	1600.88
515.721	574.88
515.937	146.88
516.153	99.88
516.369	88.88
516.585	94.88
516.801	86.88
517.016	87.88
