Data from Circ_1996_H10_HRD10591_00056.txt Node
Date: Wed Jan 03 11:33:17 EST 2024
User: Yrep
Spectrometer: HR+D1059
Trigger mode: 1
Integration Time (sec): 1.000000E-1
Scans to average: 1
Electric dark correction enabled: true
Nonlinearity correction enabled: false
Boxcar width: 0
XAxis mode: Wavelengths
Number of Pixels in Spectrum: 2048
>>>>>Begin Spectral Data<<<<<
223.165	-15
223.4	-15
223.635	-15
223.869	-8
224.104	-22
224.338	-12
224.573	-23
224.808	-17
225.042	-6
225.277	-9
225.511	0
225.746	9
225.98	7
226.215	8
226.449	17
226.683	20
226.918	29
227.152	22
227.387	23
227.621	30
227.856	48
228.09	41
228.324	42
228.559	41
228.793	52
229.027	61
229.262	58
229.496	70
229.73	71
229.964	76
230.199	67
230.433	62
230.667	69
230.901	77
231.136	73
231.37	79
231.604	59
231.838	63
232.072	70
232.306	71
232.541	69
232.775	63
233.009	77
233.243	72
233.477	79
233.711	81
233.945	75
234.179	79
234.413	83
234.647	84
234.881	70
235.115	86
235.349	80
235.583	79
235.817	72
236.051	82
236.285	71
236.519	81
236.753	70
236.987	75
237.221	78
237.455	87
237.689	75
237.922	72
238.156	82
238.39	76
238.624	65
238.858	69
239.091	84
239.325	77
239.559	72
239.793	74
240.027	85
240.26	75
240.494	76
240.728	74
240.961	67
241.195	70
241.429	78
241.662	73
241.896	78
242.13	87
242.363	80
242.597	79
242.83	70
243.064	73
243.298	84
243.531	64
243.765	64
243.998	88
244.232	74
244.465	88
244.699	89
244.932	83
245.166	70
245.399	73
245.633	61
245.866	76
246.099	57
246.333	88
246.566	80
246.8	73
247.033	78
247.266	88
247.5	84
247.733	80
247.966	72
248.2	72
248.433	70
248.666	79
248.899	79
249.133	87
249.366	85
249.599	79
249.832	65
250.066	90
250.299	74
250.532	86
250.765	83
250.998	85
251.231	73
251.465	71
251.698	63
251.931	61
252.164	73
252.397	85
252.63	74
252.863	75
253.096	83
253.329	77
253.562	87
253.795	86
254.028	67
254.261	76
254.494	87
254.727	87
254.96	77
255.193	81
255.426	78
255.659	75
255.892	68
256.124	75
256.357	69
256.59	79
256.823	68
257.056	74
257.289	77
257.521	78
257.754	77
257.987	100
258.22	86
258.452	66
258.685	68
258.918	76
259.151	75
259.383	83
259.616	78
259.849	73
260.081	69
260.314	74
260.547	77
260.779	75
261.012	77
261.244	86
261.477	88
261.71	89
261.942	108
262.175	116
262.407	94
262.64	85
262.872	81
263.105	89
263.337	84
263.57	94
263.802	91
264.035	74
264.267	78
264.499	73
264.732	81
264.964	75
265.197	87
265.429	78
265.661	87
265.894	87
266.126	88
266.358	77
266.591	79
266.823	74
267.055	80
267.287	101
267.52	81
267.752	95
267.984	75
268.216	69
268.448	82
268.681	80
268.913	80
269.145	72
269.377	88
269.609	77
269.841	84
270.073	84
270.306	89
270.538	79
270.77	80
271.002	86
271.234	84
271.466	82
271.698	66
271.93	65
272.162	75
272.394	74
272.626	91
272.858	80
273.09	87
273.322	86
273.553	81
273.785	83
274.017	78
274.249	72
274.481	73
274.713	75
274.945	90
275.176	78
275.408	79
275.64	89
275.872	73
276.104	93
276.335	88
276.567	88
276.799	88
277.031	89
277.262	90
277.494	93
277.726	86
277.957	95
278.189	79
278.421	78
278.652	62
278.884	79
279.115	77
279.347	81
279.579	85
279.81	79
280.042	74
280.273	86
280.505	91
280.736	75
280.968	72
281.199	73
281.431	90
281.662	85
281.894	84
282.125	91
282.356	100
282.588	130
282.819	99
283.051	79
283.282	80
283.513	85
283.745	85
283.976	99
284.207	90
284.439	78
284.67	89
284.901	80
285.132	74
285.364	78
285.595	74
285.826	85
286.057	85
286.288	89
286.52	89
286.751	77
286.982	97
287.213	91
287.444	79
287.675	78
287.906	80
288.138	84
288.369	91
288.6	83
288.831	75
289.062	83
289.293	80
289.524	88
289.755	89
289.986	104
290.217	90
290.448	97
290.679	76
290.91	90
291.141	84
291.371	83
291.602	93
291.833	93
292.064	82
292.295	84
292.526	93
292.757	76
292.987	74
293.218	80
293.449	84
293.68	76
293.91	77
294.141	97
294.372	93
294.603	74
294.833	81
295.064	78
295.295	83
295.525	92
295.756	95
295.987	113
296.217	127
296.448	104
296.679	100
296.909	77
297.14	83
297.37	82
297.601	84
297.831	80
298.062	86
298.292	101
298.523	89
298.753	79
298.984	72
299.214	73
299.445	92
299.675	95
299.905	82
300.136	101
300.366	85
300.597	87
300.827	103
301.057	85
301.288	99
301.518	100
301.748	84
301.979	88
302.209	88
302.439	85
302.669	91
302.9	84
303.13	91
303.36	83
303.59	99
303.82	96
304.051	83
304.281	79
304.511	78
304.741	76
304.971	90
305.201	85
305.431	89
305.661	85
305.891	85
306.121	93
306.352	90
306.582	110
306.812	81
307.042	103
307.272	92
307.502	99
307.731	89
307.961	95
308.191	96
308.421	86
308.651	90
308.881	76
309.111	89
309.341	85
309.571	92
309.8	85
310.03	80
310.26	94
310.49	93
310.72	79
310.949	86
311.179	97
311.409	76
311.639	104
311.868	92
312.098	109
312.328	95
312.557	103
312.787	107
313.017	82
313.246	85
313.476	94
313.706	92
313.935	101
314.165	87
314.394	92
314.624	86
314.853	91
315.083	89
315.312	88
315.542	90
315.771	94
316.001	93
316.23	87
316.46	79
316.689	75
316.919	84
317.148	87
317.377	95
317.607	102
317.836	83
318.065	81
318.295	97
318.524	64
318.753	79
318.983	96
319.212	97
319.441	99
319.67	103
319.9	88
320.129	91
320.358	75
320.587	76
320.816	87
321.046	80
321.275	88
321.504	95
321.733	86
321.962	85
322.191	93
322.42	106
322.649	94
322.878	96
323.108	100
323.337	117
323.566	115
323.795	139
324.024	148
324.253	296
324.482	619
324.71	1175
324.939	1499
325.168	592
325.397	187
325.626	116
325.855	110
326.084	115
326.313	113
326.542	124
326.77	191
326.999	315
327.228	617
327.457	1120
327.686	907
327.914	293
328.143	187
328.372	161
328.6	128
328.829	108
329.058	109
329.287	112
329.515	108
329.744	100
329.972	120
330.201	144
330.43	179
330.658	137
330.887	131
331.115	111
331.344	89
331.572	99
331.801	86
332.03	103
332.258	78
332.486	85
332.715	84
332.943	93
333.172	96
333.4	99
333.629	100
333.857	133
334.085	117
334.314	143
334.542	213
334.771	184
334.999	114
335.227	87
335.455	94
335.684	90
335.912	91
336.14	101
336.369	89
336.597	85
336.825	83
337.053	93
337.281	84
337.51	89
337.738	88
337.966	87
338.194	109
338.422	80
338.65	83
338.878	92
339.106	76
339.334	78
339.562	95
339.79	88
340.018	101
340.246	85
340.474	83
340.702	96
340.93	102
341.158	105
341.386	99
341.614	92
341.842	93
342.07	85
342.298	78
342.526	100
342.754	96
342.981	82
343.209	92
343.437	81
343.665	77
343.893	90
344.12	80
344.348	79
344.576	85
344.804	92
345.031	106
345.259	90
345.487	100
345.714	92
345.942	81
346.17	82
346.397	84
346.625	82
346.853	88
347.08	92
347.308	93
347.535	76
347.763	105
347.99	94
348.218	97
348.445	88
348.673	89
348.9	95
349.128	97
349.355	88
349.583	82
349.81	87
350.037	89
350.265	82
350.492	91
350.72	80
350.947	84
351.174	103
351.402	98
351.629	102
351.856	97
352.083	94
352.311	107
352.538	90
352.765	88
352.992	112
353.22	115
353.447	95
353.674	94
353.901	94
354.128	90
354.355	101
354.583	95
354.81	93
355.037	110
355.264	91
355.491	94
355.718	74
355.945	113
356.172	87
356.399	85
356.626	95
356.853	83
357.08	93
357.307	88
357.534	87
357.761	87
357.988	87
358.215	99
358.441	88
358.668	89
358.895	91
359.122	93
359.349	78
359.576	95
359.802	87
360.029	101
360.256	99
360.483	110
360.709	94
360.936	87
361.163	86
361.39	85
361.616	76
361.843	83
362.07	89
362.296	90
362.523	95
362.749	97
362.976	90
363.203	97
363.429	77
363.656	75
363.882	88
364.109	91
364.335	70
364.562	91
364.788	88
365.015	87
365.241	96
365.468	77
365.694	107
365.92	89
366.147	78
366.373	84
366.599	77
366.826	78
367.052	88
367.278	79
367.505	81
367.731	101
367.957	88
368.184	81
368.41	90
368.636	87
368.862	103
369.089	96
369.315	91
369.541	88
369.767	94
369.993	80
370.219	81
370.445	84
370.672	73
370.898	78
371.124	84
371.35	97
371.576	88
371.802	89
372.028	99
372.254	91
372.48	81
372.706	90
372.932	73
373.158	87
373.384	84
373.61	91
373.835	89
374.061	79
374.287	78
374.513	91
374.739	79
374.965	80
375.191	84
375.416	79
375.642	83
375.868	95
376.094	92
376.319	83
376.545	83
376.771	76
376.997	89
377.222	87
377.448	92
377.674	71
377.899	78
378.125	88
378.35	94
378.576	79
378.802	92
379.027	92
379.253	83
379.478	93
379.704	97
379.929	79
380.155	90
380.38	87
380.606	100
380.831	88
381.057	85
381.282	84
381.507	93
381.733	106
381.958	97
382.184	89
382.409	101
382.634	91
382.86	95
383.085	101
383.31	109
383.535	108
383.761	98
383.986	95
384.211	97
384.436	91
384.662	91
384.887	96
385.112	101
385.337	93
385.562	99
385.787	96
386.013	114
386.238	104
386.463	85
386.688	120
386.913	89
387.138	108
387.363	116
387.588	96
387.813	103
388.038	91
388.263	103
388.488	106
388.713	86
388.938	89
389.163	97
389.387	89
389.612	73
389.837	81
390.062	77
390.287	89
390.512	101
390.736	85
390.961	91
391.186	86
391.411	78
391.636	85
391.86	87
392.085	89
392.31	93
392.534	76
392.759	86
392.984	85
393.208	104
393.433	98
393.658	85
393.882	73
394.107	84
394.331	83
394.556	87
394.78	90
395.005	84
395.229	81
395.454	83
395.678	79
395.903	91
396.127	87
396.352	70
396.576	88
396.801	83
397.025	95
397.249	80
397.474	77
397.698	99
397.922	87
398.147	83
398.371	75
398.595	76
398.82	72
399.044	93
399.268	91
399.492	90
399.717	92
399.941	79
400.165	86
400.389	84
400.613	88
400.837	89
401.062	87
401.286	93
401.51	81
401.734	84
401.958	90
402.182	111
402.406	131
402.63	101
402.854	78
403.078	75
403.302	77
403.526	94
403.75	70
403.974	83
404.198	67
404.422	85
404.645	100
404.869	94
405.093	84
405.317	97
405.541	89
405.765	95
405.988	102
406.212	151
406.436	204
406.66	120
406.883	101
407.107	83
407.331	88
407.555	91
407.778	87
408.002	83
408.226	74
408.449	84
408.673	86
408.896	83
409.12	92
409.344	79
409.567	88
409.791	83
410.014	103
410.238	95
410.461	84
410.685	86
410.908	97
411.132	101
411.355	85
411.578	77
411.802	92
412.025	83
412.249	78
412.472	86
412.695	89
412.919	105
413.142	92
413.365	87
413.589	85
413.812	81
414.035	93
414.258	85
414.482	93
414.705	92
414.928	86
415.151	95
415.374	66
415.597	82
415.821	75
416.044	86
416.267	86
416.49	81
416.713	90
416.936	78
417.159	88
417.382	93
417.605	82
417.828	87
418.051	84
418.274	82
418.497	84
418.72	91
418.943	93
419.166	73
419.389	88
419.611	96
419.834	85
420.057	90
420.28	85
420.503	85
420.726	81
420.948	92
421.171	90
421.394	76
421.617	89
421.839	74
422.062	91
422.285	90
422.507	86
422.73	102
422.953	83
423.175	93
423.398	92
423.621	92
423.843	87
424.066	74
424.288	73
424.511	89
424.733	91
424.956	88
425.178	76
425.401	78
425.623	87
425.846	78
426.068	85
426.291	87
426.513	73
426.735	84
426.958	103
427.18	91
427.402	96
427.625	132
427.847	132
428.069	108
428.292	75
428.514	77
428.736	93
428.958	72
429.181	79
429.403	72
429.625	73
429.847	92
430.069	102
430.292	81
430.514	81
430.736	72
430.958	82
431.18	80
431.402	68
431.624	75
431.846	91
432.068	72
432.29	74
432.512	88
432.734	84
432.956	74
433.178	78
433.4	76
433.622	83
433.844	86
434.066	92
434.287	89
434.509	92
434.731	96
434.953	91
435.175	88
435.397	70
435.618	84
435.84	101
436.062	97
436.284	86
436.505	86
436.727	81
436.949	87
437.17	86
437.392	80
437.614	100
437.835	85
438.057	83
438.278	103
438.5	100
438.721	98
438.943	90
439.165	86
439.386	82
439.608	84
439.829	100
440.05	102
440.272	105
440.493	85
440.715	80
440.936	87
441.158	74
441.379	80
441.6	91
441.822	107
442.043	95
442.264	97
442.486	88
442.707	93
442.928	94
443.149	107
443.371	114
443.592	104
443.813	104
444.034	103
444.255	77
444.476	90
444.698	88
444.919	72
445.14	139
445.361	116
445.582	107
445.803	120
446.024	122
446.245	106
446.466	95
446.687	81
446.908	79
447.129	75
447.35	83
447.571	91
447.792	96
448.013	83
448.234	92
448.455	92
448.675	105
448.896	97
449.117	93
449.338	79
449.559	105
449.779	117
450	103
450.221	90
450.442	79
450.662	81
450.883	89
451.104	96
451.324	86
451.545	76
451.766	84
451.986	72
452.207	81
452.428	78
452.648	100
452.869	100
453.089	102
453.31	120
453.53	94
453.751	85
453.971	78
454.192	107
454.412	91
454.633	92
454.853	80
455.073	77
455.294	97
455.514	91
455.734	88
455.955	89
456.175	83
456.395	76
456.616	78
456.836	91
457.056	81
457.276	71
457.497	79
457.717	71
457.937	78
458.157	88
458.377	86
458.598	95
458.818	140
459.038	136
459.258	100
459.478	85
459.698	74
459.918	75
460.138	76
460.358	69
460.578	89
460.798	77
461.018	93
461.238	95
461.458	89
461.678	90
461.898	83
462.118	75
462.338	87
462.558	84
462.777	88
462.997	98
463.217	80
463.437	79
463.657	72
463.876	76
464.096	71
464.316	74
464.536	84
464.755	89
464.975	91
465.195	152
465.414	133
465.634	91
465.854	88
466.073	91
466.293	94
466.512	79
466.732	78
466.951	91
467.171	81
467.391	92
467.61	96
467.829	101
468.049	131
468.268	133
468.488	76
468.707	79
468.927	71
469.146	85
469.365	78
469.585	84
469.804	87
470.023	87
470.243	93
470.462	90
470.681	106
470.901	74
471.12	79
471.339	77
471.558	87
471.777	76
471.997	90
472.216	168
472.435	279
472.654	115
472.873	92
473.092	89
473.311	81
473.53	92
473.749	75
473.968	87
474.187	94
474.406	95
474.625	85
474.844	90
475.063	88
475.282	87
475.501	84
475.72	78
475.939	85
476.158	100
476.377	87
476.596	88
476.814	91
477.033	90
477.252	62
477.471	88
477.69	85
477.908	73
478.127	84
478.346	90
478.564	84
478.783	95
479.002	90
479.22	97
479.439	100
479.658	101
479.876	95
480.095	91
480.313	101
480.532	92
480.751	102
480.969	159
481.188	421
481.406	263
481.624	108
481.843	85
482.061	91
482.28	83
482.498	81
482.717	80
482.935	90
483.153	83
483.372	90
483.59	87
483.808	91
484.027	92
484.245	79
484.463	79
484.681	103
484.9	101
485.118	101
485.336	96
485.554	101
485.772	83
485.99	119
486.209	106
486.427	109
486.645	101
486.863	109
487.081	89
487.299	99
487.517	86
487.735	105
487.953	81
488.171	84
488.389	86
488.607	79
488.825	83
489.043	83
489.261	78
489.479	82
489.696	85
489.914	96
490.132	80
490.35	92
490.568	82
490.786	83
491.003	60
491.221	75
491.439	96
491.657	100
491.874	93
492.092	91
492.31	74
492.527	87
492.745	83
492.963	92
493.18	79
493.398	96
493.615	97
493.833	95
494.05	91
494.268	88
494.485	88
494.703	86
494.92	91
495.138	85
495.355	88
495.573	92
495.79	93
496.008	90
496.225	72
496.442	78
496.66	92
496.877	78
497.094	99
497.312	79
497.529	89
497.746	90
497.963	91
498.181	97
498.398	94
498.615	102
498.832	100
499.049	95
499.267	109
499.484	99
499.701	107
499.918	99
500.135	68
500.352	86
500.569	76
500.786	69
501.003	92
501.22	71
501.437	91
501.654	81
501.871	96
502.088	83
502.305	81
502.522	74
502.739	76
502.956	91
503.172	92
503.389	105
503.606	110
503.823	97
504.04	86
504.256	79
504.473	87
504.69	95
504.907	96
505.123	95
505.34	95
505.557	96
505.773	96
505.99	83
506.207	91
506.423	88
506.64	94
506.856	76
507.073	80
507.289	85
507.506	75
507.722	92
507.939	106
508.155	95
508.372	87
508.588	87
508.805	95
509.021	109
509.238	112
509.454	102
509.67	83
509.887	124
510.103	114
510.319	208
510.536	737
510.752	2419
510.968	661
511.184	155
511.401	89
511.617	91
511.833	94
512.049	76
512.265	84
512.481	90
512.698	102
512.914	78
513.13	96
513.346	80
513.562	76
513.778	92
513.994	85
514.21	73
514.426	117
514.642	113
514.858	112
515.074	151
515.29	405
515.506	1337
515.721	483
515.937	135
516.153	103
516.369	101
516.585	91
516.801	91
517.016	76
517.232	91
517.448	93
517.664	91
517.879	97
518.095	92
518.311	96
518.527	101
518.742	106
518.958	78
519.173	94
519.389	86
519.605	81
519.82	85
520.036	96
520.251	126
520.467	107
520.682	92
520.898	90
521.113	109
521.329	111
521.544	177
521.76	520
521.975	2203
522.19	1357
522.406	289
522.621	116
522.836	97
523.052	96
523.267	82
523.482	94
523.698	82
523.913	97
524.128	106
524.343	85
524.559	95
524.774	89
524.989	104
525.204	94
525.419	104
525.634	108
525.849	92
526.064	77
526.28	83
526.495	69
526.71	82
526.925	93
527.14	86
527.355	87
527.57	84
527.785	90
527.999	92
528.214	102
528.429	95
528.644	94
528.859	99
529.074	97
529.289	118
529.503	174
529.718	96
529.933	95
530.148	92
530.363	82
530.577	85
530.792	88
531.007	83
531.221	83
531.436	95
531.651	86
531.865	87
532.08	74
532.295	90
532.509	91
532.724	95
532.938	83
533.153	83
533.367	87
533.582	86
533.796	90
534.011	89
534.225	106
534.44	86
534.654	92
534.868	81
535.083	86
535.297	90
535.511	96
535.726	93
535.94	93
536.154	70
536.369	102
536.583	79
536.797	87
537.011	81
537.225	82
537.44	92
537.654	92
537.868	83
538.082	87
538.296	83
538.51	84
538.724	77
538.938	79
539.153	67
539.367	92
539.581	85
539.795	87
540.009	87
540.222	78
540.436	82
540.65	103
540.864	105
541.078	84
541.292	87
541.506	90
541.72	86
541.934	90
542.147	94
542.361	81
542.575	90
542.789	103
543.002	95
543.216	91
543.43	78
543.644	84
543.857	79
544.071	80
544.285	84
544.498	83
544.712	93
544.925	75
545.139	84
545.352	75
545.566	81
545.779	83
545.993	87
546.206	84
546.42	73
546.633	86
546.847	89
547.06	87
547.274	91
547.487	51
547.7	85
547.914	88
548.127	93
548.34	91
548.554	80
548.767	67
548.98	81
549.193	90
549.407	67
549.62	92
549.833	75
550.046	87
550.259	84
550.473	88
550.686	75
550.899	77
551.112	83
551.325	86
551.538	79
551.751	96
551.964	94
552.177	79
552.39	106
552.603	88
552.816	76
553.029	78
553.242	85
553.455	85
553.667	105
553.88	92
554.093	93
554.306	88
554.519	73
554.732	80
554.944	87
555.157	89
555.37	83
555.583	100
555.795	88
556.008	85
556.221	86
556.433	85
556.646	78
556.859	89
557.071	80
557.284	91
557.496	79
557.709	90
557.921	92
558.134	103
558.346	85
558.559	72
558.771	73
558.984	84
559.196	87
559.409	84
559.621	90
559.833	82
560.046	88
560.258	85
560.47	79
560.683	92
560.895	90
561.107	84
561.32	80
561.532	77
561.744	71
561.956	81
562.168	90
562.381	87
562.593	84
562.805	89
563.017	85
563.229	72
563.441	73
563.653	78
563.865	67
564.077	89
564.289	78
564.501	95
564.713	85
564.925	88
565.137	99
565.349	94
565.561	75
565.773	80
565.985	86
566.197	92
566.408	77
566.62	72
566.832	79
567.044	76
567.255	81
567.467	81
567.679	104
567.891	87
568.102	82
568.314	89
568.526	76
568.737	101
568.949	79
569.161	91
569.372	85
569.584	77
569.795	84
570.007	108
570.218	227
570.43	124
570.641	102
570.853	85
571.064	84
571.276	76
571.487	84
571.698	111
571.91	87
572.121	83
572.333	86
572.544	85
572.755	85
572.966	92
573.178	95
573.389	76
573.6	89
573.811	89
574.023	79
574.234	87
574.445	88
574.656	73
574.867	90
575.078	87
575.289	76
575.501	96
575.712	75
575.923	91
576.134	73
576.345	89
576.556	95
576.767	86
576.978	80
577.188	86
577.399	77
577.61	86
577.821	103
578.032	110
578.243	256
578.454	709
578.665	201
578.875	94
579.086	94
579.297	91
579.508	79
579.718	84
579.929	81
580.14	85
580.35	86
580.561	93
580.772	96
580.982	91
581.193	99
581.403	88
581.614	81
581.825	89
582.035	77
582.246	77
582.456	89
582.667	82
582.877	76
583.087	86
583.298	79
583.508	97
583.719	90
583.929	81
584.139	81
584.35	82
584.56	89
584.77	92
584.981	86
585.191	75
585.401	75
585.611	78
585.821	85
586.032	74
586.242	77
586.452	81
