Data from Circ_1996_H10_HRD10591_00047.txt Node
Date: Wed Jan 03 11:33:15 EST 2024
User: Yrep
Spectrometer: HR+D1059
Trigger mode: 1
Integration Time (sec): 1.000000E-1
Scans to average: 1
Electric dark correction enabled: true
Nonlinearity correction enabled: false
Boxcar width: 0
XAxis mode: Wavelengths
Number of Pixels in Spectrum: 2048
>>>>>Begin Spectral Data<<<<<
223.165	-17.88
223.4	-17.88
223.635	-17.88
223.869	-6.88
224.104	-27.88
224.338	-23.88
224.573	-8.88
224.808	-14.88
225.042	-13.88
225.277	-0.88
225.511	-7.88
225.746	4.12
225.98	14.12
226.215	4.12
226.449	5.12
226.683	31.12
226.918	27.12
227.152	37.12
227.387	39.12
227.621	58.12
227.856	43.12
228.09	53.12
228.324	52.12
228.559	61.12
228.793	54.12
229.027	51.12
229.262	54.12
229.496	83.12
229.73	93.12
229.964	76.12
230.199	69.12
230.433	75.12
230.667	95.12
230.901	96.12
231.136	77.12
231.37	77.12
231.604	89.12
231.838	69.12
232.072	69.12
232.306	82.12
232.541	80.12
232.775	82.12
233.009	87.12
233.243	84.12
233.477	80.12
233.711	86.12
233.945	88.12
234.179	86.12
234.413	93.12
234.647	97.12
234.881	72.12
235.115	83.12
235.349	79.12
235.583	78.12
235.817	92.12
236.051	90.12
236.285	88.12
236.519	85.12
236.753	77.12
236.987	81.12
237.221	77.12
237.455	88.12
237.689	90.12
237.922	91.12
238.156	73.12
238.39	81.12
238.624	69.12
238.858	83.12
239.091	81.12
239.325	71.12
239.559	85.12
239.793	83.12
240.027	88.12
240.26	94.12
240.494	86.12
240.728	78.12
240.961	91.12
241.195	87.12
241.429	91.12
241.662	77.12
241.896	78.12
242.13	75.12
242.363	73.12
242.597	80.12
242.83	72.12
243.064	85.12
243.298	67.12
243.531	83.12
243.765	84.12
243.998	99.12
244.232	83.12
244.465	89.12
244.699	96.12
244.932	89.12
245.166	87.12
245.399	70.12
245.633	74.12
245.866	80.12
246.099	78.12
246.333	80.12
246.566	91.12
246.8	83.12
247.033	84.12
247.266	84.12
247.5	80.12
247.733	73.12
247.966	85.12
248.2	79.12
248.433	85.12
248.666	84.12
248.899	90.12
249.133	84.12
249.366	92.12
249.599	113.12
249.832	91.12
250.066	88.12
250.299	79.12
250.532	81.12
250.765	85.12
250.998	86.12
251.231	90.12
251.465	90.12
251.698	80.12
251.931	69.12
252.164	84.12
252.397	73.12
252.63	80.12
252.863	85.12
253.096	73.12
253.329	88.12
253.562	96.12
253.795	92.12
254.028	100.12
254.261	82.12
254.494	90.12
254.727	95.12
254.96	84.12
255.193	85.12
255.426	77.12
255.659	93.12
255.892	100.12
256.124	92.12
256.357	87.12
256.59	78.12
256.823	70.12
257.056	99.12
257.289	91.12
257.521	85.12
257.754	99.12
257.987	87.12
258.22	78.12
258.452	84.12
258.685	81.12
258.918	86.12
259.151	86.12
259.383	75.12
259.616	89.12
259.849	94.12
260.081	79.12
260.314	78.12
260.547	77.12
260.779	87.12
261.012	91.12
261.244	93.12
261.477	98.12
261.71	105.12
261.942	112.12
262.175	129.12
262.407	113.12
262.64	99.12
262.872	99.12
263.105	94.12
263.337	85.12
263.57	83.12
263.802	81.12
264.035	101.12
264.267	92.12
264.499	91.12
264.732	85.12
264.964	82.12
265.197	85.12
265.429	95.12
265.661	96.12
265.894	96.12
266.126	103.12
266.358	88.12
266.591	80.12
266.823	95.12
267.055	84.12
267.287	87.12
267.52	92.12
267.752	107.12
267.984	78.12
268.216	96.12
268.448	84.12
268.681	83.12
268.913	91.12
269.145	83.12
269.377	70.12
269.609	83.12
269.841	97.12
270.073	91.12
270.306	77.12
270.538	86.12
270.77	95.12
271.002	99.12
271.234	98.12
271.466	95.12
271.698	107.12
271.93	93.12
272.162	96.12
272.394	93.12
272.626	91.12
272.858	78.12
273.09	88.12
273.322	88.12
273.553	88.12
273.785	87.12
274.017	94.12
274.249	74.12
274.481	93.12
274.713	81.12
274.945	79.12
275.176	94.12
275.408	81.12
275.64	99.12
275.872	99.12
276.104	85.12
276.335	89.12
276.567	121.12
276.799	105.12
277.031	112.12
277.262	94.12
277.494	99.12
277.726	90.12
277.957	85.12
278.189	86.12
278.421	81.12
278.652	83.12
278.884	70.12
279.115	83.12
279.347	87.12
279.579	78.12
279.81	88.12
280.042	87.12
280.273	105.12
280.505	93.12
280.736	100.12
280.968	103.12
281.199	95.12
281.431	91.12
281.662	104.12
281.894	110.12
282.125	116.12
282.356	134.12
282.588	161.12
282.819	128.12
283.051	99.12
283.282	93.12
283.513	79.12
283.745	101.12
283.976	95.12
284.207	95.12
284.439	80.12
284.67	85.12
284.901	83.12
285.132	89.12
285.364	95.12
285.595	90.12
285.826	91.12
286.057	93.12
286.288	100.12
286.52	99.12
286.751	86.12
286.982	85.12
287.213	75.12
287.444	92.12
287.675	85.12
287.906	92.12
288.138	92.12
288.369	101.12
288.6	72.12
288.831	90.12
289.062	102.12
289.293	95.12
289.524	88.12
289.755	87.12
289.986	86.12
290.217	82.12
290.448	86.12
290.679	92.12
290.91	95.12
291.141	78.12
291.371	89.12
291.602	83.12
291.833	93.12
292.064	87.12
292.295	97.12
292.526	93.12
292.757	94.12
292.987	83.12
293.218	95.12
293.449	98.12
293.68	84.12
293.91	94.12
294.141	91.12
294.372	96.12
294.603	85.12
294.833	85.12
295.064	89.12
295.295	85.12
295.525	105.12
295.756	109.12
295.987	134.12
296.217	153.12
296.448	121.12
296.679	102.12
296.909	92.12
297.14	96.12
297.37	92.12
297.601	97.12
297.831	84.12
298.062	97.12
298.292	87.12
298.523	88.12
298.753	95.12
298.984	92.12
299.214	90.12
299.445	98.12
299.675	93.12
299.905	101.12
300.136	101.12
300.366	96.12
300.597	114.12
300.827	84.12
301.057	95.12
301.288	97.12
301.518	116.12
301.748	109.12
301.979	100.12
302.209	100.12
302.439	109.12
302.669	99.12
302.9	93.12
303.13	91.12
303.36	100.12
303.59	102.12
303.82	104.12
304.051	101.12
304.281	95.12
304.511	84.12
304.741	89.12
304.971	94.12
305.201	94.12
305.431	73.12
305.661	98.12
305.891	81.12
306.121	100.12
306.352	119.12
306.582	108.12
306.812	87.12
307.042	97.12
307.272	105.12
307.502	96.12
307.731	108.12
307.961	83.12
308.191	98.12
308.421	93.12
308.651	95.12
308.881	100.12
309.111	104.12
309.341	93.12
309.571	97.12
309.8	105.12
310.03	98.12
310.26	95.12
310.49	102.12
310.72	103.12
310.949	107.12
311.179	82.12
311.409	92.12
311.639	85.12
311.868	101.12
312.098	100.12
312.328	101.12
312.557	91.12
312.787	117.12
313.017	103.12
313.246	103.12
313.476	92.12
313.706	104.12
313.935	96.12
314.165	96.12
314.394	106.12
314.624	91.12
314.853	107.12
315.083	96.12
315.312	109.12
315.542	101.12
315.771	97.12
316.001	98.12
316.23	96.12
316.46	93.12
316.689	88.12
316.919	91.12
317.148	91.12
317.377	94.12
317.607	91.12
317.836	100.12
318.065	99.12
318.295	95.12
318.524	89.12
318.753	84.12
318.983	108.12
319.212	103.12
319.441	109.12
319.67	103.12
319.9	107.12
320.129	104.12
320.358	99.12
320.587	102.12
320.816	89.12
321.046	100.12
321.275	94.12
321.504	84.12
321.733	98.12
321.962	85.12
322.191	97.12
322.42	99.12
322.649	101.12
322.878	108.12
323.108	110.12
323.337	121.12
323.566	125.12
323.795	141.12
324.024	183.12
324.253	328.12
324.482	683.12
324.71	1376.12
324.939	1755.12
325.168	681.12
325.397	230.12
325.626	161.12
325.855	114.12
326.084	119.12
326.313	123.12
326.542	130.12
326.77	192.12
326.999	362.12
327.228	723.12
327.457	1293.12
327.686	1027.12
327.914	319.12
328.143	195.12
328.372	161.12
328.6	135.12
328.829	121.12
329.058	136.12
329.287	136.12
329.515	130.12
329.744	111.12
329.972	117.12
330.201	162.12
330.43	185.12
330.658	149.12
330.887	152.12
331.115	142.12
331.344	113.12
331.572	107.12
331.801	104.12
332.03	95.12
332.258	90.12
332.486	101.12
332.715	98.12
332.943	91.12
333.172	97.12
333.4	95.12
333.629	118.12
333.857	132.12
334.085	137.12
334.314	162.12
334.542	219.12
334.771	203.12
334.999	115.12
335.227	92.12
335.455	89.12
335.684	105.12
335.912	103.12
336.14	99.12
336.369	100.12
336.597	113.12
336.825	104.12
337.053	88.12
337.281	92.12
337.51	78.12
337.738	94.12
337.966	92.12
338.194	99.12
338.422	84.12
338.65	95.12
338.878	106.12
339.106	111.12
339.334	86.12
339.562	99.12
339.79	89.12
340.018	93.12
340.246	88.12
340.474	107.12
340.702	94.12
340.93	97.12
341.158	105.12
341.386	98.12
341.614	105.12
341.842	110.12
342.07	84.12
342.298	88.12
342.526	99.12
342.754	109.12
342.981	92.12
343.209	91.12
343.437	116.12
343.665	95.12
343.893	97.12
344.12	94.12
344.348	102.12
344.576	103.12
344.804	101.12
345.031	96.12
345.259	86.12
345.487	95.12
345.714	100.12
345.942	97.12
346.17	95.12
346.397	94.12
346.625	101.12
346.853	98.12
347.08	92.12
347.308	95.12
347.535	110.12
347.763	99.12
347.99	104.12
348.218	101.12
348.445	108.12
348.673	95.12
348.9	103.12
349.128	92.12
349.355	98.12
349.583	104.12
349.81	84.12
350.037	76.12
350.265	109.12
350.492	101.12
350.72	116.12
350.947	95.12
351.174	107.12
351.402	119.12
351.629	101.12
351.856	98.12
352.083	91.12
352.311	91.12
352.538	103.12
352.765	117.12
352.992	111.12
353.22	122.12
353.447	121.12
353.674	91.12
353.901	88.12
354.128	94.12
354.355	95.12
354.583	102.12
354.81	117.12
355.037	111.12
355.264	94.12
355.491	88.12
355.718	95.12
355.945	96.12
356.172	92.12
356.399	118.12
356.626	84.12
356.853	87.12
357.08	96.12
357.307	93.12
357.534	93.12
357.761	93.12
357.988	100.12
358.215	98.12
358.441	97.12
358.668	91.12
358.895	89.12
359.122	91.12
359.349	97.12
359.576	93.12
359.802	115.12
360.029	120.12
360.256	104.12
360.483	106.12
360.709	92.12
360.936	88.12
361.163	96.12
361.39	96.12
361.616	95.12
361.843	98.12
362.07	103.12
362.296	100.12
362.523	99.12
362.749	91.12
362.976	97.12
363.203	81.12
363.429	99.12
363.656	88.12
363.882	108.12
364.109	95.12
364.335	98.12
364.562	98.12
364.788	112.12
365.015	94.12
365.241	87.12
365.468	106.12
365.694	104.12
365.92	103.12
366.147	106.12
366.373	75.12
366.599	91.12
366.826	91.12
367.052	101.12
367.278	94.12
367.505	103.12
367.731	93.12
367.957	91.12
368.184	99.12
368.41	105.12
368.636	110.12
368.862	119.12
369.089	117.12
369.315	93.12
369.541	93.12
369.767	99.12
369.993	85.12
370.219	101.12
370.445	80.12
370.672	97.12
370.898	87.12
371.124	105.12
371.35	100.12
371.576	85.12
371.802	92.12
372.028	89.12
372.254	87.12
372.48	104.12
372.706	102.12
372.932	92.12
373.158	75.12
373.384	90.12
373.61	100.12
373.835	93.12
374.061	82.12
374.287	117.12
374.513	92.12
374.739	88.12
374.965	97.12
375.191	101.12
375.416	89.12
375.642	96.12
375.868	105.12
376.094	87.12
376.319	78.12
376.545	110.12
376.771	95.12
376.997	85.12
377.222	96.12
377.448	91.12
377.674	92.12
377.899	101.12
378.125	96.12
378.35	96.12
378.576	113.12
378.802	94.12
379.027	90.12
379.253	80.12
379.478	91.12
379.704	109.12
379.929	82.12
380.155	98.12
380.38	87.12
380.606	91.12
380.831	95.12
381.057	108.12
381.282	96.12
381.507	94.12
381.733	112.12
381.958	96.12
382.184	100.12
382.409	87.12
382.634	104.12
382.86	111.12
383.085	87.12
383.31	110.12
383.535	107.12
383.761	103.12
383.986	99.12
384.211	103.12
384.436	112.12
384.662	94.12
384.887	112.12
385.112	128.12
385.337	95.12
385.562	96.12
385.787	105.12
386.013	108.12
386.238	115.12
386.463	102.12
386.688	114.12
386.913	106.12
387.138	123.12
387.363	113.12
387.588	102.12
387.813	106.12
388.038	111.12
388.263	111.12
388.488	134.12
388.713	84.12
388.938	103.12
389.163	93.12
389.387	84.12
389.612	96.12
389.837	99.12
390.062	105.12
390.287	109.12
390.512	108.12
390.736	91.12
390.961	103.12
391.186	99.12
391.411	99.12
391.636	105.12
391.86	83.12
392.085	85.12
392.31	91.12
392.534	86.12
392.759	83.12
392.984	98.12
393.208	97.12
393.433	113.12
393.658	102.12
393.882	104.12
394.107	87.12
394.331	89.12
394.556	96.12
394.78	100.12
395.005	108.12
395.229	100.12
395.454	67.12
395.678	94.12
395.903	103.12
396.127	95.12
396.352	91.12
396.576	92.12
396.801	89.12
397.025	91.12
397.249	89.12
397.474	102.12
397.698	90.12
397.922	105.12
398.147	88.12
398.371	94.12
398.595	109.12
398.82	98.12
399.044	83.12
399.268	79.12
399.492	88.12
399.717	95.12
399.941	92.12
400.165	100.12
400.389	85.12
400.613	90.12
400.837	92.12
401.062	91.12
401.286	94.12
401.51	94.12
401.734	103.12
401.958	103.12
402.182	128.12
402.406	153.12
402.63	131.12
402.854	89.12
403.078	87.12
403.302	96.12
403.526	85.12
403.75	101.12
403.974	105.12
404.198	100.12
404.422	89.12
404.645	85.12
404.869	90.12
405.093	109.12
405.317	105.12
405.541	117.12
405.765	110.12
405.988	125.12
406.212	152.12
406.436	237.12
406.66	151.12
406.883	108.12
407.107	102.12
407.331	100.12
407.555	107.12
407.778	98.12
408.002	89.12
408.226	96.12
408.449	92.12
408.673	80.12
408.896	109.12
409.12	74.12
409.344	99.12
409.567	93.12
409.791	96.12
410.014	108.12
410.238	89.12
410.461	69.12
410.685	101.12
410.908	86.12
411.132	107.12
411.355	104.12
411.578	85.12
411.802	91.12
412.025	87.12
412.249	99.12
412.472	97.12
412.695	90.12
412.919	93.12
413.142	98.12
413.365	88.12
413.589	89.12
413.812	98.12
414.035	111.12
414.258	77.12
414.482	86.12
414.705	89.12
414.928	86.12
415.151	95.12
415.374	99.12
415.597	97.12
415.821	88.12
416.044	105.12
416.267	103.12
416.49	94.12
416.713	81.12
416.936	98.12
417.159	96.12
417.382	85.12
417.605	92.12
417.828	93.12
418.051	81.12
418.274	86.12
418.497	95.12
418.72	91.12
418.943	96.12
419.166	88.12
419.389	88.12
419.611	87.12
419.834	76.12
420.057	85.12
420.28	93.12
420.503	79.12
420.726	99.12
420.948	87.12
421.171	100.12
421.394	86.12
421.617	104.12
421.839	95.12
422.062	89.12
422.285	83.12
422.507	108.12
422.73	96.12
422.953	107.12
423.175	94.12
423.398	92.12
423.621	83.12
423.843	97.12
424.066	78.12
424.288	94.12
424.511	94.12
424.733	103.12
424.956	118.12
425.178	89.12
425.401	84.12
425.623	104.12
425.846	91.12
426.068	85.12
426.291	89.12
426.513	97.12
426.735	91.12
426.958	98.12
427.18	93.12
427.402	123.12
427.625	141.12
427.847	123.12
428.069	124.12
428.292	94.12
428.514	83.12
428.736	89.12
428.958	84.12
429.181	93.12
429.403	82.12
429.625	98.12
429.847	95.12
430.069	95.12
430.292	83.12
430.514	93.12
430.736	100.12
430.958	86.12
431.18	84.12
431.402	82.12
431.624	91.12
431.846	90.12
432.068	87.12
432.29	98.12
432.512	92.12
432.734	94.12
432.956	96.12
433.178	98.12
433.4	107.12
433.622	91.12
433.844	108.12
434.066	95.12
434.287	100.12
434.509	89.12
434.731	96.12
434.953	85.12
435.175	99.12
435.397	107.12
435.618	94.12
435.84	109.12
436.062	121.12
436.284	109.12
436.505	105.12
436.727	96.12
436.949	95.12
437.17	88.12
437.392	100.12
437.614	97.12
437.835	105.12
438.057	117.12
438.278	109.12
438.5	117.12
438.721	123.12
438.943	100.12
439.165	94.12
439.386	88.12
439.608	88.12
439.829	102.12
440.05	114.12
440.272	127.12
440.493	109.12
440.715	89.12
440.936	92.12
441.158	79.12
441.379	89.12
441.6	91.12
441.822	94.12
442.043	83.12
442.264	101.12
442.486	101.12
442.707	97.12
442.928	117.12
443.149	139.12
443.371	132.12
443.592	107.12
443.813	102.12
444.034	107.12
444.255	96.12
444.476	97.12
444.698	96.12
444.919	113.12
445.14	126.12
445.361	119.12
445.582	117.12
445.803	131.12
446.024	120.12
446.245	127.12
446.466	117.12
446.687	93.12
446.908	98.12
447.129	93.12
447.35	96.12
447.571	100.12
447.792	95.12
448.013	102.12
448.234	105.12
448.455	94.12
448.675	108.12
448.896	119.12
449.117	103.12
449.338	106.12
449.559	124.12
449.779	132.12
450	101.12
450.221	84.12
450.442	83.12
450.662	105.12
450.883	111.12
451.104	110.12
451.324	108.12
451.545	83.12
451.766	85.12
451.986	95.12
452.207	108.12
452.428	99.12
452.648	107.12
452.869	115.12
453.089	112.12
453.31	132.12
453.53	105.12
453.751	98.12
453.971	104.12
454.192	124.12
454.412	111.12
454.633	83.12
454.853	91.12
455.073	80.12
455.294	90.12
455.514	100.12
455.734	86.12
455.955	91.12
456.175	95.12
456.395	87.12
456.616	86.12
456.836	81.12
457.056	92.12
457.276	90.12
457.497	81.12
457.717	86.12
457.937	86.12
458.157	99.12
458.377	103.12
458.598	100.12
458.818	144.12
459.038	174.12
459.258	99.12
459.478	95.12
459.698	84.12
459.918	85.12
460.138	88.12
460.358	89.12
460.578	72.12
460.798	82.12
461.018	91.12
461.238	79.12
461.458	104.12
461.678	94.12
461.898	79.12
462.118	97.12
462.338	88.12
462.558	100.12
462.777	102.12
462.997	88.12
463.217	83.12
463.437	80.12
463.657	85.12
463.876	104.12
464.096	92.12
464.316	106.12
464.536	104.12
464.755	104.12
464.975	102.12
465.195	185.12
465.414	172.12
465.634	94.12
465.854	100.12
466.073	89.12
466.293	92.12
466.512	80.12
466.732	93.12
466.951	105.12
467.171	96.12
467.391	107.12
467.61	112.12
467.829	117.12
468.049	133.12
468.268	142.12
468.488	83.12
468.707	85.12
468.927	86.12
469.146	104.12
469.365	95.12
469.585	94.12
469.804	92.12
470.023	104.12
470.243	94.12
470.462	105.12
470.681	114.12
470.901	103.12
471.12	101.12
471.339	90.12
471.558	101.12
471.777	75.12
471.997	94.12
472.216	188.12
472.435	279.12
472.654	128.12
472.873	99.12
473.092	89.12
473.311	87.12
473.53	87.12
473.749	100.12
473.968	107.12
474.187	102.12
474.406	87.12
474.625	95.12
474.844	92.12
475.063	89.12
475.282	84.12
475.501	78.12
475.72	99.12
475.939	81.12
476.158	85.12
476.377	83.12
476.596	93.12
476.814	109.12
477.033	107.12
477.252	104.12
477.471	97.12
477.69	100.12
477.908	81.12
478.127	89.12
478.346	83.12
478.564	104.12
478.783	104.12
479.002	108.12
479.22	91.12
479.439	101.12
479.658	112.12
479.876	89.12
480.095	114.12
480.313	89.12
480.532	100.12
480.751	108.12
480.969	198.12
481.188	445.12
481.406	285.12
481.624	115.12
481.843	84.12
482.061	91.12
482.28	81.12
482.498	97.12
482.717	95.12
482.935	102.12
483.153	98.12
483.372	84.12
483.59	98.12
483.808	76.12
484.027	103.12
484.245	105.12
484.463	87.12
484.681	89.12
484.9	84.12
485.118	92.12
485.336	102.12
485.554	85.12
485.772	99.12
485.99	106.12
486.209	101.12
486.427	103.12
486.645	105.12
486.863	101.12
487.081	112.12
487.299	109.12
487.517	103.12
487.735	107.12
487.953	104.12
488.171	102.12
488.389	97.12
488.607	106.12
488.825	95.12
489.043	102.12
489.261	93.12
489.479	95.12
489.696	69.12
489.914	76.12
490.132	95.12
490.35	94.12
490.568	119.12
490.786	97.12
491.003	100.12
491.221	84.12
491.439	86.12
491.657	98.12
491.874	91.12
492.092	110.12
492.31	93.12
492.527	101.12
492.745	101.12
492.963	100.12
493.18	83.12
493.398	93.12
493.615	105.12
493.833	94.12
494.05	96.12
494.268	78.12
494.485	93.12
494.703	96.12
494.92	99.12
495.138	90.12
495.355	109.12
495.573	104.12
495.79	89.12
496.008	96.12
496.225	98.12
496.442	97.12
496.66	89.12
496.877	95.12
497.094	109.12
497.312	101.12
497.529	93.12
497.746	103.12
497.963	91.12
498.181	92.12
498.398	100.12
498.615	111.12
498.832	92.12
499.049	96.12
499.267	83.12
499.484	105.12
499.701	91.12
499.918	86.12
500.135	107.12
500.352	98.12
500.569	93.12
500.786	98.12
501.003	88.12
501.22	93.12
501.437	96.12
501.654	107.12
501.871	99.12
502.088	96.12
502.305	95.12
502.522	91.12
502.739	88.12
502.956	96.12
503.172	95.12
503.389	96.12
503.606	108.12
503.823	107.12
504.04	97.12
504.256	104.12
504.473	104.12
504.69	83.12
504.907	99.12
505.123	92.12
505.34	96.12
505.557	94.12
505.773	90.12
505.99	95.12
506.207	94.12
506.423	97.12
506.64	92.12
506.856	111.12
507.073	91.12
507.289	101.12
507.506	93.12
507.722	128.12
507.939	120.12
508.155	106.12
508.372	119.12
508.588	86.12
508.805	103.12
509.021	106.12
509.238	100.12
509.454	98.12
509.67	95.12
509.887	120.12
510.103	125.12
510.319	234.12
510.536	840.12
510.752	2797.12
510.968	761.12
511.184	179.12
511.401	103.12
511.617	110.12
511.833	103.12
512.049	106.12
512.265	83.12
512.481	88.12
512.698	89.12
512.914	91.12
513.13	89.12
513.346	99.12
513.562	100.12
513.778	113.12
