Data from Circ_1996_H10_HRD10591_00060.txt Node
Date: Wed Jan 03 11:33:18 EST 2024
User: Yrep
Spectrometer: HR+D1059
Trigger mode: 1
Integration Time (sec): 1.000000E-1
Scans to average: 1
Electric dark correction enabled: true
Nonlinearity correction enabled: false
Boxcar width: 0
XAxis mode: Wavelengths
Number of Pixels in Spectrum: 2048
>>>>>Begin Spectral Data<<<<<
223.165	-7.62
223.4	-7.62
223.635	-7.62
223.869	-3.62
224.104	-10.62
224.338	-14.62
224.573	-20.62
224.808	-7.62
225.042	-14.62
225.277	-11.62
225.511	-8.62
225.746	2.38
225.98	12.38
226.215	13.38
226.449	9.38
226.683	7.38
226.918	30.38
227.152	24.38
227.387	31.38
227.621	35.38
227.856	49.38
228.09	35.38
228.324	52.38
228.559	57.38
228.793	64.38
229.027	64.38
229.262	69.38
229.496	66.38
229.73	89.38
229.964	93.38
230.199	65.38
230.433	77.38
230.667	81.38
230.901	79.38
231.136	65.38
231.37	79.38
231.604	86.38
231.838	90.38
232.072	86.38
232.306	80.38
232.541	94.38
232.775	87.38
233.009	66.38
233.243	73.38
233.477	77.38
233.711	98.38
233.945	94.38
234.179	83.38
234.413	86.38
234.647	75.38
234.881	81.38
235.115	77.38
235.349	82.38
235.583	70.38
235.817	68.38
236.051	82.38
236.285	78.38
236.519	78.38
236.753	86.38
236.987	81.38
237.221	74.38
237.455	89.38
237.689	83.38
237.922	77.38
238.156	80.38
238.39	81.38
238.624	77.38
238.858	84.38
239.091	83.38
239.325	89.38
239.559	86.38
239.793	84.38
240.027	90.38
240.26	84.38
240.494	85.38
240.728	66.38
240.961	78.38
241.195	78.38
241.429	84.38
241.662	60.38
241.896	73.38
242.13	86.38
242.363	77.38
242.597	83.38
242.83	79.38
243.064	76.38
243.298	81.38
243.531	81.38
243.765	94.38
243.998	87.38
244.232	83.38
244.465	96.38
244.699	67.38
244.932	80.38
245.166	83.38
245.399	75.38
245.633	79.38
245.866	82.38
246.099	78.38
246.333	65.38
246.566	65.38
246.8	68.38
247.033	80.38
247.266	76.38
247.5	77.38
247.733	84.38
247.966	85.38
248.2	84.38
248.433	82.38
248.666	75.38
248.899	81.38
249.133	89.38
249.366	107.38
249.599	93.38
249.832	82.38
250.066	79.38
250.299	89.38
250.532	90.38
250.765	68.38
250.998	92.38
251.231	89.38
251.465	67.38
251.698	69.38
251.931	100.38
252.164	87.38
252.397	72.38
252.63	71.38
252.863	83.38
253.096	107.38
253.329	86.38
253.562	78.38
253.795	85.38
254.028	86.38
254.261	75.38
254.494	90.38
254.727	81.38
254.96	78.38
255.193	88.38
255.426	67.38
255.659	70.38
255.892	69.38
256.124	76.38
256.357	74.38
256.59	85.38
256.823	90.38
257.056	77.38
257.289	79.38
257.521	73.38
257.754	79.38
257.987	70.38
258.22	84.38
258.452	88.38
258.685	83.38
258.918	91.38
259.151	97.38
259.383	75.38
259.616	84.38
259.849	70.38
260.081	89.38
260.314	90.38
260.547	88.38
260.779	86.38
261.012	78.38
261.244	81.38
261.477	84.38
261.71	85.38
261.942	105.38
262.175	111.38
262.407	103.38
262.64	97.38
262.872	104.38
263.105	86.38
263.337	83.38
263.57	79.38
263.802	85.38
264.035	89.38
264.267	90.38
264.499	88.38
264.732	87.38
264.964	85.38
265.197	78.38
265.429	86.38
265.661	93.38
265.894	80.38
266.126	90.38
266.358	80.38
266.591	89.38
266.823	99.38
267.055	89.38
267.287	91.38
267.52	89.38
267.752	90.38
267.984	85.38
268.216	70.38
268.448	70.38
268.681	88.38
268.913	96.38
269.145	98.38
269.377	84.38
269.609	95.38
269.841	86.38
270.073	95.38
270.306	91.38
270.538	82.38
270.77	86.38
271.002	86.38
271.234	78.38
271.466	93.38
271.698	77.38
271.93	85.38
272.162	99.38
272.394	83.38
272.626	76.38
272.858	86.38
273.09	87.38
273.322	86.38
273.553	98.38
273.785	95.38
274.017	86.38
274.249	86.38
274.481	97.38
274.713	93.38
274.945	84.38
275.176	103.38
275.408	93.38
275.64	85.38
275.872	74.38
276.104	82.38
276.335	87.38
276.567	99.38
276.799	113.38
277.031	109.38
277.262	102.38
277.494	76.38
277.726	85.38
277.957	93.38
278.189	80.38
278.421	87.38
278.652	92.38
278.884	87.38
279.115	84.38
279.347	88.38
279.579	89.38
279.81	76.38
280.042	94.38
280.273	102.38
280.505	86.38
280.736	82.38
280.968	89.38
281.199	97.38
281.431	86.38
281.662	83.38
281.894	81.38
282.125	99.38
282.356	119.38
282.588	132.38
282.819	109.38
283.051	84.38
283.282	85.38
283.513	88.38
283.745	88.38
283.976	83.38
284.207	85.38
284.439	78.38
284.67	82.38
284.901	91.38
285.132	92.38
285.364	92.38
285.595	76.38
285.826	94.38
286.057	89.38
286.288	97.38
286.52	83.38
286.751	90.38
286.982	90.38
287.213	76.38
287.444	100.38
287.675	88.38
287.906	85.38
288.138	92.38
288.369	87.38
288.6	83.38
288.831	103.38
289.062	100.38
289.293	92.38
289.524	95.38
289.755	81.38
289.986	89.38
290.217	87.38
290.448	89.38
290.679	75.38
290.91	88.38
291.141	82.38
291.371	88.38
291.602	91.38
291.833	77.38
292.064	100.38
292.295	84.38
292.526	99.38
292.757	95.38
292.987	99.38
293.218	96.38
293.449	95.38
293.68	95.38
293.91	87.38
294.141	92.38
294.372	83.38
294.603	95.38
294.833	96.38
295.064	82.38
295.295	91.38
295.525	91.38
295.756	107.38
295.987	112.38
296.217	141.38
296.448	127.38
296.679	93.38
296.909	89.38
297.14	89.38
297.37	106.38
297.601	100.38
297.831	90.38
298.062	65.38
298.292	93.38
298.523	93.38
298.753	99.38
298.984	108.38
299.214	93.38
299.445	91.38
299.675	95.38
299.905	106.38
300.136	83.38
300.366	81.38
300.597	81.38
300.827	88.38
301.057	97.38
301.288	107.38
301.518	89.38
301.748	88.38
301.979	116.38
302.209	95.38
302.439	81.38
302.669	95.38
302.9	98.38
303.13	99.38
303.36	100.38
303.59	107.38
303.82	97.38
304.051	101.38
304.281	86.38
304.511	84.38
304.741	89.38
304.971	97.38
305.201	98.38
305.431	94.38
305.661	85.38
305.891	99.38
306.121	91.38
306.352	101.38
306.582	103.38
306.812	89.38
307.042	98.38
307.272	91.38
307.502	111.38
307.731	100.38
307.961	101.38
308.191	88.38
308.421	100.38
308.651	78.38
308.881	94.38
309.111	106.38
309.341	109.38
309.571	81.38
309.8	89.38
310.03	96.38
310.26	100.38
310.49	86.38
310.72	115.38
310.949	104.38
311.179	110.38
311.409	94.38
311.639	102.38
311.868	112.38
312.098	100.38
312.328	94.38
312.557	95.38
312.787	104.38
313.017	99.38
313.246	97.38
313.476	88.38
313.706	91.38
313.935	103.38
314.165	107.38
314.394	103.38
314.624	88.38
314.853	92.38
315.083	90.38
315.312	92.38
315.542	90.38
315.771	86.38
316.001	103.38
316.23	86.38
316.46	87.38
316.689	98.38
316.919	91.38
317.148	94.38
317.377	101.38
317.607	83.38
317.836	104.38
318.065	91.38
318.295	92.38
318.524	87.38
318.753	109.38
318.983	81.38
319.212	97.38
319.441	99.38
319.67	101.38
319.9	86.38
320.129	97.38
320.358	93.38
320.587	86.38
320.816	104.38
321.046	107.38
321.275	109.38
321.504	102.38
321.733	105.38
321.962	100.38
322.191	96.38
322.42	93.38
322.649	107.38
322.878	90.38
323.108	125.38
323.337	118.38
323.566	118.38
323.795	130.38
324.024	169.38
324.253	301.38
324.482	629.38
324.71	1205.38
324.939	1593.38
325.168	620.38
325.397	207.38
325.626	138.38
325.855	114.38
326.084	105.38
326.313	110.38
326.542	132.38
326.77	180.38
326.999	339.38
327.228	665.38
327.457	1139.38
327.686	945.38
327.914	281.38
328.143	185.38
328.372	168.38
328.6	129.38
328.829	110.38
329.058	117.38
329.287	117.38
329.515	109.38
329.744	109.38
329.972	114.38
330.201	169.38
330.43	177.38
330.658	142.38
330.887	136.38
331.115	102.38
331.344	106.38
331.572	101.38
331.801	112.38
332.03	110.38
332.258	102.38
332.486	92.38
332.715	100.38
332.943	103.38
333.172	104.38
333.4	105.38
333.629	114.38
333.857	123.38
334.085	133.38
334.314	163.38
334.542	221.38
334.771	213.38
334.999	112.38
335.227	98.38
335.455	94.38
335.684	107.38
335.912	91.38
336.14	99.38
336.369	94.38
336.597	99.38
336.825	98.38
337.053	104.38
337.281	97.38
337.51	113.38
337.738	93.38
337.966	102.38
338.194	102.38
338.422	96.38
338.65	84.38
338.878	101.38
339.106	97.38
339.334	89.38
339.562	110.38
339.79	85.38
340.018	92.38
340.246	95.38
340.474	83.38
340.702	94.38
340.93	95.38
341.158	83.38
341.386	84.38
341.614	98.38
341.842	85.38
342.07	82.38
342.298	95.38
342.526	109.38
342.754	102.38
342.981	92.38
343.209	83.38
343.437	100.38
343.665	91.38
343.893	100.38
344.12	103.38
344.348	86.38
344.576	106.38
344.804	89.38
345.031	96.38
345.259	105.38
345.487	88.38
345.714	86.38
345.942	82.38
346.17	86.38
346.397	110.38
346.625	96.38
346.853	93.38
347.08	86.38
347.308	89.38
347.535	100.38
347.763	98.38
347.99	103.38
348.218	104.38
348.445	94.38
348.673	91.38
348.9	97.38
349.128	99.38
349.355	100.38
349.583	93.38
349.81	104.38
350.037	94.38
350.265	101.38
350.492	97.38
350.72	86.38
350.947	102.38
351.174	108.38
351.402	114.38
351.629	103.38
351.856	100.38
352.083	111.38
352.311	103.38
352.538	104.38
352.765	97.38
352.992	117.38
353.22	131.38
353.447	104.38
353.674	94.38
353.901	104.38
354.128	95.38
354.355	103.38
354.583	103.38
354.81	109.38
355.037	101.38
355.264	96.38
355.491	100.38
355.718	82.38
355.945	103.38
356.172	103.38
356.399	90.38
356.626	102.38
356.853	79.38
357.08	77.38
357.307	101.38
357.534	97.38
357.761	93.38
357.988	77.38
358.215	95.38
358.441	92.38
358.668	79.38
358.895	92.38
359.122	89.38
359.349	100.38
359.576	94.38
359.802	96.38
360.029	121.38
360.256	119.38
360.483	113.38
360.709	93.38
360.936	106.38
361.163	101.38
361.39	95.38
361.616	92.38
361.843	109.38
362.07	110.38
362.296	94.38
362.523	92.38
362.749	87.38
362.976	98.38
363.203	107.38
363.429	94.38
363.656	87.38
363.882	97.38
364.109	90.38
364.335	82.38
364.562	83.38
364.788	96.38
365.015	96.38
365.241	95.38
365.468	114.38
365.694	103.38
365.92	99.38
366.147	89.38
366.373	85.38
366.599	93.38
366.826	79.38
367.052	93.38
367.278	89.38
367.505	94.38
367.731	93.38
367.957	102.38
368.184	95.38
368.41	93.38
368.636	116.38
368.862	122.38
369.089	114.38
369.315	92.38
369.541	94.38
369.767	94.38
369.993	87.38
370.219	94.38
370.445	89.38
370.672	93.38
370.898	91.38
371.124	87.38
371.35	91.38
371.576	97.38
371.802	86.38
372.028	89.38
372.254	93.38
372.48	82.38
372.706	86.38
372.932	91.38
373.158	86.38
373.384	92.38
373.61	82.38
373.835	86.38
374.061	87.38
374.287	105.38
374.513	85.38
374.739	88.38
374.965	89.38
375.191	87.38
375.416	91.38
375.642	87.38
375.868	93.38
376.094	98.38
376.319	87.38
376.545	100.38
376.771	97.38
376.997	88.38
377.222	86.38
377.448	88.38
377.674	103.38
377.899	95.38
378.125	81.38
378.35	100.38
378.576	97.38
378.802	91.38
379.027	82.38
379.253	86.38
379.478	78.38
379.704	89.38
379.929	99.38
380.155	95.38
380.38	102.38
380.606	95.38
380.831	96.38
381.057	108.38
381.282	84.38
381.507	94.38
381.733	100.38
381.958	91.38
382.184	95.38
382.409	103.38
382.634	113.38
382.86	110.38
383.085	97.38
383.31	98.38
383.535	104.38
383.761	113.38
383.986	97.38
384.211	105.38
384.436	114.38
384.662	97.38
384.887	118.38
385.112	113.38
385.337	97.38
385.562	90.38
385.787	127.38
386.013	116.38
386.238	114.38
386.463	112.38
386.688	119.38
386.913	89.38
387.138	102.38
387.363	89.38
387.588	86.38
387.813	104.38
388.038	114.38
388.263	110.38
388.488	103.38
388.713	99.38
388.938	90.38
389.163	105.38
389.387	98.38
389.612	92.38
389.837	94.38
390.062	96.38
390.287	92.38
390.512	101.38
390.736	92.38
390.961	84.38
391.186	90.38
391.411	97.38
391.636	81.38
391.86	90.38
392.085	89.38
392.31	86.38
392.534	85.38
392.759	83.38
392.984	86.38
393.208	97.38
393.433	90.38
393.658	102.38
393.882	99.38
394.107	90.38
394.331	98.38
394.556	90.38
394.78	95.38
395.005	91.38
395.229	83.38
395.454	85.38
395.678	87.38
395.903	76.38
396.127	90.38
396.352	103.38
396.576	90.38
396.801	98.38
397.025	99.38
397.249	87.38
397.474	100.38
397.698	90.38
397.922	92.38
398.147	90.38
398.371	77.38
398.595	91.38
398.82	93.38
399.044	90.38
399.268	87.38
399.492	87.38
399.717	89.38
399.941	95.38
400.165	89.38
400.389	86.38
400.613	84.38
400.837	90.38
401.062	99.38
401.286	91.38
401.51	99.38
401.734	85.38
401.958	92.38
402.182	122.38
402.406	155.38
402.63	111.38
402.854	101.38
403.078	94.38
403.302	78.38
403.526	85.38
403.75	95.38
403.974	86.38
404.198	84.38
404.422	97.38
404.645	94.38
404.869	97.38
405.093	98.38
405.317	107.38
405.541	88.38
405.765	108.38
405.988	126.38
406.212	157.38
406.436	221.38
406.66	140.38
406.883	103.38
407.107	97.38
407.331	97.38
407.555	101.38
407.778	90.38
408.002	97.38
408.226	92.38
408.449	99.38
408.673	94.38
408.896	97.38
409.12	102.38
409.344	83.38
409.567	87.38
409.791	93.38
410.014	110.38
410.238	94.38
410.461	113.38
410.685	87.38
410.908	94.38
411.132	115.38
411.355	101.38
411.578	88.38
411.802	83.38
412.025	97.38
412.249	97.38
412.472	109.38
412.695	94.38
412.919	79.38
413.142	91.38
413.365	81.38
413.589	91.38
413.812	100.38
414.035	96.38
414.258	114.38
414.482	95.38
414.705	91.38
414.928	91.38
415.151	87.38
415.374	96.38
415.597	86.38
415.821	81.38
416.044	82.38
416.267	78.38
416.49	92.38
416.713	90.38
416.936	83.38
417.159	79.38
417.382	87.38
417.605	90.38
417.828	106.38
418.051	108.38
418.274	92.38
418.497	86.38
418.72	89.38
418.943	91.38
419.166	98.38
419.389	92.38
419.611	91.38
419.834	99.38
420.057	99.38
420.28	87.38
420.503	93.38
420.726	99.38
420.948	94.38
421.171	88.38
421.394	99.38
421.617	95.38
421.839	82.38
422.062	101.38
422.285	84.38
422.507	96.38
422.73	102.38
422.953	102.38
423.175	93.38
423.398	96.38
423.621	88.38
423.843	84.38
424.066	82.38
424.288	86.38
424.511	92.38
424.733	89.38
424.956	91.38
425.178	90.38
425.401	97.38
425.623	99.38
425.846	103.38
426.068	95.38
426.291	91.38
426.513	97.38
426.735	96.38
426.958	90.38
427.18	103.38
427.402	120.38
427.625	158.38
427.847	118.38
428.069	109.38
428.292	92.38
428.514	96.38
428.736	86.38
428.958	88.38
429.181	99.38
429.403	90.38
429.625	95.38
429.847	91.38
430.069	94.38
430.292	99.38
430.514	80.38
430.736	79.38
430.958	98.38
431.18	93.38
431.402	77.38
431.624	85.38
431.846	81.38
432.068	91.38
432.29	84.38
432.512	91.38
432.734	79.38
432.956	100.38
433.178	94.38
433.4	92.38
433.622	96.38
433.844	89.38
434.066	100.38
434.287	96.38
434.509	98.38
434.731	92.38
434.953	94.38
435.175	85.38
435.397	94.38
435.618	94.38
435.84	96.38
436.062	114.38
436.284	104.38
436.505	91.38
436.727	85.38
436.949	94.38
437.17	89.38
437.392	87.38
437.614	81.38
437.835	92.38
438.057	106.38
438.278	105.38
438.5	94.38
438.721	108.38
438.943	81.38
439.165	86.38
439.386	92.38
439.608	85.38
439.829	87.38
440.05	104.38
440.272	123.38
440.493	87.38
440.715	85.38
440.936	91.38
441.158	91.38
441.379	87.38
441.6	96.38
441.822	109.38
442.043	97.38
442.264	101.38
442.486	93.38
442.707	85.38
442.928	112.38
443.149	130.38
443.371	114.38
443.592	109.38
443.813	100.38
444.034	99.38
444.255	88.38
444.476	89.38
444.698	85.38
444.919	95.38
445.14	138.38
445.361	107.38
445.582	97.38
445.803	130.38
446.024	120.38
446.245	110.38
446.466	111.38
446.687	94.38
446.908	100.38
447.129	82.38
447.35	101.38
447.571	95.38
447.792	94.38
448.013	103.38
448.234	92.38
448.455	86.38
448.675	108.38
448.896	113.38
449.117	103.38
449.338	96.38
449.559	124.38
449.779	121.38
450	95.38
450.221	87.38
450.442	86.38
450.662	100.38
450.883	101.38
451.104	95.38
451.324	100.38
451.545	96.38
451.766	97.38
451.986	92.38
452.207	86.38
452.428	82.38
452.648	104.38
452.869	108.38
453.089	110.38
453.31	113.38
453.53	92.38
453.751	105.38
453.971	85.38
454.192	101.38
454.412	79.38
454.633	93.38
454.853	86.38
455.073	89.38
455.294	87.38
455.514	89.38
455.734	87.38
455.955	85.38
456.175	94.38
456.395	107.38
456.616	100.38
456.836	84.38
457.056	98.38
457.276	102.38
457.497	92.38
457.717	90.38
457.937	100.38
458.157	100.38
458.377	101.38
458.598	101.38
458.818	140.38
459.038	161.38
459.258	113.38
459.478	91.38
459.698	99.38
459.918	100.38
460.138	89.38
460.358	77.38
460.578	96.38
460.798	92.38
461.018	83.38
461.238	87.38
461.458	85.38
461.678	82.38
461.898	98.38
462.118	82.38
462.338	86.38
462.558	87.38
462.777	94.38
462.997	81.38
463.217	101.38
463.437	86.38
463.657	97.38
463.876	85.38
464.096	95.38
464.316	98.38
464.536	89.38
464.755	103.38
464.975	103.38
465.195	163.38
465.414	140.38
465.634	89.38
465.854	91.38
466.073	100.38
466.293	81.38
466.512	102.38
466.732	96.38
466.951	104.38
467.171	93.38
467.391	86.38
467.61	100.38
467.829	113.38
468.049	121.38
468.268	121.38
468.488	104.38
468.707	95.38
468.927	84.38
469.146	82.38
469.365	82.38
469.585	77.38
469.804	94.38
470.023	93.38
470.243	89.38
470.462	99.38
470.681	97.38
470.901	95.38
471.12	81.38
471.339	95.38
471.558	99.38
471.777	90.38
471.997	108.38
472.216	163.38
472.435	264.38
472.654	136.38
472.873	89.38
473.092	93.38
473.311	95.38
473.53	96.38
473.749	110.38
473.968	97.38
474.187	91.38
474.406	105.38
474.625	87.38
474.844	78.38
475.063	70.38
475.282	93.38
475.501	89.38
475.72	91.38
475.939	77.38
476.158	91.38
476.377	93.38
476.596	93.38
476.814	78.38
477.033	91.38
477.252	81.38
477.471	99.38
477.69	94.38
477.908	92.38
478.127	94.38
478.346	82.38
478.564	86.38
478.783	92.38
479.002	81.38
479.22	94.38
479.439	95.38
479.658	111.38
479.876	92.38
480.095	95.38
480.313	84.38
480.532	92.38
480.751	99.38
480.969	163.38
481.188	432.38
481.406	269.38
481.624	109.38
481.843	87.38
482.061	74.38
482.28	81.38
482.498	101.38
482.717	94.38
482.935	94.38
483.153	101.38
483.372	96.38
483.59	100.38
483.808	88.38
484.027	90.38
484.245	99.38
484.463	112.38
484.681	119.38
484.9	90.38
485.118	95.38
485.336	86.38
485.554	95.38
485.772	110.38
485.99	105.38
486.209	103.38
486.427	106.38
486.645	107.38
486.863	117.38
487.081	109.38
487.299	99.38
487.517	98.38
487.735	94.38
487.953	89.38
488.171	91.38
488.389	103.38
488.607	102.38
488.825	95.38
489.043	85.38
489.261	98.38
489.479	91.38
489.696	104.38
489.914	94.38
490.132	81.38
490.35	81.38
490.568	93.38
490.786	84.38
491.003	90.38
491.221	96.38
491.439	95.38
491.657	81.38
491.874	94.38
492.092	80.38
492.31	77.38
492.527	83.38
492.745	106.38
492.963	100.38
493.18	100.38
493.398	88.38
493.615	93.38
493.833	100.38
494.05	85.38
494.268	91.38
494.485	86.38
494.703	85.38
494.92	102.38
495.138	93.38
495.355	109.38
495.573	100.38
495.79	92.38
496.008	99.38
496.225	87.38
496.442	95.38
496.66	85.38
496.877	84.38
497.094	101.38
497.312	91.38
497.529	91.38
497.746	81.38
497.963	94.38
498.181	91.38
498.398	80.38
498.615	95.38
498.832	120.38
499.049	110.38
499.267	91.38
499.484	86.38
499.701	95.38
499.918	87.38
500.135	98.38
500.352	99.38
500.569	95.38
500.786	96.38
501.003	92.38
501.22	90.38
501.437	98.38
501.654	97.38
501.871	97.38
502.088	99.38
502.305	77.38
502.522	77.38
502.739	84.38
502.956	95.38
503.172	94.38
503.389	99.38
503.606	93.38
503.823	100.38
504.04	86.38
504.256	106.38
504.473	90.38
504.69	99.38
504.907	86.38
505.123	95.38
505.34	85.38
505.557	98.38
505.773	75.38
505.99	95.38
506.207	89.38
506.423	89.38
506.64	95.38
506.856	91.38
507.073	80.38
507.289	86.38
507.506	106.38
507.722	106.38
507.939	103.38
508.155	95.38
508.372	100.38
508.588	95.38
508.805	94.38
509.021	102.38
509.238	97.38
509.454	90.38
509.67	93.38
509.887	120.38
510.103	122.38
510.319	212.38
510.536	779.38
510.752	2535.38
510.968	694.38
511.184	155.38
511.401	123.38
511.617	98.38
511.833	100.38
512.049	93.38
512.265	93.38
512.481	95.38
512.698	100.38
512.914	114.38
513.13	104.38
513.346	86.38
513.562	97.38
513.778	92.38
513.994	107.38
514.21	101.38
514.426	123.38
514.642	134.38
514.858	130.38
515.074	158.38
