Data from Circ_1996_H10_HRD10591_00084.txt Node
Date: Wed Jan 03 11:33:22 EST 2024
User: Yrep
Spectrometer: HR+D1059
Trigger mode: 1
Integration Time (sec): 1.000000E-1
Scans to average: 1
Electric dark correction enabled: true
Nonlinearity correction enabled: false
Boxcar width: 0
XAxis mode: Wavelengths
Number of Pixels in Spectrum: 2048
>>>>>Begin Spectral Data<<<<<
223.165	-3.56
223.4	-3.56
223.635	-3.56
223.869	-35.56
224.104	-28.56
224.338	-13.56
224.573	-12.56
224.808	-23.56
225.042	-3.56
225.277	-2.56
225.511	-5.56
225.746	13.44
225.98	3.44
226.215	29.44
226.449	17.44
226.683	20.44
226.918	18.44
227.152	26.44
227.387	39.44
227.621	24.44
227.856	36.44
228.09	44.44
228.324	47.44
228.559	59.44
228.793	55.44
229.027	55.44
229.262	79.44
229.496	87.44
229.73	90.44
229.964	81.44
230.199	75.44
230.433	77.44
230.667	85.44
230.901	80.44
231.136	77.44
231.37	85.44
231.604	74.44
231.838	88.44
232.072	81.44
232.306	83.44
232.541	73.44
232.775	64.44
233.009	92.44
233.243	84.44
233.477	85.44
233.711	84.44
233.945	82.44
234.179	84.44
234.413	94.44
234.647	78.44
234.881	71.44
235.115	85.44
235.349	79.44
235.583	78.44
235.817	75.44
236.051	69.44
236.285	83.44
236.519	81.44
236.753	81.44
236.987	84.44
237.221	82.44
237.455	92.44
237.689	79.44
237.922	81.44
238.156	86.44
238.39	72.44
238.624	83.44
238.858	79.44
239.091	73.44
239.325	78.44
239.559	75.44
239.793	73.44
240.027	81.44
240.26	75.44
240.494	84.44
240.728	79.44
240.961	82.44
241.195	82.44
241.429	84.44
241.662	64.44
241.896	65.44
242.13	80.44
242.363	95.44
242.597	83.44
242.83	86.44
243.064	86.44
243.298	81.44
243.531	75.44
243.765	86.44
243.998	76.44
244.232	85.44
244.465	81.44
244.699	84.44
244.932	92.44
245.166	85.44
245.399	83.44
245.633	80.44
245.866	76.44
246.099	87.44
246.333	81.44
246.566	62.44
246.8	71.44
247.033	77.44
247.266	92.44
247.5	74.44
247.733	79.44
247.966	76.44
248.2	71.44
248.433	84.44
248.666	80.44
248.899	79.44
249.133	73.44
249.366	100.44
249.599	99.44
249.832	82.44
250.066	83.44
250.299	67.44
250.532	88.44
250.765	67.44
250.998	82.44
251.231	82.44
251.465	77.44
251.698	87.44
251.931	82.44
252.164	79.44
252.397	80.44
252.63	83.44
252.863	76.44
253.096	75.44
253.329	70.44
253.562	79.44
253.795	73.44
254.028	98.44
254.261	80.44
254.494	61.44
254.727	75.44
254.96	86.44
255.193	80.44
255.426	90.44
255.659	73.44
255.892	87.44
256.124	79.44
256.357	87.44
256.59	84.44
256.823	85.44
257.056	81.44
257.289	78.44
257.521	81.44
257.754	91.44
257.987	83.44
258.22	87.44
258.452	86.44
258.685	81.44
258.918	86.44
259.151	105.44
259.383	76.44
259.616	82.44
259.849	86.44
260.081	89.44
260.314	79.44
260.547	75.44
260.779	75.44
261.012	95.44
261.244	85.44
261.477	108.44
261.71	93.44
261.942	119.44
262.175	117.44
262.407	92.44
262.64	82.44
262.872	77.44
263.105	73.44
263.337	96.44
263.57	92.44
263.802	92.44
264.035	82.44
264.267	79.44
264.499	66.44
264.732	67.44
264.964	82.44
265.197	92.44
265.429	85.44
265.661	89.44
265.894	98.44
266.126	74.44
266.358	91.44
266.591	81.44
266.823	82.44
267.055	82.44
267.287	92.44
267.52	68.44
267.752	93.44
267.984	93.44
268.216	99.44
268.448	103.44
268.681	95.44
268.913	77.44
269.145	82.44
269.377	84.44
269.609	79.44
269.841	85.44
270.073	84.44
270.306	72.44
270.538	93.44
270.77	93.44
271.002	87.44
271.234	79.44
271.466	84.44
271.698	73.44
271.93	104.44
272.162	73.44
272.394	83.44
272.626	68.44
272.858	82.44
273.09	92.44
273.322	82.44
273.553	79.44
273.785	93.44
274.017	85.44
274.249	72.44
274.481	94.44
274.713	89.44
274.945	91.44
275.176	89.44
275.408	91.44
275.64	93.44
275.872	82.44
276.104	87.44
276.335	96.44
276.567	105.44
276.799	115.44
277.031	116.44
277.262	108.44
277.494	84.44
277.726	92.44
277.957	88.44
278.189	85.44
278.421	100.44
278.652	91.44
278.884	80.44
279.115	95.44
279.347	84.44
279.579	83.44
279.81	87.44
280.042	91.44
280.273	114.44
280.505	92.44
280.736	87.44
280.968	101.44
281.199	101.44
281.431	84.44
281.662	95.44
281.894	89.44
282.125	93.44
282.356	126.44
282.588	141.44
282.819	118.44
283.051	96.44
283.282	79.44
283.513	94.44
283.745	86.44
283.976	91.44
284.207	99.44
284.439	90.44
284.67	101.44
284.901	78.44
285.132	91.44
285.364	96.44
285.595	85.44
285.826	89.44
286.057	89.44
286.288	86.44
286.52	87.44
286.751	74.44
286.982	91.44
287.213	64.44
287.444	83.44
287.675	91.44
287.906	80.44
288.138	86.44
288.369	80.44
288.6	91.44
288.831	89.44
289.062	82.44
289.293	89.44
289.524	77.44
289.755	88.44
289.986	100.44
290.217	101.44
290.448	87.44
290.679	88.44
290.91	85.44
291.141	79.44
291.371	86.44
291.602	93.44
291.833	87.44
292.064	82.44
292.295	87.44
292.526	90.44
292.757	87.44
292.987	93.44
293.218	95.44
293.449	84.44
293.68	79.44
293.91	84.44
294.141	96.44
294.372	89.44
294.603	88.44
294.833	85.44
295.064	94.44
295.295	105.44
295.525	96.44
295.756	93.44
295.987	109.44
296.217	153.44
296.448	122.44
296.679	101.44
296.909	78.44
297.14	98.44
297.37	78.44
297.601	93.44
297.831	94.44
298.062	84.44
298.292	94.44
298.523	95.44
298.753	97.44
298.984	89.44
299.214	90.44
299.445	87.44
299.675	93.44
299.905	92.44
300.136	82.44
300.366	85.44
300.597	95.44
300.827	103.44
301.057	81.44
301.288	106.44
301.518	98.44
301.748	87.44
301.979	96.44
302.209	95.44
302.439	90.44
302.669	83.44
302.9	95.44
303.13	79.44
303.36	100.44
303.59	105.44
303.82	111.44
304.051	96.44
304.281	98.44
304.511	89.44
304.741	87.44
304.971	88.44
305.201	95.44
305.431	101.44
305.661	99.44
305.891	89.44
306.121	92.44
306.352	125.44
306.582	119.44
306.812	100.44
307.042	93.44
307.272	95.44
307.502	90.44
307.731	96.44
307.961	97.44
308.191	90.44
308.421	85.44
308.651	88.44
308.881	95.44
309.111	88.44
309.341	97.44
309.571	92.44
309.8	88.44
310.03	97.44
310.26	87.44
310.49	98.44
310.72	98.44
310.949	74.44
311.179	88.44
311.409	94.44
311.639	90.44
311.868	91.44
312.098	101.44
312.328	103.44
312.557	101.44
312.787	116.44
313.017	87.44
313.246	101.44
313.476	103.44
313.706	107.44
313.935	87.44
314.165	98.44
314.394	109.44
314.624	107.44
314.853	90.44
315.083	101.44
315.312	103.44
315.542	91.44
315.771	96.44
316.001	80.44
316.23	103.44
316.46	94.44
316.689	89.44
316.919	103.44
317.148	94.44
317.377	91.44
317.607	98.44
317.836	89.44
318.065	85.44
318.295	87.44
318.524	89.44
318.753	94.44
318.983	85.44
319.212	112.44
319.441	103.44
319.67	103.44
319.9	99.44
320.129	92.44
320.358	92.44
320.587	96.44
320.816	93.44
321.046	110.44
321.275	93.44
321.504	87.44
321.733	95.44
321.962	85.44
322.191	105.44
322.42	92.44
322.649	106.44
322.878	101.44
323.108	112.44
323.337	111.44
323.566	128.44
323.795	151.44
324.024	185.44
324.253	330.44
324.482	673.44
324.71	1373.44
324.939	1821.44
325.168	681.44
325.397	224.44
325.626	143.44
325.855	122.44
326.084	118.44
326.313	130.44
326.542	146.44
326.77	201.44
326.999	364.44
327.228	711.44
327.457	1281.44
327.686	1063.44
327.914	315.44
328.143	208.44
328.372	167.44
328.6	130.44
328.829	115.44
329.058	116.44
329.287	128.44
329.515	122.44
329.744	128.44
329.972	131.44
330.201	166.44
330.43	207.44
330.658	157.44
330.887	134.44
331.115	115.44
331.344	110.44
331.572	103.44
331.801	95.44
332.03	106.44
332.258	98.44
332.486	87.44
332.715	99.44
332.943	98.44
333.172	94.44
333.4	104.44
333.629	110.44
333.857	126.44
334.085	119.44
334.314	170.44
334.542	243.44
334.771	216.44
334.999	121.44
335.227	114.44
335.455	99.44
335.684	104.44
335.912	96.44
336.14	98.44
336.369	89.44
336.597	106.44
336.825	112.44
337.053	83.44
337.281	93.44
337.51	95.44
337.738	107.44
337.966	87.44
338.194	108.44
338.422	98.44
338.65	117.44
338.878	90.44
339.106	96.44
339.334	96.44
339.562	80.44
339.79	84.44
340.018	91.44
340.246	76.44
340.474	96.44
340.702	88.44
340.93	89.44
341.158	96.44
341.386	80.44
341.614	96.44
341.842	93.44
342.07	113.44
342.298	94.44
342.526	91.44
342.754	101.44
342.981	76.44
343.209	76.44
343.437	90.44
343.665	82.44
343.893	88.44
344.12	84.44
344.348	92.44
344.576	88.44
344.804	108.44
345.031	101.44
345.259	104.44
345.487	86.44
345.714	107.44
345.942	89.44
346.17	86.44
346.397	100.44
346.625	91.44
346.853	103.44
347.08	93.44
347.308	98.44
347.535	91.44
347.763	99.44
347.99	92.44
348.218	100.44
348.445	113.44
348.673	87.44
348.9	100.44
349.128	108.44
349.355	102.44
349.583	98.44
349.81	95.44
350.037	98.44
350.265	104.44
350.492	93.44
350.72	95.44
350.947	93.44
351.174	105.44
351.402	101.44
351.629	91.44
351.856	101.44
352.083	96.44
352.311	112.44
352.538	100.44
352.765	113.44
352.992	99.44
353.22	108.44
353.447	110.44
353.674	107.44
353.901	80.44
354.128	94.44
354.355	103.44
354.583	104.44
354.81	103.44
355.037	89.44
355.264	100.44
355.491	97.44
355.718	87.44
355.945	102.44
356.172	93.44
356.399	89.44
356.626	101.44
356.853	80.44
357.08	99.44
357.307	87.44
357.534	95.44
357.761	88.44
357.988	100.44
358.215	91.44
358.441	107.44
358.668	95.44
358.895	89.44
359.122	91.44
359.349	81.44
359.576	93.44
359.802	99.44
360.029	120.44
360.256	98.44
360.483	106.44
360.709	93.44
360.936	97.44
361.163	91.44
361.39	104.44
361.616	107.44
361.843	98.44
362.07	95.44
362.296	81.44
362.523	99.44
362.749	107.44
362.976	103.44
363.203	97.44
363.429	93.44
363.656	99.44
363.882	99.44
364.109	97.44
364.335	92.44
364.562	73.44
364.788	100.44
365.015	91.44
365.241	105.44
365.468	110.44
365.694	109.44
365.92	97.44
366.147	102.44
366.373	91.44
366.599	93.44
366.826	95.44
367.052	84.44
367.278	88.44
367.505	98.44
367.731	101.44
367.957	111.44
368.184	93.44
368.41	102.44
368.636	99.44
368.862	110.44
369.089	121.44
369.315	96.44
369.541	89.44
369.767	95.44
369.993	93.44
370.219	85.44
370.445	84.44
370.672	92.44
370.898	83.44
371.124	91.44
371.35	78.44
371.576	91.44
371.802	86.44
372.028	77.44
372.254	95.44
372.48	73.44
372.706	90.44
372.932	81.44
373.158	94.44
373.384	93.44
373.61	90.44
373.835	97.44
374.061	92.44
374.287	103.44
374.513	73.44
374.739	75.44
374.965	80.44
375.191	90.44
375.416	99.44
375.642	98.44
375.868	96.44
376.094	84.44
376.319	88.44
376.545	91.44
376.771	88.44
376.997	92.44
377.222	92.44
377.448	84.44
377.674	85.44
377.899	95.44
378.125	97.44
378.35	92.44
378.576	78.44
378.802	82.44
379.027	90.44
379.253	90.44
379.478	87.44
379.704	73.44
379.929	108.44
380.155	97.44
380.38	108.44
380.606	100.44
380.831	92.44
381.057	96.44
381.282	103.44
381.507	107.44
381.733	97.44
381.958	111.44
382.184	93.44
382.409	97.44
382.634	100.44
382.86	95.44
383.085	106.44
383.31	118.44
383.535	101.44
383.761	83.44
383.986	101.44
384.211	106.44
384.436	81.44
384.662	102.44
384.887	103.44
385.112	111.44
385.337	96.44
385.562	98.44
385.787	117.44
386.013	103.44
386.238	103.44
386.463	92.44
386.688	119.44
386.913	92.44
387.138	98.44
387.363	108.44
387.588	105.44
387.813	89.44
388.038	97.44
388.263	111.44
388.488	111.44
388.713	101.44
388.938	85.44
389.163	96.44
389.387	90.44
389.612	95.44
389.837	83.44
390.062	93.44
390.287	107.44
390.512	97.44
390.736	92.44
390.961	95.44
391.186	100.44
391.411	96.44
391.636	112.44
391.86	99.44
392.085	87.44
392.31	96.44
392.534	75.44
392.759	97.44
392.984	83.44
393.208	93.44
393.433	89.44
393.658	107.44
393.882	87.44
394.107	87.44
394.331	92.44
394.556	95.44
394.78	82.44
395.005	89.44
395.229	87.44
395.454	91.44
395.678	81.44
395.903	78.44
396.127	87.44
396.352	103.44
396.576	79.44
396.801	77.44
397.025	97.44
397.249	93.44
397.474	102.44
397.698	84.44
397.922	85.44
398.147	78.44
398.371	82.44
398.595	81.44
398.82	87.44
399.044	91.44
399.268	83.44
399.492	83.44
399.717	86.44
399.941	100.44
400.165	91.44
400.389	85.44
400.613	86.44
400.837	90.44
401.062	88.44
401.286	86.44
401.51	94.44
401.734	95.44
401.958	93.44
402.182	105.44
402.406	148.44
402.63	104.44
402.854	88.44
403.078	86.44
403.302	96.44
403.526	84.44
403.75	85.44
403.974	97.44
404.198	89.44
404.422	100.44
404.645	75.44
404.869	90.44
405.093	94.44
405.317	93.44
405.541	101.44
405.765	110.44
405.988	118.44
406.212	166.44
406.436	231.44
406.66	143.44
406.883	101.44
407.107	92.44
407.331	104.44
407.555	100.44
407.778	95.44
408.002	91.44
408.226	81.44
408.449	87.44
408.673	87.44
408.896	96.44
409.12	99.44
409.344	91.44
409.567	81.44
409.791	89.44
410.014	105.44
410.238	82.44
410.461	92.44
410.685	98.44
410.908	97.44
411.132	111.44
411.355	97.44
411.578	97.44
411.802	80.44
412.025	93.44
412.249	95.44
412.472	101.44
412.695	102.44
412.919	95.44
413.142	77.44
413.365	90.44
413.589	86.44
413.812	79.44
414.035	93.44
414.258	91.44
414.482	95.44
414.705	92.44
414.928	97.44
415.151	91.44
415.374	92.44
415.597	91.44
415.821	62.44
416.044	93.44
416.267	84.44
416.49	90.44
416.713	87.44
416.936	85.44
417.159	89.44
417.382	84.44
417.605	95.44
417.828	96.44
418.051	94.44
418.274	83.44
418.497	83.44
418.72	80.44
418.943	84.44
419.166	83.44
419.389	87.44
419.611	94.44
419.834	78.44
420.057	92.44
420.28	95.44
420.503	82.44
420.726	75.44
420.948	80.44
421.171	84.44
421.394	109.44
421.617	97.44
421.839	89.44
422.062	99.44
422.285	87.44
422.507	89.44
422.73	101.44
422.953	92.44
423.175	83.44
423.398	81.44
423.621	92.44
423.843	83.44
424.066	81.44
424.288	85.44
424.511	101.44
424.733	97.44
424.956	115.44
425.178	98.44
425.401	93.44
425.623	96.44
425.846	98.44
426.068	88.44
426.291	97.44
426.513	89.44
426.735	81.44
426.958	109.44
427.18	97.44
427.402	125.44
427.625	162.44
427.847	137.44
428.069	107.44
428.292	84.44
428.514	87.44
428.736	92.44
428.958	83.44
429.181	87.44
429.403	84.44
429.625	92.44
429.847	84.44
430.069	95.44
430.292	87.44
430.514	96.44
430.736	91.44
430.958	81.44
431.18	87.44
431.402	84.44
431.624	79.44
431.846	81.44
432.068	92.44
432.29	80.44
432.512	99.44
432.734	100.44
432.956	91.44
433.178	103.44
433.4	93.44
433.622	95.44
433.844	91.44
434.066	81.44
434.287	94.44
434.509	92.44
434.731	84.44
434.953	81.44
435.175	91.44
435.397	89.44
435.618	102.44
435.84	107.44
436.062	115.44
436.284	107.44
436.505	108.44
436.727	76.44
436.949	97.44
437.17	91.44
437.392	79.44
437.614	103.44
437.835	100.44
438.057	112.44
438.278	101.44
438.5	104.44
438.721	100.44
438.943	91.44
439.165	94.44
439.386	104.44
439.608	94.44
439.829	93.44
440.05	105.44
440.272	132.44
440.493	103.44
440.715	80.44
440.936	93.44
441.158	80.44
441.379	80.44
441.6	97.44
441.822	94.44
442.043	105.44
442.264	97.44
442.486	103.44
442.707	98.44
442.928	100.44
443.149	123.44
443.371	111.44
443.592	109.44
443.813	116.44
444.034	100.44
444.255	87.44
444.476	85.44
444.698	76.44
444.919	73.44
445.14	110.44
445.361	115.44
445.582	121.44
445.803	138.44
446.024	115.44
446.245	126.44
446.466	91.44
446.687	103.44
446.908	72.44
447.129	95.44
447.35	90.44
447.571	103.44
447.792	91.44
448.013	111.44
448.234	110.44
448.455	102.44
448.675	100.44
448.896	122.44
449.117	86.44
449.338	84.44
449.559	106.44
449.779	117.44
450	88.44
450.221	75.44
450.442	92.44
450.662	108.44
450.883	108.44
451.104	109.44
451.324	91.44
451.545	87.44
451.766	106.44
451.986	100.44
452.207	86.44
452.428	84.44
452.648	104.44
452.869	97.44
453.089	118.44
453.31	123.44
453.53	85.44
453.751	96.44
453.971	108.44
454.192	113.44
454.412	88.44
454.633	75.44
454.853	74.44
455.073	103.44
455.294	71.44
455.514	94.44
455.734	103.44
455.955	85.44
456.175	88.44
456.395	105.44
456.616	101.44
456.836	92.44
457.056	89.44
457.276	86.44
457.497	97.44
457.717	87.44
457.937	83.44
458.157	92.44
458.377	100.44
458.598	110.44
458.818	145.44
459.038	166.44
459.258	122.44
459.478	100.44
459.698	87.44
459.918	96.44
460.138	95.44
460.358	84.44
460.578	92.44
460.798	80.44
461.018	91.44
461.238	81.44
461.458	85.44
461.678	72.44
461.898	82.44
462.118	88.44
462.338	74.44
462.558	82.44
462.777	79.44
462.997	90.44
463.217	79.44
463.437	97.44
463.657	88.44
463.876	97.44
464.096	85.44
464.316	73.44
464.536	92.44
464.755	97.44
464.975	103.44
465.195	152.44
465.414	160.44
465.634	92.44
465.854	96.44
466.073	89.44
466.293	92.44
466.512	84.44
466.732	84.44
466.951	95.44
467.171	95.44
467.391	85.44
467.61	100.44
467.829	110.44
468.049	125.44
468.268	127.44
468.488	111.44
468.707	80.44
468.927	81.44
469.146	85.44
469.365	97.44
469.585	83.44
469.804	91.44
470.023	90.44
470.243	91.44
470.462	111.44
470.681	104.44
470.901	96.44
471.12	91.44
471.339	82.44
471.558	95.44
471.777	80.44
471.997	111.44
472.216	191.44
472.435	290.44
472.654	133.44
472.873	91.44
473.092	81.44
473.311	91.44
473.53	78.44
473.749	96.44
473.968	97.44
474.187	96.44
474.406	99.44
474.625	89.44
474.844	89.44
475.063	84.44
475.282	88.44
475.501	84.44
475.72	78.44
475.939	92.44
476.158	87.44
476.377	86.44
476.596	96.44
476.814	120.44
477.033	100.44
477.252	101.44
477.471	93.44
477.69	75.44
477.908	86.44
478.127	83.44
478.346	84.44
478.564	95.44
478.783	87.44
479.002	87.44
479.22	95.44
479.439	114.44
479.658	101.44
479.876	100.44
480.095	101.44
480.313	96.44
480.532	94.44
480.751	125.44
480.969	186.44
481.188	514.44
481.406	312.44
481.624	114.44
481.843	102.44
482.061	69.44
482.28	90.44
482.498	91.44
482.717	98.44
482.935	88.44
483.153	88.44
483.372	85.44
483.59	102.44
483.808	100.44
484.027	93.44
484.245	84.44
484.463	105.44
484.681	107.44
484.9	91.44
485.118	90.44
485.336	114.44
485.554	85.44
485.772	90.44
485.99	108.44
486.209	97.44
486.427	103.44
486.645	107.44
486.863	106.44
487.081	102.44
487.299	94.44
487.517	88.44
487.735	94.44
487.953	95.44
488.171	87.44
488.389	101.44
488.607	84.44
488.825	92.44
489.043	108.44
489.261	82.44
489.479	88.44
489.696	86.44
489.914	95.44
490.132	88.44
490.35	77.44
490.568	80.44
490.786	93.44
491.003	95.44
491.221	93.44
491.439	95.44
491.657	109.44
491.874	87.44
492.092	92.44
492.31	77.44
492.527	89.44
492.745	97.44
492.963	87.44
493.18	94.44
493.398	93.44
493.615	107.44
493.833	92.44
494.05	101.44
494.268	99.44
494.485	79.44
494.703	92.44
494.92	99.44
495.138	97.44
495.355	93.44
495.573	95.44
495.79	99.44
496.008	83.44
496.225	102.44
496.442	98.44
496.66	99.44
496.877	91.44
497.094	90.44
497.312	95.44
497.529	92.44
497.746	79.44
497.963	92.44
498.181	108.44
498.398	114.44
498.615	102.44
498.832	106.44
499.049	93.44
499.267	71.44
499.484	75.44
499.701	106.44
499.918	102.44
500.135	86.44
500.352	89.44
500.569	107.44
500.786	99.44
501.003	84.44
501.22	91.44
501.437	96.44
501.654	83.44
501.871	119.44
502.088	82.44
502.305	85.44
502.522	90.44
502.739	99.44
502.956	83.44
503.172	88.44
503.389	97.44
503.606	112.44
503.823	99.44
504.04	91.44
504.256	96.44
504.473	98.44
504.69	86.44
504.907	94.44
505.123	88.44
505.34	96.44
505.557	91.44
505.773	92.44
505.99	98.44
506.207	83.44
506.423	83.44
506.64	98.44
506.856	101.44
507.073	91.44
507.289	101.44
507.506	96.44
507.722	104.44
507.939	108.44
508.155	113.44
508.372	91.44
508.588	94.44
508.805	83.44
509.021	93.44
509.238	99.44
509.454	113.44
509.67	100.44
509.887	102.44
510.103	147.44
510.319	229.44
510.536	843.44
510.752	2771.44
510.968	747.44
511.184	168.44
511.401	108.44
511.617	119.44
511.833	90.44
512.049	96.44
512.265	99.44
512.481	100.44
512.698	85.44
512.914	82.44
513.13	92.44
513.346	81.44
513.562	90.44
513.778	99.44
513.994	91.44
514.21	96.44
514.426	119.44
514.642	135.44
514.858	105.44
515.074	162.44
