Data from Circ_1996_H10_HRD10591_00068.txt Node
Date: Wed Jan 03 11:33:19 EST 2024
User: Yrep
Spectrometer: HR+D1059
Trigger mode: 1
Integration Time (sec): 1.000000E-1
Scans to average: 1
Electric dark correction enabled: true
Nonlinearity correction enabled: false
Boxcar width: 0
XAxis mode: Wavelengths
Number of Pixels in Spectrum: 2048
>>>>>Begin Spectral Data<<<<<
223.165	-18.44
223.4	-18.44
223.635	-18.44
223.869	-23.44
224.104	-15.44
224.338	-4.44
224.573	-15.44
224.808	-9.44
225.042	-18.44
225.277	-10.44
225.511	-6.44
225.746	6.56
225.98	1.56
226.215	16.56
226.449	16.56
226.683	17.56
226.918	28.56
227.152	34.56
227.387	26.56
227.621	40.56
227.856	37.56
228.09	40.56
228.324	47.56
228.559	56.56
228.793	61.56
229.027	59.56
229.262	64.56
229.496	71.56
229.73	84.56
229.964	82.56
230.199	62.56
230.433	67.56
230.667	77.56
230.901	82.56
231.136	73.56
231.37	84.56
231.604	74.56
231.838	90.56
232.072	74.56
232.306	74.56
232.541	78.56
232.775	76.56
233.009	77.56
233.243	83.56
233.477	86.56
233.711	71.56
233.945	79.56
234.179	88.56
234.413	90.56
234.647	88.56
234.881	83.56
235.115	72.56
235.349	83.56
235.583	87.56
235.817	87.56
236.051	84.56
236.285	82.56
236.519	87.56
236.753	74.56
236.987	71.56
237.221	87.56
237.455	75.56
237.689	90.56
237.922	76.56
238.156	79.56
238.39	66.56
238.624	80.56
238.858	80.56
239.091	70.56
239.325	81.56
239.559	75.56
239.793	96.56
240.027	80.56
240.26	81.56
240.494	78.56
240.728	76.56
240.961	78.56
241.195	59.56
241.429	75.56
241.662	72.56
241.896	79.56
242.13	75.56
242.363	64.56
242.597	84.56
242.83	93.56
243.064	78.56
243.298	77.56
243.531	63.56
243.765	86.56
243.998	88.56
244.232	90.56
244.465	87.56
244.699	90.56
244.932	80.56
245.166	74.56
245.399	77.56
245.633	77.56
245.866	68.56
246.099	82.56
246.333	59.56
246.566	77.56
246.8	83.56
247.033	76.56
247.266	83.56
247.5	71.56
247.733	93.56
247.966	72.56
248.2	82.56
248.433	65.56
248.666	79.56
248.899	80.56
249.133	88.56
249.366	93.56
249.599	83.56
249.832	69.56
250.066	76.56
250.299	88.56
250.532	89.56
250.765	80.56
250.998	90.56
251.231	71.56
251.465	70.56
251.698	83.56
251.931	70.56
252.164	76.56
252.397	84.56
252.63	74.56
252.863	89.56
253.096	80.56
253.329	82.56
253.562	72.56
253.795	86.56
254.028	63.56
254.261	83.56
254.494	72.56
254.727	80.56
254.96	75.56
255.193	83.56
255.426	66.56
255.659	60.56
255.892	86.56
256.124	68.56
256.357	70.56
256.59	73.56
256.823	79.56
257.056	72.56
257.289	81.56
257.521	70.56
257.754	85.56
257.987	76.56
258.22	80.56
258.452	75.56
258.685	81.56
258.918	82.56
259.151	82.56
259.383	76.56
259.616	77.56
259.849	81.56
260.081	89.56
260.314	94.56
260.547	78.56
260.779	91.56
261.012	77.56
261.244	89.56
261.477	88.56
261.71	99.56
261.942	99.56
262.175	99.56
262.407	97.56
262.64	79.56
262.872	99.56
263.105	84.56
263.337	88.56
263.57	83.56
263.802	93.56
264.035	84.56
264.267	71.56
264.499	97.56
264.732	91.56
264.964	87.56
265.197	76.56
265.429	73.56
265.661	91.56
265.894	68.56
266.126	95.56
266.358	84.56
266.591	82.56
266.823	87.56
267.055	70.56
267.287	92.56
267.52	85.56
267.752	87.56
267.984	82.56
268.216	98.56
268.448	73.56
268.681	72.56
268.913	75.56
269.145	84.56
269.377	81.56
269.609	75.56
269.841	73.56
270.073	73.56
270.306	81.56
270.538	77.56
270.77	83.56
271.002	67.56
271.234	84.56
271.466	83.56
271.698	85.56
271.93	93.56
272.162	85.56
272.394	89.56
272.626	109.56
272.858	85.56
273.09	87.56
273.322	82.56
273.553	93.56
273.785	83.56
274.017	87.56
274.249	85.56
274.481	87.56
274.713	95.56
274.945	88.56
275.176	86.56
275.408	90.56
275.64	93.56
275.872	88.56
276.104	89.56
276.335	81.56
276.567	103.56
276.799	106.56
277.031	92.56
277.262	91.56
277.494	107.56
277.726	96.56
277.957	72.56
278.189	90.56
278.421	84.56
278.652	92.56
278.884	80.56
279.115	96.56
279.347	80.56
279.579	90.56
279.81	77.56
280.042	94.56
280.273	97.56
280.505	85.56
280.736	77.56
280.968	101.56
281.199	79.56
281.431	84.56
281.662	76.56
281.894	88.56
282.125	100.56
282.356	112.56
282.588	121.56
282.819	110.56
283.051	94.56
283.282	80.56
283.513	89.56
283.745	86.56
283.976	98.56
284.207	94.56
284.439	80.56
284.67	78.56
284.901	99.56
285.132	84.56
285.364	80.56
285.595	90.56
285.826	78.56
286.057	92.56
286.288	92.56
286.52	82.56
286.751	85.56
286.982	83.56
287.213	82.56
287.444	78.56
287.675	94.56
287.906	76.56
288.138	90.56
288.369	73.56
288.6	87.56
288.831	90.56
289.062	83.56
289.293	94.56
289.524	86.56
289.755	98.56
289.986	102.56
290.217	80.56
290.448	76.56
290.679	90.56
290.91	92.56
291.141	85.56
291.371	83.56
291.602	94.56
291.833	99.56
292.064	78.56
292.295	87.56
292.526	100.56
292.757	82.56
292.987	92.56
293.218	92.56
293.449	91.56
293.68	76.56
293.91	86.56
294.141	82.56
294.372	89.56
294.603	90.56
294.833	95.56
295.064	86.56
295.295	95.56
295.525	87.56
295.756	103.56
295.987	97.56
296.217	129.56
296.448	112.56
296.679	108.56
296.909	78.56
297.14	73.56
297.37	96.56
297.601	92.56
297.831	76.56
298.062	82.56
298.292	91.56
298.523	92.56
298.753	91.56
298.984	87.56
299.214	92.56
299.445	84.56
299.675	91.56
299.905	95.56
300.136	91.56
300.366	80.56
300.597	92.56
300.827	100.56
301.057	102.56
301.288	99.56
301.518	83.56
301.748	89.56
301.979	95.56
302.209	93.56
302.439	89.56
302.669	88.56
302.9	89.56
303.13	103.56
303.36	87.56
303.59	100.56
303.82	107.56
304.051	81.56
304.281	87.56
304.511	91.56
304.741	88.56
304.971	103.56
305.201	94.56
305.431	86.56
305.661	81.56
305.891	88.56
306.121	100.56
306.352	104.56
306.582	94.56
306.812	91.56
307.042	90.56
307.272	100.56
307.502	106.56
307.731	102.56
307.961	103.56
308.191	93.56
308.421	87.56
308.651	84.56
308.881	95.56
309.111	84.56
309.341	103.56
309.571	94.56
309.8	99.56
310.03	93.56
310.26	80.56
310.49	101.56
310.72	99.56
310.949	95.56
311.179	96.56
311.409	92.56
311.639	100.56
311.868	98.56
312.098	97.56
312.328	86.56
312.557	104.56
312.787	100.56
313.017	90.56
313.246	90.56
313.476	94.56
313.706	100.56
313.935	100.56
314.165	91.56
314.394	103.56
314.624	89.56
314.853	92.56
315.083	99.56
315.312	99.56
315.542	94.56
315.771	95.56
316.001	88.56
316.23	95.56
316.46	82.56
316.689	98.56
316.919	95.56
317.148	83.56
317.377	84.56
317.607	98.56
317.836	96.56
318.065	103.56
318.295	87.56
318.524	89.56
318.753	90.56
318.983	84.56
319.212	103.56
319.441	119.56
319.67	100.56
319.9	94.56
320.129	92.56
320.358	78.56
320.587	86.56
320.816	99.56
321.046	96.56
321.275	92.56
321.504	99.56
321.733	100.56
321.962	84.56
322.191	101.56
322.42	96.56
322.649	98.56
322.878	96.56
323.108	115.56
323.337	94.56
323.566	112.56
323.795	126.56
324.024	168.56
324.253	290.56
324.482	587.56
324.71	1186.56
324.939	1556.56
325.168	595.56
325.397	218.56
325.626	142.56
325.855	118.56
326.084	111.56
326.313	111.56
326.542	127.56
326.77	187.56
326.999	335.56
327.228	637.56
327.457	1106.56
327.686	940.56
327.914	284.56
328.143	192.56
328.372	136.56
328.6	128.56
328.829	111.56
329.058	120.56
329.287	123.56
329.515	120.56
329.744	120.56
329.972	140.56
330.201	171.56
330.43	191.56
330.658	138.56
330.887	126.56
331.115	112.56
331.344	89.56
331.572	97.56
331.801	105.56
332.03	105.56
332.258	97.56
332.486	83.56
332.715	93.56
332.943	94.56
333.172	98.56
333.4	91.56
333.629	101.56
333.857	124.56
334.085	130.56
334.314	147.56
334.542	242.56
334.771	210.56
334.999	112.56
335.227	91.56
335.455	87.56
335.684	108.56
335.912	90.56
336.14	97.56
336.369	96.56
336.597	90.56
336.825	94.56
337.053	88.56
337.281	94.56
337.51	100.56
337.738	90.56
337.966	94.56
338.194	90.56
338.422	90.56
338.65	99.56
338.878	93.56
339.106	106.56
339.334	84.56
339.562	84.56
339.79	92.56
340.018	84.56
340.246	97.56
340.474	96.56
340.702	87.56
340.93	85.56
341.158	94.56
341.386	98.56
341.614	96.56
341.842	91.56
342.07	106.56
342.298	93.56
342.526	94.56
342.754	84.56
342.981	88.56
343.209	87.56
343.437	99.56
343.665	97.56
343.893	88.56
344.12	95.56
344.348	95.56
344.576	94.56
344.804	99.56
345.031	90.56
345.259	86.56
345.487	83.56
345.714	89.56
345.942	77.56
346.17	80.56
346.397	83.56
346.625	86.56
346.853	92.56
347.08	99.56
347.308	93.56
347.535	90.56
347.763	104.56
347.99	73.56
348.218	110.56
348.445	115.56
348.673	91.56
348.9	100.56
349.128	83.56
349.355	88.56
349.583	100.56
349.81	93.56
350.037	92.56
350.265	76.56
350.492	83.56
350.72	93.56
350.947	112.56
351.174	108.56
351.402	104.56
351.629	97.56
351.856	91.56
352.083	91.56
352.311	107.56
352.538	111.56
352.765	96.56
352.992	111.56
353.22	98.56
353.447	99.56
353.674	111.56
353.901	106.56
354.128	88.56
354.355	108.56
354.583	100.56
354.81	99.56
355.037	94.56
355.264	89.56
355.491	107.56
355.718	89.56
355.945	94.56
356.172	91.56
356.399	107.56
356.626	102.56
356.853	88.56
357.08	100.56
357.307	91.56
357.534	87.56
357.761	91.56
357.988	97.56
358.215	78.56
358.441	95.56
358.668	93.56
358.895	87.56
359.122	88.56
359.349	84.56
359.576	90.56
359.802	92.56
360.029	106.56
360.256	94.56
360.483	92.56
360.709	89.56
360.936	82.56
361.163	94.56
361.39	85.56
361.616	81.56
361.843	87.56
362.07	92.56
362.296	79.56
362.523	84.56
362.749	82.56
362.976	84.56
363.203	94.56
363.429	103.56
363.656	90.56
363.882	91.56
364.109	87.56
364.335	81.56
364.562	99.56
364.788	104.56
365.015	94.56
365.241	110.56
365.468	113.56
365.694	94.56
365.92	91.56
366.147	98.56
366.373	77.56
366.599	89.56
366.826	74.56
367.052	90.56
367.278	78.56
367.505	91.56
367.731	102.56
367.957	76.56
368.184	92.56
368.41	99.56
368.636	107.56
368.862	119.56
369.089	105.56
369.315	94.56
369.541	82.56
369.767	94.56
369.993	99.56
370.219	86.56
370.445	78.56
370.672	86.56
370.898	86.56
371.124	90.56
371.35	82.56
371.576	86.56
371.802	82.56
372.028	100.56
372.254	85.56
372.48	92.56
372.706	82.56
372.932	87.56
373.158	77.56
373.384	91.56
373.61	80.56
373.835	88.56
374.061	91.56
374.287	82.56
374.513	83.56
374.739	98.56
374.965	78.56
375.191	89.56
375.416	80.56
375.642	90.56
375.868	88.56
376.094	88.56
376.319	79.56
376.545	88.56
376.771	89.56
376.997	97.56
377.222	84.56
377.448	105.56
377.674	90.56
377.899	86.56
378.125	89.56
378.35	94.56
378.576	82.56
378.802	99.56
379.027	86.56
379.253	86.56
379.478	97.56
379.704	93.56
379.929	104.56
380.155	94.56
380.38	79.56
380.606	92.56
380.831	101.56
381.057	104.56
381.282	90.56
381.507	93.56
381.733	87.56
381.958	97.56
382.184	105.56
382.409	104.56
382.634	105.56
382.86	97.56
383.085	89.56
383.31	106.56
383.535	103.56
383.761	90.56
383.986	95.56
384.211	88.56
384.436	95.56
384.662	90.56
384.887	89.56
385.112	99.56
385.337	116.56
385.562	103.56
385.787	108.56
386.013	105.56
386.238	105.56
386.463	100.56
386.688	108.56
386.913	110.56
387.138	97.56
387.363	105.56
387.588	98.56
387.813	86.56
388.038	117.56
388.263	105.56
388.488	108.56
388.713	96.56
388.938	90.56
389.163	87.56
389.387	96.56
389.612	87.56
389.837	93.56
390.062	96.56
390.287	102.56
390.512	82.56
390.736	84.56
390.961	99.56
391.186	91.56
391.411	86.56
391.636	94.56
391.86	73.56
392.085	90.56
392.31	88.56
392.534	84.56
392.759	97.56
392.984	82.56
393.208	86.56
393.433	87.56
393.658	100.56
393.882	91.56
394.107	93.56
394.331	89.56
394.556	99.56
394.78	97.56
395.005	87.56
395.229	73.56
395.454	86.56
395.678	78.56
395.903	80.56
396.127	81.56
396.352	72.56
396.576	74.56
396.801	66.56
397.025	87.56
397.249	87.56
397.474	80.56
397.698	82.56
397.922	83.56
398.147	94.56
398.371	78.56
398.595	94.56
398.82	87.56
399.044	93.56
399.268	91.56
399.492	71.56
399.717	92.56
399.941	83.56
400.165	95.56
400.389	92.56
400.613	83.56
400.837	94.56
401.062	86.56
401.286	94.56
401.51	86.56
401.734	96.56
401.958	97.56
402.182	124.56
402.406	158.56
402.63	113.56
402.854	84.56
403.078	88.56
403.302	93.56
403.526	86.56
403.75	85.56
403.974	83.56
404.198	93.56
404.422	87.56
404.645	75.56
404.869	83.56
405.093	105.56
405.317	99.56
405.541	91.56
405.765	89.56
405.988	116.56
406.212	150.56
406.436	208.56
406.66	138.56
406.883	94.56
407.107	82.56
407.331	86.56
407.555	88.56
407.778	98.56
408.002	101.56
408.226	88.56
408.449	84.56
408.673	90.56
408.896	105.56
409.12	94.56
409.344	93.56
409.567	83.56
409.791	76.56
410.014	93.56
410.238	82.56
410.461	97.56
410.685	105.56
410.908	89.56
411.132	96.56
411.355	101.56
411.578	84.56
411.802	76.56
412.025	77.56
412.249	72.56
412.472	90.56
412.695	99.56
412.919	86.56
413.142	92.56
413.365	82.56
413.589	88.56
413.812	78.56
414.035	108.56
414.258	95.56
414.482	96.56
414.705	87.56
414.928	100.56
415.151	94.56
415.374	85.56
415.597	104.56
415.821	91.56
416.044	91.56
416.267	86.56
416.49	88.56
416.713	91.56
416.936	81.56
417.159	72.56
417.382	90.56
417.605	86.56
417.828	81.56
418.051	92.56
418.274	99.56
418.497	89.56
418.72	83.56
418.943	81.56
419.166	65.56
419.389	90.56
419.611	95.56
419.834	76.56
420.057	71.56
420.28	88.56
420.503	83.56
420.726	103.56
420.948	88.56
421.171	76.56
421.394	83.56
421.617	89.56
421.839	80.56
422.062	88.56
422.285	86.56
422.507	101.56
422.73	109.56
422.953	89.56
423.175	90.56
423.398	88.56
423.621	82.56
423.843	96.56
424.066	91.56
424.288	100.56
424.511	86.56
424.733	98.56
424.956	90.56
425.178	82.56
425.401	92.56
425.623	91.56
425.846	81.56
426.068	96.56
426.291	95.56
426.513	96.56
426.735	94.56
426.958	103.56
427.18	99.56
427.402	121.56
427.625	161.56
427.847	126.56
428.069	120.56
428.292	91.56
428.514	77.56
428.736	80.56
428.958	74.56
429.181	92.56
429.403	96.56
429.625	76.56
429.847	86.56
430.069	83.56
430.292	92.56
430.514	92.56
430.736	87.56
430.958	68.56
431.18	80.56
431.402	78.56
431.624	86.56
431.846	99.56
432.068	81.56
432.29	86.56
432.512	89.56
432.734	89.56
432.956	92.56
433.178	87.56
433.4	84.56
433.622	100.56
433.844	81.56
434.066	87.56
434.287	87.56
434.509	87.56
434.731	87.56
434.953	95.56
435.175	84.56
435.397	72.56
435.618	85.56
435.84	96.56
436.062	104.56
436.284	100.56
436.505	97.56
436.727	86.56
436.949	83.56
437.17	83.56
437.392	96.56
437.614	78.56
437.835	100.56
438.057	101.56
438.278	102.56
438.5	108.56
438.721	105.56
438.943	88.56
439.165	96.56
439.386	86.56
439.608	85.56
439.829	94.56
440.05	111.56
440.272	126.56
440.493	100.56
440.715	89.56
440.936	79.56
441.158	91.56
441.379	78.56
441.6	79.56
441.822	113.56
442.043	92.56
442.264	91.56
442.486	85.56
442.707	95.56
442.928	109.56
443.149	122.56
443.371	121.56
443.592	97.56
443.813	102.56
444.034	95.56
444.255	94.56
444.476	90.56
444.698	77.56
444.919	70.56
445.14	129.56
445.361	112.56
445.582	116.56
445.803	134.56
446.024	100.56
446.245	121.56
446.466	107.56
446.687	84.56
446.908	95.56
447.129	92.56
447.35	86.56
447.571	99.56
447.792	81.56
448.013	93.56
448.234	104.56
448.455	98.56
448.675	108.56
448.896	113.56
449.117	97.56
449.338	96.56
449.559	108.56
449.779	95.56
450	80.56
450.221	74.56
450.442	81.56
450.662	92.56
450.883	89.56
451.104	101.56
451.324	92.56
451.545	100.56
451.766	79.56
451.986	92.56
452.207	97.56
452.428	78.56
452.648	96.56
452.869	107.56
453.089	108.56
453.31	112.56
453.53	88.56
453.751	106.56
453.971	102.56
454.192	114.56
454.412	96.56
454.633	89.56
454.853	88.56
455.073	96.56
455.294	95.56
455.514	92.56
455.734	86.56
455.955	99.56
456.175	75.56
456.395	92.56
456.616	77.56
456.836	74.56
457.056	88.56
457.276	92.56
457.497	80.56
457.717	65.56
457.937	86.56
458.157	76.56
458.377	87.56
458.598	104.56
458.818	135.56
459.038	152.56
459.258	93.56
459.478	78.56
459.698	81.56
459.918	80.56
460.138	86.56
460.358	70.56
460.578	88.56
460.798	93.56
461.018	83.56
461.238	91.56
461.458	90.56
461.678	73.56
461.898	76.56
462.118	71.56
462.338	92.56
462.558	87.56
462.777	80.56
462.997	79.56
463.217	83.56
463.437	87.56
463.657	65.56
463.876	93.56
464.096	94.56
464.316	89.56
464.536	95.56
464.755	98.56
464.975	94.56
465.195	145.56
465.414	137.56
465.634	103.56
465.854	84.56
466.073	96.56
466.293	78.56
466.512	87.56
466.732	93.56
466.951	87.56
467.171	87.56
467.391	85.56
467.61	95.56
467.829	111.56
468.049	119.56
468.268	151.56
468.488	107.56
468.707	95.56
468.927	77.56
469.146	92.56
469.365	87.56
469.585	88.56
469.804	97.56
470.023	107.56
470.243	95.56
470.462	99.56
470.681	102.56
470.901	90.56
471.12	81.56
471.339	72.56
471.558	99.56
471.777	99.56
471.997	113.56
472.216	193.56
472.435	279.56
472.654	122.56
472.873	75.56
473.092	89.56
473.311	80.56
473.53	67.56
473.749	94.56
473.968	89.56
474.187	92.56
474.406	83.56
474.625	101.56
474.844	82.56
475.063	84.56
475.282	74.56
475.501	89.56
475.72	86.56
475.939	91.56
476.158	87.56
476.377	95.56
476.596	92.56
476.814	100.56
477.033	89.56
477.252	80.56
477.471	83.56
477.69	75.56
477.908	90.56
478.127	89.56
478.346	84.56
478.564	91.56
478.783	79.56
479.002	94.56
479.22	93.56
479.439	97.56
479.658	92.56
479.876	89.56
480.095	103.56
480.313	102.56
480.532	95.56
480.751	118.56
480.969	178.56
481.188	471.56
481.406	282.56
481.624	115.56
481.843	94.56
482.061	90.56
482.28	84.56
482.498	88.56
482.717	99.56
482.935	84.56
483.153	91.56
483.372	100.56
483.59	106.56
483.808	97.56
484.027	91.56
484.245	89.56
484.463	91.56
484.681	99.56
484.9	91.56
485.118	97.56
485.336	99.56
485.554	108.56
485.772	112.56
485.99	111.56
486.209	104.56
486.427	99.56
486.645	117.56
486.863	99.56
487.081	89.56
487.299	95.56
487.517	96.56
487.735	98.56
487.953	99.56
488.171	81.56
488.389	86.56
488.607	115.56
488.825	97.56
489.043	92.56
489.261	94.56
489.479	85.56
489.696	95.56
489.914	78.56
490.132	90.56
490.35	80.56
490.568	97.56
490.786	98.56
491.003	84.56
491.221	85.56
491.439	70.56
491.657	75.56
491.874	89.56
492.092	89.56
492.31	98.56
492.527	88.56
492.745	90.56
492.963	98.56
493.18	98.56
493.398	82.56
493.615	105.56
493.833	88.56
494.05	82.56
494.268	76.56
494.485	98.56
494.703	83.56
494.92	73.56
495.138	98.56
495.355	108.56
495.573	96.56
495.79	98.56
496.008	86.56
496.225	85.56
496.442	102.56
496.66	100.56
496.877	84.56
497.094	90.56
497.312	100.56
497.529	67.56
497.746	87.56
497.963	88.56
498.181	89.56
498.398	94.56
498.615	108.56
498.832	118.56
499.049	83.56
499.267	84.56
499.484	97.56
499.701	88.56
499.918	82.56
500.135	95.56
500.352	88.56
500.569	100.56
500.786	92.56
501.003	84.56
501.22	94.56
501.437	89.56
501.654	102.56
501.871	109.56
502.088	92.56
502.305	102.56
502.522	92.56
502.739	100.56
502.956	90.56
503.172	92.56
503.389	91.56
503.606	103.56
503.823	92.56
504.04	81.56
504.256	94.56
504.473	79.56
504.69	93.56
504.907	91.56
505.123	95.56
505.34	93.56
505.557	86.56
505.773	92.56
505.99	79.56
506.207	92.56
506.423	93.56
506.64	86.56
506.856	99.56
507.073	92.56
507.289	103.56
507.506	87.56
507.722	104.56
507.939	107.56
508.155	86.56
508.372	92.56
508.588	110.56
508.805	90.56
509.021	100.56
509.238	109.56
509.454	99.56
509.67	86.56
509.887	111.56
510.103	124.56
510.319	203.56
510.536	725.56
510.752	2346.56
510.968	630.56
511.184	152.56
511.401	104.56
511.617	105.56
511.833	95.56
512.049	80.56
512.265	93.56
512.481	97.56
512.698	89.56
512.914	84.56
513.13	99.56
513.346	97.56
513.562	95.56
513.778	99.56
513.994	96.56
514.21	110.56
514.426	106.56
514.642	130.56
514.858	122.56
515.074	148.56
515.29	384.56
515.506	1264.56
515.721	480.56
515.937	139.56
516.153	117.56
