Data from Circ_1996_H10_HRD10591_00081.txt Node
Date: Wed Jan 03 11:33:22 EST 2024
User: Yrep
Spectrometer: HR+D1059
Trigger mode: 1
Integration Time (sec): 1.000000E-1
Scans to average: 1
Electric dark correction enabled: true
Nonlinearity correction enabled: false
Boxcar width: 0
XAxis mode: Wavelengths
Number of Pixels in Spectrum: 2048
>>>>>Begin Spectral Data<<<<<
223.165	-31.31
223.4	-31.31
223.635	-31.31
223.869	-22.31
224.104	-30.31
224.338	-16.31
224.573	-24.31
224.808	-1.31
225.042	-12.31
225.277	-8.31
225.511	-1.31
225.746	9.69
225.98	12.69
226.215	21.69
226.449	23.69
226.683	22.69
226.918	29.69
227.152	27.69
227.387	36.69
227.621	27.69
227.856	48.69
228.09	52.69
228.324	60.69
228.559	55.69
228.793	58.69
229.027	62.69
229.262	62.69
229.496	67.69
229.73	79.69
229.964	87.69
230.199	63.69
230.433	69.69
230.667	80.69
230.901	77.69
231.136	75.69
231.37	83.69
231.604	71.69
231.838	87.69
232.072	88.69
232.306	83.69
232.541	90.69
232.775	77.69
233.009	77.69
233.243	80.69
233.477	95.69
233.711	81.69
233.945	88.69
234.179	75.69
234.413	82.69
234.647	75.69
234.881	83.69
235.115	83.69
235.349	76.69
235.583	63.69
235.817	68.69
236.051	77.69
236.285	82.69
236.519	84.69
236.753	87.69
236.987	76.69
237.221	67.69
237.455	72.69
237.689	75.69
237.922	75.69
238.156	75.69
238.39	72.69
238.624	77.69
238.858	74.69
239.091	77.69
239.325	68.69
239.559	62.69
239.793	81.69
240.027	77.69
240.26	77.69
240.494	91.69
240.728	80.69
240.961	71.69
241.195	84.69
241.429	80.69
241.662	81.69
241.896	72.69
242.13	63.69
242.363	67.69
242.597	81.69
242.83	71.69
243.064	76.69
243.298	83.69
243.531	76.69
243.765	67.69
243.998	100.69
244.232	81.69
244.465	75.69
244.699	79.69
244.932	79.69
245.166	101.69
245.399	79.69
245.633	75.69
245.866	65.69
246.099	79.69
246.333	78.69
246.566	66.69
246.8	76.69
247.033	87.69
247.266	82.69
247.5	68.69
247.733	81.69
247.966	94.69
248.2	77.69
248.433	89.69
248.666	81.69
248.899	81.69
249.133	86.69
249.366	90.69
249.599	87.69
249.832	82.69
250.066	80.69
250.299	71.69
250.532	90.69
250.765	63.69
250.998	85.69
251.231	83.69
251.465	87.69
251.698	82.69
251.931	87.69
252.164	86.69
252.397	89.69
252.63	89.69
252.863	73.69
253.096	76.69
253.329	89.69
253.562	91.69
253.795	82.69
254.028	66.69
254.261	90.69
254.494	87.69
254.727	79.69
254.96	94.69
255.193	79.69
255.426	82.69
255.659	80.69
255.892	89.69
256.124	82.69
256.357	73.69
256.59	81.69
256.823	91.69
257.056	93.69
257.289	80.69
257.521	69.69
257.754	75.69
257.987	77.69
258.22	93.69
258.452	90.69
258.685	72.69
258.918	83.69
259.151	89.69
259.383	92.69
259.616	93.69
259.849	68.69
260.081	63.69
260.314	83.69
260.547	78.69
260.779	94.69
261.012	85.69
261.244	78.69
261.477	104.69
261.71	92.69
261.942	101.69
262.175	114.69
262.407	100.69
262.64	80.69
262.872	91.69
263.105	70.69
263.337	75.69
263.57	79.69
263.802	85.69
264.035	97.69
264.267	89.69
264.499	107.69
264.732	93.69
264.964	77.69
265.197	91.69
265.429	87.69
265.661	81.69
265.894	99.69
266.126	86.69
266.358	88.69
266.591	87.69
266.823	87.69
267.055	81.69
267.287	89.69
267.52	93.69
267.752	91.69
267.984	89.69
268.216	81.69
268.448	83.69
268.681	77.69
268.913	96.69
269.145	95.69
269.377	78.69
269.609	93.69
269.841	91.69
270.073	85.69
270.306	89.69
270.538	73.69
270.77	86.69
271.002	91.69
271.234	82.69
271.466	80.69
271.698	84.69
271.93	89.69
272.162	95.69
272.394	86.69
272.626	92.69
272.858	89.69
273.09	91.69
273.322	77.69
273.553	83.69
273.785	85.69
274.017	74.69
274.249	98.69
274.481	89.69
274.713	68.69
274.945	89.69
275.176	91.69
275.408	85.69
275.64	88.69
275.872	81.69
276.104	95.69
276.335	89.69
276.567	96.69
276.799	104.69
277.031	103.69
277.262	98.69
277.494	85.69
277.726	87.69
277.957	87.69
278.189	81.69
278.421	69.69
278.652	84.69
278.884	91.69
279.115	90.69
279.347	83.69
279.579	87.69
279.81	92.69
280.042	98.69
280.273	91.69
280.505	89.69
280.736	89.69
280.968	92.69
281.199	81.69
281.431	104.69
281.662	85.69
281.894	91.69
282.125	103.69
282.356	110.69
282.588	158.69
282.819	84.69
283.051	82.69
283.282	80.69
283.513	84.69
283.745	85.69
283.976	73.69
284.207	70.69
284.439	85.69
284.67	93.69
284.901	90.69
285.132	99.69
285.364	95.69
285.595	81.69
285.826	88.69
286.057	86.69
286.288	82.69
286.52	87.69
286.751	83.69
286.982	88.69
287.213	77.69
287.444	90.69
287.675	82.69
287.906	87.69
288.138	80.69
288.369	104.69
288.6	79.69
288.831	75.69
289.062	91.69
289.293	98.69
289.524	90.69
289.755	87.69
289.986	87.69
290.217	76.69
290.448	85.69
290.679	92.69
290.91	99.69
291.141	91.69
291.371	91.69
291.602	93.69
291.833	80.69
292.064	83.69
292.295	92.69
292.526	73.69
292.757	80.69
292.987	82.69
293.218	91.69
293.449	97.69
293.68	87.69
293.91	83.69
294.141	95.69
294.372	90.69
294.603	85.69
294.833	86.69
295.064	90.69
295.295	87.69
295.525	93.69
295.756	100.69
295.987	116.69
296.217	138.69
296.448	138.69
296.679	90.69
296.909	95.69
297.14	85.69
297.37	89.69
297.601	83.69
297.831	102.69
298.062	103.69
298.292	82.69
298.523	104.69
298.753	97.69
298.984	93.69
299.214	103.69
299.445	95.69
299.675	93.69
299.905	90.69
300.136	100.69
300.366	96.69
300.597	94.69
300.827	91.69
301.057	98.69
301.288	114.69
301.518	106.69
301.748	90.69
301.979	97.69
302.209	93.69
302.439	97.69
302.669	87.69
302.9	95.69
303.13	96.69
303.36	81.69
303.59	105.69
303.82	108.69
304.051	94.69
304.281	100.69
304.511	92.69
304.741	93.69
304.971	83.69
305.201	95.69
305.431	96.69
305.661	92.69
305.891	94.69
306.121	103.69
306.352	93.69
306.582	108.69
306.812	107.69
307.042	88.69
307.272	97.69
307.502	103.69
307.731	105.69
307.961	100.69
308.191	91.69
308.421	92.69
308.651	89.69
308.881	93.69
309.111	93.69
309.341	91.69
309.571	104.69
309.8	95.69
310.03	96.69
310.26	94.69
310.49	98.69
310.72	80.69
310.949	108.69
311.179	98.69
311.409	90.69
311.639	84.69
311.868	92.69
312.098	93.69
312.328	109.69
312.557	113.69
312.787	105.69
313.017	107.69
313.246	94.69
313.476	84.69
313.706	101.69
313.935	105.69
314.165	106.69
314.394	101.69
314.624	113.69
314.853	105.69
315.083	98.69
315.312	87.69
315.542	96.69
315.771	83.69
316.001	87.69
316.23	87.69
316.46	105.69
316.689	70.69
316.919	78.69
317.148	101.69
317.377	95.69
317.607	103.69
317.836	89.69
318.065	98.69
318.295	90.69
318.524	108.69
318.753	81.69
318.983	94.69
319.212	101.69
319.441	96.69
319.67	123.69
319.9	103.69
320.129	105.69
320.358	96.69
320.587	83.69
320.816	99.69
321.046	88.69
321.275	108.69
321.504	89.69
321.733	113.69
321.962	97.69
322.191	100.69
322.42	97.69
322.649	122.69
322.878	104.69
323.108	113.69
323.337	120.69
323.566	123.69
323.795	156.69
324.024	177.69
324.253	325.69
324.482	656.69
324.71	1269.69
324.939	1717.69
325.168	659.69
325.397	219.69
325.626	140.69
325.855	128.69
326.084	122.69
326.313	129.69
326.542	150.69
326.77	189.69
326.999	339.69
327.228	706.69
327.457	1207.69
327.686	1008.69
327.914	327.69
328.143	208.69
328.372	163.69
328.6	136.69
328.829	111.69
329.058	119.69
329.287	129.69
329.515	103.69
329.744	114.69
329.972	135.69
330.201	187.69
330.43	211.69
330.658	141.69
330.887	140.69
331.115	113.69
331.344	98.69
331.572	103.69
331.801	110.69
332.03	119.69
332.258	95.69
332.486	109.69
332.715	97.69
332.943	99.69
333.172	101.69
333.4	100.69
333.629	128.69
333.857	120.69
334.085	145.69
334.314	177.69
334.542	250.69
334.771	242.69
334.999	125.69
335.227	99.69
335.455	101.69
335.684	109.69
335.912	114.69
336.14	92.69
336.369	97.69
336.597	96.69
336.825	112.69
337.053	95.69
337.281	96.69
337.51	95.69
337.738	101.69
337.966	101.69
338.194	102.69
338.422	96.69
338.65	85.69
338.878	98.69
339.106	94.69
339.334	104.69
339.562	97.69
339.79	99.69
340.018	91.69
340.246	100.69
340.474	88.69
340.702	87.69
340.93	96.69
341.158	95.69
341.386	88.69
341.614	86.69
341.842	95.69
342.07	86.69
342.298	87.69
342.526	82.69
342.754	82.69
342.981	100.69
343.209	75.69
343.437	94.69
343.665	100.69
343.893	88.69
344.12	105.69
344.348	87.69
344.576	87.69
344.804	91.69
345.031	104.69
345.259	84.69
345.487	108.69
345.714	108.69
345.942	104.69
346.17	84.69
346.397	93.69
346.625	97.69
346.853	90.69
347.08	100.69
347.308	85.69
347.535	95.69
347.763	103.69
347.99	108.69
348.218	91.69
348.445	95.69
348.673	106.69
348.9	100.69
349.128	97.69
349.355	102.69
349.583	99.69
349.81	95.69
350.037	93.69
350.265	99.69
350.492	84.69
350.72	100.69
350.947	91.69
351.174	105.69
351.402	137.69
351.629	94.69
351.856	98.69
352.083	109.69
352.311	111.69
352.538	103.69
352.765	99.69
352.992	106.69
353.22	110.69
353.447	108.69
353.674	107.69
353.901	99.69
354.128	106.69
354.355	81.69
354.583	87.69
354.81	93.69
355.037	100.69
355.264	104.69
355.491	103.69
355.718	105.69
355.945	105.69
356.172	109.69
356.399	90.69
356.626	79.69
356.853	89.69
357.08	93.69
357.307	92.69
357.534	79.69
357.761	94.69
357.988	106.69
358.215	88.69
358.441	96.69
358.668	88.69
358.895	90.69
359.122	97.69
359.349	93.69
359.576	108.69
359.802	114.69
360.029	116.69
360.256	119.69
360.483	89.69
360.709	91.69
360.936	89.69
361.163	104.69
361.39	108.69
361.616	99.69
361.843	103.69
362.07	83.69
362.296	87.69
362.523	96.69
362.749	85.69
362.976	99.69
363.203	100.69
363.429	96.69
363.656	112.69
363.882	84.69
364.109	92.69
364.335	100.69
364.562	89.69
364.788	89.69
365.015	114.69
365.241	96.69
365.468	114.69
365.694	110.69
365.92	100.69
366.147	87.69
366.373	76.69
366.599	112.69
366.826	95.69
367.052	83.69
367.278	110.69
367.505	96.69
367.731	96.69
367.957	108.69
368.184	95.69
368.41	103.69
368.636	118.69
368.862	128.69
369.089	114.69
369.315	98.69
369.541	100.69
369.767	96.69
369.993	86.69
370.219	98.69
370.445	66.69
370.672	76.69
370.898	95.69
371.124	90.69
371.35	88.69
371.576	88.69
371.802	88.69
372.028	96.69
372.254	87.69
372.48	92.69
372.706	100.69
372.932	96.69
373.158	92.69
373.384	86.69
373.61	87.69
373.835	89.69
374.061	82.69
374.287	94.69
374.513	96.69
374.739	85.69
374.965	113.69
375.191	100.69
375.416	88.69
375.642	92.69
375.868	89.69
376.094	88.69
376.319	83.69
376.545	94.69
376.771	94.69
376.997	97.69
377.222	85.69
377.448	88.69
377.674	87.69
377.899	94.69
378.125	109.69
378.35	94.69
378.576	95.69
378.802	100.69
379.027	99.69
379.253	88.69
379.478	98.69
379.704	83.69
379.929	90.69
380.155	87.69
380.38	95.69
380.606	96.69
380.831	99.69
381.057	109.69
381.282	106.69
381.507	97.69
381.733	109.69
381.958	96.69
382.184	106.69
382.409	98.69
382.634	111.69
382.86	97.69
383.085	103.69
383.31	100.69
383.535	101.69
383.761	100.69
383.986	97.69
384.211	87.69
384.436	91.69
384.662	97.69
384.887	115.69
385.112	104.69
385.337	102.69
385.562	98.69
385.787	110.69
386.013	100.69
386.238	108.69
386.463	112.69
386.688	108.69
386.913	108.69
387.138	110.69
387.363	104.69
387.588	106.69
387.813	103.69
388.038	105.69
388.263	113.69
388.488	105.69
388.713	96.69
388.938	100.69
389.163	102.69
389.387	94.69
389.612	100.69
389.837	96.69
390.062	102.69
390.287	96.69
390.512	99.69
390.736	92.69
390.961	95.69
391.186	92.69
391.411	84.69
391.636	98.69
391.86	92.69
392.085	82.69
392.31	83.69
392.534	97.69
392.759	98.69
392.984	82.69
393.208	96.69
393.433	97.69
393.658	90.69
393.882	82.69
394.107	88.69
394.331	75.69
394.556	80.69
394.78	83.69
395.005	85.69
395.229	78.69
395.454	101.69
395.678	77.69
395.903	87.69
396.127	107.69
396.352	102.69
396.576	78.69
396.801	95.69
397.025	107.69
397.249	80.69
397.474	75.69
397.698	99.69
397.922	73.69
398.147	81.69
398.371	85.69
398.595	83.69
398.82	97.69
399.044	82.69
399.268	83.69
399.492	90.69
399.717	90.69
399.941	85.69
400.165	88.69
400.389	82.69
400.613	71.69
400.837	97.69
401.062	84.69
401.286	85.69
401.51	92.69
401.734	92.69
401.958	92.69
402.182	109.69
402.406	147.69
402.63	111.69
402.854	99.69
403.078	92.69
403.302	84.69
403.526	84.69
403.75	88.69
403.974	71.69
404.198	78.69
404.422	90.69
404.645	88.69
404.869	76.69
405.093	97.69
405.317	108.69
405.541	112.69
405.765	86.69
405.988	114.69
406.212	174.69
406.436	239.69
406.66	150.69
406.883	115.69
407.107	95.69
407.331	91.69
407.555	76.69
407.778	106.69
408.002	97.69
408.226	86.69
408.449	91.69
408.673	88.69
408.896	91.69
409.12	95.69
409.344	101.69
409.567	99.69
409.791	94.69
410.014	91.69
410.238	91.69
410.461	92.69
410.685	89.69
410.908	96.69
411.132	102.69
411.355	94.69
411.578	95.69
411.802	89.69
412.025	88.69
412.249	93.69
412.472	104.69
412.695	99.69
412.919	88.69
413.142	97.69
413.365	92.69
413.589	90.69
413.812	97.69
414.035	97.69
414.258	98.69
414.482	94.69
414.705	95.69
414.928	94.69
415.151	106.69
415.374	93.69
415.597	82.69
415.821	92.69
416.044	83.69
416.267	96.69
416.49	101.69
416.713	96.69
416.936	89.69
417.159	87.69
417.382	84.69
417.605	85.69
417.828	87.69
418.051	84.69
418.274	87.69
418.497	91.69
418.72	88.69
418.943	101.69
419.166	91.69
419.389	91.69
419.611	88.69
419.834	101.69
420.057	83.69
420.28	87.69
420.503	95.69
420.726	106.69
420.948	85.69
421.171	98.69
421.394	96.69
421.617	92.69
421.839	79.69
422.062	89.69
422.285	105.69
422.507	96.69
422.73	108.69
422.953	110.69
423.175	87.69
423.398	91.69
423.621	92.69
423.843	88.69
424.066	99.69
424.288	95.69
424.511	98.69
424.733	104.69
424.956	98.69
425.178	95.69
425.401	91.69
425.623	99.69
425.846	93.69
426.068	99.69
426.291	105.69
426.513	79.69
426.735	106.69
426.958	91.69
427.18	95.69
427.402	110.69
427.625	144.69
427.847	128.69
428.069	113.69
428.292	101.69
428.514	88.69
428.736	89.69
428.958	83.69
429.181	81.69
429.403	83.69
429.625	83.69
429.847	86.69
430.069	87.69
430.292	98.69
430.514	82.69
430.736	76.69
430.958	93.69
431.18	88.69
431.402	82.69
431.624	83.69
431.846	94.69
432.068	78.69
432.29	89.69
432.512	103.69
432.734	92.69
432.956	88.69
433.178	89.69
433.4	100.69
433.622	89.69
433.844	94.69
434.066	89.69
434.287	101.69
434.509	93.69
434.731	95.69
434.953	89.69
435.175	91.69
435.397	100.69
435.618	100.69
435.84	94.69
436.062	115.69
436.284	100.69
436.505	102.69
436.727	92.69
436.949	96.69
437.17	84.69
437.392	82.69
437.614	82.69
437.835	123.69
438.057	119.69
438.278	106.69
438.5	91.69
438.721	107.69
438.943	101.69
439.165	83.69
439.386	83.69
439.608	91.69
439.829	92.69
440.05	110.69
440.272	125.69
440.493	108.69
440.715	97.69
440.936	91.69
441.158	89.69
441.379	91.69
441.6	84.69
441.822	90.69
442.043	110.69
442.264	107.69
442.486	90.69
442.707	66.69
442.928	98.69
443.149	127.69
443.371	127.69
443.592	100.69
443.813	89.69
444.034	100.69
444.255	74.69
444.476	79.69
444.698	77.69
444.919	91.69
445.14	123.69
445.361	113.69
445.582	108.69
445.803	107.69
446.024	118.69
446.245	107.69
446.466	117.69
446.687	76.69
446.908	71.69
447.129	90.69
447.35	87.69
447.571	91.69
447.792	93.69
448.013	91.69
448.234	120.69
448.455	104.69
448.675	103.69
448.896	107.69
449.117	101.69
449.338	101.69
449.559	100.69
449.779	115.69
450	89.69
450.221	90.69
450.442	87.69
450.662	78.69
450.883	107.69
451.104	121.69
451.324	83.69
451.545	75.69
451.766	87.69
451.986	85.69
452.207	92.69
452.428	98.69
452.648	98.69
452.869	101.69
453.089	105.69
453.31	117.69
453.53	96.69
453.751	98.69
453.971	93.69
454.192	110.69
454.412	103.69
454.633	90.69
454.853	92.69
455.073	109.69
455.294	82.69
455.514	87.69
455.734	88.69
455.955	83.69
456.175	64.69
456.395	68.69
456.616	91.69
456.836	77.69
457.056	96.69
457.276	95.69
457.497	107.69
457.717	72.69
457.937	73.69
458.157	91.69
458.377	89.69
458.598	112.69
458.818	145.69
459.038	132.69
459.258	112.69
459.478	89.69
459.698	92.69
459.918	78.69
460.138	77.69
460.358	97.69
460.578	96.69
460.798	90.69
461.018	87.69
461.238	84.69
461.458	76.69
461.678	72.69
461.898	95.69
462.118	79.69
462.338	87.69
462.558	80.69
462.777	79.69
462.997	87.69
463.217	96.69
463.437	89.69
463.657	75.69
463.876	86.69
464.096	92.69
464.316	85.69
464.536	88.69
464.755	101.69
464.975	113.69
465.195	156.69
465.414	148.69
465.634	84.69
465.854	92.69
466.073	98.69
466.293	87.69
466.512	89.69
466.732	83.69
466.951	83.69
467.171	100.69
467.391	97.69
467.61	113.69
467.829	113.69
468.049	136.69
468.268	142.69
468.488	96.69
468.707	93.69
468.927	92.69
469.146	81.69
469.365	77.69
469.585	83.69
469.804	94.69
470.023	103.69
470.243	77.69
470.462	96.69
470.681	103.69
470.901	88.69
471.12	93.69
471.339	89.69
471.558	83.69
471.777	92.69
471.997	106.69
472.216	203.69
472.435	338.69
472.654	122.69
472.873	107.69
473.092	88.69
473.311	79.69
473.53	72.69
473.749	85.69
473.968	85.69
474.187	104.69
474.406	96.69
474.625	88.69
474.844	88.69
475.063	76.69
475.282	83.69
475.501	95.69
475.72	87.69
475.939	75.69
476.158	92.69
476.377	75.69
476.596	97.69
476.814	87.69
477.033	98.69
477.252	76.69
477.471	80.69
477.69	84.69
477.908	99.69
478.127	98.69
478.346	100.69
478.564	98.69
478.783	84.69
479.002	87.69
479.22	99.69
479.439	97.69
479.658	107.69
479.876	97.69
480.095	78.69
480.313	93.69
480.532	107.69
480.751	132.69
480.969	202.69
481.188	540.69
481.406	360.69
481.624	130.69
481.843	93.69
482.061	89.69
482.28	91.69
482.498	84.69
482.717	91.69
482.935	83.69
483.153	82.69
483.372	70.69
483.59	92.69
483.808	86.69
484.027	72.69
484.245	85.69
484.463	101.69
484.681	104.69
484.9	99.69
485.118	87.69
485.336	91.69
485.554	94.69
485.772	100.69
485.99	107.69
486.209	104.69
486.427	95.69
486.645	112.69
486.863	111.69
487.081	100.69
487.299	95.69
487.517	93.69
487.735	87.69
487.953	102.69
488.171	94.69
488.389	90.69
488.607	100.69
488.825	86.69
489.043	91.69
489.261	85.69
489.479	88.69
489.696	95.69
489.914	101.69
490.132	82.69
490.35	92.69
490.568	101.69
490.786	92.69
491.003	88.69
491.221	92.69
491.439	110.69
491.657	100.69
491.874	109.69
492.092	83.69
492.31	100.69
492.527	90.69
492.745	87.69
492.963	90.69
493.18	95.69
493.398	92.69
493.615	98.69
493.833	99.69
494.05	96.69
494.268	84.69
494.485	96.69
494.703	81.69
494.92	92.69
495.138	73.69
495.355	91.69
495.573	86.69
495.79	88.69
496.008	92.69
496.225	78.69
496.442	91.69
496.66	88.69
496.877	93.69
497.094	106.69
497.312	75.69
497.529	83.69
497.746	91.69
497.963	97.69
498.181	95.69
498.398	96.69
498.615	106.69
498.832	94.69
499.049	95.69
499.267	96.69
499.484	90.69
499.701	83.69
499.918	103.69
500.135	90.69
500.352	92.69
500.569	89.69
500.786	93.69
501.003	91.69
501.22	88.69
501.437	91.69
501.654	89.69
501.871	99.69
502.088	77.69
502.305	86.69
502.522	90.69
502.739	80.69
502.956	85.69
503.172	96.69
503.389	88.69
503.606	106.69
503.823	105.69
504.04	98.69
504.256	97.69
504.473	96.69
504.69	100.69
504.907	107.69
505.123	91.69
505.34	80.69
505.557	78.69
505.773	87.69
505.99	95.69
506.207	84.69
506.423	85.69
506.64	90.69
506.856	99.69
507.073	100.69
507.289	107.69
507.506	85.69
507.722	97.69
507.939	111.69
508.155	89.69
508.372	102.69
508.588	109.69
508.805	90.69
509.021	97.69
509.238	110.69
509.454	97.69
509.67	97.69
509.887	108.69
510.103	127.69
510.319	228.69
510.536	863.69
510.752	2775.69
510.968	739.69
511.184	172.69
511.401	106.69
511.617	101.69
511.833	77.69
512.049	83.69
512.265	102.69
512.481	99.69
512.698	85.69
512.914	93.69
513.13	98.69
513.346	86.69
513.562	96.69
513.778	90.69
513.994	99.69
514.21	108.69
514.426	103.69
514.642	120.69
514.858	123.69
515.074	170.69
