Data from Circ_1996_H10_HRD10591_00091.txt Node
Date: Wed Jan 03 11:33:24 EST 2024
User: Yrep
Spectrometer: HR+D1059
Trigger mode: 1
Integration Time (sec): 1.000000E-1
Scans to average: 1
Electric dark correction enabled: true
Nonlinearity correction enabled: false
Boxcar width: 0
XAxis mode: Wavelengths
Number of Pixels in Spectrum: 2048
>>>>>Begin Spectral Data<<<<<
223.165	-14.81
223.4	-14.81
223.635	-14.81
223.869	-20.81
224.104	-28.81
224.338	-22.81
224.573	-9.81
224.808	-19.81
225.042	-13.81
225.277	-2.81
225.511	-10.81
225.746	24.19
225.98	4.19
226.215	21.19
226.449	19.19
226.683	7.19
226.918	33.19
227.152	35.19
227.387	32.19
227.621	35.19
227.856	36.19
228.09	34.19
228.324	56.19
228.559	57.19
228.793	57.19
229.027	57.19
229.262	41.19
229.496	72.19
229.73	68.19
229.964	79.19
230.199	82.19
230.433	76.19
230.667	82.19
230.901	74.19
231.136	80.19
231.37	78.19
231.604	77.19
231.838	90.19
232.072	76.19
232.306	68.19
232.541	73.19
232.775	78.19
233.009	92.19
233.243	74.19
233.477	75.19
233.711	83.19
233.945	69.19
234.179	89.19
234.413	65.19
234.647	76.19
234.881	82.19
235.115	81.19
235.349	82.19
235.583	68.19
235.817	84.19
236.051	87.19
236.285	69.19
236.519	71.19
236.753	70.19
236.987	74.19
237.221	74.19
237.455	69.19
237.689	69.19
237.922	73.19
238.156	62.19
238.39	74.19
238.624	77.19
238.858	72.19
239.091	73.19
239.325	74.19
239.559	85.19
239.793	87.19
240.027	76.19
240.26	76.19
240.494	73.19
240.728	76.19
240.961	73.19
241.195	80.19
241.429	69.19
241.662	76.19
241.896	72.19
242.13	77.19
242.363	86.19
242.597	74.19
242.83	75.19
243.064	100.19
243.298	75.19
243.531	64.19
243.765	72.19
243.998	75.19
244.232	58.19
244.465	66.19
244.699	88.19
244.932	84.19
245.166	65.19
245.399	81.19
245.633	92.19
245.866	74.19
246.099	82.19
246.333	82.19
246.566	79.19
246.8	74.19
247.033	74.19
247.266	63.19
247.5	76.19
247.733	88.19
247.966	85.19
248.2	77.19
248.433	88.19
248.666	90.19
248.899	75.19
249.133	91.19
249.366	88.19
249.599	88.19
249.832	82.19
250.066	74.19
250.299	86.19
250.532	86.19
250.765	54.19
250.998	70.19
251.231	71.19
251.465	62.19
251.698	79.19
251.931	81.19
252.164	93.19
252.397	94.19
252.63	79.19
252.863	80.19
253.096	64.19
253.329	80.19
253.562	79.19
253.795	79.19
254.028	83.19
254.261	88.19
254.494	95.19
254.727	94.19
254.96	75.19
255.193	93.19
255.426	82.19
255.659	73.19
255.892	78.19
256.124	80.19
256.357	82.19
256.59	87.19
256.823	92.19
257.056	82.19
257.289	77.19
257.521	84.19
257.754	74.19
257.987	93.19
258.22	87.19
258.452	88.19
258.685	87.19
258.918	81.19
259.151	79.19
259.383	82.19
259.616	92.19
259.849	80.19
260.081	82.19
260.314	84.19
260.547	79.19
260.779	70.19
261.012	72.19
261.244	74.19
261.477	93.19
261.71	94.19
261.942	92.19
262.175	99.19
262.407	92.19
262.64	82.19
262.872	84.19
263.105	86.19
263.337	81.19
263.57	91.19
263.802	80.19
264.035	81.19
264.267	70.19
264.499	89.19
264.732	91.19
264.964	81.19
265.197	86.19
265.429	92.19
265.661	88.19
265.894	80.19
266.126	91.19
266.358	82.19
266.591	86.19
266.823	77.19
267.055	72.19
267.287	72.19
267.52	85.19
267.752	82.19
267.984	78.19
268.216	79.19
268.448	76.19
268.681	90.19
268.913	76.19
269.145	89.19
269.377	82.19
269.609	97.19
269.841	85.19
270.073	93.19
270.306	84.19
270.538	76.19
270.77	77.19
271.002	87.19
271.234	93.19
271.466	84.19
271.698	73.19
271.93	85.19
272.162	84.19
272.394	90.19
272.626	78.19
272.858	86.19
273.09	78.19
273.322	87.19
273.553	85.19
273.785	84.19
274.017	84.19
274.249	72.19
274.481	79.19
274.713	84.19
274.945	79.19
275.176	80.19
275.408	91.19
275.64	97.19
275.872	97.19
276.104	89.19
276.335	94.19
276.567	100.19
276.799	96.19
277.031	104.19
277.262	88.19
277.494	84.19
277.726	77.19
277.957	89.19
278.189	88.19
278.421	75.19
278.652	94.19
278.884	85.19
279.115	88.19
279.347	96.19
279.579	94.19
279.81	95.19
280.042	95.19
280.273	98.19
280.505	94.19
280.736	80.19
280.968	89.19
281.199	72.19
281.431	89.19
281.662	88.19
281.894	84.19
282.125	86.19
282.356	115.19
282.588	148.19
282.819	127.19
283.051	94.19
283.282	82.19
283.513	83.19
283.745	82.19
283.976	87.19
284.207	75.19
284.439	91.19
284.67	82.19
284.901	86.19
285.132	88.19
285.364	77.19
285.595	75.19
285.826	79.19
286.057	83.19
286.288	84.19
286.52	84.19
286.751	87.19
286.982	82.19
287.213	79.19
287.444	95.19
287.675	82.19
287.906	88.19
288.138	75.19
288.369	97.19
288.6	97.19
288.831	95.19
289.062	80.19
289.293	88.19
289.524	81.19
289.755	79.19
289.986	97.19
290.217	64.19
290.448	82.19
290.679	89.19
290.91	98.19
291.141	72.19
291.371	97.19
291.602	90.19
291.833	94.19
292.064	77.19
292.295	75.19
292.526	92.19
292.757	85.19
292.987	82.19
293.218	86.19
293.449	92.19
293.68	88.19
293.91	85.19
294.141	83.19
294.372	90.19
294.603	74.19
294.833	85.19
295.064	76.19
295.295	80.19
295.525	87.19
295.756	101.19
295.987	128.19
296.217	151.19
296.448	139.19
296.679	84.19
296.909	93.19
297.14	101.19
297.37	85.19
297.601	83.19
297.831	102.19
298.062	110.19
298.292	82.19
298.523	89.19
298.753	94.19
298.984	76.19
299.214	84.19
299.445	82.19
299.675	89.19
299.905	96.19
300.136	97.19
300.366	100.19
300.597	96.19
300.827	100.19
301.057	103.19
301.288	93.19
301.518	85.19
301.748	89.19
301.979	97.19
302.209	92.19
302.439	91.19
302.669	88.19
302.9	91.19
303.13	98.19
303.36	89.19
303.59	92.19
303.82	102.19
304.051	101.19
304.281	87.19
304.511	78.19
304.741	89.19
304.971	92.19
305.201	87.19
305.431	90.19
305.661	100.19
305.891	74.19
306.121	83.19
306.352	106.19
306.582	99.19
306.812	97.19
307.042	94.19
307.272	93.19
307.502	94.19
307.731	94.19
307.961	90.19
308.191	82.19
308.421	75.19
308.651	93.19
308.881	98.19
309.111	97.19
309.341	94.19
309.571	101.19
309.8	77.19
310.03	104.19
310.26	87.19
310.49	93.19
310.72	97.19
310.949	92.19
311.179	93.19
311.409	80.19
311.639	97.19
311.868	109.19
312.098	89.19
312.328	87.19
312.557	110.19
312.787	100.19
313.017	108.19
313.246	97.19
313.476	102.19
313.706	97.19
313.935	100.19
314.165	86.19
314.394	92.19
314.624	100.19
314.853	82.19
315.083	87.19
315.312	88.19
315.542	88.19
315.771	92.19
316.001	96.19
316.23	86.19
316.46	94.19
316.689	81.19
316.919	91.19
317.148	104.19
317.377	92.19
317.607	79.19
317.836	103.19
318.065	99.19
318.295	85.19
318.524	73.19
318.753	92.19
318.983	93.19
319.212	93.19
319.441	100.19
319.67	97.19
319.9	104.19
320.129	98.19
320.358	80.19
320.587	97.19
320.816	104.19
321.046	95.19
321.275	96.19
321.504	96.19
321.733	94.19
321.962	100.19
322.191	97.19
322.42	96.19
322.649	103.19
322.878	115.19
323.108	101.19
323.337	107.19
323.566	110.19
323.795	152.19
324.024	190.19
324.253	345.19
324.482	692.19
324.71	1414.19
324.939	1827.19
325.168	716.19
325.397	220.19
325.626	127.19
325.855	116.19
326.084	116.19
326.313	118.19
326.542	129.19
326.77	208.19
326.999	365.19
327.228	731.19
327.457	1314.19
327.686	1064.19
327.914	335.19
328.143	214.19
328.372	178.19
328.6	127.19
328.829	119.19
329.058	133.19
329.287	134.19
329.515	106.19
329.744	110.19
329.972	142.19
330.201	184.19
330.43	222.19
330.658	161.19
330.887	148.19
331.115	132.19
331.344	113.19
331.572	103.19
331.801	104.19
332.03	102.19
332.258	81.19
332.486	106.19
332.715	103.19
332.943	87.19
333.172	86.19
333.4	92.19
333.629	107.19
333.857	116.19
334.085	150.19
334.314	193.19
334.542	262.19
334.771	258.19
334.999	110.19
335.227	87.19
335.455	87.19
335.684	100.19
335.912	111.19
336.14	104.19
336.369	91.19
336.597	82.19
336.825	94.19
337.053	89.19
337.281	93.19
337.51	109.19
337.738	93.19
337.966	102.19
338.194	88.19
338.422	88.19
338.65	88.19
338.878	102.19
339.106	86.19
339.334	101.19
339.562	90.19
339.79	89.19
340.018	98.19
340.246	104.19
340.474	77.19
340.702	81.19
340.93	95.19
341.158	89.19
341.386	116.19
341.614	93.19
341.842	84.19
342.07	95.19
342.298	81.19
342.526	81.19
342.754	90.19
342.981	87.19
343.209	98.19
343.437	102.19
343.665	90.19
343.893	76.19
344.12	93.19
344.348	81.19
344.576	84.19
344.804	96.19
345.031	94.19
345.259	89.19
345.487	97.19
345.714	95.19
345.942	81.19
346.17	90.19
346.397	94.19
346.625	86.19
346.853	75.19
347.08	91.19
347.308	79.19
347.535	84.19
347.763	99.19
347.99	96.19
348.218	93.19
348.445	81.19
348.673	105.19
348.9	91.19
349.128	103.19
349.355	89.19
349.583	101.19
349.81	81.19
350.037	105.19
350.265	93.19
350.492	95.19
350.72	84.19
350.947	104.19
351.174	109.19
351.402	117.19
351.629	113.19
351.856	108.19
352.083	94.19
352.311	105.19
352.538	94.19
352.765	110.19
352.992	130.19
353.22	110.19
353.447	99.19
353.674	94.19
353.901	95.19
354.128	104.19
354.355	82.19
354.583	91.19
354.81	93.19
355.037	101.19
355.264	86.19
355.491	98.19
355.718	85.19
355.945	89.19
356.172	96.19
356.399	95.19
356.626	107.19
356.853	85.19
357.08	100.19
357.307	86.19
357.534	78.19
357.761	100.19
357.988	82.19
358.215	87.19
358.441	86.19
358.668	81.19
358.895	76.19
359.122	95.19
359.349	99.19
359.576	96.19
359.802	108.19
360.029	106.19
360.256	97.19
360.483	99.19
360.709	87.19
360.936	85.19
361.163	85.19
361.39	93.19
361.616	101.19
361.843	106.19
362.07	87.19
362.296	95.19
362.523	93.19
362.749	87.19
362.976	104.19
363.203	88.19
363.429	85.19
363.656	95.19
363.882	104.19
364.109	89.19
364.335	84.19
364.562	90.19
364.788	72.19
365.015	89.19
365.241	102.19
365.468	110.19
365.694	115.19
365.92	105.19
366.147	82.19
366.373	80.19
366.599	94.19
366.826	82.19
367.052	88.19
367.278	85.19
367.505	85.19
367.731	90.19
367.957	88.19
368.184	75.19
368.41	92.19
368.636	128.19
368.862	115.19
369.089	101.19
369.315	94.19
369.541	98.19
369.767	94.19
369.993	89.19
370.219	100.19
370.445	84.19
370.672	89.19
370.898	81.19
371.124	85.19
371.35	95.19
371.576	106.19
371.802	92.19
372.028	97.19
372.254	75.19
372.48	94.19
372.706	87.19
372.932	87.19
373.158	80.19
373.384	86.19
373.61	71.19
373.835	95.19
374.061	89.19
374.287	90.19
374.513	79.19
374.739	88.19
374.965	74.19
375.191	101.19
375.416	98.19
375.642	99.19
375.868	82.19
376.094	89.19
376.319	86.19
376.545	81.19
376.771	97.19
376.997	88.19
377.222	72.19
377.448	71.19
377.674	89.19
377.899	80.19
378.125	89.19
378.35	102.19
378.576	94.19
378.802	86.19
379.027	86.19
379.253	99.19
379.478	92.19
379.704	85.19
379.929	106.19
380.155	94.19
380.38	101.19
380.606	83.19
380.831	86.19
381.057	102.19
381.282	91.19
381.507	97.19
381.733	83.19
381.958	105.19
382.184	93.19
382.409	90.19
382.634	89.19
382.86	101.19
383.085	83.19
383.31	84.19
383.535	102.19
383.761	84.19
383.986	89.19
384.211	116.19
384.436	94.19
384.662	84.19
384.887	95.19
385.112	112.19
385.337	89.19
385.562	97.19
385.787	96.19
386.013	96.19
386.238	103.19
386.463	101.19
386.688	93.19
386.913	94.19
387.138	111.19
387.363	108.19
387.588	88.19
387.813	82.19
388.038	97.19
388.263	109.19
388.488	101.19
388.713	101.19
388.938	101.19
389.163	93.19
389.387	88.19
389.612	104.19
389.837	101.19
390.062	98.19
390.287	97.19
390.512	80.19
390.736	81.19
390.961	95.19
391.186	88.19
391.411	73.19
391.636	89.19
391.86	76.19
392.085	84.19
392.31	83.19
392.534	82.19
392.759	92.19
392.984	81.19
393.208	86.19
393.433	94.19
393.658	106.19
393.882	82.19
394.107	77.19
394.331	88.19
394.556	82.19
394.78	80.19
395.005	86.19
395.229	85.19
395.454	87.19
395.678	83.19
395.903	89.19
396.127	74.19
396.352	76.19
396.576	89.19
396.801	88.19
397.025	102.19
397.249	79.19
397.474	82.19
397.698	88.19
397.922	77.19
398.147	88.19
398.371	100.19
398.595	84.19
398.82	83.19
399.044	78.19
399.268	81.19
399.492	77.19
399.717	77.19
399.941	82.19
400.165	96.19
400.389	83.19
400.613	85.19
400.837	94.19
401.062	94.19
401.286	92.19
401.51	95.19
401.734	90.19
401.958	89.19
402.182	114.19
402.406	170.19
402.63	116.19
402.854	96.19
403.078	93.19
403.302	94.19
403.526	98.19
403.75	85.19
403.974	81.19
404.198	79.19
404.422	82.19
404.645	89.19
404.869	96.19
405.093	94.19
405.317	94.19
405.541	92.19
405.765	82.19
405.988	129.19
406.212	183.19
406.436	254.19
406.66	136.19
406.883	93.19
407.107	93.19
407.331	99.19
407.555	92.19
407.778	85.19
408.002	89.19
408.226	94.19
408.449	79.19
408.673	85.19
408.896	75.19
409.12	78.19
409.344	90.19
409.567	80.19
409.791	85.19
410.014	86.19
410.238	80.19
410.461	84.19
410.685	93.19
410.908	86.19
411.132	98.19
411.355	97.19
411.578	89.19
411.802	88.19
412.025	80.19
412.249	88.19
412.472	82.19
412.695	99.19
412.919	95.19
413.142	96.19
413.365	89.19
413.589	65.19
413.812	95.19
414.035	102.19
414.258	81.19
414.482	92.19
414.705	76.19
414.928	87.19
415.151	92.19
415.374	106.19
415.597	81.19
415.821	90.19
416.044	73.19
416.267	86.19
416.49	86.19
416.713	85.19
416.936	80.19
417.159	100.19
417.382	73.19
417.605	83.19
417.828	90.19
418.051	84.19
418.274	93.19
418.497	77.19
418.72	81.19
418.943	78.19
419.166	93.19
419.389	82.19
419.611	103.19
419.834	90.19
420.057	86.19
420.28	78.19
420.503	79.19
420.726	87.19
420.948	83.19
421.171	82.19
421.394	94.19
421.617	92.19
421.839	82.19
422.062	90.19
422.285	93.19
422.507	93.19
422.73	87.19
422.953	93.19
423.175	74.19
423.398	80.19
423.621	91.19
423.843	87.19
424.066	88.19
424.288	90.19
424.511	98.19
424.733	102.19
424.956	106.19
425.178	102.19
425.401	92.19
425.623	101.19
425.846	88.19
426.068	100.19
426.291	84.19
426.513	96.19
426.735	86.19
426.958	90.19
427.18	106.19
427.402	126.19
427.625	155.19
427.847	125.19
428.069	125.19
428.292	92.19
428.514	90.19
428.736	92.19
428.958	83.19
429.181	73.19
429.403	92.19
429.625	88.19
429.847	80.19
430.069	101.19
430.292	86.19
430.514	83.19
430.736	91.19
430.958	63.19
431.18	95.19
431.402	68.19
431.624	82.19
431.846	64.19
432.068	88.19
432.29	79.19
432.512	75.19
432.734	81.19
432.956	99.19
433.178	106.19
433.4	88.19
433.622	88.19
433.844	86.19
434.066	87.19
434.287	96.19
434.509	84.19
434.731	92.19
434.953	96.19
435.175	92.19
435.397	78.19
435.618	86.19
435.84	96.19
436.062	112.19
436.284	104.19
436.505	94.19
436.727	95.19
436.949	83.19
437.17	74.19
437.392	80.19
437.614	98.19
437.835	105.19
438.057	105.19
438.278	98.19
438.5	101.19
438.721	106.19
438.943	81.19
439.165	96.19
439.386	74.19
439.608	89.19
439.829	96.19
440.05	123.19
440.272	135.19
440.493	86.19
440.715	80.19
440.936	99.19
441.158	78.19
441.379	91.19
441.6	81.19
441.822	98.19
442.043	96.19
442.264	95.19
442.486	104.19
442.707	103.19
442.928	97.19
443.149	119.19
443.371	135.19
443.592	110.19
443.813	90.19
444.034	94.19
444.255	76.19
444.476	86.19
444.698	65.19
444.919	76.19
445.14	125.19
445.361	112.19
445.582	108.19
445.803	132.19
446.024	131.19
446.245	122.19
446.466	93.19
446.687	89.19
446.908	97.19
447.129	81.19
447.35	89.19
447.571	84.19
447.792	96.19
448.013	93.19
448.234	112.19
448.455	89.19
448.675	112.19
448.896	106.19
449.117	94.19
449.338	104.19
449.559	108.19
449.779	113.19
450	105.19
450.221	80.19
450.442	86.19
450.662	91.19
450.883	100.19
451.104	99.19
451.324	88.19
451.545	109.19
451.766	90.19
451.986	77.19
452.207	84.19
452.428	95.19
452.648	100.19
452.869	94.19
453.089	91.19
453.31	120.19
453.53	103.19
453.751	95.19
453.971	98.19
454.192	115.19
454.412	86.19
454.633	85.19
454.853	79.19
455.073	79.19
455.294	92.19
455.514	101.19
455.734	78.19
455.955	74.19
456.175	96.19
456.395	85.19
456.616	88.19
456.836	95.19
457.056	87.19
457.276	89.19
457.497	79.19
457.717	89.19
457.937	87.19
458.157	81.19
458.377	66.19
458.598	107.19
458.818	159.19
459.038	159.19
459.258	114.19
459.478	93.19
459.698	89.19
459.918	81.19
460.138	75.19
460.358	85.19
460.578	87.19
460.798	108.19
461.018	84.19
461.238	88.19
461.458	96.19
461.678	80.19
461.898	75.19
462.118	84.19
462.338	81.19
462.558	85.19
462.777	90.19
462.997	72.19
463.217	84.19
463.437	87.19
463.657	82.19
463.876	89.19
464.096	99.19
464.316	82.19
464.536	83.19
464.755	92.19
464.975	120.19
465.195	184.19
465.414	167.19
465.634	101.19
465.854	78.19
466.073	86.19
466.293	87.19
466.512	99.19
466.732	84.19
466.951	95.19
467.171	95.19
467.391	89.19
467.61	102.19
467.829	105.19
468.049	139.19
468.268	140.19
468.488	110.19
468.707	92.19
468.927	78.19
469.146	88.19
469.365	91.19
469.585	90.19
469.804	97.19
470.023	97.19
470.243	98.19
470.462	90.19
470.681	104.19
470.901	94.19
471.12	97.19
471.339	89.19
471.558	88.19
471.777	76.19
471.997	104.19
472.216	204.19
472.435	345.19
472.654	138.19
472.873	98.19
473.092	88.19
473.311	82.19
473.53	89.19
473.749	95.19
473.968	92.19
474.187	104.19
474.406	92.19
474.625	93.19
474.844	86.19
475.063	95.19
475.282	82.19
475.501	68.19
475.72	98.19
475.939	95.19
476.158	82.19
476.377	88.19
476.596	93.19
476.814	97.19
477.033	93.19
477.252	86.19
477.471	85.19
477.69	91.19
477.908	79.19
478.127	83.19
478.346	81.19
478.564	95.19
478.783	97.19
479.002	84.19
479.22	93.19
479.439	107.19
479.658	111.19
479.876	95.19
480.095	103.19
480.313	91.19
480.532	104.19
480.751	109.19
480.969	199.19
481.188	583.19
481.406	367.19
481.624	124.19
481.843	86.19
482.061	85.19
482.28	94.19
482.498	91.19
482.717	82.19
482.935	93.19
483.153	103.19
483.372	86.19
483.59	94.19
483.808	79.19
484.027	98.19
484.245	106.19
484.463	92.19
484.681	88.19
484.9	77.19
485.118	81.19
485.336	94.19
485.554	87.19
485.772	96.19
485.99	92.19
486.209	104.19
486.427	98.19
486.645	105.19
486.863	117.19
487.081	102.19
487.299	94.19
487.517	104.19
487.735	86.19
487.953	98.19
488.171	98.19
488.389	113.19
488.607	103.19
488.825	93.19
489.043	90.19
489.261	78.19
489.479	77.19
489.696	102.19
489.914	90.19
490.132	81.19
490.35	89.19
490.568	97.19
490.786	72.19
491.003	97.19
491.221	78.19
491.439	94.19
491.657	92.19
491.874	95.19
492.092	84.19
492.31	96.19
492.527	70.19
492.745	91.19
492.963	90.19
493.18	82.19
493.398	78.19
493.615	91.19
493.833	92.19
494.05	90.19
494.268	89.19
494.485	79.19
494.703	87.19
494.92	97.19
495.138	79.19
495.355	92.19
495.573	89.19
495.79	96.19
496.008	76.19
496.225	88.19
496.442	95.19
496.66	76.19
496.877	98.19
497.094	98.19
497.312	88.19
497.529	86.19
497.746	95.19
497.963	90.19
498.181	98.19
498.398	102.19
498.615	103.19
498.832	104.19
499.049	102.19
499.267	90.19
499.484	88.19
499.701	89.19
499.918	85.19
500.135	92.19
500.352	82.19
500.569	85.19
500.786	78.19
501.003	89.19
501.22	96.19
501.437	81.19
501.654	92.19
501.871	97.19
502.088	89.19
502.305	83.19
502.522	88.19
502.739	70.19
502.956	99.19
503.172	91.19
503.389	97.19
503.606	113.19
503.823	93.19
504.04	98.19
504.256	87.19
504.473	83.19
504.69	90.19
504.907	100.19
505.123	81.19
505.34	82.19
505.557	86.19
505.773	66.19
505.99	93.19
506.207	97.19
506.423	95.19
506.64	78.19
506.856	102.19
507.073	92.19
507.289	86.19
507.506	88.19
507.722	91.19
507.939	116.19
508.155	92.19
508.372	91.19
508.588	90.19
508.805	94.19
509.021	96.19
509.238	98.19
509.454	98.19
509.67	98.19
509.887	117.19
510.103	137.19
510.319	226.19
510.536	930.19
510.752	3175.19
510.968	835.19
511.184	178.19
511.401	110.19
511.617	98.19
511.833	107.19
512.049	96.19
512.265	94.19
512.481	88.19
512.698	89.19
512.914	98.19
513.13	97.19
513.346	85.19
513.562	99.19
513.778	96.19
513.994	98.19
514.21	97.19
514.426	100.19
514.642	132.19
514.858	122.19
515.074	198.19
515.29	517.19
515.506	1774.19
515.721	629.19
515.937	161.19
516.153	100.19
