Data from Circ_1996_H10_HRD10591_00076.txt Node
Date: Wed Jan 03 11:33:21 EST 2024
User: Yrep
Spectrometer: HR+D1059
Trigger mode: 1
Integration Time (sec): 1.000000E-1
Scans to average: 1
Electric dark correction enabled: true
Nonlinearity correction enabled: false
Boxcar width: 0
XAxis mode: Wavelengths
Number of Pixels in Spectrum: 2048
>>>>>Begin Spectral Data<<<<<
223.165	-19.94
223.4	-19.94
223.635	-19.94
223.869	-7.94
224.104	-17.94
224.338	-18.94
224.573	-25.94
224.808	-17.94
225.042	-5.94
225.277	-3.94
225.511	-7.94
225.746	-8.94
225.98	11.06
226.215	20.06
226.449	19.06
226.683	33.06
226.918	19.06
227.152	33.06
227.387	39.06
227.621	40.06
227.856	43.06
228.09	57.06
228.324	60.06
228.559	56.06
228.793	58.06
229.027	67.06
229.262	56.06
229.496	64.06
229.73	81.06
229.964	84.06
230.199	81.06
230.433	81.06
230.667	62.06
230.901	76.06
231.136	80.06
231.37	74.06
231.604	82.06
231.838	82.06
232.072	59.06
232.306	86.06
232.541	75.06
232.775	91.06
233.009	80.06
233.243	86.06
233.477	77.06
233.711	93.06
233.945	85.06
234.179	63.06
234.413	80.06
234.647	82.06
234.881	86.06
235.115	73.06
235.349	74.06
235.583	90.06
235.817	79.06
236.051	81.06
236.285	84.06
236.519	81.06
236.753	68.06
236.987	80.06
237.221	89.06
237.455	72.06
237.689	70.06
237.922	77.06
238.156	78.06
238.39	81.06
238.624	76.06
238.858	89.06
239.091	80.06
239.325	81.06
239.559	76.06
239.793	63.06
240.027	91.06
240.26	84.06
240.494	77.06
240.728	66.06
240.961	80.06
241.195	80.06
241.429	92.06
241.662	92.06
241.896	67.06
242.13	84.06
242.363	82.06
242.597	85.06
242.83	72.06
243.064	95.06
243.298	89.06
243.531	72.06
243.765	75.06
243.998	79.06
244.232	83.06
244.465	101.06
244.699	76.06
244.932	79.06
245.166	84.06
245.399	90.06
245.633	74.06
245.866	69.06
246.099	76.06
246.333	83.06
246.566	68.06
246.8	72.06
247.033	85.06
247.266	92.06
247.5	72.06
247.733	75.06
247.966	93.06
248.2	80.06
248.433	84.06
248.666	76.06
248.899	85.06
249.133	81.06
249.366	108.06
249.599	98.06
249.832	78.06
250.066	89.06
250.299	76.06
250.532	77.06
250.765	90.06
250.998	74.06
251.231	81.06
251.465	72.06
251.698	80.06
251.931	79.06
252.164	78.06
252.397	90.06
252.63	80.06
252.863	83.06
253.096	91.06
253.329	85.06
253.562	72.06
253.795	80.06
254.028	90.06
254.261	74.06
254.494	87.06
254.727	90.06
254.96	96.06
255.193	82.06
255.426	76.06
255.659	98.06
255.892	92.06
256.124	80.06
256.357	82.06
256.59	97.06
256.823	70.06
257.056	80.06
257.289	90.06
257.521	77.06
257.754	78.06
257.987	84.06
258.22	89.06
258.452	82.06
258.685	106.06
258.918	100.06
259.151	85.06
259.383	77.06
259.616	96.06
259.849	62.06
260.081	71.06
260.314	67.06
260.547	86.06
260.779	83.06
261.012	93.06
261.244	84.06
261.477	109.06
261.71	94.06
261.942	112.06
262.175	112.06
262.407	90.06
262.64	93.06
262.872	88.06
263.105	97.06
263.337	77.06
263.57	100.06
263.802	84.06
264.035	84.06
264.267	84.06
264.499	70.06
264.732	75.06
264.964	86.06
265.197	107.06
265.429	84.06
265.661	86.06
265.894	93.06
266.126	81.06
266.358	84.06
266.591	90.06
266.823	84.06
267.055	86.06
267.287	104.06
267.52	85.06
267.752	72.06
267.984	96.06
268.216	78.06
268.448	88.06
268.681	82.06
268.913	88.06
269.145	92.06
269.377	97.06
269.609	77.06
269.841	84.06
270.073	81.06
270.306	76.06
270.538	85.06
270.77	80.06
271.002	70.06
271.234	80.06
271.466	94.06
271.698	100.06
271.93	99.06
272.162	102.06
272.394	89.06
272.626	89.06
272.858	93.06
273.09	105.06
273.322	96.06
273.553	71.06
273.785	95.06
274.017	78.06
274.249	86.06
274.481	91.06
274.713	84.06
274.945	75.06
275.176	99.06
275.408	89.06
275.64	88.06
275.872	94.06
276.104	78.06
276.335	84.06
276.567	101.06
276.799	109.06
277.031	112.06
277.262	92.06
277.494	85.06
277.726	97.06
277.957	93.06
278.189	72.06
278.421	83.06
278.652	90.06
278.884	90.06
279.115	89.06
279.347	90.06
279.579	95.06
279.81	78.06
280.042	86.06
280.273	87.06
280.505	88.06
280.736	91.06
280.968	96.06
281.199	88.06
281.431	98.06
281.662	79.06
281.894	87.06
282.125	108.06
282.356	101.06
282.588	141.06
282.819	125.06
283.051	112.06
283.282	93.06
283.513	95.06
283.745	84.06
283.976	89.06
284.207	76.06
284.439	69.06
284.67	97.06
284.901	82.06
285.132	94.06
285.364	78.06
285.595	99.06
285.826	91.06
286.057	94.06
286.288	78.06
286.52	90.06
286.751	77.06
286.982	88.06
287.213	75.06
287.444	89.06
287.675	93.06
287.906	80.06
288.138	78.06
288.369	94.06
288.6	68.06
288.831	84.06
289.062	101.06
289.293	90.06
289.524	85.06
289.755	92.06
289.986	95.06
290.217	95.06
290.448	91.06
290.679	90.06
290.91	87.06
291.141	70.06
291.371	107.06
291.602	92.06
291.833	105.06
292.064	80.06
292.295	82.06
292.526	81.06
292.757	93.06
292.987	95.06
293.218	88.06
293.449	90.06
293.68	106.06
293.91	97.06
294.141	91.06
294.372	82.06
294.603	93.06
294.833	95.06
295.064	85.06
295.295	100.06
295.525	74.06
295.756	88.06
295.987	119.06
296.217	136.06
296.448	131.06
296.679	108.06
296.909	100.06
297.14	100.06
297.37	94.06
297.601	99.06
297.831	70.06
298.062	85.06
298.292	91.06
298.523	88.06
298.753	83.06
298.984	95.06
299.214	75.06
299.445	92.06
299.675	93.06
299.905	100.06
300.136	82.06
300.366	92.06
300.597	99.06
300.827	89.06
301.057	88.06
301.288	96.06
301.518	107.06
301.748	87.06
301.979	108.06
302.209	90.06
302.439	91.06
302.669	89.06
302.9	81.06
303.13	98.06
303.36	95.06
303.59	114.06
303.82	105.06
304.051	93.06
304.281	94.06
304.511	98.06
304.741	107.06
304.971	81.06
305.201	93.06
305.431	88.06
305.661	96.06
305.891	95.06
306.121	90.06
306.352	106.06
306.582	100.06
306.812	96.06
307.042	89.06
307.272	99.06
307.502	114.06
307.731	90.06
307.961	107.06
308.191	92.06
308.421	102.06
308.651	98.06
308.881	95.06
309.111	94.06
309.341	90.06
309.571	101.06
309.8	93.06
310.03	84.06
310.26	100.06
310.49	105.06
310.72	100.06
310.949	117.06
311.179	102.06
311.409	98.06
311.639	104.06
311.868	101.06
312.098	109.06
312.328	101.06
312.557	106.06
312.787	90.06
313.017	98.06
313.246	102.06
313.476	97.06
313.706	94.06
313.935	100.06
314.165	90.06
314.394	116.06
314.624	109.06
314.853	93.06
315.083	96.06
315.312	90.06
315.542	87.06
315.771	109.06
316.001	104.06
316.23	102.06
316.46	102.06
316.689	85.06
316.919	96.06
317.148	92.06
317.377	99.06
317.607	99.06
317.836	113.06
318.065	92.06
318.295	101.06
318.524	93.06
318.753	95.06
318.983	81.06
319.212	105.06
319.441	105.06
319.67	103.06
319.9	92.06
320.129	83.06
320.358	87.06
320.587	94.06
320.816	108.06
321.046	105.06
321.275	114.06
321.504	92.06
321.733	91.06
321.962	92.06
322.191	108.06
322.42	101.06
322.649	116.06
322.878	104.06
323.108	108.06
323.337	118.06
323.566	128.06
323.795	130.06
324.024	178.06
324.253	308.06
324.482	608.06
324.71	1189.06
324.939	1571.06
325.168	611.06
325.397	204.06
325.626	146.06
325.855	118.06
326.084	114.06
326.313	127.06
326.542	144.06
326.77	169.06
326.999	333.06
327.228	651.06
327.457	1115.06
327.686	940.06
327.914	285.06
328.143	202.06
328.372	164.06
328.6	133.06
328.829	124.06
329.058	106.06
329.287	124.06
329.515	123.06
329.744	132.06
329.972	120.06
330.201	158.06
330.43	221.06
330.658	154.06
330.887	139.06
331.115	124.06
331.344	115.06
331.572	81.06
331.801	107.06
332.03	101.06
332.258	93.06
332.486	89.06
332.715	102.06
332.943	94.06
333.172	110.06
333.4	92.06
333.629	104.06
333.857	127.06
334.085	133.06
334.314	183.06
334.542	250.06
334.771	220.06
334.999	132.06
335.227	91.06
335.455	117.06
335.684	91.06
335.912	100.06
336.14	102.06
336.369	102.06
336.597	107.06
336.825	107.06
337.053	94.06
337.281	100.06
337.51	92.06
337.738	102.06
337.966	86.06
338.194	91.06
338.422	74.06
338.65	98.06
338.878	85.06
339.106	91.06
339.334	97.06
339.562	98.06
339.79	93.06
340.018	91.06
340.246	97.06
340.474	96.06
340.702	94.06
340.93	80.06
341.158	79.06
341.386	86.06
341.614	88.06
341.842	94.06
342.07	103.06
342.298	98.06
342.526	92.06
342.754	85.06
342.981	75.06
343.209	99.06
343.437	106.06
343.665	99.06
343.893	86.06
344.12	92.06
344.348	96.06
344.576	85.06
344.804	81.06
345.031	87.06
345.259	96.06
345.487	108.06
345.714	92.06
345.942	88.06
346.17	93.06
346.397	79.06
346.625	91.06
346.853	94.06
347.08	96.06
347.308	93.06
347.535	105.06
347.763	89.06
347.99	100.06
348.218	104.06
348.445	96.06
348.673	104.06
348.9	102.06
349.128	98.06
349.355	79.06
349.583	86.06
349.81	104.06
350.037	107.06
350.265	108.06
350.492	95.06
350.72	91.06
350.947	107.06
351.174	117.06
351.402	121.06
351.629	92.06
351.856	106.06
352.083	94.06
352.311	106.06
352.538	117.06
352.765	111.06
352.992	113.06
353.22	120.06
353.447	92.06
353.674	95.06
353.901	99.06
354.128	91.06
354.355	90.06
354.583	103.06
354.81	92.06
355.037	99.06
355.264	93.06
355.491	105.06
355.718	95.06
355.945	96.06
356.172	99.06
356.399	97.06
356.626	97.06
356.853	104.06
357.08	99.06
357.307	106.06
357.534	100.06
357.761	96.06
357.988	93.06
358.215	84.06
358.441	84.06
358.668	92.06
358.895	96.06
359.122	89.06
359.349	93.06
359.576	102.06
359.802	90.06
360.029	112.06
360.256	112.06
360.483	95.06
360.709	87.06
360.936	90.06
361.163	93.06
361.39	89.06
361.616	82.06
361.843	100.06
362.07	99.06
362.296	79.06
362.523	103.06
362.749	97.06
362.976	89.06
363.203	92.06
363.429	89.06
363.656	96.06
363.882	101.06
364.109	84.06
364.335	109.06
364.562	102.06
364.788	89.06
365.015	91.06
365.241	107.06
365.468	111.06
365.694	110.06
365.92	101.06
366.147	107.06
366.373	88.06
366.599	91.06
366.826	88.06
367.052	101.06
367.278	89.06
367.505	78.06
367.731	90.06
367.957	94.06
368.184	90.06
368.41	101.06
368.636	112.06
368.862	126.06
369.089	104.06
369.315	91.06
369.541	92.06
369.767	96.06
369.993	90.06
370.219	99.06
370.445	74.06
370.672	76.06
370.898	80.06
371.124	94.06
371.35	98.06
371.576	74.06
371.802	88.06
372.028	95.06
372.254	94.06
372.48	81.06
372.706	90.06
372.932	86.06
373.158	102.06
373.384	98.06
373.61	96.06
373.835	89.06
374.061	86.06
374.287	80.06
374.513	98.06
374.739	86.06
374.965	86.06
375.191	94.06
375.416	77.06
375.642	82.06
375.868	99.06
376.094	94.06
376.319	97.06
376.545	94.06
376.771	90.06
376.997	85.06
377.222	78.06
377.448	106.06
377.674	109.06
377.899	102.06
378.125	97.06
378.35	90.06
378.576	103.06
378.802	102.06
379.027	92.06
379.253	90.06
379.478	91.06
379.704	78.06
379.929	94.06
380.155	102.06
380.38	87.06
380.606	83.06
380.831	99.06
381.057	93.06
381.282	82.06
381.507	91.06
381.733	93.06
381.958	89.06
382.184	101.06
382.409	88.06
382.634	93.06
382.86	110.06
383.085	101.06
383.31	108.06
383.535	98.06
383.761	104.06
383.986	92.06
384.211	98.06
384.436	104.06
384.662	90.06
384.887	104.06
385.112	97.06
385.337	102.06
385.562	110.06
385.787	106.06
386.013	108.06
386.238	100.06
386.463	100.06
386.688	108.06
386.913	106.06
387.138	101.06
387.363	94.06
387.588	87.06
387.813	120.06
388.038	115.06
388.263	102.06
388.488	109.06
388.713	95.06
388.938	97.06
389.163	101.06
389.387	101.06
389.612	95.06
389.837	95.06
390.062	99.06
390.287	95.06
390.512	88.06
390.736	89.06
390.961	89.06
391.186	93.06
391.411	110.06
391.636	117.06
391.86	85.06
392.085	70.06
392.31	75.06
392.534	92.06
392.759	90.06
392.984	105.06
393.208	89.06
393.433	106.06
393.658	110.06
393.882	86.06
394.107	70.06
394.331	70.06
394.556	92.06
394.78	91.06
395.005	92.06
395.229	79.06
395.454	80.06
395.678	76.06
395.903	93.06
396.127	95.06
396.352	80.06
396.576	82.06
396.801	84.06
397.025	88.06
397.249	83.06
397.474	85.06
397.698	88.06
397.922	95.06
398.147	97.06
398.371	83.06
398.595	93.06
398.82	79.06
399.044	88.06
399.268	97.06
399.492	91.06
399.717	92.06
399.941	90.06
400.165	94.06
400.389	97.06
400.613	100.06
400.837	100.06
401.062	82.06
401.286	89.06
401.51	104.06
401.734	83.06
401.958	88.06
402.182	116.06
402.406	155.06
402.63	111.06
402.854	104.06
403.078	97.06
403.302	81.06
403.526	71.06
403.75	95.06
403.974	87.06
404.198	98.06
404.422	82.06
404.645	76.06
404.869	80.06
405.093	97.06
405.317	93.06
405.541	108.06
405.765	90.06
405.988	125.06
406.212	150.06
406.436	209.06
406.66	137.06
406.883	104.06
407.107	92.06
407.331	94.06
407.555	72.06
407.778	85.06
408.002	87.06
408.226	84.06
408.449	78.06
408.673	91.06
408.896	101.06
409.12	109.06
409.344	93.06
409.567	81.06
409.791	97.06
410.014	106.06
410.238	96.06
410.461	99.06
410.685	99.06
410.908	97.06
411.132	101.06
411.355	94.06
411.578	89.06
411.802	80.06
412.025	95.06
412.249	80.06
412.472	87.06
412.695	99.06
412.919	96.06
413.142	82.06
413.365	85.06
413.589	97.06
413.812	81.06
414.035	79.06
414.258	87.06
414.482	87.06
414.705	93.06
414.928	86.06
415.151	86.06
415.374	98.06
415.597	80.06
415.821	96.06
416.044	106.06
416.267	106.06
416.49	89.06
416.713	90.06
416.936	89.06
417.159	98.06
417.382	83.06
417.605	95.06
417.828	105.06
418.051	97.06
418.274	93.06
418.497	94.06
418.72	95.06
418.943	92.06
419.166	76.06
419.389	97.06
419.611	82.06
419.834	86.06
420.057	97.06
420.28	80.06
420.503	89.06
420.726	83.06
420.948	88.06
421.171	95.06
421.394	88.06
421.617	86.06
421.839	92.06
422.062	99.06
422.285	112.06
422.507	99.06
422.73	86.06
422.953	101.06
423.175	80.06
423.398	88.06
423.621	74.06
423.843	82.06
424.066	86.06
424.288	96.06
424.511	102.06
424.733	85.06
424.956	90.06
425.178	97.06
425.401	96.06
425.623	98.06
425.846	98.06
426.068	88.06
426.291	100.06
426.513	85.06
426.735	90.06
426.958	94.06
427.18	102.06
427.402	116.06
427.625	162.06
427.847	131.06
428.069	117.06
428.292	99.06
428.514	104.06
428.736	99.06
428.958	86.06
429.181	80.06
429.403	98.06
429.625	84.06
429.847	84.06
430.069	111.06
430.292	98.06
430.514	91.06
430.736	90.06
430.958	90.06
431.18	73.06
431.402	94.06
431.624	80.06
431.846	82.06
432.068	94.06
432.29	95.06
432.512	95.06
432.734	84.06
432.956	81.06
433.178	99.06
433.4	89.06
433.622	118.06
433.844	94.06
434.066	88.06
434.287	91.06
434.509	97.06
434.731	90.06
434.953	82.06
435.175	90.06
435.397	80.06
435.618	91.06
435.84	92.06
436.062	108.06
436.284	96.06
436.505	83.06
436.727	101.06
436.949	86.06
437.17	76.06
437.392	90.06
437.614	84.06
437.835	95.06
438.057	109.06
438.278	93.06
438.5	83.06
438.721	101.06
438.943	96.06
439.165	94.06
439.386	76.06
439.608	81.06
439.829	83.06
440.05	115.06
440.272	107.06
440.493	92.06
440.715	88.06
440.936	88.06
441.158	92.06
441.379	85.06
441.6	89.06
441.822	114.06
442.043	100.06
442.264	86.06
442.486	99.06
442.707	103.06
442.928	95.06
443.149	128.06
443.371	116.06
443.592	106.06
443.813	97.06
444.034	112.06
444.255	89.06
444.476	99.06
444.698	99.06
444.919	96.06
445.14	128.06
445.361	116.06
445.582	97.06
445.803	112.06
446.024	126.06
446.245	116.06
446.466	90.06
446.687	93.06
446.908	93.06
447.129	94.06
447.35	91.06
447.571	100.06
447.792	76.06
448.013	98.06
448.234	111.06
448.455	118.06
448.675	94.06
448.896	120.06
449.117	106.06
449.338	90.06
449.559	109.06
449.779	121.06
450	82.06
450.221	82.06
450.442	92.06
450.662	84.06
450.883	93.06
451.104	107.06
451.324	88.06
451.545	82.06
451.766	95.06
451.986	70.06
452.207	105.06
452.428	94.06
452.648	93.06
452.869	119.06
453.089	107.06
453.31	100.06
453.53	91.06
453.751	101.06
453.971	102.06
454.192	99.06
454.412	96.06
454.633	98.06
454.853	100.06
455.073	93.06
455.294	100.06
455.514	97.06
455.734	82.06
455.955	98.06
456.175	81.06
456.395	78.06
456.616	80.06
456.836	94.06
457.056	78.06
457.276	88.06
457.497	94.06
457.717	102.06
457.937	88.06
458.157	82.06
458.377	97.06
458.598	109.06
458.818	135.06
459.038	152.06
459.258	112.06
459.478	104.06
459.698	102.06
459.918	88.06
460.138	84.06
460.358	83.06
460.578	78.06
460.798	93.06
461.018	89.06
461.238	82.06
461.458	86.06
461.678	92.06
461.898	74.06
462.118	93.06
462.338	95.06
462.558	91.06
462.777	88.06
462.997	90.06
463.217	95.06
463.437	79.06
463.657	69.06
463.876	72.06
464.096	85.06
464.316	84.06
464.536	89.06
464.755	90.06
464.975	101.06
465.195	137.06
465.414	156.06
465.634	107.06
465.854	76.06
466.073	94.06
466.293	96.06
466.512	86.06
466.732	94.06
466.951	86.06
467.171	81.06
467.391	92.06
467.61	96.06
467.829	96.06
468.049	141.06
468.268	159.06
468.488	92.06
468.707	88.06
468.927	79.06
469.146	94.06
469.365	85.06
469.585	92.06
469.804	94.06
470.023	98.06
470.243	93.06
470.462	93.06
470.681	85.06
470.901	100.06
471.12	96.06
471.339	91.06
471.558	95.06
471.777	89.06
471.997	102.06
472.216	200.06
472.435	320.06
472.654	124.06
472.873	114.06
473.092	90.06
473.311	81.06
473.53	80.06
473.749	78.06
473.968	77.06
474.187	100.06
474.406	93.06
474.625	84.06
474.844	90.06
475.063	96.06
475.282	98.06
475.501	91.06
475.72	106.06
475.939	88.06
476.158	72.06
476.377	88.06
476.596	94.06
476.814	91.06
477.033	99.06
477.252	88.06
477.471	98.06
477.69	81.06
477.908	81.06
478.127	78.06
478.346	92.06
478.564	100.06
478.783	100.06
479.002	96.06
479.22	96.06
479.439	106.06
479.658	98.06
479.876	90.06
480.095	92.06
480.313	92.06
480.532	103.06
480.751	93.06
480.969	183.06
481.188	515.06
481.406	305.06
481.624	114.06
481.843	89.06
482.061	83.06
482.28	89.06
482.498	76.06
482.717	91.06
482.935	96.06
483.153	93.06
483.372	88.06
483.59	91.06
483.808	97.06
484.027	97.06
484.245	102.06
484.463	100.06
484.681	100.06
484.9	97.06
485.118	110.06
485.336	90.06
485.554	90.06
485.772	117.06
485.99	111.06
486.209	105.06
486.427	102.06
486.645	105.06
486.863	114.06
487.081	102.06
487.299	97.06
487.517	91.06
487.735	90.06
487.953	99.06
488.171	88.06
488.389	83.06
488.607	107.06
488.825	79.06
489.043	92.06
489.261	80.06
489.479	100.06
489.696	73.06
489.914	92.06
490.132	86.06
490.35	94.06
490.568	82.06
490.786	88.06
491.003	84.06
491.221	87.06
491.439	84.06
491.657	99.06
491.874	96.06
492.092	99.06
492.31	102.06
492.527	85.06
492.745	90.06
492.963	98.06
493.18	87.06
493.398	88.06
493.615	95.06
493.833	84.06
494.05	86.06
494.268	113.06
494.485	93.06
494.703	99.06
494.92	79.06
495.138	99.06
495.355	96.06
495.573	95.06
495.79	99.06
496.008	89.06
496.225	90.06
496.442	100.06
496.66	90.06
496.877	95.06
497.094	86.06
497.312	96.06
497.529	100.06
497.746	103.06
497.963	96.06
498.181	96.06
498.398	78.06
498.615	106.06
498.832	93.06
499.049	91.06
499.267	82.06
499.484	102.06
499.701	98.06
499.918	100.06
500.135	77.06
500.352	100.06
500.569	80.06
500.786	79.06
501.003	97.06
501.22	82.06
501.437	101.06
501.654	102.06
501.871	101.06
502.088	93.06
502.305	86.06
502.522	91.06
502.739	94.06
502.956	90.06
503.172	104.06
503.389	89.06
503.606	93.06
503.823	86.06
504.04	95.06
504.256	94.06
504.473	81.06
504.69	89.06
504.907	101.06
505.123	91.06
505.34	86.06
505.557	90.06
505.773	91.06
505.99	110.06
506.207	97.06
506.423	98.06
506.64	80.06
506.856	103.06
507.073	100.06
507.289	91.06
507.506	99.06
507.722	96.06
507.939	113.06
508.155	97.06
508.372	97.06
508.588	97.06
508.805	100.06
509.021	104.06
509.238	92.06
509.454	91.06
509.67	105.06
509.887	116.06
510.103	146.06
510.319	215.06
510.536	739.06
510.752	2504.06
510.968	675.06
511.184	158.06
511.401	117.06
511.617	101.06
511.833	90.06
512.049	93.06
512.265	69.06
512.481	81.06
512.698	103.06
512.914	96.06
513.13	88.06
513.346	80.06
513.562	83.06
513.778	100.06
513.994	96.06
514.21	97.06
514.426	109.06
514.642	126.06
514.858	123.06
515.074	160.06
