Data from Circ_1996_H10_HRD10591_00099.txt Node
Date: Wed Jan 03 11:33:25 EST 2024
User: Yrep
Spectrometer: HR+D1059
Trigger mode: 1
Integration Time (sec): 1.000000E-1
Scans to average: 1
Electric dark correction enabled: true
Nonlinearity correction enabled: false
Boxcar width: 0
XAxis mode: Wavelengths
Number of Pixels in Spectrum: 2048
>>>>>Begin Spectral Data<<<<<
223.165	-20.5
223.4	-20.5
223.635	-20.5
223.869	-21.5
224.104	-14.5
224.338	-12.5
224.573	-19.5
224.808	-6.5
225.042	-23.5
225.277	-7.5
225.511	-5.5
225.746	0.5
225.98	15.5
226.215	12.5
226.449	2.5
226.683	35.5
226.918	32.5
227.152	32.5
227.387	18.5
227.621	36.5
227.856	45.5
228.09	52.5
228.324	51.5
228.559	64.5
228.793	57.5
229.027	70.5
229.262	78.5
229.496	84.5
229.73	86.5
229.964	85.5
230.199	65.5
230.433	74.5
230.667	70.5
230.901	75.5
231.136	68.5
231.37	100.5
231.604	65.5
231.838	71.5
232.072	81.5
232.306	81.5
232.541	81.5
232.775	75.5
233.009	82.5
233.243	82.5
233.477	92.5
233.711	82.5
233.945	73.5
234.179	88.5
234.413	90.5
234.647	78.5
234.881	80.5
235.115	82.5
235.349	78.5
235.583	72.5
235.817	79.5
236.051	83.5
236.285	77.5
236.519	71.5
236.753	81.5
236.987	66.5
237.221	80.5
237.455	79.5
237.689	73.5
237.922	87.5
238.156	79.5
238.39	69.5
238.624	82.5
238.858	70.5
239.091	71.5
239.325	80.5
239.559	81.5
239.793	94.5
240.027	79.5
240.26	82.5
240.494	79.5
240.728	66.5
240.961	63.5
241.195	73.5
241.429	80.5
241.662	67.5
241.896	71.5
242.13	67.5
242.363	86.5
242.597	74.5
242.83	72.5
243.064	68.5
243.298	81.5
243.531	78.5
243.765	72.5
243.998	86.5
244.232	87.5
244.465	77.5
244.699	89.5
244.932	64.5
245.166	75.5
245.399	80.5
245.633	79.5
245.866	84.5
246.099	71.5
246.333	70.5
246.566	78.5
246.8	75.5
247.033	88.5
247.266	79.5
247.5	88.5
247.733	90.5
247.966	69.5
248.2	72.5
248.433	84.5
248.666	72.5
248.899	96.5
249.133	96.5
249.366	96.5
249.599	101.5
249.832	88.5
250.066	81.5
250.299	80.5
250.532	78.5
250.765	61.5
250.998	78.5
251.231	74.5
251.465	97.5
251.698	76.5
251.931	96.5
252.164	80.5
252.397	77.5
252.63	72.5
252.863	62.5
253.096	79.5
253.329	80.5
253.562	80.5
253.795	81.5
254.028	84.5
254.261	81.5
254.494	89.5
254.727	84.5
254.96	90.5
255.193	84.5
255.426	76.5
255.659	79.5
255.892	87.5
256.124	71.5
256.357	89.5
256.59	67.5
256.823	78.5
257.056	93.5
257.289	74.5
257.521	91.5
257.754	64.5
257.987	89.5
258.22	83.5
258.452	58.5
258.685	80.5
258.918	70.5
259.151	90.5
259.383	90.5
259.616	82.5
259.849	89.5
260.081	81.5
260.314	78.5
260.547	81.5
260.779	75.5
261.012	77.5
261.244	75.5
261.477	82.5
261.71	94.5
261.942	114.5
262.175	109.5
262.407	98.5
262.64	86.5
262.872	79.5
263.105	77.5
263.337	83.5
263.57	84.5
263.802	89.5
264.035	87.5
264.267	96.5
264.499	74.5
264.732	80.5
264.964	86.5
265.197	88.5
265.429	71.5
265.661	87.5
265.894	94.5
266.126	88.5
266.358	84.5
266.591	94.5
266.823	101.5
267.055	88.5
267.287	80.5
267.52	83.5
267.752	89.5
267.984	85.5
268.216	90.5
268.448	85.5
268.681	79.5
268.913	93.5
269.145	67.5
269.377	85.5
269.609	82.5
269.841	91.5
270.073	88.5
270.306	86.5
270.538	84.5
270.77	84.5
271.002	78.5
271.234	82.5
271.466	84.5
271.698	82.5
271.93	84.5
272.162	85.5
272.394	100.5
272.626	90.5
272.858	58.5
273.09	94.5
273.322	80.5
273.553	75.5
273.785	88.5
274.017	65.5
274.249	74.5
274.481	83.5
274.713	83.5
274.945	79.5
275.176	86.5
275.408	91.5
275.64	88.5
275.872	103.5
276.104	90.5
276.335	92.5
276.567	88.5
276.799	106.5
277.031	93.5
277.262	94.5
277.494	83.5
277.726	85.5
277.957	96.5
278.189	71.5
278.421	78.5
278.652	88.5
278.884	89.5
279.115	79.5
279.347	66.5
279.579	92.5
279.81	75.5
280.042	110.5
280.273	100.5
280.505	92.5
280.736	79.5
280.968	87.5
281.199	81.5
281.431	90.5
281.662	83.5
281.894	86.5
282.125	88.5
282.356	120.5
282.588	128.5
282.819	109.5
283.051	90.5
283.282	86.5
283.513	84.5
283.745	76.5
283.976	93.5
284.207	83.5
284.439	81.5
284.67	88.5
284.901	88.5
285.132	80.5
285.364	88.5
285.595	95.5
285.826	87.5
286.057	92.5
286.288	97.5
286.52	99.5
286.751	81.5
286.982	79.5
287.213	83.5
287.444	86.5
287.675	77.5
287.906	94.5
288.138	92.5
288.369	87.5
288.6	79.5
288.831	103.5
289.062	98.5
289.293	102.5
289.524	65.5
289.755	81.5
289.986	77.5
290.217	91.5
290.448	97.5
290.679	91.5
290.91	91.5
291.141	95.5
291.371	84.5
291.602	82.5
291.833	91.5
292.064	81.5
292.295	74.5
292.526	73.5
292.757	80.5
292.987	89.5
293.218	79.5
293.449	86.5
293.68	82.5
293.91	86.5
294.141	103.5
294.372	91.5
294.603	86.5
294.833	99.5
295.064	94.5
295.295	66.5
295.525	96.5
295.756	107.5
295.987	106.5
296.217	115.5
296.448	114.5
296.679	97.5
296.909	86.5
297.14	89.5
297.37	87.5
297.601	99.5
297.831	82.5
298.062	93.5
298.292	88.5
298.523	97.5
298.753	86.5
298.984	91.5
299.214	100.5
299.445	95.5
299.675	91.5
299.905	97.5
300.136	96.5
300.366	87.5
300.597	110.5
300.827	98.5
301.057	110.5
301.288	95.5
301.518	82.5
301.748	82.5
301.979	96.5
302.209	100.5
302.439	82.5
302.669	88.5
302.9	91.5
303.13	91.5
303.36	91.5
303.59	102.5
303.82	112.5
304.051	98.5
304.281	79.5
304.511	88.5
304.741	99.5
304.971	96.5
305.201	94.5
305.431	96.5
305.661	102.5
305.891	98.5
306.121	96.5
306.352	114.5
306.582	99.5
306.812	85.5
307.042	97.5
307.272	102.5
307.502	103.5
307.731	105.5
307.961	86.5
308.191	83.5
308.421	93.5
308.651	105.5
308.881	90.5
309.111	83.5
309.341	104.5
309.571	98.5
309.8	102.5
310.03	92.5
310.26	107.5
310.49	89.5
310.72	92.5
310.949	96.5
311.179	105.5
311.409	87.5
311.639	102.5
311.868	105.5
312.098	99.5
312.328	80.5
312.557	107.5
312.787	100.5
313.017	87.5
313.246	97.5
313.476	96.5
313.706	95.5
313.935	92.5
314.165	95.5
314.394	106.5
314.624	101.5
314.853	95.5
315.083	80.5
315.312	100.5
315.542	87.5
315.771	85.5
316.001	89.5
316.23	89.5
316.46	88.5
316.689	82.5
316.919	91.5
317.148	98.5
317.377	90.5
317.607	83.5
317.836	96.5
318.065	88.5
318.295	92.5
318.524	93.5
318.753	91.5
318.983	78.5
319.212	89.5
319.441	110.5
319.67	109.5
319.9	90.5
320.129	91.5
320.358	97.5
320.587	93.5
320.816	90.5
321.046	107.5
321.275	91.5
321.504	91.5
321.733	97.5
321.962	96.5
322.191	106.5
322.42	103.5
322.649	91.5
322.878	126.5
323.108	119.5
323.337	117.5
323.566	117.5
323.795	136.5
324.024	174.5
324.253	317.5
324.482	630.5
324.71	1246.5
324.939	1642.5
325.168	633.5
325.397	189.5
325.626	117.5
325.855	123.5
326.084	134.5
326.313	106.5
326.542	139.5
326.77	188.5
326.999	337.5
327.228	666.5
327.457	1184.5
327.686	964.5
327.914	294.5
328.143	205.5
328.372	188.5
328.6	138.5
328.829	115.5
329.058	132.5
329.287	130.5
329.515	116.5
329.744	105.5
329.972	138.5
330.201	188.5
330.43	209.5
330.658	171.5
330.887	127.5
331.115	102.5
331.344	104.5
331.572	99.5
331.801	113.5
332.03	99.5
332.258	92.5
332.486	100.5
332.715	98.5
332.943	83.5
333.172	82.5
333.4	97.5
333.629	118.5
333.857	112.5
334.085	130.5
334.314	173.5
334.542	267.5
334.771	240.5
334.999	129.5
335.227	91.5
335.455	98.5
335.684	93.5
335.912	98.5
336.14	90.5
336.369	102.5
336.597	98.5
336.825	102.5
337.053	104.5
337.281	83.5
337.51	82.5
337.738	100.5
337.966	90.5
338.194	94.5
338.422	80.5
338.65	99.5
338.878	89.5
339.106	90.5
339.334	104.5
339.562	89.5
339.79	86.5
340.018	96.5
340.246	86.5
340.474	90.5
340.702	79.5
340.93	86.5
341.158	107.5
341.386	86.5
341.614	100.5
341.842	74.5
342.07	92.5
342.298	92.5
342.526	88.5
342.754	73.5
342.981	94.5
343.209	102.5
343.437	100.5
343.665	92.5
343.893	80.5
344.12	79.5
344.348	90.5
344.576	81.5
344.804	91.5
345.031	86.5
345.259	100.5
345.487	86.5
345.714	84.5
345.942	98.5
346.17	110.5
346.397	94.5
346.625	106.5
346.853	80.5
347.08	78.5
347.308	111.5
347.535	105.5
347.763	87.5
347.99	91.5
348.218	92.5
348.445	91.5
348.673	89.5
348.9	96.5
349.128	98.5
349.355	83.5
349.583	81.5
349.81	81.5
350.037	100.5
350.265	83.5
350.492	106.5
350.72	99.5
350.947	98.5
351.174	92.5
351.402	107.5
351.629	106.5
351.856	106.5
352.083	99.5
352.311	95.5
352.538	106.5
352.765	98.5
352.992	121.5
353.22	99.5
353.447	97.5
353.674	104.5
353.901	96.5
354.128	104.5
354.355	95.5
354.583	91.5
354.81	94.5
355.037	86.5
355.264	97.5
355.491	80.5
355.718	85.5
355.945	89.5
356.172	90.5
356.399	99.5
356.626	94.5
356.853	79.5
357.08	83.5
357.307	79.5
357.534	91.5
357.761	79.5
357.988	102.5
358.215	81.5
358.441	80.5
358.668	87.5
358.895	82.5
359.122	85.5
359.349	74.5
359.576	88.5
359.802	92.5
360.029	112.5
360.256	99.5
360.483	97.5
360.709	81.5
360.936	96.5
361.163	90.5
361.39	100.5
361.616	96.5
361.843	81.5
362.07	100.5
362.296	88.5
362.523	88.5
362.749	95.5
362.976	105.5
363.203	92.5
363.429	81.5
363.656	87.5
363.882	93.5
364.109	89.5
364.335	93.5
364.562	83.5
364.788	73.5
365.015	97.5
365.241	98.5
365.468	92.5
365.694	91.5
365.92	91.5
366.147	87.5
366.373	83.5
366.599	84.5
366.826	99.5
367.052	93.5
367.278	89.5
367.505	105.5
367.731	97.5
367.957	91.5
368.184	95.5
368.41	112.5
368.636	109.5
368.862	122.5
369.089	105.5
369.315	98.5
369.541	94.5
369.767	94.5
369.993	100.5
370.219	106.5
370.445	89.5
370.672	87.5
370.898	91.5
371.124	84.5
371.35	88.5
371.576	86.5
371.802	91.5
372.028	79.5
372.254	95.5
372.48	78.5
372.706	84.5
372.932	72.5
373.158	83.5
373.384	95.5
373.61	90.5
373.835	102.5
374.061	97.5
374.287	87.5
374.513	86.5
374.739	86.5
374.965	98.5
375.191	90.5
375.416	87.5
375.642	89.5
375.868	82.5
376.094	87.5
376.319	92.5
376.545	86.5
376.771	85.5
376.997	84.5
377.222	85.5
377.448	81.5
377.674	89.5
377.899	85.5
378.125	98.5
378.35	94.5
378.576	86.5
378.802	78.5
379.027	94.5
379.253	94.5
379.478	111.5
379.704	89.5
379.929	97.5
380.155	92.5
380.38	81.5
380.606	87.5
380.831	88.5
381.057	97.5
381.282	85.5
381.507	99.5
381.733	99.5
381.958	94.5
382.184	100.5
382.409	112.5
382.634	93.5
382.86	94.5
383.085	96.5
383.31	102.5
383.535	103.5
383.761	100.5
383.986	90.5
384.211	76.5
384.436	93.5
384.662	109.5
384.887	118.5
385.112	80.5
385.337	87.5
385.562	85.5
385.787	110.5
386.013	100.5
386.238	117.5
386.463	100.5
386.688	106.5
386.913	94.5
387.138	102.5
387.363	87.5
387.588	91.5
387.813	100.5
388.038	113.5
388.263	105.5
388.488	118.5
388.713	97.5
388.938	97.5
389.163	101.5
389.387	87.5
389.612	98.5
389.837	88.5
390.062	96.5
390.287	89.5
390.512	98.5
390.736	94.5
390.961	91.5
391.186	90.5
391.411	94.5
391.636	83.5
391.86	92.5
392.085	98.5
392.31	82.5
392.534	70.5
392.759	83.5
392.984	84.5
393.208	97.5
393.433	92.5
393.658	82.5
393.882	70.5
394.107	87.5
394.331	91.5
394.556	83.5
394.78	76.5
395.005	83.5
395.229	86.5
395.454	93.5
395.678	86.5
395.903	76.5
396.127	94.5
396.352	93.5
396.576	82.5
396.801	94.5
397.025	75.5
397.249	98.5
397.474	94.5
397.698	96.5
397.922	92.5
398.147	82.5
398.371	87.5
398.595	91.5
398.82	85.5
399.044	105.5
399.268	84.5
399.492	91.5
399.717	86.5
399.941	96.5
400.165	99.5
400.389	90.5
400.613	90.5
400.837	81.5
401.062	83.5
401.286	93.5
401.51	84.5
401.734	99.5
401.958	94.5
402.182	112.5
402.406	162.5
402.63	104.5
402.854	86.5
403.078	88.5
403.302	86.5
403.526	78.5
403.75	100.5
403.974	96.5
404.198	107.5
404.422	89.5
404.645	87.5
404.869	82.5
405.093	100.5
405.317	107.5
405.541	92.5
405.765	114.5
405.988	115.5
406.212	170.5
406.436	234.5
406.66	138.5
406.883	108.5
407.107	98.5
407.331	97.5
407.555	83.5
407.778	102.5
408.002	96.5
408.226	88.5
408.449	93.5
408.673	90.5
408.896	86.5
409.12	105.5
409.344	83.5
409.567	93.5
409.791	102.5
410.014	86.5
410.238	84.5
410.461	89.5
410.685	92.5
410.908	106.5
411.132	113.5
411.355	84.5
411.578	96.5
411.802	81.5
412.025	101.5
412.249	88.5
412.472	96.5
412.695	103.5
412.919	94.5
413.142	83.5
413.365	81.5
413.589	86.5
413.812	111.5
414.035	89.5
414.258	88.5
414.482	78.5
414.705	89.5
414.928	101.5
415.151	99.5
415.374	83.5
415.597	91.5
415.821	92.5
416.044	95.5
416.267	95.5
416.49	99.5
416.713	98.5
416.936	80.5
417.159	102.5
417.382	93.5
417.605	81.5
417.828	98.5
418.051	92.5
418.274	92.5
418.497	95.5
418.72	74.5
418.943	88.5
419.166	82.5
419.389	83.5
419.611	89.5
419.834	101.5
420.057	86.5
420.28	93.5
420.503	84.5
420.726	83.5
420.948	86.5
421.171	84.5
421.394	88.5
421.617	90.5
421.839	118.5
422.062	82.5
422.285	85.5
422.507	101.5
422.73	95.5
422.953	89.5
423.175	91.5
423.398	84.5
423.621	95.5
423.843	84.5
424.066	90.5
424.288	90.5
424.511	87.5
424.733	81.5
424.956	111.5
425.178	94.5
425.401	94.5
425.623	94.5
425.846	75.5
426.068	82.5
426.291	89.5
426.513	79.5
426.735	106.5
426.958	94.5
427.18	100.5
427.402	129.5
427.625	161.5
427.847	136.5
428.069	119.5
428.292	92.5
428.514	81.5
428.736	91.5
428.958	92.5
429.181	83.5
429.403	86.5
429.625	82.5
429.847	103.5
430.069	98.5
430.292	93.5
430.514	72.5
430.736	93.5
430.958	92.5
431.18	87.5
431.402	82.5
431.624	97.5
431.846	69.5
432.068	90.5
432.29	87.5
432.512	79.5
432.734	95.5
432.956	107.5
433.178	96.5
433.4	96.5
433.622	85.5
433.844	86.5
434.066	97.5
434.287	98.5
434.509	83.5
434.731	90.5
434.953	83.5
435.175	94.5
435.397	89.5
435.618	82.5
435.84	95.5
436.062	100.5
436.284	96.5
436.505	93.5
436.727	100.5
436.949	93.5
437.17	79.5
437.392	80.5
437.614	94.5
437.835	96.5
438.057	117.5
438.278	103.5
438.5	106.5
438.721	120.5
438.943	93.5
439.165	80.5
439.386	83.5
439.608	98.5
439.829	84.5
440.05	115.5
440.272	118.5
440.493	96.5
440.715	95.5
440.936	95.5
441.158	83.5
441.379	72.5
441.6	96.5
441.822	91.5
442.043	95.5
442.264	100.5
442.486	106.5
442.707	85.5
442.928	103.5
443.149	120.5
443.371	120.5
443.592	113.5
443.813	98.5
444.034	100.5
444.255	98.5
444.476	95.5
444.698	79.5
444.919	102.5
445.14	126.5
445.361	96.5
445.582	112.5
445.803	129.5
446.024	137.5
446.245	121.5
446.466	100.5
446.687	78.5
446.908	80.5
447.129	87.5
447.35	94.5
447.571	91.5
447.792	103.5
448.013	96.5
448.234	97.5
448.455	107.5
448.675	114.5
448.896	113.5
449.117	87.5
449.338	95.5
449.559	100.5
449.779	119.5
450	92.5
450.221	90.5
450.442	97.5
450.662	90.5
450.883	95.5
451.104	110.5
451.324	94.5
451.545	87.5
451.766	87.5
451.986	81.5
452.207	91.5
452.428	91.5
452.648	100.5
452.869	100.5
453.089	114.5
453.31	131.5
453.53	104.5
453.751	99.5
453.971	103.5
454.192	120.5
454.412	94.5
454.633	91.5
454.853	93.5
455.073	77.5
455.294	98.5
455.514	97.5
455.734	84.5
455.955	87.5
456.175	66.5
456.395	79.5
456.616	81.5
456.836	78.5
457.056	96.5
457.276	82.5
457.497	78.5
457.717	82.5
457.937	99.5
458.157	86.5
458.377	94.5
458.598	105.5
458.818	138.5
459.038	157.5
459.258	103.5
459.478	83.5
459.698	88.5
459.918	94.5
460.138	87.5
460.358	84.5
460.578	76.5
460.798	97.5
461.018	90.5
461.238	91.5
461.458	100.5
461.678	89.5
461.898	91.5
462.118	85.5
462.338	76.5
462.558	108.5
462.777	74.5
462.997	85.5
463.217	78.5
463.437	85.5
463.657	78.5
463.876	90.5
464.096	95.5
464.316	100.5
464.536	89.5
464.755	89.5
464.975	93.5
465.195	144.5
465.414	144.5
465.634	89.5
465.854	95.5
466.073	92.5
466.293	93.5
466.512	90.5
466.732	82.5
466.951	91.5
467.171	112.5
467.391	98.5
467.61	116.5
467.829	105.5
468.049	131.5
468.268	166.5
468.488	90.5
468.707	83.5
468.927	83.5
469.146	70.5
469.365	86.5
469.585	79.5
469.804	86.5
470.023	82.5
470.243	79.5
470.462	97.5
470.681	107.5
470.901	82.5
471.12	98.5
471.339	88.5
471.558	92.5
471.777	94.5
471.997	110.5
472.216	186.5
472.435	337.5
472.654	126.5
472.873	92.5
473.092	82.5
473.311	88.5
473.53	87.5
473.749	75.5
473.968	90.5
474.187	93.5
474.406	93.5
474.625	90.5
474.844	88.5
475.063	96.5
475.282	89.5
475.501	86.5
475.72	71.5
475.939	89.5
476.158	88.5
476.377	88.5
476.596	87.5
476.814	83.5
477.033	86.5
477.252	87.5
477.471	66.5
477.69	92.5
477.908	83.5
478.127	78.5
478.346	79.5
478.564	87.5
478.783	86.5
479.002	93.5
479.22	91.5
479.439	102.5
479.658	110.5
479.876	90.5
480.095	83.5
480.313	91.5
480.532	100.5
480.751	120.5
480.969	212.5
481.188	549.5
481.406	320.5
481.624	113.5
481.843	92.5
482.061	97.5
482.28	87.5
482.498	90.5
482.717	79.5
482.935	83.5
483.153	94.5
483.372	71.5
483.59	78.5
483.808	102.5
484.027	86.5
484.245	89.5
484.463	91.5
484.681	112.5
484.9	86.5
485.118	114.5
485.336	106.5
485.554	85.5
485.772	91.5
485.99	105.5
486.209	106.5
486.427	103.5
486.645	111.5
486.863	105.5
487.081	118.5
487.299	100.5
487.517	93.5
487.735	96.5
487.953	109.5
488.171	101.5
488.389	106.5
488.607	104.5
488.825	83.5
489.043	90.5
489.261	83.5
489.479	83.5
489.696	96.5
489.914	62.5
490.132	77.5
490.35	101.5
490.568	89.5
490.786	74.5
491.003	68.5
491.221	94.5
491.439	91.5
491.657	95.5
491.874	92.5
492.092	86.5
492.31	93.5
492.527	98.5
492.745	83.5
492.963	91.5
493.18	100.5
493.398	87.5
493.615	98.5
493.833	111.5
494.05	86.5
494.268	86.5
494.485	88.5
494.703	85.5
494.92	80.5
495.138	93.5
495.355	94.5
495.573	95.5
495.79	91.5
496.008	92.5
496.225	83.5
496.442	97.5
496.66	86.5
496.877	99.5
497.094	97.5
497.312	87.5
497.529	94.5
497.746	100.5
497.963	90.5
498.181	102.5
498.398	98.5
498.615	109.5
498.832	99.5
499.049	90.5
499.267	98.5
499.484	78.5
499.701	90.5
499.918	83.5
500.135	80.5
500.352	88.5
500.569	97.5
500.786	85.5
501.003	85.5
501.22	97.5
501.437	89.5
501.654	103.5
501.871	111.5
502.088	98.5
502.305	89.5
502.522	90.5
502.739	88.5
502.956	93.5
503.172	96.5
503.389	106.5
503.606	112.5
503.823	83.5
504.04	95.5
504.256	92.5
504.473	106.5
504.69	94.5
504.907	104.5
505.123	88.5
505.34	79.5
505.557	83.5
505.773	87.5
505.99	86.5
506.207	92.5
506.423	87.5
506.64	97.5
506.856	90.5
507.073	93.5
507.289	97.5
507.506	106.5
507.722	121.5
507.939	102.5
508.155	87.5
508.372	87.5
508.588	91.5
508.805	103.5
509.021	99.5
509.238	106.5
509.454	86.5
509.67	88.5
509.887	111.5
510.103	142.5
510.319	230.5
510.536	774.5
510.752	2600.5
510.968	690.5
511.184	171.5
511.401	101.5
511.617	114.5
511.833	84.5
512.049	104.5
512.265	84.5
512.481	93.5
512.698	95.5
512.914	97.5
513.13	86.5
513.346	92.5
513.562	97.5
513.778	96.5
513.994	111.5
514.21	92.5
514.426	117.5
514.642	127.5
514.858	119.5
515.074	164.5
515.29	451.5
515.506	1444.5
515.721	513.5
515.937	142.5
516.153	120.5
516.369	92.5
516.585	89.5
516.801	105.5
517.016	91.5
517.232	91.5
517.448	94.5
517.664	96.5
517.879	87.5
518.095	82.5
518.311	82.5
518.527	96.5
518.742	88.5
518.958	90.5
519.173	111.5
519.389	94.5
519.605	87.5
519.82	99.5
520.036	94.5
520.251	114.5
520.467	109.5
520.682	113.5
520.898	114.5
521.113	105.5
521.329	130.5
521.544	200.5
521.76	550.5
521.975	2420.5
522.19	1480.5
522.406	310.5
522.621	118.5
522.836	103.5
523.052	102.5
523.267	82.5
523.482	89.5
523.698	84.5
523.913	124.5
524.128	99.5
524.343	106.5
524.559	95.5
524.774	93.5
524.989	92.5
525.204	99.5
525.419	92.5
525.634	94.5
525.849	87.5
526.064	93.5
526.28	84.5
526.495	83.5
526.71	97.5
526.925	95.5
527.14	99.5
527.355	95.5
527.57	79.5
527.785	101.5
527.999	88.5
528.214	88.5
528.429	98.5
528.644	106.5
528.859	83.5
529.074	83.5
529.289	117.5
529.503	158.5
529.718	101.5
529.933	91.5
530.148	95.5
530.363	96.5
530.577	92.5
530.792	90.5
531.007	102.5
531.221	93.5
531.436	103.5
531.651	96.5
531.865	95.5
532.08	107.5
532.295	89.5
532.509	94.5
532.724	80.5
532.938	87.5
533.153	96.5
533.367	95.5
533.582	98.5
533.796	90.5
534.011	90.5
534.225	87.5
534.44	91.5
534.654	103.5
534.868	98.5
535.083	90.5
535.297	95.5
535.511	105.5
