Data from Circ_1996_H10_HRD10591_00007.txt Node
Date: Wed Jan 03 11:33:07 EST 2024
User: Yrep
Spectrometer: HR+D1059
Trigger mode: 1
Integration Time (sec): 1.000000E-1
Scans to average: 1
Electric dark correction enabled: true
Nonlinearity correction enabled: false
Boxcar width: 0
XAxis mode: Wavelengths
Number of Pixels in Spectrum: 2048
>>>>>Begin Spectral Data<<<<<
223.165	-16.75
223.4	-16.75
223.635	-16.75
223.869	-16.75
224.104	-22.75
224.338	-7.75
224.573	-12.75
224.808	-3.75
225.042	-16.75
225.277	0.25
225.511	-13.75
225.746	-8.75
225.98	-2.75
226.215	22.25
226.449	19.25
226.683	23.25
226.918	24.25
227.152	33.25
227.387	33.25
227.621	27.25
227.856	41.25
228.09	38.25
228.324	48.25
228.559	54.25
228.793	56.25
229.027	50.25
229.262	62.25
229.496	72.25
229.73	69.25
229.964	64.25
230.199	90.25
230.433	76.25
230.667	76.25
230.901	69.25
231.136	68.25
231.37	83.25
231.604	73.25
231.838	71.25
232.072	62.25
232.306	91.25
232.541	83.25
232.775	83.25
233.009	79.25
233.243	77.25
233.477	77.25
233.711	82.25
233.945	70.25
234.179	63.25
234.413	93.25
234.647	72.25
234.881	62.25
235.115	83.25
235.349	75.25
235.583	67.25
235.817	91.25
236.051	77.25
236.285	71.25
236.519	82.25
236.753	87.25
236.987	76.25
237.221	79.25
237.455	71.25
237.689	65.25
237.922	96.25
238.156	84.25
238.39	81.25
238.624	84.25
238.858	85.25
239.091	81.25
239.325	72.25
239.559	94.25
239.793	89.25
240.027	78.25
240.26	80.25
240.494	68.25
240.728	73.25
240.961	79.25
241.195	82.25
241.429	77.25
241.662	88.25
241.896	88.25
242.13	83.25
242.363	71.25
242.597	76.25
242.83	98.25
243.064	83.25
243.298	82.25
243.531	75.25
243.765	70.25
243.998	75.25
244.232	70.25
244.465	85.25
244.699	89.25
244.932	74.25
245.166	82.25
245.399	83.25
245.633	73.25
245.866	82.25
246.099	82.25
246.333	80.25
246.566	87.25
246.8	79.25
247.033	73.25
247.266	69.25
247.5	79.25
247.733	73.25
247.966	83.25
248.2	83.25
248.433	81.25
248.666	81.25
248.899	88.25
249.133	84.25
249.366	81.25
249.599	92.25
249.832	73.25
250.066	77.25
250.299	64.25
250.532	97.25
250.765	88.25
250.998	80.25
251.231	67.25
251.465	79.25
251.698	83.25
251.931	81.25
252.164	91.25
252.397	87.25
252.63	80.25
252.863	79.25
253.096	73.25
253.329	92.25
253.562	72.25
253.795	76.25
254.028	68.25
254.261	81.25
254.494	82.25
254.727	87.25
254.96	95.25
255.193	75.25
255.426	76.25
255.659	90.25
255.892	71.25
256.124	80.25
256.357	81.25
256.59	73.25
256.823	69.25
257.056	87.25
257.289	76.25
257.521	84.25
257.754	88.25
257.987	89.25
258.22	80.25
258.452	93.25
258.685	97.25
258.918	91.25
259.151	87.25
259.383	74.25
259.616	92.25
259.849	91.25
260.081	87.25
260.314	87.25
260.547	77.25
260.779	104.25
261.012	84.25
261.244	87.25
261.477	75.25
261.71	84.25
261.942	110.25
262.175	116.25
262.407	76.25
262.64	96.25
262.872	85.25
263.105	98.25
263.337	83.25
263.57	91.25
263.802	81.25
264.035	66.25
264.267	79.25
264.499	82.25
264.732	89.25
264.964	99.25
265.197	97.25
265.429	80.25
265.661	100.25
265.894	78.25
266.126	80.25
266.358	80.25
266.591	85.25
266.823	80.25
267.055	91.25
267.287	73.25
267.52	85.25
267.752	84.25
267.984	80.25
268.216	79.25
268.448	95.25
268.681	78.25
268.913	94.25
269.145	94.25
269.377	82.25
269.609	77.25
269.841	72.25
270.073	89.25
270.306	76.25
270.538	83.25
270.77	89.25
271.002	74.25
271.234	81.25
271.466	89.25
271.698	82.25
271.93	78.25
272.162	85.25
272.394	75.25
272.626	71.25
272.858	83.25
273.09	91.25
273.322	97.25
273.553	92.25
273.785	88.25
274.017	80.25
274.249	76.25
274.481	69.25
274.713	73.25
274.945	79.25
275.176	72.25
275.408	80.25
275.64	80.25
275.872	81.25
276.104	87.25
276.335	96.25
276.567	104.25
276.799	101.25
277.031	92.25
277.262	104.25
277.494	84.25
277.726	88.25
277.957	91.25
278.189	83.25
278.421	101.25
278.652	81.25
278.884	80.25
279.115	95.25
279.347	86.25
279.579	80.25
279.81	90.25
280.042	87.25
280.273	101.25
280.505	76.25
280.736	100.25
280.968	93.25
281.199	94.25
281.431	80.25
281.662	89.25
281.894	95.25
282.125	90.25
282.356	105.25
282.588	146.25
282.819	125.25
283.051	95.25
283.282	95.25
283.513	89.25
283.745	88.25
283.976	91.25
284.207	93.25
284.439	94.25
284.67	73.25
284.901	80.25
285.132	75.25
285.364	99.25
285.595	86.25
285.826	77.25
286.057	74.25
286.288	77.25
286.52	96.25
286.751	89.25
286.982	90.25
287.213	83.25
287.444	93.25
287.675	80.25
287.906	79.25
288.138	78.25
288.369	92.25
288.6	98.25
288.831	99.25
289.062	81.25
289.293	98.25
289.524	93.25
289.755	95.25
289.986	88.25
290.217	83.25
290.448	85.25
290.679	84.25
290.91	84.25
291.141	98.25
291.371	93.25
291.602	93.25
291.833	88.25
292.064	84.25
292.295	83.25
292.526	109.25
292.757	75.25
292.987	97.25
293.218	97.25
293.449	89.25
293.68	95.25
293.91	82.25
294.141	97.25
294.372	77.25
294.603	87.25
294.833	98.25
295.064	85.25
295.295	100.25
295.525	81.25
295.756	100.25
295.987	124.25
296.217	132.25
296.448	122.25
296.679	97.25
296.909	81.25
297.14	84.25
297.37	93.25
297.601	98.25
297.831	77.25
298.062	83.25
298.292	81.25
298.523	81.25
298.753	82.25
298.984	81.25
299.214	85.25
299.445	78.25
299.675	87.25
299.905	91.25
300.136	93.25
300.366	89.25
300.597	82.25
300.827	96.25
301.057	100.25
301.288	108.25
301.518	94.25
301.748	77.25
301.979	91.25
302.209	90.25
302.439	88.25
302.669	75.25
302.9	79.25
303.13	85.25
303.36	86.25
303.59	98.25
303.82	97.25
304.051	90.25
304.281	101.25
304.511	109.25
304.741	80.25
304.971	90.25
305.201	100.25
305.431	84.25
305.661	80.25
305.891	93.25
306.121	97.25
306.352	106.25
306.582	105.25
306.812	87.25
307.042	86.25
307.272	101.25
307.502	101.25
307.731	102.25
307.961	104.25
308.191	89.25
308.421	95.25
308.651	99.25
308.881	93.25
309.111	92.25
309.341	106.25
309.571	107.25
309.8	103.25
310.03	93.25
310.26	93.25
310.49	91.25
310.72	98.25
310.949	106.25
311.179	96.25
311.409	96.25
311.639	94.25
311.868	93.25
312.098	95.25
312.328	102.25
312.557	105.25
312.787	103.25
313.017	96.25
313.246	94.25
313.476	93.25
313.706	84.25
313.935	89.25
314.165	85.25
314.394	98.25
314.624	89.25
314.853	106.25
315.083	99.25
315.312	109.25
315.542	101.25
315.771	90.25
316.001	91.25
316.23	100.25
316.46	96.25
316.689	95.25
316.919	84.25
317.148	79.25
317.377	106.25
317.607	78.25
317.836	98.25
318.065	104.25
318.295	96.25
318.524	89.25
318.753	89.25
318.983	88.25
319.212	92.25
319.441	106.25
319.67	105.25
319.9	92.25
320.129	69.25
320.358	92.25
320.587	85.25
320.816	90.25
321.046	94.25
321.275	100.25
321.504	90.25
321.733	91.25
321.962	85.25
322.191	92.25
322.42	102.25
322.649	104.25
322.878	91.25
323.108	111.25
323.337	97.25
323.566	113.25
323.795	131.25
324.024	185.25
324.253	280.25
324.482	585.25
324.71	1080.25
324.939	1481.25
325.168	585.25
325.397	196.25
325.626	138.25
325.855	119.25
326.084	112.25
326.313	114.25
326.542	121.25
326.77	157.25
326.999	310.25
327.228	616.25
327.457	1089.25
327.686	884.25
327.914	287.25
328.143	185.25
328.372	155.25
328.6	132.25
328.829	115.25
329.058	123.25
329.287	128.25
329.515	107.25
329.744	101.25
329.972	116.25
330.201	187.25
330.43	203.25
330.658	161.25
330.887	131.25
331.115	119.25
331.344	111.25
331.572	94.25
331.801	99.25
332.03	103.25
332.258	91.25
332.486	87.25
332.715	88.25
332.943	110.25
333.172	105.25
333.4	102.25
333.629	110.25
333.857	118.25
334.085	127.25
334.314	188.25
334.542	251.25
334.771	215.25
334.999	123.25
335.227	95.25
335.455	100.25
335.684	106.25
335.912	104.25
336.14	90.25
336.369	100.25
336.597	94.25
336.825	91.25
337.053	93.25
337.281	112.25
337.51	99.25
337.738	92.25
337.966	108.25
338.194	84.25
338.422	85.25
338.65	91.25
338.878	97.25
339.106	82.25
339.334	102.25
339.562	97.25
339.79	98.25
340.018	83.25
340.246	99.25
340.474	98.25
340.702	89.25
340.93	92.25
341.158	86.25
341.386	100.25
341.614	94.25
341.842	93.25
342.07	89.25
342.298	76.25
342.526	95.25
342.754	91.25
342.981	88.25
343.209	85.25
343.437	99.25
343.665	84.25
343.893	79.25
344.12	75.25
344.348	79.25
344.576	94.25
344.804	97.25
345.031	101.25
345.259	88.25
345.487	105.25
345.714	97.25
345.942	81.25
346.17	89.25
346.397	90.25
346.625	92.25
346.853	79.25
347.08	95.25
347.308	95.25
347.535	97.25
347.763	105.25
347.99	97.25
348.218	88.25
348.445	111.25
348.673	98.25
348.9	101.25
349.128	96.25
349.355	99.25
349.583	94.25
349.81	98.25
350.037	96.25
350.265	109.25
350.492	93.25
350.72	105.25
350.947	108.25
351.174	102.25
351.402	107.25
351.629	107.25
351.856	100.25
352.083	101.25
352.311	100.25
352.538	109.25
352.765	103.25
352.992	108.25
353.22	105.25
353.447	87.25
353.674	110.25
353.901	85.25
354.128	85.25
354.355	101.25
354.583	104.25
354.81	101.25
355.037	103.25
355.264	115.25
355.491	107.25
355.718	113.25
355.945	107.25
356.172	99.25
356.399	104.25
356.626	99.25
356.853	101.25
357.08	98.25
357.307	104.25
357.534	101.25
357.761	91.25
357.988	86.25
358.215	107.25
358.441	104.25
358.668	98.25
358.895	92.25
359.122	89.25
359.349	92.25
359.576	101.25
359.802	98.25
360.029	128.25
360.256	109.25
360.483	99.25
360.709	86.25
360.936	91.25
361.163	87.25
361.39	102.25
361.616	76.25
361.843	97.25
362.07	95.25
362.296	92.25
362.523	99.25
362.749	86.25
362.976	101.25
363.203	99.25
363.429	103.25
363.656	79.25
363.882	91.25
364.109	91.25
364.335	83.25
364.562	103.25
364.788	82.25
365.015	95.25
365.241	96.25
365.468	101.25
365.694	106.25
365.92	80.25
366.147	77.25
366.373	93.25
366.599	105.25
366.826	82.25
367.052	84.25
367.278	89.25
367.505	93.25
367.731	84.25
367.957	92.25
368.184	89.25
368.41	90.25
368.636	116.25
368.862	112.25
369.089	123.25
369.315	85.25
369.541	80.25
369.767	95.25
369.993	91.25
370.219	90.25
370.445	96.25
370.672	94.25
370.898	95.25
371.124	99.25
371.35	81.25
371.576	80.25
371.802	91.25
372.028	90.25
372.254	89.25
372.48	92.25
372.706	79.25
372.932	97.25
373.158	106.25
373.384	89.25
373.61	96.25
373.835	88.25
374.061	92.25
374.287	80.25
374.513	96.25
374.739	110.25
374.965	84.25
375.191	85.25
375.416	90.25
375.642	89.25
375.868	96.25
376.094	92.25
376.319	93.25
376.545	101.25
376.771	87.25
376.997	82.25
377.222	82.25
377.448	109.25
377.674	101.25
377.899	92.25
378.125	96.25
378.35	76.25
378.576	93.25
378.802	98.25
379.027	92.25
379.253	91.25
379.478	100.25
379.704	89.25
379.929	93.25
380.155	92.25
380.38	105.25
380.606	108.25
380.831	106.25
381.057	93.25
381.282	114.25
381.507	95.25
381.733	97.25
381.958	116.25
382.184	121.25
382.409	110.25
382.634	118.25
382.86	121.25
383.085	113.25
383.31	99.25
383.535	117.25
383.761	113.25
383.986	122.25
384.211	109.25
384.436	120.25
384.662	126.25
384.887	115.25
385.112	117.25
385.337	124.25
385.562	116.25
385.787	126.25
386.013	141.25
386.238	126.25
386.463	110.25
386.688	117.25
386.913	132.25
387.138	128.25
387.363	126.25
387.588	108.25
387.813	113.25
388.038	123.25
388.263	147.25
388.488	128.25
388.713	115.25
388.938	109.25
389.163	90.25
389.387	104.25
389.612	93.25
389.837	87.25
390.062	85.25
390.287	103.25
390.512	97.25
390.736	85.25
390.961	82.25
391.186	79.25
391.411	89.25
391.636	94.25
391.86	89.25
392.085	80.25
392.31	90.25
392.534	90.25
392.759	91.25
392.984	94.25
393.208	108.25
393.433	135.25
393.658	125.25
393.882	82.25
394.107	96.25
394.331	94.25
394.556	82.25
394.78	80.25
395.005	104.25
395.229	92.25
395.454	81.25
395.678	61.25
395.903	84.25
396.127	91.25
396.352	78.25
396.576	90.25
396.801	122.25
397.025	119.25
397.249	94.25
397.474	77.25
397.698	90.25
397.922	90.25
398.147	94.25
398.371	103.25
398.595	89.25
398.82	84.25
399.044	85.25
399.268	82.25
399.492	85.25
399.717	80.25
399.941	87.25
400.165	86.25
400.389	94.25
400.613	86.25
400.837	98.25
401.062	84.25
401.286	86.25
401.51	96.25
401.734	97.25
401.958	103.25
402.182	110.25
402.406	142.25
402.63	127.25
402.854	84.25
403.078	83.25
403.302	89.25
403.526	82.25
403.75	92.25
403.974	96.25
404.198	93.25
404.422	93.25
404.645	105.25
404.869	83.25
405.093	100.25
405.317	97.25
405.541	105.25
405.765	104.25
405.988	128.25
406.212	155.25
406.436	203.25
406.66	133.25
406.883	80.25
407.107	90.25
407.331	104.25
407.555	109.25
407.778	103.25
408.002	97.25
408.226	88.25
408.449	84.25
408.673	83.25
408.896	84.25
409.12	90.25
409.344	77.25
409.567	89.25
409.791	104.25
410.014	81.25
410.238	84.25
410.461	97.25
410.685	107.25
410.908	96.25
411.132	95.25
411.355	104.25
411.578	81.25
411.802	83.25
412.025	80.25
412.249	98.25
412.472	96.25
412.695	89.25
412.919	80.25
413.142	88.25
413.365	82.25
413.589	96.25
413.812	80.25
414.035	87.25
414.258	100.25
414.482	83.25
414.705	99.25
414.928	94.25
415.151	91.25
415.374	97.25
415.597	99.25
415.821	106.25
416.044	89.25
416.267	86.25
416.49	97.25
416.713	74.25
416.936	86.25
417.159	99.25
417.382	86.25
417.605	85.25
417.828	94.25
418.051	91.25
418.274	105.25
418.497	88.25
418.72	95.25
418.943	100.25
419.166	84.25
419.389	94.25
419.611	78.25
419.834	75.25
420.057	81.25
420.28	92.25
420.503	83.25
420.726	83.25
420.948	96.25
421.171	89.25
421.394	84.25
421.617	107.25
421.839	88.25
422.062	87.25
422.285	88.25
422.507	101.25
422.73	96.25
422.953	89.25
423.175	96.25
423.398	84.25
423.621	88.25
423.843	97.25
424.066	88.25
424.288	77.25
424.511	92.25
424.733	89.25
424.956	101.25
425.178	98.25
425.401	89.25
425.623	91.25
425.846	93.25
426.068	93.25
426.291	92.25
426.513	89.25
426.735	79.25
426.958	90.25
427.18	106.25
427.402	116.25
427.625	161.25
427.847	126.25
428.069	124.25
428.292	89.25
428.514	88.25
428.736	93.25
428.958	86.25
429.181	92.25
429.403	76.25
429.625	92.25
429.847	101.25
430.069	104.25
430.292	92.25
430.514	83.25
430.736	75.25
430.958	82.25
431.18	91.25
431.402	100.25
431.624	89.25
431.846	100.25
432.068	95.25
432.29	91.25
432.512	86.25
432.734	100.25
432.956	97.25
433.178	107.25
433.4	99.25
433.622	106.25
433.844	96.25
434.066	89.25
434.287	85.25
434.509	84.25
434.731	92.25
434.953	82.25
435.175	85.25
435.397	91.25
435.618	98.25
435.84	103.25
436.062	105.25
436.284	104.25
436.505	97.25
436.727	117.25
436.949	90.25
437.17	110.25
437.392	92.25
437.614	97.25
437.835	97.25
438.057	123.25
438.278	88.25
438.5	97.25
438.721	78.25
438.943	89.25
439.165	86.25
439.386	90.25
439.608	76.25
439.829	99.25
440.05	115.25
440.272	135.25
440.493	93.25
440.715	73.25
440.936	101.25
441.158	88.25
441.379	94.25
441.6	85.25
441.822	99.25
442.043	79.25
442.264	94.25
442.486	83.25
442.707	82.25
442.928	110.25
443.149	109.25
443.371	116.25
443.592	95.25
443.813	106.25
444.034	96.25
444.255	89.25
444.476	96.25
444.698	87.25
444.919	82.25
445.14	125.25
445.361	108.25
445.582	109.25
445.803	116.25
446.024	133.25
446.245	128.25
446.466	117.25
446.687	90.25
446.908	79.25
447.129	89.25
447.35	93.25
447.571	89.25
447.792	89.25
448.013	90.25
448.234	91.25
448.455	105.25
448.675	94.25
448.896	105.25
449.117	87.25
449.338	87.25
449.559	116.25
449.779	116.25
450	92.25
450.221	99.25
450.442	80.25
450.662	97.25
450.883	113.25
451.104	119.25
451.324	110.25
451.545	92.25
451.766	82.25
451.986	91.25
452.207	93.25
452.428	109.25
452.648	96.25
452.869	99.25
453.089	107.25
453.31	114.25
453.53	99.25
453.751	74.25
453.971	106.25
454.192	105.25
454.412	101.25
454.633	78.25
454.853	83.25
455.073	89.25
455.294	91.25
455.514	93.25
455.734	98.25
455.955	85.25
456.175	93.25
456.395	95.25
456.616	98.25
456.836	95.25
457.056	74.25
457.276	81.25
457.497	92.25
457.717	71.25
457.937	77.25
458.157	80.25
458.377	104.25
458.598	104.25
458.818	136.25
459.038	154.25
459.258	105.25
459.478	104.25
459.698	84.25
459.918	100.25
460.138	83.25
460.358	92.25
460.578	79.25
460.798	92.25
461.018	72.25
461.238	89.25
461.458	93.25
461.678	87.25
461.898	88.25
462.118	100.25
462.338	85.25
462.558	85.25
462.777	80.25
462.997	103.25
463.217	78.25
463.437	79.25
463.657	91.25
463.876	89.25
464.096	91.25
464.316	93.25
464.536	94.25
464.755	106.25
464.975	112.25
465.195	120.25
465.414	135.25
465.634	98.25
465.854	89.25
466.073	91.25
466.293	90.25
466.512	85.25
466.732	96.25
466.951	80.25
467.171	89.25
467.391	84.25
467.61	96.25
467.829	110.25
468.049	139.25
468.268	138.25
468.488	85.25
468.707	86.25
468.927	89.25
469.146	80.25
469.365	77.25
469.585	91.25
469.804	93.25
470.023	100.25
470.243	98.25
470.462	100.25
470.681	94.25
470.901	90.25
471.12	79.25
471.339	93.25
471.558	93.25
471.777	89.25
471.997	96.25
472.216	203.25
472.435	286.25
472.654	124.25
472.873	102.25
473.092	87.25
473.311	98.25
473.53	88.25
473.749	85.25
473.968	115.25
474.187	96.25
474.406	93.25
474.625	94.25
474.844	93.25
475.063	82.25
475.282	93.25
475.501	90.25
475.72	86.25
475.939	88.25
476.158	99.25
476.377	81.25
476.596	83.25
476.814	91.25
477.033	95.25
477.252	99.25
477.471	89.25
477.69	92.25
477.908	94.25
478.127	85.25
478.346	79.25
478.564	96.25
478.783	100.25
479.002	94.25
479.22	92.25
479.439	88.25
479.658	93.25
479.876	101.25
480.095	100.25
480.313	89.25
480.532	96.25
480.751	118.25
480.969	208.25
481.188	532.25
481.406	320.25
481.624	105.25
481.843	87.25
482.061	80.25
482.28	95.25
482.498	92.25
482.717	93.25
482.935	85.25
483.153	106.25
483.372	84.25
483.59	92.25
483.808	108.25
484.027	91.25
484.245	100.25
484.463	101.25
484.681	100.25
484.9	93.25
485.118	91.25
485.336	91.25
485.554	107.25
485.772	114.25
485.99	117.25
486.209	110.25
486.427	104.25
486.645	110.25
486.863	109.25
487.081	92.25
487.299	107.25
487.517	98.25
487.735	91.25
487.953	83.25
488.171	84.25
488.389	99.25
488.607	97.25
488.825	98.25
489.043	87.25
489.261	72.25
489.479	93.25
489.696	100.25
489.914	98.25
490.132	95.25
490.35	84.25
490.568	76.25
490.786	93.25
491.003	90.25
491.221	87.25
491.439	99.25
491.657	98.25
491.874	84.25
492.092	75.25
492.31	95.25
492.527	91.25
492.745	85.25
492.963	89.25
493.18	76.25
493.398	97.25
493.615	91.25
493.833	96.25
494.05	93.25
494.268	82.25
494.485	94.25
494.703	90.25
494.92	97.25
495.138	102.25
495.355	91.25
495.573	98.25
495.79	84.25
496.008	97.25
496.225	87.25
496.442	95.25
496.66	92.25
496.877	92.25
497.094	89.25
497.312	85.25
497.529	101.25
497.746	92.25
497.963	84.25
498.181	90.25
498.398	91.25
498.615	108.25
498.832	95.25
499.049	87.25
499.267	89.25
499.484	99.25
499.701	89.25
499.918	87.25
500.135	90.25
500.352	95.25
500.569	99.25
500.786	96.25
501.003	83.25
501.22	92.25
501.437	100.25
501.654	79.25
501.871	111.25
502.088	93.25
502.305	100.25
502.522	88.25
502.739	102.25
502.956	94.25
503.172	93.25
503.389	93.25
503.606	95.25
503.823	97.25
504.04	87.25
504.256	90.25
504.473	96.25
504.69	93.25
504.907	99.25
505.123	77.25
505.34	99.25
505.557	83.25
505.773	95.25
505.99	90.25
506.207	99.25
506.423	81.25
506.64	104.25
506.856	80.25
507.073	84.25
507.289	81.25
507.506	91.25
507.722	98.25
507.939	113.25
508.155	101.25
508.372	93.25
508.588	101.25
508.805	90.25
509.021	103.25
509.238	102.25
509.454	105.25
509.67	114.25
509.887	104.25
510.103	127.25
510.319	204.25
510.536	668.25
510.752	2153.25
510.968	588.25
511.184	152.25
511.401	114.25
511.617	100.25
511.833	106.25
512.049	82.25
512.265	94.25
512.481	81.25
512.698	94.25
512.914	84.25
513.13	88.25
513.346	95.25
513.562	88.25
513.778	97.25
513.994	93.25
514.21	104.25
514.426	114.25
514.642	125.25
514.858	114.25
515.074	144.25
