Data from Circ_1996_H10_HRD10591_00073.txt Node
Date: Wed Jan 03 11:33:20 EST 2024
User: Yrep
Spectrometer: HR+D1059
Trigger mode: 1
Integration Time (sec): 1.000000E-1
Scans to average: 1
Electric dark correction enabled: true
Nonlinearity correction enabled: false
Boxcar width: 0
XAxis mode: Wavelengths
Number of Pixels in Spectrum: 2048
>>>>>Begin Spectral Data<<<<<
223.165	-13.69
223.4	-13.69
223.635	-13.69
223.869	-17.69
224.104	-30.69
224.338	-16.69
224.573	-1.69
224.808	-15.69
225.042	-6.69
225.277	-3.69
225.511	-5.69
225.746	8.31
225.98	9.31
226.215	11.31
226.449	17.31
226.683	5.31
226.918	31.31
227.152	29.31
227.387	28.31
227.621	46.31
227.856	38.31
228.09	47.31
228.324	45.31
228.559	49.31
228.793	56.31
229.027	54.31
229.262	61.31
229.496	74.31
229.73	80.31
229.964	76.31
230.199	78.31
230.433	55.31
230.667	64.31
230.901	76.31
231.136	74.31
231.37	73.31
231.604	71.31
231.838	58.31
232.072	66.31
232.306	84.31
232.541	77.31
232.775	87.31
233.009	73.31
233.243	71.31
233.477	64.31
233.711	74.31
233.945	75.31
234.179	72.31
234.413	69.31
234.647	74.31
234.881	77.31
235.115	61.31
235.349	85.31
235.583	72.31
235.817	76.31
236.051	80.31
236.285	71.31
236.519	77.31
236.753	75.31
236.987	78.31
237.221	75.31
237.455	67.31
237.689	75.31
237.922	63.31
238.156	87.31
238.39	67.31
238.624	66.31
238.858	65.31
239.091	87.31
239.325	64.31
239.559	79.31
239.793	82.31
240.027	72.31
240.26	86.31
240.494	69.31
240.728	85.31
240.961	80.31
241.195	61.31
241.429	70.31
241.662	78.31
241.896	77.31
242.13	65.31
242.363	85.31
242.597	61.31
242.83	69.31
243.064	68.31
243.298	69.31
243.531	67.31
243.765	81.31
243.998	78.31
244.232	75.31
244.465	75.31
244.699	65.31
244.932	64.31
245.166	65.31
245.399	78.31
245.633	75.31
245.866	74.31
246.099	72.31
246.333	83.31
246.566	77.31
246.8	76.31
247.033	81.31
247.266	83.31
247.5	78.31
247.733	70.31
247.966	92.31
248.2	71.31
248.433	66.31
248.666	75.31
248.899	88.31
249.133	88.31
249.366	100.31
249.599	103.31
249.832	73.31
250.066	85.31
250.299	73.31
250.532	86.31
250.765	82.31
250.998	65.31
251.231	83.31
251.465	83.31
251.698	87.31
251.931	72.31
252.164	74.31
252.397	73.31
252.63	70.31
252.863	74.31
253.096	90.31
253.329	79.31
253.562	92.31
253.795	81.31
254.028	69.31
254.261	79.31
254.494	80.31
254.727	75.31
254.96	87.31
255.193	80.31
255.426	75.31
255.659	82.31
255.892	80.31
256.124	74.31
256.357	80.31
256.59	84.31
256.823	69.31
257.056	83.31
257.289	85.31
257.521	93.31
257.754	84.31
257.987	84.31
258.22	79.31
258.452	73.31
258.685	84.31
258.918	87.31
259.151	87.31
259.383	67.31
259.616	82.31
259.849	80.31
260.081	78.31
260.314	85.31
260.547	80.31
260.779	82.31
261.012	69.31
261.244	92.31
261.477	85.31
261.71	103.31
261.942	102.31
262.175	96.31
262.407	66.31
262.64	83.31
262.872	79.31
263.105	74.31
263.337	93.31
263.57	83.31
263.802	80.31
264.035	90.31
264.267	67.31
264.499	82.31
264.732	88.31
264.964	92.31
265.197	93.31
265.429	77.31
265.661	80.31
265.894	86.31
266.126	89.31
266.358	93.31
266.591	75.31
266.823	71.31
267.055	91.31
267.287	76.31
267.52	79.31
267.752	89.31
267.984	76.31
268.216	72.31
268.448	74.31
268.681	75.31
268.913	81.31
269.145	90.31
269.377	77.31
269.609	79.31
269.841	77.31
270.073	94.31
270.306	85.31
270.538	67.31
270.77	85.31
271.002	65.31
271.234	83.31
271.466	80.31
271.698	73.31
271.93	92.31
272.162	94.31
272.394	70.31
272.626	85.31
272.858	90.31
273.09	83.31
273.322	95.31
273.553	85.31
273.785	76.31
274.017	73.31
274.249	79.31
274.481	86.31
274.713	86.31
274.945	86.31
275.176	93.31
275.408	81.31
275.64	88.31
275.872	79.31
276.104	98.31
276.335	96.31
276.567	89.31
276.799	99.31
277.031	94.31
277.262	99.31
277.494	97.31
277.726	97.31
277.957	95.31
278.189	82.31
278.421	75.31
278.652	79.31
278.884	77.31
279.115	86.31
279.347	85.31
279.579	77.31
279.81	91.31
280.042	83.31
280.273	95.31
280.505	87.31
280.736	89.31
280.968	79.31
281.199	78.31
281.431	80.31
281.662	96.31
281.894	94.31
282.125	92.31
282.356	109.31
282.588	147.31
282.819	98.31
283.051	86.31
283.282	85.31
283.513	97.31
283.745	88.31
283.976	81.31
284.207	86.31
284.439	78.31
284.67	94.31
284.901	91.31
285.132	84.31
285.364	72.31
285.595	85.31
285.826	93.31
286.057	85.31
286.288	99.31
286.52	77.31
286.751	75.31
286.982	87.31
287.213	81.31
287.444	99.31
287.675	96.31
287.906	85.31
288.138	96.31
288.369	81.31
288.6	97.31
288.831	91.31
289.062	88.31
289.293	76.31
289.524	87.31
289.755	79.31
289.986	85.31
290.217	91.31
290.448	98.31
290.679	82.31
290.91	86.31
291.141	73.31
291.371	96.31
291.602	73.31
291.833	79.31
292.064	91.31
292.295	80.31
292.526	93.31
292.757	76.31
292.987	98.31
293.218	91.31
293.449	91.31
293.68	91.31
293.91	85.31
294.141	83.31
294.372	91.31
294.603	102.31
294.833	69.31
295.064	82.31
295.295	81.31
295.525	93.31
295.756	107.31
295.987	121.31
296.217	145.31
296.448	123.31
296.679	96.31
296.909	106.31
297.14	86.31
297.37	96.31
297.601	89.31
297.831	86.31
298.062	97.31
298.292	93.31
298.523	97.31
298.753	85.31
298.984	77.31
299.214	96.31
299.445	97.31
299.675	87.31
299.905	88.31
300.136	90.31
300.366	87.31
300.597	78.31
300.827	100.31
301.057	107.31
301.288	99.31
301.518	95.31
301.748	89.31
301.979	103.31
302.209	92.31
302.439	88.31
302.669	85.31
302.9	77.31
303.13	90.31
303.36	77.31
303.59	94.31
303.82	97.31
304.051	79.31
304.281	96.31
304.511	98.31
304.741	75.31
304.971	88.31
305.201	96.31
305.431	78.31
305.661	93.31
305.891	93.31
306.121	90.31
306.352	95.31
306.582	111.31
306.812	83.31
307.042	82.31
307.272	96.31
307.502	103.31
307.731	95.31
307.961	103.31
308.191	103.31
308.421	90.31
308.651	94.31
308.881	82.31
309.111	95.31
309.341	96.31
309.571	81.31
309.8	97.31
310.03	92.31
310.26	85.31
310.49	85.31
310.72	97.31
310.949	109.31
311.179	101.31
311.409	81.31
311.639	87.31
311.868	86.31
312.098	94.31
312.328	96.31
312.557	107.31
312.787	95.31
313.017	95.31
313.246	90.31
313.476	70.31
313.706	87.31
313.935	101.31
314.165	73.31
314.394	88.31
314.624	105.31
314.853	105.31
315.083	86.31
315.312	82.31
315.542	86.31
315.771	91.31
316.001	94.31
316.23	103.31
316.46	89.31
316.689	89.31
316.919	83.31
317.148	94.31
317.377	90.31
317.607	90.31
317.836	83.31
318.065	79.31
318.295	90.31
318.524	95.31
318.753	88.31
318.983	91.31
319.212	97.31
319.441	101.31
319.67	95.31
319.9	95.31
320.129	82.31
320.358	90.31
320.587	94.31
320.816	93.31
321.046	85.31
321.275	109.31
321.504	86.31
321.733	92.31
321.962	97.31
322.191	102.31
322.42	104.31
322.649	113.31
322.878	98.31
323.108	113.31
323.337	113.31
323.566	111.31
323.795	137.31
324.024	182.31
324.253	314.31
324.482	625.31
324.71	1246.31
324.939	1630.31
325.168	630.31
325.397	220.31
325.626	141.31
325.855	135.31
326.084	115.31
326.313	117.31
326.542	136.31
326.77	182.31
326.999	330.31
327.228	661.31
327.457	1182.31
327.686	947.31
327.914	319.31
328.143	190.31
328.372	173.31
328.6	135.31
328.829	127.31
329.058	126.31
329.287	123.31
329.515	102.31
329.744	115.31
329.972	125.31
330.201	171.31
330.43	214.31
330.658	143.31
330.887	136.31
331.115	123.31
331.344	92.31
331.572	95.31
331.801	110.31
332.03	105.31
332.258	101.31
332.486	99.31
332.715	79.31
332.943	102.31
333.172	91.31
333.4	105.31
333.629	106.31
333.857	121.31
334.085	132.31
334.314	175.31
334.542	247.31
334.771	236.31
334.999	124.31
335.227	103.31
335.455	95.31
335.684	110.31
335.912	100.31
336.14	106.31
336.369	85.31
336.597	102.31
336.825	95.31
337.053	98.31
337.281	94.31
337.51	86.31
337.738	85.31
337.966	87.31
338.194	92.31
338.422	88.31
338.65	104.31
338.878	90.31
339.106	95.31
339.334	97.31
339.562	90.31
339.79	93.31
340.018	91.31
340.246	81.31
340.474	88.31
340.702	96.31
340.93	97.31
341.158	76.31
341.386	89.31
341.614	93.31
341.842	92.31
342.07	90.31
342.298	92.31
342.526	82.31
342.754	86.31
342.981	95.31
343.209	98.31
343.437	97.31
343.665	82.31
343.893	101.31
344.12	108.31
344.348	109.31
344.576	86.31
344.804	87.31
345.031	88.31
345.259	107.31
345.487	98.31
345.714	97.31
345.942	81.31
346.17	104.31
346.397	102.31
346.625	103.31
346.853	93.31
347.08	90.31
347.308	103.31
347.535	99.31
347.763	95.31
347.99	97.31
348.218	98.31
348.445	96.31
348.673	99.31
348.9	106.31
349.128	95.31
349.355	90.31
349.583	96.31
349.81	91.31
350.037	95.31
350.265	94.31
350.492	87.31
350.72	97.31
350.947	97.31
351.174	102.31
351.402	103.31
351.629	102.31
351.856	101.31
352.083	110.31
352.311	90.31
352.538	104.31
352.765	104.31
352.992	107.31
353.22	117.31
353.447	98.31
353.674	98.31
353.901	111.31
354.128	102.31
354.355	104.31
354.583	85.31
354.81	113.31
355.037	85.31
355.264	98.31
355.491	99.31
355.718	93.31
355.945	96.31
356.172	103.31
356.399	93.31
356.626	91.31
356.853	94.31
357.08	96.31
357.307	102.31
357.534	82.31
357.761	79.31
357.988	94.31
358.215	89.31
358.441	92.31
358.668	104.31
358.895	103.31
359.122	93.31
359.349	85.31
359.576	90.31
359.802	109.31
360.029	105.31
360.256	110.31
360.483	91.31
360.709	89.31
360.936	95.31
361.163	72.31
361.39	92.31
361.616	102.31
361.843	100.31
362.07	92.31
362.296	86.31
362.523	73.31
362.749	79.31
362.976	96.31
363.203	78.31
363.429	82.31
363.656	89.31
363.882	100.31
364.109	103.31
364.335	103.31
364.562	85.31
364.788	95.31
365.015	105.31
365.241	99.31
365.468	101.31
365.694	99.31
365.92	88.31
366.147	73.31
366.373	74.31
366.599	91.31
366.826	91.31
367.052	89.31
367.278	73.31
367.505	80.31
367.731	90.31
367.957	93.31
368.184	75.31
368.41	90.31
368.636	109.31
368.862	116.31
369.089	107.31
369.315	101.31
369.541	91.31
369.767	99.31
369.993	101.31
370.219	89.31
370.445	77.31
370.672	82.31
370.898	83.31
371.124	99.31
371.35	80.31
371.576	87.31
371.802	98.31
372.028	84.31
372.254	105.31
372.48	91.31
372.706	93.31
372.932	85.31
373.158	80.31
373.384	75.31
373.61	87.31
373.835	90.31
374.061	94.31
374.287	87.31
374.513	99.31
374.739	100.31
374.965	91.31
375.191	76.31
375.416	83.31
375.642	89.31
375.868	98.31
376.094	98.31
376.319	79.31
376.545	98.31
376.771	75.31
376.997	90.31
377.222	85.31
377.448	95.31
377.674	94.31
377.899	83.31
378.125	90.31
378.35	81.31
378.576	67.31
378.802	85.31
379.027	79.31
379.253	104.31
379.478	93.31
379.704	89.31
379.929	96.31
380.155	104.31
380.38	94.31
380.606	91.31
380.831	94.31
381.057	103.31
381.282	85.31
381.507	91.31
381.733	103.31
381.958	97.31
382.184	103.31
382.409	94.31
382.634	93.31
382.86	96.31
383.085	113.31
383.31	106.31
383.535	98.31
383.761	84.31
383.986	98.31
384.211	99.31
384.436	95.31
384.662	96.31
384.887	106.31
385.112	92.31
385.337	79.31
385.562	115.31
385.787	100.31
386.013	105.31
386.238	125.31
386.463	97.31
386.688	103.31
386.913	94.31
387.138	102.31
387.363	100.31
387.588	107.31
387.813	103.31
388.038	109.31
388.263	119.31
388.488	117.31
388.713	96.31
388.938	93.31
389.163	100.31
389.387	92.31
389.612	95.31
389.837	98.31
390.062	91.31
390.287	108.31
390.512	83.31
390.736	82.31
390.961	88.31
391.186	86.31
391.411	87.31
391.636	94.31
391.86	96.31
392.085	75.31
392.31	89.31
392.534	91.31
392.759	85.31
392.984	85.31
393.208	79.31
393.433	107.31
393.658	89.31
393.882	81.31
394.107	92.31
394.331	104.31
394.556	83.31
394.78	70.31
395.005	96.31
395.229	94.31
395.454	75.31
395.678	95.31
395.903	86.31
396.127	92.31
396.352	89.31
396.576	89.31
396.801	82.31
397.025	79.31
397.249	89.31
397.474	90.31
397.698	81.31
397.922	99.31
398.147	86.31
398.371	82.31
398.595	92.31
398.82	81.31
399.044	82.31
399.268	86.31
399.492	94.31
399.717	78.31
399.941	106.31
400.165	82.31
400.389	90.31
400.613	87.31
400.837	91.31
401.062	78.31
401.286	77.31
401.51	87.31
401.734	94.31
401.958	113.31
402.182	120.31
402.406	135.31
402.63	117.31
402.854	77.31
403.078	79.31
403.302	98.31
403.526	71.31
403.75	93.31
403.974	92.31
404.198	96.31
404.422	78.31
404.645	91.31
404.869	95.31
405.093	90.31
405.317	80.31
405.541	98.31
405.765	98.31
405.988	128.31
406.212	174.31
406.436	224.31
406.66	128.31
406.883	91.31
407.107	88.31
407.331	101.31
407.555	94.31
407.778	93.31
408.002	91.31
408.226	96.31
408.449	82.31
408.673	81.31
408.896	99.31
409.12	106.31
409.344	98.31
409.567	88.31
409.791	88.31
410.014	95.31
410.238	92.31
410.461	84.31
410.685	106.31
410.908	93.31
411.132	103.31
411.355	98.31
411.578	91.31
411.802	89.31
412.025	83.31
412.249	97.31
412.472	99.31
412.695	77.31
412.919	92.31
413.142	91.31
413.365	95.31
413.589	89.31
413.812	78.31
414.035	88.31
414.258	98.31
414.482	93.31
414.705	79.31
414.928	99.31
415.151	94.31
415.374	98.31
415.597	85.31
415.821	82.31
416.044	88.31
416.267	104.31
416.49	82.31
416.713	88.31
416.936	96.31
417.159	96.31
417.382	90.31
417.605	103.31
417.828	92.31
418.051	90.31
418.274	95.31
418.497	95.31
418.72	101.31
418.943	78.31
419.166	85.31
419.389	91.31
419.611	88.31
419.834	73.31
420.057	87.31
420.28	93.31
420.503	83.31
420.726	87.31
420.948	78.31
421.171	96.31
421.394	97.31
421.617	97.31
421.839	71.31
422.062	81.31
422.285	94.31
422.507	95.31
422.73	107.31
422.953	86.31
423.175	97.31
423.398	87.31
423.621	72.31
423.843	92.31
424.066	91.31
424.288	92.31
424.511	87.31
424.733	105.31
424.956	87.31
425.178	86.31
425.401	98.31
425.623	93.31
425.846	88.31
426.068	94.31
426.291	91.31
426.513	93.31
426.735	102.31
426.958	78.31
427.18	95.31
427.402	108.31
427.625	140.31
427.847	117.31
428.069	107.31
428.292	98.31
428.514	82.31
428.736	78.31
428.958	85.31
429.181	91.31
429.403	91.31
429.625	83.31
429.847	78.31
430.069	91.31
430.292	87.31
430.514	94.31
430.736	85.31
430.958	86.31
431.18	77.31
431.402	80.31
431.624	69.31
431.846	91.31
432.068	86.31
432.29	86.31
432.512	88.31
432.734	99.31
432.956	89.31
433.178	107.31
433.4	98.31
433.622	91.31
433.844	88.31
434.066	96.31
434.287	83.31
434.509	88.31
434.731	85.31
434.953	96.31
435.175	110.31
435.397	82.31
435.618	72.31
435.84	99.31
436.062	103.31
436.284	101.31
436.505	98.31
436.727	98.31
436.949	75.31
437.17	97.31
437.392	95.31
437.614	90.31
437.835	96.31
438.057	120.31
438.278	113.31
438.5	89.31
438.721	107.31
438.943	104.31
439.165	74.31
439.386	99.31
439.608	91.31
439.829	98.31
440.05	111.31
440.272	117.31
440.493	111.31
440.715	97.31
440.936	77.31
441.158	92.31
441.379	84.31
441.6	90.31
441.822	83.31
442.043	97.31
442.264	87.31
442.486	94.31
442.707	84.31
442.928	110.31
443.149	121.31
443.371	127.31
443.592	117.31
443.813	98.31
444.034	97.31
444.255	90.31
444.476	86.31
444.698	75.31
444.919	77.31
445.14	123.31
445.361	119.31
445.582	105.31
445.803	102.31
446.024	114.31
446.245	98.31
446.466	99.31
446.687	99.31
446.908	80.31
447.129	80.31
447.35	85.31
447.571	87.31
447.792	86.31
448.013	97.31
448.234	96.31
448.455	95.31
448.675	110.31
448.896	94.31
449.117	94.31
449.338	90.31
449.559	120.31
449.779	121.31
450	86.31
450.221	93.31
450.442	90.31
450.662	78.31
450.883	87.31
451.104	104.31
451.324	89.31
451.545	92.31
451.766	93.31
451.986	86.31
452.207	94.31
452.428	87.31
452.648	94.31
452.869	105.31
453.089	104.31
453.31	103.31
453.53	91.31
453.751	83.31
453.971	108.31
454.192	107.31
454.412	81.31
454.633	91.31
454.853	94.31
455.073	73.31
455.294	88.31
455.514	92.31
455.734	86.31
455.955	82.31
456.175	79.31
456.395	88.31
456.616	82.31
456.836	81.31
457.056	82.31
457.276	75.31
457.497	82.31
457.717	92.31
457.937	89.31
458.157	92.31
458.377	99.31
458.598	110.31
458.818	129.31
459.038	152.31
459.258	112.31
459.478	94.31
459.698	91.31
459.918	82.31
460.138	75.31
460.358	76.31
460.578	93.31
460.798	77.31
461.018	87.31
461.238	87.31
461.458	88.31
461.678	83.31
461.898	79.31
462.118	90.31
462.338	70.31
462.558	82.31
462.777	86.31
462.997	91.31
463.217	100.31
463.437	90.31
463.657	93.31
463.876	91.31
464.096	86.31
464.316	73.31
464.536	99.31
464.755	96.31
464.975	98.31
465.195	168.31
465.414	164.31
465.634	101.31
465.854	98.31
466.073	97.31
466.293	86.31
466.512	86.31
466.732	88.31
466.951	89.31
467.171	82.31
467.391	94.31
467.61	97.31
467.829	94.31
468.049	123.31
468.268	143.31
468.488	103.31
468.707	96.31
468.927	87.31
469.146	84.31
469.365	88.31
469.585	96.31
469.804	102.31
470.023	101.31
470.243	99.31
470.462	95.31
470.681	103.31
470.901	90.31
471.12	94.31
471.339	85.31
471.558	89.31
471.777	100.31
471.997	119.31
472.216	207.31
472.435	317.31
472.654	134.31
472.873	100.31
473.092	81.31
473.311	74.31
473.53	98.31
473.749	106.31
473.968	102.31
474.187	103.31
474.406	80.31
474.625	98.31
474.844	81.31
475.063	84.31
475.282	79.31
475.501	96.31
475.72	80.31
475.939	81.31
476.158	91.31
476.377	88.31
476.596	88.31
476.814	89.31
477.033	95.31
477.252	100.31
477.471	99.31
477.69	83.31
477.908	90.31
478.127	94.31
478.346	84.31
478.564	102.31
478.783	96.31
479.002	99.31
479.22	105.31
479.439	99.31
479.658	96.31
479.876	96.31
480.095	96.31
480.313	86.31
480.532	97.31
480.751	113.31
480.969	195.31
481.188	497.31
481.406	315.31
481.624	117.31
481.843	87.31
482.061	75.31
482.28	95.31
482.498	84.31
482.717	81.31
482.935	96.31
483.153	99.31
483.372	88.31
483.59	87.31
483.808	88.31
484.027	97.31
484.245	95.31
484.463	86.31
484.681	85.31
484.9	86.31
485.118	83.31
485.336	81.31
485.554	89.31
485.772	100.31
485.99	98.31
486.209	103.31
486.427	88.31
486.645	104.31
486.863	108.31
487.081	95.31
487.299	96.31
487.517	96.31
487.735	72.31
487.953	79.31
488.171	99.31
488.389	102.31
488.607	91.31
488.825	89.31
489.043	91.31
489.261	105.31
489.479	81.31
489.696	78.31
489.914	94.31
490.132	89.31
490.35	74.31
490.568	90.31
490.786	97.31
491.003	88.31
491.221	87.31
491.439	93.31
491.657	83.31
491.874	84.31
492.092	90.31
492.31	88.31
492.527	94.31
492.745	98.31
492.963	103.31
493.18	88.31
493.398	101.31
493.615	100.31
493.833	98.31
494.05	92.31
494.268	79.31
494.485	77.31
494.703	90.31
494.92	103.31
495.138	88.31
495.355	100.31
495.573	89.31
495.79	94.31
496.008	91.31
496.225	88.31
496.442	91.31
496.66	98.31
496.877	91.31
497.094	80.31
497.312	104.31
497.529	85.31
497.746	97.31
497.963	93.31
498.181	91.31
498.398	94.31
498.615	99.31
498.832	98.31
499.049	93.31
499.267	92.31
499.484	88.31
499.701	82.31
499.918	79.31
500.135	89.31
500.352	94.31
500.569	100.31
500.786	93.31
501.003	95.31
501.22	89.31
501.437	71.31
501.654	93.31
501.871	88.31
502.088	80.31
502.305	97.31
502.522	99.31
502.739	98.31
502.956	92.31
503.172	85.31
503.389	96.31
503.606	97.31
503.823	76.31
504.04	89.31
504.256	92.31
504.473	77.31
504.69	88.31
504.907	100.31
505.123	89.31
505.34	92.31
505.557	96.31
505.773	87.31
505.99	88.31
506.207	98.31
506.423	86.31
506.64	81.31
506.856	80.31
507.073	103.31
507.289	92.31
507.506	94.31
507.722	101.31
507.939	113.31
508.155	102.31
508.372	92.31
508.588	103.31
508.805	97.31
509.021	98.31
509.238	96.31
509.454	88.31
509.67	89.31
509.887	108.31
510.103	125.31
510.319	227.31
510.536	824.31
510.752	2731.31
510.968	718.31
511.184	162.31
511.401	113.31
511.617	91.31
511.833	84.31
512.049	100.31
512.265	86.31
512.481	95.31
512.698	112.31
512.914	108.31
513.13	87.31
513.346	84.31
513.562	87.31
513.778	91.31
513.994	90.31
514.21	102.31
514.426	103.31
514.642	131.31
514.858	119.31
515.074	163.31
515.29	450.31
515.506	1521.31
515.721	533.31
515.937	142.31
516.153	114.31
