Data from Circ_1996_H10_HRD10591_00051.txt Node
Date: Wed Jan 03 11:33:16 EST 2024
User: Yrep
Spectrometer: HR+D1059
Trigger mode: 1
Integration Time (sec): 1.000000E-1
Scans to average: 1
Electric dark correction enabled: true
Nonlinearity correction enabled: false
Boxcar width: 0
XAxis mode: Wavelengths
Number of Pixels in Spectrum: 2048
>>>>>Begin Spectral Data<<<<<
223.165	-14.75
223.4	-14.75
223.635	-14.75
223.869	-15.75
224.104	-18.75
224.338	-20.75
224.573	-9.75
224.808	-9.75
225.042	-1.75
225.277	-1.75
225.511	-6.75
225.746	-6.75
225.98	2.25
226.215	7.25
226.449	20.25
226.683	25.25
226.918	24.25
227.152	27.25
227.387	44.25
227.621	26.25
227.856	46.25
228.09	55.25
228.324	58.25
228.559	61.25
228.793	51.25
229.027	70.25
229.262	58.25
229.496	65.25
229.73	85.25
229.964	82.25
230.199	77.25
230.433	59.25
230.667	81.25
230.901	86.25
231.136	82.25
231.37	76.25
231.604	90.25
231.838	82.25
232.072	78.25
232.306	69.25
232.541	72.25
232.775	78.25
233.009	81.25
233.243	83.25
233.477	69.25
233.711	86.25
233.945	93.25
234.179	81.25
234.413	96.25
234.647	82.25
234.881	72.25
235.115	80.25
235.349	88.25
235.583	71.25
235.817	78.25
236.051	80.25
236.285	86.25
236.519	60.25
236.753	84.25
236.987	77.25
237.221	88.25
237.455	86.25
237.689	76.25
237.922	79.25
238.156	79.25
238.39	77.25
238.624	83.25
238.858	81.25
239.091	92.25
239.325	77.25
239.559	86.25
239.793	68.25
240.027	77.25
240.26	71.25
240.494	73.25
240.728	75.25
240.961	84.25
241.195	82.25
241.429	79.25
241.662	76.25
241.896	79.25
242.13	74.25
242.363	83.25
242.597	83.25
242.83	76.25
243.064	82.25
243.298	92.25
243.531	81.25
243.765	71.25
243.998	74.25
244.232	77.25
244.465	77.25
244.699	78.25
244.932	64.25
245.166	76.25
245.399	92.25
245.633	78.25
245.866	87.25
246.099	67.25
246.333	79.25
246.566	82.25
246.8	70.25
247.033	65.25
247.266	64.25
247.5	70.25
247.733	80.25
247.966	66.25
248.2	73.25
248.433	93.25
248.666	72.25
248.899	87.25
249.133	99.25
249.366	92.25
249.599	102.25
249.832	76.25
250.066	78.25
250.299	80.25
250.532	78.25
250.765	68.25
250.998	74.25
251.231	75.25
251.465	83.25
251.698	78.25
251.931	75.25
252.164	77.25
252.397	82.25
252.63	95.25
252.863	89.25
253.096	79.25
253.329	74.25
253.562	80.25
253.795	74.25
254.028	60.25
254.261	75.25
254.494	72.25
254.727	88.25
254.96	74.25
255.193	58.25
255.426	82.25
255.659	86.25
255.892	85.25
256.124	70.25
256.357	72.25
256.59	82.25
256.823	90.25
257.056	68.25
257.289	84.25
257.521	86.25
257.754	80.25
257.987	82.25
258.22	88.25
258.452	83.25
258.685	81.25
258.918	83.25
259.151	75.25
259.383	81.25
259.616	93.25
259.849	72.25
260.081	83.25
260.314	64.25
260.547	80.25
260.779	78.25
261.012	87.25
261.244	81.25
261.477	85.25
261.71	82.25
261.942	120.25
262.175	139.25
262.407	102.25
262.64	86.25
262.872	81.25
263.105	81.25
263.337	86.25
263.57	100.25
263.802	82.25
264.035	80.25
264.267	89.25
264.499	87.25
264.732	86.25
264.964	88.25
265.197	79.25
265.429	82.25
265.661	80.25
265.894	73.25
266.126	83.25
266.358	84.25
266.591	77.25
266.823	82.25
267.055	83.25
267.287	93.25
267.52	87.25
267.752	88.25
267.984	80.25
268.216	72.25
268.448	76.25
268.681	72.25
268.913	80.25
269.145	88.25
269.377	81.25
269.609	79.25
269.841	95.25
270.073	83.25
270.306	83.25
270.538	81.25
270.77	90.25
271.002	88.25
271.234	82.25
271.466	78.25
271.698	79.25
271.93	79.25
272.162	98.25
272.394	74.25
272.626	91.25
272.858	80.25
273.09	97.25
273.322	90.25
273.553	87.25
273.785	76.25
274.017	92.25
274.249	85.25
274.481	81.25
274.713	68.25
274.945	92.25
275.176	72.25
275.408	76.25
275.64	86.25
275.872	97.25
276.104	96.25
276.335	90.25
276.567	94.25
276.799	103.25
277.031	104.25
277.262	101.25
277.494	91.25
277.726	88.25
277.957	98.25
278.189	82.25
278.421	76.25
278.652	76.25
278.884	76.25
279.115	87.25
279.347	102.25
279.579	78.25
279.81	81.25
280.042	88.25
280.273	98.25
280.505	80.25
280.736	87.25
280.968	87.25
281.199	100.25
281.431	98.25
281.662	91.25
281.894	101.25
282.125	101.25
282.356	124.25
282.588	148.25
282.819	113.25
283.051	88.25
283.282	100.25
283.513	77.25
283.745	80.25
283.976	89.25
284.207	86.25
284.439	76.25
284.67	90.25
284.901	79.25
285.132	90.25
285.364	105.25
285.595	80.25
285.826	77.25
286.057	87.25
286.288	90.25
286.52	83.25
286.751	86.25
286.982	82.25
287.213	88.25
287.444	90.25
287.675	77.25
287.906	78.25
288.138	85.25
288.369	86.25
288.6	103.25
288.831	98.25
289.062	93.25
289.293	77.25
289.524	84.25
289.755	96.25
289.986	90.25
290.217	87.25
290.448	94.25
290.679	82.25
290.91	91.25
291.141	78.25
291.371	82.25
291.602	90.25
291.833	91.25
292.064	86.25
292.295	92.25
292.526	96.25
292.757	90.25
292.987	92.25
293.218	90.25
293.449	95.25
293.68	85.25
293.91	92.25
294.141	82.25
294.372	86.25
294.603	94.25
294.833	86.25
295.064	76.25
295.295	82.25
295.525	91.25
295.756	101.25
295.987	123.25
296.217	130.25
296.448	128.25
296.679	106.25
296.909	96.25
297.14	94.25
297.37	93.25
297.601	83.25
297.831	78.25
298.062	98.25
298.292	90.25
298.523	99.25
298.753	87.25
298.984	87.25
299.214	89.25
299.445	90.25
299.675	96.25
299.905	104.25
300.136	93.25
300.366	94.25
300.597	86.25
300.827	87.25
301.057	93.25
301.288	97.25
301.518	95.25
301.748	93.25
301.979	115.25
302.209	90.25
302.439	87.25
302.669	92.25
302.9	93.25
303.13	100.25
303.36	88.25
303.59	95.25
303.82	100.25
304.051	90.25
304.281	88.25
304.511	77.25
304.741	78.25
304.971	89.25
305.201	90.25
305.431	101.25
305.661	96.25
305.891	78.25
306.121	97.25
306.352	112.25
306.582	116.25
306.812	94.25
307.042	106.25
307.272	104.25
307.502	99.25
307.731	98.25
307.961	84.25
308.191	100.25
308.421	95.25
308.651	94.25
308.881	100.25
309.111	86.25
309.341	107.25
309.571	98.25
309.8	97.25
310.03	99.25
310.26	101.25
310.49	104.25
310.72	92.25
310.949	93.25
311.179	99.25
311.409	104.25
311.639	94.25
311.868	87.25
312.098	100.25
312.328	110.25
312.557	91.25
312.787	115.25
313.017	96.25
313.246	92.25
313.476	110.25
313.706	98.25
313.935	90.25
314.165	100.25
314.394	90.25
314.624	95.25
314.853	91.25
315.083	99.25
315.312	97.25
315.542	92.25
315.771	84.25
316.001	74.25
316.23	95.25
316.46	74.25
316.689	89.25
316.919	94.25
317.148	90.25
317.377	97.25
317.607	90.25
317.836	91.25
318.065	91.25
318.295	87.25
318.524	87.25
318.753	87.25
318.983	93.25
319.212	99.25
319.441	104.25
319.67	118.25
319.9	95.25
320.129	92.25
320.358	99.25
320.587	100.25
320.816	97.25
321.046	91.25
321.275	82.25
321.504	88.25
321.733	99.25
321.962	96.25
322.191	100.25
322.42	103.25
322.649	100.25
322.878	100.25
323.108	112.25
323.337	119.25
323.566	117.25
323.795	129.25
324.024	183.25
324.253	342.25
324.482	722.25
324.71	1451.25
324.939	1921.25
325.168	724.25
325.397	226.25
325.626	138.25
325.855	130.25
326.084	110.25
326.313	114.25
326.542	142.25
326.77	200.25
326.999	385.25
327.228	721.25
327.457	1368.25
327.686	1100.25
327.914	342.25
328.143	202.25
328.372	179.25
328.6	122.25
328.829	110.25
329.058	120.25
329.287	123.25
329.515	121.25
329.744	110.25
329.972	132.25
330.201	159.25
330.43	198.25
330.658	146.25
330.887	144.25
331.115	126.25
331.344	102.25
331.572	105.25
331.801	109.25
332.03	102.25
332.258	90.25
332.486	86.25
332.715	95.25
332.943	101.25
333.172	107.25
333.4	109.25
333.629	122.25
333.857	135.25
334.085	137.25
334.314	168.25
334.542	231.25
334.771	205.25
334.999	112.25
335.227	100.25
335.455	104.25
335.684	88.25
335.912	104.25
336.14	99.25
336.369	97.25
336.597	111.25
336.825	86.25
337.053	106.25
337.281	93.25
337.51	102.25
337.738	94.25
337.966	105.25
338.194	95.25
338.422	95.25
338.65	82.25
338.878	93.25
339.106	74.25
339.334	86.25
339.562	96.25
339.79	82.25
340.018	85.25
340.246	95.25
340.474	90.25
340.702	101.25
340.93	70.25
341.158	85.25
341.386	99.25
341.614	80.25
341.842	81.25
342.07	82.25
342.298	93.25
342.526	74.25
342.754	88.25
342.981	98.25
343.209	73.25
343.437	108.25
343.665	85.25
343.893	92.25
344.12	82.25
344.348	88.25
344.576	90.25
344.804	74.25
345.031	87.25
345.259	94.25
345.487	94.25
345.714	105.25
345.942	92.25
346.17	101.25
346.397	94.25
346.625	76.25
346.853	91.25
347.08	91.25
347.308	90.25
347.535	89.25
347.763	91.25
347.99	106.25
348.218	101.25
348.445	107.25
348.673	88.25
348.9	78.25
349.128	97.25
349.355	79.25
349.583	105.25
349.81	111.25
350.037	93.25
350.265	86.25
350.492	97.25
350.72	93.25
350.947	100.25
351.174	104.25
351.402	99.25
351.629	99.25
351.856	102.25
352.083	101.25
352.311	103.25
352.538	107.25
352.765	108.25
352.992	108.25
353.22	104.25
353.447	103.25
353.674	98.25
353.901	86.25
354.128	92.25
354.355	94.25
354.583	96.25
354.81	82.25
355.037	94.25
355.264	94.25
355.491	104.25
355.718	94.25
355.945	99.25
356.172	76.25
356.399	95.25
356.626	87.25
356.853	74.25
357.08	87.25
357.307	91.25
357.534	93.25
357.761	93.25
357.988	87.25
358.215	86.25
358.441	98.25
358.668	102.25
358.895	86.25
359.122	83.25
359.349	85.25
359.576	88.25
359.802	112.25
360.029	109.25
360.256	103.25
360.483	86.25
360.709	86.25
360.936	96.25
361.163	86.25
361.39	93.25
361.616	83.25
361.843	81.25
362.07	92.25
362.296	81.25
362.523	94.25
362.749	86.25
362.976	104.25
363.203	95.25
363.429	84.25
363.656	82.25
363.882	88.25
364.109	85.25
364.335	83.25
364.562	92.25
364.788	95.25
365.015	82.25
365.241	101.25
365.468	116.25
365.694	117.25
365.92	100.25
366.147	82.25
366.373	93.25
366.599	79.25
366.826	91.25
367.052	96.25
367.278	86.25
367.505	85.25
367.731	94.25
367.957	97.25
368.184	102.25
368.41	109.25
368.636	115.25
368.862	121.25
369.089	104.25
369.315	87.25
369.541	90.25
369.767	99.25
369.993	89.25
370.219	82.25
370.445	80.25
370.672	87.25
370.898	106.25
371.124	90.25
371.35	97.25
371.576	79.25
371.802	89.25
372.028	88.25
372.254	95.25
372.48	95.25
372.706	90.25
372.932	93.25
373.158	99.25
373.384	93.25
373.61	93.25
373.835	102.25
374.061	104.25
374.287	77.25
374.513	88.25
374.739	86.25
374.965	83.25
375.191	92.25
375.416	78.25
375.642	82.25
375.868	95.25
376.094	99.25
376.319	89.25
376.545	83.25
376.771	102.25
376.997	90.25
377.222	88.25
377.448	90.25
377.674	91.25
377.899	88.25
378.125	93.25
378.35	83.25
378.576	88.25
378.802	89.25
379.027	88.25
379.253	93.25
379.478	92.25
379.704	84.25
379.929	101.25
380.155	100.25
380.38	102.25
380.606	83.25
380.831	99.25
381.057	92.25
381.282	106.25
381.507	108.25
381.733	101.25
381.958	100.25
382.184	90.25
382.409	102.25
382.634	96.25
382.86	85.25
383.085	95.25
383.31	104.25
383.535	101.25
383.761	113.25
383.986	106.25
384.211	87.25
384.436	107.25
384.662	103.25
384.887	96.25
385.112	97.25
385.337	115.25
385.562	105.25
385.787	111.25
386.013	106.25
386.238	113.25
386.463	107.25
386.688	111.25
386.913	114.25
387.138	107.25
387.363	102.25
387.588	96.25
387.813	107.25
388.038	106.25
388.263	115.25
388.488	110.25
388.713	109.25
388.938	104.25
389.163	100.25
389.387	86.25
389.612	93.25
389.837	79.25
390.062	81.25
390.287	96.25
390.512	95.25
390.736	81.25
390.961	91.25
391.186	94.25
391.411	83.25
391.636	95.25
391.86	83.25
392.085	95.25
392.31	94.25
392.534	85.25
392.759	91.25
392.984	79.25
393.208	100.25
393.433	99.25
393.658	98.25
393.882	98.25
394.107	92.25
394.331	90.25
394.556	72.25
394.78	97.25
395.005	98.25
395.229	89.25
395.454	107.25
395.678	80.25
395.903	98.25
396.127	77.25
396.352	83.25
396.576	94.25
396.801	84.25
397.025	83.25
397.249	92.25
397.474	93.25
397.698	88.25
397.922	86.25
398.147	88.25
398.371	91.25
398.595	90.25
398.82	88.25
399.044	87.25
399.268	82.25
399.492	89.25
399.717	78.25
399.941	98.25
400.165	84.25
400.389	78.25
400.613	83.25
400.837	89.25
401.062	88.25
401.286	73.25
401.51	94.25
401.734	99.25
401.958	106.25
402.182	135.25
402.406	179.25
402.63	118.25
402.854	80.25
403.078	78.25
403.302	74.25
403.526	95.25
403.75	71.25
403.974	80.25
404.198	81.25
404.422	97.25
404.645	97.25
404.869	90.25
405.093	100.25
405.317	97.25
405.541	96.25
405.765	83.25
405.988	107.25
406.212	178.25
406.436	267.25
406.66	156.25
406.883	90.25
407.107	81.25
407.331	85.25
407.555	88.25
407.778	95.25
408.002	92.25
408.226	82.25
408.449	92.25
408.673	88.25
408.896	90.25
409.12	95.25
409.344	83.25
409.567	75.25
409.791	79.25
410.014	98.25
410.238	95.25
410.461	97.25
410.685	99.25
410.908	107.25
411.132	107.25
411.355	96.25
411.578	88.25
411.802	88.25
412.025	96.25
412.249	89.25
412.472	88.25
412.695	99.25
412.919	93.25
413.142	103.25
413.365	97.25
413.589	97.25
413.812	95.25
414.035	88.25
414.258	82.25
414.482	90.25
414.705	78.25
414.928	98.25
415.151	91.25
415.374	101.25
415.597	86.25
415.821	87.25
416.044	81.25
416.267	90.25
416.49	88.25
416.713	90.25
416.936	91.25
417.159	100.25
417.382	85.25
417.605	92.25
417.828	90.25
418.051	110.25
418.274	95.25
418.497	72.25
418.72	96.25
418.943	88.25
419.166	74.25
419.389	84.25
419.611	98.25
419.834	82.25
420.057	78.25
420.28	93.25
420.503	92.25
420.726	93.25
420.948	91.25
421.171	82.25
421.394	88.25
421.617	90.25
421.839	91.25
422.062	84.25
422.285	101.25
422.507	95.25
422.73	125.25
422.953	111.25
423.175	103.25
423.398	75.25
423.621	93.25
423.843	90.25
424.066	84.25
424.288	94.25
424.511	77.25
424.733	85.25
424.956	114.25
425.178	96.25
425.401	100.25
425.623	97.25
425.846	83.25
426.068	90.25
426.291	86.25
426.513	78.25
426.735	97.25
426.958	98.25
427.18	97.25
427.402	133.25
427.625	161.25
427.847	136.25
428.069	108.25
428.292	99.25
428.514	85.25
428.736	84.25
428.958	87.25
429.181	74.25
429.403	92.25
429.625	91.25
429.847	105.25
430.069	91.25
430.292	78.25
430.514	96.25
430.736	86.25
430.958	80.25
431.18	91.25
431.402	75.25
431.624	90.25
431.846	74.25
432.068	96.25
432.29	92.25
432.512	80.25
432.734	99.25
432.956	94.25
433.178	90.25
433.4	93.25
433.622	79.25
433.844	91.25
434.066	88.25
434.287	80.25
434.509	91.25
434.731	82.25
434.953	101.25
435.175	102.25
435.397	88.25
435.618	88.25
435.84	90.25
436.062	104.25
436.284	107.25
436.505	104.25
436.727	87.25
436.949	72.25
437.17	100.25
437.392	99.25
437.614	96.25
437.835	109.25
438.057	112.25
438.278	109.25
438.5	103.25
438.721	105.25
438.943	96.25
439.165	94.25
439.386	90.25
439.608	97.25
439.829	95.25
440.05	116.25
440.272	138.25
440.493	99.25
440.715	83.25
440.936	76.25
441.158	82.25
441.379	83.25
441.6	81.25
441.822	88.25
442.043	99.25
442.264	98.25
442.486	101.25
442.707	88.25
442.928	109.25
443.149	138.25
443.371	123.25
443.592	102.25
443.813	104.25
444.034	102.25
444.255	84.25
444.476	78.25
444.698	92.25
444.919	81.25
445.14	134.25
445.361	105.25
445.582	108.25
445.803	129.25
446.024	132.25
446.245	119.25
446.466	106.25
446.687	79.25
446.908	97.25
447.129	88.25
447.35	101.25
447.571	90.25
447.792	72.25
448.013	97.25
448.234	102.25
448.455	101.25
448.675	110.25
448.896	106.25
449.117	82.25
449.338	104.25
449.559	118.25
449.779	125.25
450	81.25
450.221	77.25
450.442	102.25
450.662	86.25
450.883	101.25
451.104	100.25
451.324	99.25
451.545	83.25
451.766	101.25
451.986	73.25
452.207	90.25
452.428	94.25
452.648	108.25
452.869	108.25
453.089	112.25
453.31	124.25
453.53	108.25
453.751	93.25
453.971	99.25
454.192	96.25
454.412	79.25
454.633	93.25
454.853	91.25
455.073	92.25
455.294	91.25
455.514	99.25
455.734	76.25
455.955	76.25
456.175	72.25
456.395	84.25
456.616	84.25
456.836	78.25
457.056	80.25
457.276	79.25
457.497	97.25
457.717	90.25
457.937	86.25
458.157	92.25
458.377	84.25
458.598	102.25
458.818	141.25
459.038	157.25
459.258	118.25
459.478	102.25
459.698	75.25
459.918	89.25
460.138	82.25
460.358	82.25
460.578	97.25
460.798	98.25
461.018	85.25
461.238	81.25
461.458	89.25
461.678	89.25
461.898	82.25
462.118	85.25
462.338	71.25
462.558	61.25
462.777	88.25
462.997	94.25
463.217	96.25
463.437	92.25
463.657	84.25
463.876	95.25
464.096	89.25
464.316	94.25
464.536	92.25
464.755	88.25
464.975	95.25
465.195	167.25
465.414	164.25
465.634	94.25
465.854	76.25
466.073	77.25
466.293	99.25
466.512	79.25
466.732	83.25
466.951	90.25
467.171	86.25
467.391	96.25
467.61	111.25
467.829	93.25
468.049	125.25
468.268	138.25
468.488	82.25
468.707	91.25
468.927	76.25
469.146	97.25
469.365	90.25
469.585	87.25
469.804	88.25
470.023	98.25
470.243	98.25
470.462	97.25
470.681	104.25
470.901	89.25
471.12	102.25
471.339	93.25
471.558	85.25
471.777	107.25
471.997	123.25
472.216	185.25
472.435	271.25
472.654	112.25
472.873	102.25
473.092	81.25
473.311	75.25
473.53	76.25
473.749	94.25
473.968	88.25
474.187	97.25
474.406	97.25
474.625	78.25
474.844	82.25
475.063	70.25
475.282	88.25
475.501	83.25
475.72	86.25
475.939	70.25
476.158	83.25
476.377	104.25
476.596	89.25
476.814	91.25
477.033	85.25
477.252	83.25
477.471	91.25
477.69	93.25
477.908	88.25
478.127	93.25
478.346	76.25
478.564	80.25
478.783	116.25
479.002	80.25
479.22	98.25
479.439	107.25
479.658	96.25
479.876	96.25
480.095	87.25
480.313	95.25
480.532	100.25
480.751	111.25
480.969	172.25
481.188	430.25
481.406	283.25
481.624	111.25
481.843	101.25
482.061	93.25
482.28	106.25
482.498	94.25
482.717	79.25
482.935	95.25
483.153	78.25
483.372	94.25
483.59	91.25
483.808	94.25
484.027	100.25
484.245	87.25
484.463	77.25
484.681	95.25
484.9	90.25
485.118	76.25
485.336	101.25
485.554	107.25
485.772	99.25
485.99	112.25
486.209	88.25
486.427	90.25
486.645	114.25
486.863	119.25
487.081	92.25
487.299	70.25
487.517	83.25
487.735	92.25
487.953	100.25
488.171	106.25
488.389	90.25
488.607	80.25
488.825	94.25
489.043	90.25
489.261	82.25
489.479	70.25
489.696	72.25
489.914	81.25
490.132	88.25
490.35	79.25
490.568	87.25
490.786	77.25
491.003	81.25
491.221	103.25
491.439	94.25
491.657	82.25
491.874	87.25
492.092	93.25
492.31	90.25
492.527	78.25
492.745	92.25
492.963	96.25
493.18	86.25
493.398	99.25
493.615	102.25
493.833	84.25
494.05	94.25
494.268	79.25
494.485	84.25
494.703	97.25
494.92	90.25
495.138	96.25
495.355	85.25
495.573	73.25
495.79	90.25
496.008	96.25
496.225	82.25
496.442	86.25
496.66	84.25
496.877	93.25
497.094	72.25
497.312	90.25
497.529	93.25
497.746	93.25
497.963	102.25
498.181	100.25
498.398	90.25
498.615	99.25
498.832	101.25
499.049	89.25
499.267	86.25
499.484	81.25
499.701	95.25
499.918	100.25
500.135	85.25
500.352	90.25
500.569	83.25
500.786	91.25
501.003	91.25
501.22	80.25
501.437	96.25
501.654	103.25
501.871	104.25
502.088	85.25
502.305	88.25
502.522	97.25
502.739	80.25
502.956	69.25
503.172	100.25
503.389	96.25
503.606	93.25
503.823	100.25
504.04	89.25
504.256	91.25
504.473	92.25
504.69	80.25
504.907	97.25
505.123	88.25
505.34	91.25
505.557	95.25
505.773	81.25
505.99	88.25
506.207	92.25
506.423	95.25
506.64	83.25
506.856	93.25
507.073	94.25
507.289	104.25
507.506	98.25
507.722	109.25
507.939	112.25
508.155	74.25
508.372	87.25
508.588	95.25
508.805	84.25
509.021	94.25
509.238	94.25
509.454	97.25
509.67	107.25
509.887	116.25
510.103	143.25
510.319	239.25
510.536	899.25
510.752	3066.25
510.968	803.25
511.184	181.25
511.401	119.25
511.617	98.25
511.833	100.25
512.049	101.25
512.265	88.25
512.481	88.25
512.698	100.25
512.914	95.25
513.13	95.25
513.346	91.25
513.562	86.25
513.778	100.25
513.994	90.25
514.21	98.25
514.426	119.25
514.642	153.25
514.858	125.25
515.074	171.25
515.29	505.25
515.506	1769.25
