Data from Circ_1996_H10_HRD10591_00028.txt Node
Date: Wed Jan 03 11:33:11 EST 2024
User: Yrep
Spectrometer: HR+D1059
Trigger mode: 1
Integration Time (sec): 1.000000E-1
Scans to average: 1
Electric dark correction enabled: true
Nonlinearity correction enabled: false
Boxcar width: 0
XAxis mode: Wavelengths
Number of Pixels in Spectrum: 2048
>>>>>Begin Spectral Data<<<<<
223.165	-7.19
223.4	-7.19
223.635	-7.19
223.869	-20.19
224.104	-14.19
224.338	-7.19
224.573	-17.19
224.808	-11.19
225.042	-5.19
225.277	-7.19
225.511	-9.19
225.746	-0.19
225.98	8.81
226.215	7.81
226.449	27.81
226.683	5.81
226.918	24.81
227.152	23.81
227.387	34.81
227.621	29.81
227.856	35.81
228.09	37.81
228.324	59.81
228.559	57.81
228.793	50.81
229.027	60.81
229.262	65.81
229.496	77.81
229.73	72.81
229.964	84.81
230.199	92.81
230.433	79.81
230.667	65.81
230.901	75.81
231.136	74.81
231.37	71.81
231.604	74.81
231.838	85.81
232.072	89.81
232.306	91.81
232.541	95.81
232.775	77.81
233.009	79.81
233.243	79.81
233.477	90.81
233.711	75.81
233.945	88.81
234.179	92.81
234.413	81.81
234.647	78.81
234.881	82.81
235.115	86.81
235.349	76.81
235.583	80.81
235.817	81.81
236.051	77.81
236.285	92.81
236.519	94.81
236.753	65.81
236.987	65.81
237.221	82.81
237.455	89.81
237.689	93.81
237.922	71.81
238.156	72.81
238.39	65.81
238.624	68.81
238.858	81.81
239.091	76.81
239.325	81.81
239.559	76.81
239.793	84.81
240.027	83.81
240.26	91.81
240.494	80.81
240.728	96.81
240.961	81.81
241.195	81.81
241.429	67.81
241.662	81.81
241.896	78.81
242.13	85.81
242.363	79.81
242.597	63.81
242.83	80.81
243.064	77.81
243.298	77.81
243.531	77.81
243.765	85.81
243.998	77.81
244.232	77.81
244.465	88.81
244.699	77.81
244.932	88.81
245.166	69.81
245.399	87.81
245.633	79.81
245.866	73.81
246.099	80.81
246.333	89.81
246.566	71.81
246.8	83.81
247.033	88.81
247.266	67.81
247.5	91.81
247.733	78.81
247.966	76.81
248.2	92.81
248.433	93.81
248.666	74.81
248.899	87.81
249.133	87.81
249.366	99.81
249.599	91.81
249.832	84.81
250.066	88.81
250.299	88.81
250.532	88.81
250.765	77.81
250.998	99.81
251.231	76.81
251.465	73.81
251.698	90.81
251.931	87.81
252.164	77.81
252.397	84.81
252.63	86.81
252.863	84.81
253.096	76.81
253.329	93.81
253.562	87.81
253.795	84.81
254.028	89.81
254.261	74.81
254.494	80.81
254.727	75.81
254.96	71.81
255.193	95.81
255.426	85.81
255.659	62.81
255.892	67.81
256.124	76.81
256.357	80.81
256.59	75.81
256.823	87.81
257.056	69.81
257.289	68.81
257.521	79.81
257.754	95.81
257.987	89.81
258.22	81.81
258.452	87.81
258.685	89.81
258.918	75.81
259.151	83.81
259.383	89.81
259.616	84.81
259.849	89.81
260.081	79.81
260.314	82.81
260.547	71.81
260.779	83.81
261.012	74.81
261.244	73.81
261.477	93.81
261.71	84.81
261.942	107.81
262.175	95.81
262.407	79.81
262.64	92.81
262.872	69.81
263.105	97.81
263.337	83.81
263.57	75.81
263.802	83.81
264.035	77.81
264.267	96.81
264.499	87.81
264.732	95.81
264.964	91.81
265.197	87.81
265.429	93.81
265.661	78.81
265.894	78.81
266.126	86.81
266.358	82.81
266.591	74.81
266.823	86.81
267.055	80.81
267.287	81.81
267.52	72.81
267.752	82.81
267.984	82.81
268.216	83.81
268.448	91.81
268.681	106.81
268.913	99.81
269.145	81.81
269.377	96.81
269.609	70.81
269.841	88.81
270.073	82.81
270.306	88.81
270.538	89.81
270.77	93.81
271.002	93.81
271.234	80.81
271.466	100.81
271.698	87.81
271.93	89.81
272.162	79.81
272.394	78.81
272.626	67.81
272.858	86.81
273.09	91.81
273.322	94.81
273.553	78.81
273.785	89.81
274.017	69.81
274.249	85.81
274.481	99.81
274.713	82.81
274.945	78.81
275.176	80.81
275.408	82.81
275.64	92.81
275.872	77.81
276.104	89.81
276.335	90.81
276.567	101.81
276.799	111.81
277.031	101.81
277.262	100.81
277.494	93.81
277.726	84.81
277.957	79.81
278.189	79.81
278.421	84.81
278.652	94.81
278.884	80.81
279.115	87.81
279.347	98.81
279.579	81.81
279.81	78.81
280.042	97.81
280.273	104.81
280.505	68.81
280.736	82.81
280.968	90.81
281.199	88.81
281.431	97.81
281.662	75.81
281.894	95.81
282.125	98.81
282.356	123.81
282.588	149.81
282.819	121.81
283.051	94.81
283.282	95.81
283.513	88.81
283.745	88.81
283.976	90.81
284.207	99.81
284.439	93.81
284.67	87.81
284.901	92.81
285.132	90.81
285.364	76.81
285.595	89.81
285.826	99.81
286.057	90.81
286.288	87.81
286.52	105.81
286.751	95.81
286.982	91.81
287.213	85.81
287.444	89.81
287.675	75.81
287.906	94.81
288.138	73.81
288.369	103.81
288.6	105.81
288.831	78.81
289.062	91.81
289.293	89.81
289.524	81.81
289.755	104.81
289.986	81.81
290.217	80.81
290.448	92.81
290.679	98.81
290.91	102.81
291.141	92.81
291.371	80.81
291.602	96.81
291.833	89.81
292.064	100.81
292.295	88.81
292.526	82.81
292.757	95.81
292.987	96.81
293.218	98.81
293.449	96.81
293.68	95.81
293.91	96.81
294.141	89.81
294.372	96.81
294.603	87.81
294.833	77.81
295.064	95.81
295.295	89.81
295.525	88.81
295.756	97.81
295.987	106.81
296.217	131.81
296.448	116.81
296.679	98.81
296.909	103.81
297.14	90.81
297.37	87.81
297.601	94.81
297.831	89.81
298.062	90.81
298.292	93.81
298.523	96.81
298.753	84.81
298.984	96.81
299.214	94.81
299.445	105.81
299.675	89.81
299.905	100.81
300.136	88.81
300.366	85.81
300.597	94.81
300.827	81.81
301.057	104.81
301.288	109.81
301.518	84.81
301.748	94.81
301.979	96.81
302.209	78.81
302.439	83.81
302.669	87.81
302.9	90.81
303.13	86.81
303.36	101.81
303.59	107.81
303.82	119.81
304.051	113.81
304.281	94.81
304.511	77.81
304.741	104.81
304.971	95.81
305.201	90.81
305.431	101.81
305.661	87.81
305.891	90.81
306.121	101.81
306.352	104.81
306.582	108.81
306.812	104.81
307.042	103.81
307.272	98.81
307.502	94.81
307.731	86.81
307.961	82.81
308.191	91.81
308.421	95.81
308.651	110.81
308.881	102.81
309.111	103.81
309.341	101.81
309.571	111.81
309.8	104.81
310.03	97.81
310.26	106.81
310.49	97.81
310.72	100.81
310.949	115.81
311.179	95.81
311.409	90.81
311.639	98.81
311.868	90.81
312.098	101.81
312.328	107.81
312.557	94.81
312.787	109.81
313.017	115.81
313.246	87.81
313.476	94.81
313.706	96.81
313.935	86.81
314.165	95.81
314.394	103.81
314.624	101.81
314.853	99.81
315.083	101.81
315.312	90.81
315.542	99.81
315.771	100.81
316.001	98.81
316.23	86.81
316.46	100.81
316.689	90.81
316.919	75.81
317.148	103.81
317.377	90.81
317.607	96.81
317.836	92.81
318.065	93.81
318.295	91.81
318.524	93.81
318.753	90.81
318.983	89.81
319.212	98.81
319.441	97.81
319.67	118.81
319.9	94.81
320.129	98.81
320.358	99.81
320.587	109.81
320.816	96.81
321.046	105.81
321.275	103.81
321.504	98.81
321.733	84.81
321.962	95.81
322.191	94.81
322.42	90.81
322.649	100.81
322.878	120.81
323.108	116.81
323.337	136.81
323.566	136.81
323.795	119.81
324.024	175.81
324.253	303.81
324.482	591.81
324.71	1177.81
324.939	1549.81
325.168	592.81
325.397	208.81
325.626	122.81
325.855	110.81
326.084	104.81
326.313	112.81
326.542	131.81
326.77	166.81
326.999	328.81
327.228	633.81
327.457	1160.81
327.686	911.81
327.914	270.81
328.143	186.81
328.372	148.81
328.6	125.81
328.829	105.81
329.058	121.81
329.287	115.81
329.515	105.81
329.744	111.81
329.972	124.81
330.201	142.81
330.43	173.81
330.658	146.81
330.887	123.81
331.115	111.81
331.344	110.81
331.572	92.81
331.801	100.81
332.03	98.81
332.258	111.81
332.486	95.81
332.715	105.81
332.943	97.81
333.172	88.81
333.4	102.81
333.629	124.81
333.857	113.81
334.085	136.81
334.314	128.81
334.542	186.81
334.771	187.81
334.999	121.81
335.227	94.81
335.455	90.81
335.684	100.81
335.912	88.81
336.14	98.81
336.369	122.81
336.597	100.81
336.825	107.81
337.053	96.81
337.281	94.81
337.51	98.81
337.738	97.81
337.966	95.81
338.194	104.81
338.422	107.81
338.65	92.81
338.878	100.81
339.106	94.81
339.334	98.81
339.562	85.81
339.79	104.81
340.018	92.81
340.246	80.81
340.474	96.81
340.702	98.81
340.93	99.81
341.158	106.81
341.386	102.81
341.614	95.81
341.842	103.81
342.07	106.81
342.298	88.81
342.526	85.81
342.754	87.81
342.981	96.81
343.209	84.81
343.437	117.81
343.665	99.81
343.893	88.81
344.12	95.81
344.348	89.81
344.576	95.81
344.804	99.81
345.031	99.81
345.259	101.81
345.487	87.81
345.714	97.81
345.942	98.81
346.17	96.81
346.397	102.81
346.625	74.81
346.853	91.81
347.08	95.81
347.308	105.81
347.535	101.81
347.763	99.81
347.99	89.81
348.218	93.81
348.445	113.81
348.673	103.81
348.9	90.81
349.128	92.81
349.355	87.81
349.583	83.81
349.81	92.81
350.037	91.81
350.265	87.81
350.492	99.81
350.72	97.81
350.947	106.81
351.174	109.81
351.402	105.81
351.629	97.81
351.856	89.81
352.083	111.81
352.311	87.81
352.538	100.81
352.765	102.81
352.992	114.81
353.22	116.81
353.447	105.81
353.674	95.81
353.901	96.81
354.128	94.81
354.355	97.81
354.583	103.81
354.81	94.81
355.037	107.81
355.264	99.81
355.491	88.81
355.718	95.81
355.945	88.81
356.172	104.81
356.399	96.81
356.626	99.81
356.853	83.81
357.08	86.81
357.307	95.81
357.534	101.81
357.761	97.81
357.988	97.81
358.215	108.81
358.441	88.81
358.668	100.81
358.895	103.81
359.122	92.81
359.349	89.81
359.576	97.81
359.802	89.81
360.029	90.81
360.256	96.81
360.483	102.81
360.709	94.81
360.936	94.81
361.163	105.81
361.39	92.81
361.616	103.81
361.843	88.81
362.07	85.81
362.296	105.81
362.523	72.81
362.749	90.81
362.976	84.81
363.203	108.81
363.429	93.81
363.656	93.81
363.882	92.81
364.109	84.81
364.335	92.81
364.562	99.81
364.788	85.81
365.015	95.81
365.241	97.81
365.468	106.81
365.694	97.81
365.92	107.81
366.147	96.81
366.373	87.81
366.599	87.81
366.826	86.81
367.052	92.81
367.278	77.81
367.505	79.81
367.731	83.81
367.957	111.81
368.184	87.81
368.41	101.81
368.636	125.81
368.862	117.81
369.089	99.81
369.315	89.81
369.541	86.81
369.767	91.81
369.993	92.81
370.219	78.81
370.445	95.81
370.672	92.81
370.898	94.81
371.124	90.81
371.35	88.81
371.576	87.81
371.802	77.81
372.028	88.81
372.254	81.81
372.48	89.81
372.706	91.81
372.932	88.81
373.158	85.81
373.384	100.81
373.61	82.81
373.835	88.81
374.061	91.81
374.287	88.81
374.513	91.81
374.739	92.81
374.965	92.81
375.191	89.81
375.416	90.81
375.642	74.81
375.868	71.81
376.094	83.81
376.319	91.81
376.545	89.81
376.771	86.81
376.997	92.81
377.222	92.81
377.448	94.81
377.674	91.81
377.899	84.81
378.125	91.81
378.35	106.81
378.576	99.81
378.802	98.81
379.027	90.81
379.253	94.81
379.478	94.81
379.704	92.81
379.929	90.81
380.155	97.81
380.38	91.81
380.606	95.81
380.831	92.81
381.057	81.81
381.282	95.81
381.507	97.81
381.733	113.81
381.958	106.81
382.184	102.81
382.409	94.81
382.634	103.81
382.86	94.81
383.085	108.81
383.31	98.81
383.535	101.81
383.761	92.81
383.986	97.81
384.211	86.81
384.436	94.81
384.662	115.81
384.887	114.81
385.112	109.81
385.337	105.81
385.562	107.81
385.787	116.81
386.013	135.81
386.238	110.81
386.463	101.81
386.688	107.81
386.913	123.81
387.138	120.81
387.363	110.81
387.588	102.81
387.813	109.81
388.038	100.81
388.263	118.81
388.488	113.81
388.713	103.81
388.938	100.81
389.163	94.81
389.387	85.81
389.612	94.81
389.837	87.81
390.062	96.81
390.287	87.81
390.512	95.81
390.736	87.81
390.961	78.81
391.186	95.81
391.411	89.81
391.636	103.81
391.86	88.81
392.085	73.81
392.31	79.81
392.534	83.81
392.759	88.81
392.984	95.81
393.208	104.81
393.433	112.81
393.658	92.81
393.882	99.81
394.107	92.81
394.331	89.81
394.556	85.81
394.78	83.81
395.005	94.81
395.229	79.81
395.454	97.81
395.678	90.81
395.903	95.81
396.127	98.81
396.352	92.81
396.576	83.81
396.801	97.81
397.025	100.81
397.249	93.81
397.474	77.81
397.698	84.81
397.922	102.81
398.147	80.81
398.371	90.81
398.595	70.81
398.82	89.81
399.044	102.81
399.268	95.81
399.492	87.81
399.717	91.81
399.941	99.81
400.165	107.81
400.389	98.81
400.613	91.81
400.837	89.81
401.062	84.81
401.286	87.81
401.51	76.81
401.734	90.81
401.958	95.81
402.182	123.81
402.406	135.81
402.63	128.81
402.854	94.81
403.078	80.81
403.302	92.81
403.526	92.81
403.75	93.81
403.974	85.81
404.198	87.81
404.422	91.81
404.645	81.81
404.869	77.81
405.093	88.81
405.317	101.81
405.541	105.81
405.765	96.81
405.988	109.81
406.212	157.81
406.436	208.81
406.66	152.81
406.883	103.81
407.107	97.81
407.331	77.81
407.555	110.81
407.778	103.81
408.002	98.81
408.226	84.81
408.449	98.81
408.673	91.81
408.896	92.81
409.12	93.81
409.344	108.81
409.567	84.81
409.791	92.81
410.014	94.81
410.238	96.81
410.461	99.81
410.685	90.81
410.908	104.81
411.132	112.81
411.355	107.81
411.578	96.81
411.802	84.81
412.025	91.81
412.249	90.81
412.472	91.81
412.695	96.81
412.919	100.81
413.142	89.81
413.365	94.81
413.589	94.81
413.812	82.81
414.035	100.81
414.258	90.81
414.482	91.81
414.705	88.81
414.928	93.81
415.151	87.81
415.374	89.81
415.597	88.81
415.821	86.81
416.044	84.81
416.267	84.81
416.49	81.81
416.713	88.81
416.936	83.81
417.159	80.81
417.382	84.81
417.605	87.81
417.828	80.81
418.051	89.81
418.274	97.81
418.497	101.81
418.72	78.81
418.943	91.81
419.166	88.81
419.389	89.81
419.611	98.81
419.834	97.81
420.057	86.81
420.28	83.81
420.503	95.81
420.726	86.81
420.948	66.81
421.171	87.81
421.394	90.81
421.617	107.81
421.839	90.81
422.062	98.81
422.285	90.81
422.507	103.81
422.73	114.81
422.953	96.81
423.175	77.81
423.398	84.81
423.621	85.81
423.843	76.81
424.066	86.81
424.288	83.81
424.511	87.81
424.733	96.81
424.956	93.81
425.178	95.81
425.401	95.81
425.623	101.81
425.846	80.81
426.068	89.81
426.291	89.81
426.513	88.81
426.735	82.81
426.958	90.81
427.18	99.81
427.402	133.81
427.625	155.81
427.847	119.81
428.069	99.81
428.292	102.81
428.514	79.81
428.736	96.81
428.958	80.81
429.181	94.81
429.403	90.81
429.625	88.81
429.847	82.81
430.069	89.81
430.292	99.81
430.514	75.81
430.736	80.81
430.958	90.81
431.18	88.81
431.402	95.81
431.624	85.81
431.846	80.81
432.068	95.81
432.29	91.81
432.512	91.81
432.734	79.81
432.956	92.81
433.178	98.81
433.4	87.81
433.622	99.81
433.844	98.81
434.066	96.81
434.287	89.81
434.509	111.81
434.731	84.81
434.953	79.81
435.175	92.81
435.397	83.81
435.618	89.81
435.84	96.81
436.062	96.81
436.284	97.81
436.505	95.81
436.727	82.81
436.949	90.81
437.17	87.81
437.392	84.81
437.614	95.81
437.835	107.81
438.057	112.81
438.278	113.81
438.5	95.81
438.721	115.81
438.943	93.81
439.165	81.81
439.386	87.81
439.608	93.81
439.829	89.81
440.05	111.81
440.272	137.81
440.493	96.81
440.715	89.81
440.936	85.81
441.158	83.81
441.379	92.81
441.6	108.81
441.822	90.81
442.043	99.81
442.264	91.81
442.486	92.81
442.707	93.81
442.928	90.81
443.149	122.81
443.371	117.81
443.592	114.81
443.813	101.81
444.034	99.81
444.255	96.81
444.476	89.81
444.698	88.81
444.919	85.81
445.14	133.81
445.361	119.81
445.582	87.81
445.803	126.81
446.024	137.81
446.245	111.81
446.466	72.81
446.687	77.81
446.908	87.81
447.129	93.81
447.35	99.81
447.571	93.81
447.792	108.81
448.013	91.81
448.234	84.81
448.455	95.81
448.675	125.81
448.896	113.81
449.117	113.81
449.338	94.81
449.559	112.81
449.779	122.81
450	94.81
450.221	85.81
450.442	95.81
450.662	93.81
450.883	104.81
451.104	120.81
451.324	78.81
451.545	91.81
451.766	84.81
451.986	83.81
452.207	99.81
452.428	86.81
452.648	99.81
452.869	101.81
453.089	106.81
453.31	110.81
453.53	93.81
453.751	88.81
453.971	92.81
454.192	106.81
454.412	94.81
454.633	81.81
454.853	79.81
455.073	96.81
455.294	99.81
455.514	95.81
455.734	90.81
455.955	92.81
456.175	101.81
456.395	98.81
456.616	84.81
456.836	90.81
457.056	94.81
457.276	80.81
457.497	73.81
457.717	86.81
457.937	88.81
458.157	94.81
458.377	94.81
458.598	107.81
458.818	135.81
459.038	141.81
459.258	102.81
459.478	87.81
459.698	107.81
459.918	85.81
460.138	91.81
460.358	96.81
460.578	84.81
460.798	78.81
461.018	97.81
461.238	85.81
461.458	76.81
461.678	80.81
461.898	101.81
462.118	91.81
462.338	86.81
462.558	92.81
462.777	97.81
462.997	84.81
463.217	72.81
463.437	97.81
463.657	90.81
463.876	90.81
464.096	90.81
464.316	88.81
464.536	80.81
464.755	87.81
464.975	107.81
465.195	166.81
465.414	144.81
465.634	89.81
465.854	85.81
466.073	90.81
466.293	93.81
466.512	84.81
466.732	91.81
466.951	87.81
467.171	88.81
467.391	92.81
467.61	97.81
467.829	85.81
468.049	114.81
468.268	123.81
468.488	92.81
468.707	103.81
468.927	83.81
469.146	91.81
469.365	91.81
469.585	90.81
469.804	91.81
470.023	98.81
470.243	96.81
470.462	115.81
470.681	99.81
470.901	95.81
471.12	80.81
471.339	87.81
471.558	88.81
471.777	101.81
471.997	103.81
472.216	156.81
472.435	237.81
472.654	100.81
472.873	83.81
473.092	80.81
473.311	97.81
473.53	92.81
473.749	100.81
473.968	83.81
474.187	94.81
474.406	101.81
474.625	82.81
474.844	95.81
475.063	83.81
475.282	85.81
475.501	88.81
475.72	98.81
475.939	87.81
476.158	86.81
476.377	88.81
476.596	99.81
476.814	105.81
477.033	103.81
477.252	89.81
477.471	95.81
477.69	76.81
477.908	95.81
478.127	99.81
478.346	92.81
478.564	79.81
478.783	83.81
479.002	92.81
479.22	88.81
479.439	108.81
479.658	111.81
479.876	73.81
480.095	87.81
480.313	89.81
480.532	84.81
480.751	95.81
480.969	167.81
481.188	370.81
481.406	250.81
481.624	107.81
481.843	93.81
482.061	93.81
482.28	92.81
482.498	81.81
482.717	91.81
482.935	91.81
483.153	83.81
483.372	90.81
483.59	92.81
483.808	90.81
484.027	82.81
484.245	92.81
484.463	92.81
484.681	86.81
484.9	93.81
485.118	98.81
485.336	102.81
485.554	101.81
485.772	100.81
485.99	99.81
486.209	115.81
486.427	96.81
486.645	108.81
486.863	116.81
487.081	110.81
487.299	102.81
487.517	86.81
487.735	95.81
487.953	86.81
488.171	92.81
488.389	87.81
488.607	91.81
488.825	82.81
489.043	101.81
489.261	100.81
489.479	100.81
489.696	101.81
489.914	94.81
490.132	97.81
490.35	90.81
490.568	87.81
490.786	90.81
491.003	90.81
491.221	90.81
491.439	86.81
491.657	97.81
491.874	87.81
492.092	93.81
492.31	89.81
492.527	87.81
492.745	92.81
492.963	81.81
493.18	84.81
493.398	96.81
493.615	99.81
493.833	99.81
494.05	101.81
494.268	87.81
494.485	95.81
494.703	80.81
494.92	78.81
495.138	95.81
495.355	93.81
495.573	80.81
495.79	80.81
496.008	97.81
496.225	87.81
496.442	87.81
496.66	85.81
496.877	86.81
497.094	84.81
497.312	80.81
497.529	78.81
497.746	82.81
497.963	88.81
498.181	84.81
498.398	84.81
498.615	94.81
498.832	102.81
499.049	95.81
499.267	84.81
499.484	92.81
499.701	73.81
499.918	82.81
500.135	75.81
500.352	96.81
500.569	92.81
500.786	86.81
501.003	87.81
501.22	100.81
501.437	81.81
501.654	106.81
501.871	115.81
502.088	102.81
502.305	99.81
502.522	82.81
502.739	92.81
502.956	89.81
503.172	87.81
503.389	102.81
503.606	91.81
503.823	100.81
504.04	96.81
504.256	100.81
504.473	87.81
504.69	82.81
504.907	99.81
505.123	77.81
505.34	94.81
505.557	93.81
505.773	87.81
505.99	82.81
506.207	90.81
506.423	94.81
506.64	112.81
506.856	96.81
507.073	92.81
507.289	83.81
507.506	103.81
507.722	112.81
507.939	111.81
508.155	100.81
508.372	97.81
508.588	98.81
508.805	94.81
509.021	97.81
509.238	81.81
509.454	107.81
509.67	107.81
509.887	119.81
510.103	134.81
510.319	209.81
510.536	753.81
510.752	2424.81
510.968	666.81
511.184	159.81
511.401	101.81
511.617	107.81
511.833	107.81
512.049	91.81
512.265	92.81
512.481	87.81
512.698	76.81
512.914	98.81
513.13	98.81
513.346	98.81
513.562	103.81
513.778	100.81
513.994	97.81
514.21	107.81
514.426	113.81
514.642	129.81
514.858	122.81
515.074	152.81
515.29	417.81
515.506	1345.81
