Data from Circ_1996_H10_HRD10591_00092.txt Node
Date: Wed Jan 03 11:33:24 EST 2024
User: Yrep
Spectrometer: HR+D1059
Trigger mode: 1
Integration Time (sec): 1.000000E-1
Scans to average: 1
Electric dark correction enabled: true
Nonlinearity correction enabled: false
Boxcar width: 0
XAxis mode: Wavelengths
Number of Pixels in Spectrum: 2048
>>>>>Begin Spectral Data<<<<<
223.165	-14
223.4	-14
223.635	-14
223.869	-25
224.104	-10
224.338	-14
224.573	-22
224.808	-3
225.042	-3
225.277	13
225.511	-7
225.746	-14
225.98	6
226.215	13
226.449	18
226.683	17
226.918	16
227.152	29
227.387	29
227.621	36
227.856	36
228.09	41
228.324	47
228.559	48
228.793	52
229.027	76
229.262	59
229.496	81
229.73	77
229.964	98
230.199	77
230.433	73
230.667	72
230.901	85
231.136	73
231.37	85
231.604	79
231.838	82
232.072	76
232.306	81
232.541	78
232.775	66
233.009	79
233.243	74
233.477	89
233.711	83
233.945	74
234.179	85
234.413	81
234.647	88
234.881	88
235.115	72
235.349	77
235.583	91
235.817	83
236.051	73
236.285	79
236.519	72
236.753	70
236.987	84
237.221	69
237.455	85
237.689	79
237.922	75
238.156	73
238.39	66
238.624	73
238.858	65
239.091	69
239.325	74
239.559	78
239.793	85
240.027	85
240.26	85
240.494	79
240.728	76
240.961	77
241.195	75
241.429	66
241.662	69
241.896	71
242.13	79
242.363	81
242.597	80
242.83	76
243.064	65
243.298	80
243.531	64
243.765	77
243.998	78
244.232	84
244.465	77
244.699	78
244.932	78
245.166	72
245.399	81
245.633	71
245.866	76
246.099	90
246.333	87
246.566	95
246.8	81
247.033	69
247.266	55
247.5	78
247.733	71
247.966	81
248.2	78
248.433	73
248.666	75
248.899	87
249.133	70
249.366	88
249.599	94
249.832	81
250.066	73
250.299	81
250.532	81
250.765	81
250.998	76
251.231	68
251.465	79
251.698	78
251.931	85
252.164	75
252.397	84
252.63	82
252.863	70
253.096	72
253.329	82
253.562	79
253.795	70
254.028	75
254.261	83
254.494	87
254.727	82
254.96	77
255.193	77
255.426	82
255.659	68
255.892	91
256.124	79
256.357	71
256.59	79
256.823	94
257.056	81
257.289	74
257.521	82
257.754	83
257.987	75
258.22	90
258.452	88
258.685	82
258.918	80
259.151	91
259.383	87
259.616	83
259.849	73
260.081	77
260.314	83
260.547	72
260.779	66
261.012	92
261.244	87
261.477	93
261.71	93
261.942	115
262.175	106
262.407	81
262.64	81
262.872	84
263.105	83
263.337	96
263.57	85
263.802	90
264.035	82
264.267	78
264.499	95
264.732	85
264.964	79
265.197	92
265.429	79
265.661	56
265.894	81
266.126	99
266.358	96
266.591	84
266.823	94
267.055	87
267.287	66
267.52	85
267.752	83
267.984	77
268.216	88
268.448	89
268.681	78
268.913	75
269.145	93
269.377	92
269.609	83
269.841	83
270.073	72
270.306	89
270.538	78
270.77	70
271.002	82
271.234	91
271.466	90
271.698	74
271.93	89
272.162	88
272.394	85
272.626	88
272.858	80
273.09	85
273.322	81
273.553	89
273.785	83
274.017	94
274.249	83
274.481	93
274.713	89
274.945	81
275.176	74
275.408	91
275.64	94
275.872	86
276.104	88
276.335	94
276.567	101
276.799	106
277.031	106
277.262	97
277.494	85
277.726	73
277.957	93
278.189	81
278.421	94
278.652	102
278.884	85
279.115	70
279.347	97
279.579	87
279.81	97
280.042	90
280.273	93
280.505	78
280.736	91
280.968	97
281.199	77
281.431	80
281.662	83
281.894	83
282.125	102
282.356	123
282.588	117
282.819	119
283.051	83
283.282	90
283.513	90
283.745	94
283.976	81
284.207	94
284.439	85
284.67	83
284.901	82
285.132	80
285.364	78
285.595	83
285.826	79
286.057	88
286.288	92
286.52	86
286.751	80
286.982	71
287.213	87
287.444	82
287.675	81
287.906	98
288.138	84
288.369	100
288.6	106
288.831	81
289.062	83
289.293	97
289.524	69
289.755	80
289.986	107
290.217	73
290.448	101
290.679	93
290.91	80
291.141	81
291.371	83
291.602	86
291.833	78
292.064	98
292.295	88
292.526	87
292.757	85
292.987	108
293.218	96
293.449	111
293.68	98
293.91	82
294.141	91
294.372	75
294.603	97
294.833	99
295.064	86
295.295	76
295.525	98
295.756	90
295.987	117
296.217	131
296.448	119
296.679	95
296.909	91
297.14	89
297.37	96
297.601	75
297.831	107
298.062	78
298.292	70
298.523	70
298.753	85
298.984	94
299.214	87
299.445	77
299.675	92
299.905	95
300.136	86
300.366	81
300.597	83
300.827	85
301.057	101
301.288	104
301.518	84
301.748	85
301.979	95
302.209	94
302.439	90
302.669	95
302.9	94
303.13	84
303.36	101
303.59	102
303.82	107
304.051	87
304.281	97
304.511	88
304.741	73
304.971	78
305.201	91
305.431	91
305.661	92
305.891	94
306.121	95
306.352	102
306.582	89
306.812	82
307.042	83
307.272	104
307.502	110
307.731	106
307.961	101
308.191	90
308.421	83
308.651	73
308.881	90
309.111	81
309.341	89
309.571	85
309.8	96
310.03	89
310.26	97
310.49	89
310.72	96
310.949	95
311.179	99
311.409	105
311.639	90
311.868	84
312.098	93
312.328	95
312.557	85
312.787	111
313.017	109
313.246	89
313.476	99
313.706	89
313.935	95
314.165	100
314.394	106
314.624	94
314.853	95
315.083	95
315.312	79
315.542	97
315.771	94
316.001	97
316.23	75
316.46	98
316.689	99
316.919	87
317.148	93
317.377	112
317.607	107
317.836	94
318.065	90
318.295	84
318.524	88
318.753	95
318.983	79
319.212	105
319.441	97
319.67	113
319.9	91
320.129	93
320.358	88
320.587	92
320.816	97
321.046	83
321.275	98
321.504	103
321.733	92
321.962	110
322.191	91
322.42	95
322.649	105
322.878	102
323.108	112
323.337	112
323.566	128
323.795	143
324.024	185
324.253	314
324.482	655
324.71	1336
324.939	1721
325.168	657
325.397	213
325.626	130
325.855	115
326.084	122
326.313	115
326.542	135
326.77	197
326.999	351
327.228	700
327.457	1188
327.686	994
327.914	309
328.143	205
328.372	181
328.6	153
328.829	105
329.058	130
329.287	134
329.515	109
329.744	121
329.972	130
330.201	170
330.43	229
330.658	181
330.887	156
331.115	135
331.344	97
331.572	99
331.801	107
332.03	79
332.258	105
332.486	97
332.715	102
332.943	99
333.172	101
333.4	99
333.629	120
333.857	115
334.085	137
334.314	171
334.542	264
334.771	245
334.999	127
335.227	99
335.455	98
335.684	96
335.912	103
336.14	102
336.369	102
336.597	97
336.825	84
337.053	96
337.281	88
337.51	97
337.738	87
337.966	76
338.194	91
338.422	91
338.65	106
338.878	78
339.106	82
339.334	91
339.562	96
339.79	98
340.018	85
340.246	83
340.474	102
340.702	92
340.93	88
341.158	92
341.386	86
341.614	81
341.842	99
342.07	85
342.298	101
342.526	85
342.754	96
342.981	91
343.209	93
343.437	104
343.665	79
343.893	88
344.12	88
344.348	100
344.576	79
344.804	88
345.031	85
345.259	91
345.487	80
345.714	105
345.942	85
346.17	90
346.397	86
346.625	94
346.853	81
347.08	95
347.308	95
347.535	102
347.763	89
347.99	94
348.218	98
348.445	102
348.673	94
348.9	79
349.128	93
349.355	81
349.583	97
349.81	93
350.037	83
350.265	88
350.492	93
350.72	88
350.947	104
351.174	121
351.402	109
351.629	100
351.856	107
352.083	115
352.311	109
352.538	101
352.765	107
352.992	102
353.22	114
353.447	98
353.674	105
353.901	103
354.128	99
354.355	76
354.583	89
354.81	95
355.037	95
355.264	96
355.491	91
355.718	83
355.945	95
356.172	89
356.399	96
356.626	101
356.853	96
357.08	90
357.307	98
357.534	85
357.761	99
357.988	93
358.215	89
358.441	82
358.668	90
358.895	82
359.122	90
359.349	85
359.576	97
359.802	86
360.029	107
360.256	112
360.483	105
360.709	100
360.936	102
361.163	81
361.39	103
361.616	88
361.843	73
362.07	99
362.296	95
362.523	93
362.749	105
362.976	95
363.203	103
363.429	96
363.656	96
363.882	78
364.109	90
364.335	93
364.562	85
364.788	84
365.015	95
365.241	97
365.468	104
365.694	108
365.92	99
366.147	90
366.373	70
366.599	95
366.826	79
367.052	89
367.278	90
367.505	93
367.731	87
367.957	88
368.184	95
368.41	103
368.636	109
368.862	122
369.089	120
369.315	96
369.541	97
369.767	84
369.993	83
370.219	96
370.445	86
370.672	91
370.898	87
371.124	89
371.35	88
371.576	93
371.802	72
372.028	88
372.254	90
372.48	84
372.706	99
372.932	94
373.158	85
373.384	93
373.61	98
373.835	96
374.061	83
374.287	104
374.513	87
374.739	89
374.965	96
375.191	77
375.416	81
375.642	90
375.868	90
376.094	96
376.319	85
376.545	87
376.771	96
376.997	93
377.222	98
377.448	83
377.674	99
377.899	102
378.125	83
378.35	96
378.576	80
378.802	89
379.027	82
379.253	78
379.478	80
379.704	94
379.929	75
380.155	99
380.38	91
380.606	84
380.831	90
381.057	104
381.282	94
381.507	84
381.733	101
381.958	82
382.184	111
382.409	91
382.634	101
382.86	86
383.085	94
383.31	98
383.535	98
383.761	88
383.986	90
384.211	86
384.436	98
384.662	88
384.887	90
385.112	105
385.337	82
385.562	89
385.787	93
386.013	108
386.238	104
386.463	98
386.688	104
386.913	95
387.138	96
387.363	103
387.588	91
387.813	93
388.038	104
388.263	116
388.488	97
388.713	73
388.938	102
389.163	94
389.387	105
389.612	103
389.837	88
390.062	95
390.287	84
390.512	99
390.736	77
390.961	86
391.186	101
391.411	84
391.636	99
391.86	93
392.085	90
392.31	74
392.534	76
392.759	98
392.984	90
393.208	89
393.433	89
393.658	80
393.882	75
394.107	89
394.331	88
394.556	83
394.78	80
395.005	86
395.229	91
395.454	89
395.678	81
395.903	100
396.127	93
396.352	85
396.576	87
396.801	90
397.025	92
397.249	85
397.474	72
397.698	90
397.922	93
398.147	83
398.371	87
398.595	87
398.82	81
399.044	90
399.268	85
399.492	74
399.717	85
399.941	79
400.165	93
400.389	85
400.613	87
400.837	91
401.062	94
401.286	92
401.51	86
401.734	83
401.958	99
402.182	118
402.406	172
402.63	119
402.854	89
403.078	77
403.302	67
403.526	88
403.75	82
403.974	89
404.198	86
404.422	81
404.645	92
404.869	100
405.093	85
405.317	101
405.541	102
405.765	115
405.988	113
406.212	173
406.436	244
406.66	145
406.883	97
407.107	93
407.331	101
407.555	93
407.778	90
408.002	86
408.226	88
408.449	90
408.673	83
408.896	97
409.12	94
409.344	77
409.567	82
409.791	89
410.014	98
410.238	100
410.461	97
410.685	80
410.908	91
411.132	79
411.355	90
411.578	80
411.802	89
412.025	89
412.249	96
412.472	103
412.695	85
412.919	90
413.142	87
413.365	98
413.589	94
413.812	84
414.035	88
414.258	73
414.482	89
414.705	77
414.928	68
415.151	81
415.374	94
415.597	83
415.821	83
416.044	84
416.267	95
416.49	87
416.713	87
416.936	86
417.159	90
417.382	84
417.605	82
417.828	93
418.051	108
418.274	90
418.497	93
418.72	87
418.943	78
419.166	87
419.389	86
419.611	80
419.834	96
420.057	87
420.28	63
420.503	93
420.726	78
420.948	90
421.171	93
421.394	85
421.617	95
421.839	96
422.062	77
422.285	76
422.507	91
422.73	105
422.953	91
423.175	90
423.398	88
423.621	79
423.843	96
424.066	91
424.288	89
424.511	95
424.733	103
424.956	109
425.178	103
425.401	95
425.623	85
425.846	85
426.068	106
426.291	79
426.513	97
426.735	99
426.958	85
427.18	96
427.402	131
427.625	171
427.847	134
428.069	106
428.292	85
428.514	88
428.736	88
428.958	75
429.181	95
429.403	77
429.625	85
429.847	91
430.069	94
430.292	85
430.514	91
430.736	96
430.958	86
431.18	77
431.402	80
431.624	81
431.846	94
432.068	102
432.29	97
432.512	103
432.734	85
432.956	89
433.178	102
433.4	93
433.622	73
433.844	84
434.066	80
434.287	91
434.509	88
434.731	88
434.953	78
435.175	86
435.397	104
435.618	81
435.84	105
436.062	119
436.284	102
436.505	90
436.727	105
436.949	91
437.17	73
437.392	87
437.614	82
437.835	106
438.057	123
438.278	109
438.5	90
438.721	105
438.943	88
439.165	99
439.386	91
439.608	105
439.829	93
440.05	126
440.272	120
440.493	103
440.715	78
440.936	86
441.158	85
441.379	88
441.6	96
441.822	105
442.043	91
442.264	111
442.486	106
442.707	98
442.928	97
443.149	115
443.371	130
443.592	99
443.813	113
444.034	113
444.255	89
444.476	104
444.698	97
444.919	85
445.14	121
445.361	120
445.582	114
445.803	128
446.024	126
446.245	128
446.466	99
446.687	84
446.908	79
447.129	87
447.35	79
447.571	98
447.792	95
448.013	94
448.234	106
448.455	101
448.675	98
448.896	117
449.117	101
449.338	97
449.559	112
449.779	121
450	90
450.221	95
450.442	85
450.662	93
450.883	95
451.104	109
451.324	94
451.545	95
451.766	94
451.986	82
452.207	90
452.428	88
452.648	81
452.869	104
453.089	110
453.31	121
453.53	102
453.751	108
453.971	101
454.192	117
454.412	83
454.633	81
454.853	81
455.073	84
455.294	100
455.514	95
455.734	81
455.955	72
456.175	77
456.395	89
456.616	77
456.836	85
457.056	80
457.276	77
457.497	83
457.717	95
457.937	89
458.157	93
458.377	97
458.598	98
458.818	146
459.038	160
459.258	115
459.478	82
459.698	82
459.918	81
460.138	79
460.358	73
460.578	87
460.798	105
461.018	93
461.238	77
461.458	84
461.678	89
461.898	82
462.118	80
462.338	74
462.558	80
462.777	75
462.997	80
463.217	70
463.437	89
463.657	84
463.876	86
464.096	86
464.316	84
464.536	94
464.755	85
464.975	109
465.195	167
465.414	163
465.634	93
465.854	84
466.073	90
466.293	87
466.512	90
466.732	74
466.951	104
467.171	92
467.391	93
467.61	106
467.829	103
468.049	149
468.268	174
468.488	85
468.707	82
468.927	88
469.146	86
469.365	82
469.585	88
469.804	85
470.023	99
470.243	89
470.462	97
470.681	126
470.901	98
471.12	86
471.339	90
471.558	89
471.777	94
471.997	111
472.216	205
472.435	364
472.654	138
472.873	89
473.092	82
473.311	66
473.53	88
473.749	81
473.968	95
474.187	101
474.406	95
474.625	83
474.844	83
475.063	93
475.282	75
475.501	94
475.72	79
475.939	91
476.158	90
476.377	87
476.596	89
476.814	95
477.033	95
477.252	104
477.471	79
477.69	97
477.908	96
478.127	85
478.346	82
478.564	93
478.783	108
479.002	109
479.22	109
479.439	105
479.658	103
479.876	90
480.095	83
480.313	92
480.532	102
480.751	120
480.969	204
481.188	591
481.406	366
481.624	127
481.843	88
482.061	76
482.28	88
482.498	80
482.717	86
482.935	91
483.153	94
483.372	92
483.59	82
483.808	90
484.027	87
484.245	73
484.463	87
484.681	84
484.9	82
485.118	96
485.336	98
485.554	99
485.772	105
485.99	104
486.209	97
486.427	115
486.645	94
486.863	118
487.081	98
487.299	107
487.517	100
487.735	101
487.953	96
488.171	94
488.389	90
488.607	85
488.825	89
489.043	86
489.261	82
489.479	88
489.696	79
489.914	93
490.132	91
490.35	81
490.568	92
490.786	91
491.003	91
491.221	76
491.439	95
491.657	101
491.874	82
492.092	80
492.31	90
492.527	94
492.745	99
492.963	100
493.18	87
493.398	82
493.615	97
493.833	89
494.05	85
494.268	90
494.485	95
494.703	77
494.92	80
495.138	92
495.355	94
495.573	76
495.79	88
496.008	88
496.225	81
496.442	92
496.66	90
496.877	92
497.094	93
497.312	85
497.529	74
497.746	110
497.963	95
498.181	98
498.398	102
498.615	119
498.832	110
499.049	91
499.267	87
499.484	115
499.701	87
499.918	77
500.135	93
500.352	93
500.569	95
500.786	110
501.003	101
501.22	93
501.437	82
501.654	98
501.871	102
502.088	101
502.305	102
502.522	79
502.739	85
502.956	82
503.172	91
503.389	102
503.606	120
503.823	91
504.04	74
504.256	97
504.473	76
504.69	96
504.907	99
505.123	97
505.34	86
505.557	88
505.773	73
505.99	99
506.207	87
506.423	83
506.64	83
506.856	77
507.073	78
507.289	86
507.506	103
507.722	123
507.939	112
508.155	94
508.372	91
508.588	104
508.805	95
509.021	91
509.238	103
509.454	105
509.67	99
509.887	120
510.103	142
510.319	212
510.536	857
510.752	2735
510.968	741
511.184	151
511.401	114
511.617	98
511.833	93
512.049	101
512.265	99
512.481	93
512.698	82
512.914	87
513.13	89
513.346	90
513.562	111
513.778	97
513.994	94
514.21	101
514.426	122
514.642	146
514.858	134
515.074	157
515.29	487
515.506	1635
515.721	595
515.937	158
516.153	107
516.369	89
516.585	97
516.801	80
517.016	81
517.232	91
517.448	88
517.664	87
517.879	89
518.095	97
518.311	90
518.527	95
518.742	88
518.958	89
519.173	101
519.389	78
519.605	80
519.82	83
520.036	106
520.251	125
520.467	111
520.682	102
520.898	109
521.113	115
521.329	126
521.544	232
521.76	603
521.975	2745
522.19	1604
522.406	330
522.621	124
522.836	110
523.052	104
523.267	93
523.482	75
523.698	103
523.913	117
524.128	110
524.343	101
524.559	90
524.774	84
524.989	81
525.204	110
525.419	92
525.634	91
525.849	97
526.064	87
526.28	93
526.495	73
526.71	81
526.925	95
527.14	89
527.355	94
527.57	97
527.785	89
527.999	84
528.214	93
528.429	85
528.644	86
528.859	82
529.074	103
529.289	120
529.503	191
529.718	108
529.933	83
530.148	75
530.363	90
530.577	84
530.792	78
531.007	81
531.221	94
531.436	86
531.651	77
531.865	89
532.08	83
532.295	92
532.509	102
532.724	80
532.938	85
533.153	102
533.367	89
533.582	82
533.796	95
534.011	103
534.225	98
534.44	88
534.654	86
534.868	73
535.083	94
535.297	88
535.511	109
535.726	103
535.94	92
536.154	88
536.369	87
536.583	93
536.797	96
537.011	105
537.225	86
537.44	84
537.654	102
537.868	95
538.082	84
538.296	90
538.51	96
538.724	103
538.938	91
539.153	94
539.367	102
539.581	96
539.795	98
540.009	94
540.222	94
540.436	89
540.65	79
540.864	84
541.078	95
541.292	105
541.506	92
541.72	82
541.934	93
542.147	96
542.361	106
542.575	95
542.789	89
543.002	90
543.216	87
543.43	105
543.644	85
543.857	93
544.071	96
544.285	78
544.498	90
544.712	87
544.925	80
545.139	90
545.352	82
545.566	87
545.779	83
545.993	94
546.206	87
546.42	85
546.633	99
546.847	107
547.06	85
547.274	76
547.487	79
547.7	82
547.914	89
548.127	78
548.34	91
548.554	98
548.767	99
548.98	83
549.193	82
549.407	89
549.62	97
549.833	86
550.046	86
550.259	83
550.473	85
550.686	77
550.899	91
551.112	72
551.325	101
551.538	95
551.751	106
551.964	91
552.177	86
552.39	80
552.603	89
552.816	82
553.029	79
553.242	94
553.455	99
553.667	106
553.88	109
554.093	89
554.306	93
554.519	77
554.732	77
554.944	79
555.157	81
555.37	90
555.583	75
555.795	97
556.008	82
556.221	90
556.433	97
556.646	91
556.859	81
557.071	83
557.284	79
557.496	78
557.709	83
557.921	84
558.134	77
558.346	88
558.559	97
558.771	74
558.984	97
559.196	97
559.409	85
559.621	67
559.833	94
560.046	88
560.258	92
560.47	86
560.683	87
560.895	87
561.107	92
561.32	82
561.532	90
561.744	95
561.956	77
562.168	86
562.381	105
562.593	84
562.805	88
563.017	78
563.229	91
563.441	102
563.653	78
563.865	79
564.077	90
564.289	100
564.501	96
564.713	102
564.925	101
565.137	93
565.349	101
565.561	92
565.773	94
565.985	108
566.197	95
566.408	80
566.62	89
566.832	80
567.044	84
567.255	91
567.467	78
567.679	81
567.891	88
568.102	88
568.314	82
568.526	88
568.737	86
568.949	88
569.161	89
569.372	100
569.584	103
569.795	90
570.007	121
570.218	242
570.43	121
570.641	87
570.853	83
571.064	90
571.276	83
571.487	91
571.698	83
571.91	76
572.121	94
572.333	91
572.544	95
572.755	89
572.966	87
573.178	95
573.389	89
573.6	92
573.811	85
574.023	94
574.234	83
574.445	95
574.656	79
574.867	81
575.078	82
575.289	81
575.501	102
575.712	87
575.923	81
576.134	94
576.345	84
576.556	89
576.767	86
576.978	88
577.188	105
577.399	111
577.61	82
577.821	111
578.032	100
578.243	296
578.454	787
578.665	220
578.875	102
579.086	82
579.297	98
579.508	82
579.718	89
579.929	98
580.14	91
580.35	89
580.561	86
580.772	75
580.982	105
581.193	91
581.403	75
581.614	82
581.825	77
582.035	89
582.246	85
582.456	88
582.667	92
582.877	72
583.087	86
583.298	98
583.508	89
583.719	83
583.929	91
584.139	81
584.35	81
584.56	88
