Data from Circ_1996_H10_HRD10591_00016.txt Node
Date: Wed Jan 03 11:33:09 EST 2024
User: Yrep
Spectrometer: HR+D1059
Trigger mode: 1
Integration Time (sec): 1.000000E-1
Scans to average: 1
Electric dark correction enabled: true
Nonlinearity correction enabled: false
Boxcar width: 0
XAxis mode: Wavelengths
Number of Pixels in Spectrum: 2048
>>>>>Begin Spectral Data<<<<<
223.165	-16.94
223.4	-16.94
223.635	-16.94
223.869	-29.94
224.104	-22.94
224.338	-11.94
224.573	-6.94
224.808	-8.94
225.042	0.06
225.277	-12.94
225.511	-4.94
225.746	-6.94
225.98	18.06
226.215	5.06
226.449	17.06
226.683	29.06
226.918	26.06
227.152	27.06
227.387	43.06
227.621	47.06
227.856	34.06
228.09	37.06
228.324	56.06
228.559	43.06
228.793	67.06
229.027	59.06
229.262	75.06
229.496	76.06
229.73	90.06
229.964	74.06
230.199	80.06
230.433	89.06
230.667	85.06
230.901	92.06
231.136	80.06
231.37	85.06
231.604	76.06
231.838	80.06
232.072	80.06
232.306	75.06
232.541	81.06
232.775	76.06
233.009	83.06
233.243	79.06
233.477	92.06
233.711	80.06
233.945	71.06
234.179	93.06
234.413	86.06
234.647	83.06
234.881	81.06
235.115	96.06
235.349	80.06
235.583	89.06
235.817	76.06
236.051	66.06
236.285	71.06
236.519	71.06
236.753	89.06
236.987	65.06
237.221	86.06
237.455	76.06
237.689	81.06
237.922	90.06
238.156	63.06
238.39	61.06
238.624	67.06
238.858	84.06
239.091	80.06
239.325	76.06
239.559	80.06
239.793	74.06
240.027	77.06
240.26	87.06
240.494	68.06
240.728	73.06
240.961	86.06
241.195	80.06
241.429	74.06
241.662	68.06
241.896	77.06
242.13	80.06
242.363	75.06
242.597	83.06
242.83	80.06
243.064	87.06
243.298	81.06
243.531	84.06
243.765	67.06
243.998	74.06
244.232	83.06
244.465	71.06
244.699	81.06
244.932	83.06
245.166	89.06
245.399	85.06
245.633	87.06
245.866	77.06
246.099	84.06
246.333	73.06
246.566	81.06
246.8	83.06
247.033	75.06
247.266	79.06
247.5	88.06
247.733	78.06
247.966	88.06
248.2	76.06
248.433	65.06
248.666	86.06
248.899	69.06
249.133	93.06
249.366	92.06
249.599	81.06
249.832	75.06
250.066	83.06
250.299	94.06
250.532	80.06
250.765	79.06
250.998	68.06
251.231	80.06
251.465	80.06
251.698	88.06
251.931	77.06
252.164	84.06
252.397	73.06
252.63	68.06
252.863	98.06
253.096	75.06
253.329	73.06
253.562	83.06
253.795	72.06
254.028	84.06
254.261	76.06
254.494	81.06
254.727	90.06
254.96	89.06
255.193	95.06
255.426	87.06
255.659	89.06
255.892	79.06
256.124	73.06
256.357	89.06
256.59	63.06
256.823	73.06
257.056	73.06
257.289	88.06
257.521	83.06
257.754	89.06
257.987	85.06
258.22	83.06
258.452	93.06
258.685	94.06
258.918	79.06
259.151	104.06
259.383	82.06
259.616	74.06
259.849	68.06
260.081	76.06
260.314	75.06
260.547	92.06
260.779	88.06
261.012	85.06
261.244	76.06
261.477	87.06
261.71	96.06
261.942	112.06
262.175	97.06
262.407	102.06
262.64	81.06
262.872	98.06
263.105	75.06
263.337	81.06
263.57	83.06
263.802	72.06
264.035	81.06
264.267	89.06
264.499	71.06
264.732	81.06
264.964	91.06
265.197	88.06
265.429	83.06
265.661	99.06
265.894	85.06
266.126	77.06
266.358	76.06
266.591	74.06
266.823	89.06
267.055	80.06
267.287	86.06
267.52	75.06
267.752	87.06
267.984	84.06
268.216	84.06
268.448	97.06
268.681	83.06
268.913	93.06
269.145	78.06
269.377	90.06
269.609	100.06
269.841	89.06
270.073	77.06
270.306	75.06
270.538	91.06
270.77	93.06
271.002	85.06
271.234	82.06
271.466	94.06
271.698	85.06
271.93	81.06
272.162	90.06
272.394	97.06
272.626	87.06
272.858	89.06
273.09	79.06
273.322	79.06
273.553	98.06
273.785	82.06
274.017	81.06
274.249	95.06
274.481	97.06
274.713	91.06
274.945	89.06
275.176	80.06
275.408	89.06
275.64	79.06
275.872	80.06
276.104	91.06
276.335	91.06
276.567	100.06
276.799	106.06
277.031	105.06
277.262	101.06
277.494	92.06
277.726	84.06
277.957	73.06
278.189	80.06
278.421	72.06
278.652	82.06
278.884	91.06
279.115	86.06
279.347	75.06
279.579	75.06
279.81	106.06
280.042	69.06
280.273	97.06
280.505	81.06
280.736	93.06
280.968	80.06
281.199	84.06
281.431	82.06
281.662	84.06
281.894	72.06
282.125	97.06
282.356	106.06
282.588	126.06
282.819	108.06
283.051	92.06
283.282	84.06
283.513	88.06
283.745	93.06
283.976	83.06
284.207	94.06
284.439	100.06
284.67	91.06
284.901	86.06
285.132	65.06
285.364	85.06
285.595	88.06
285.826	83.06
286.057	84.06
286.288	81.06
286.52	95.06
286.751	81.06
286.982	90.06
287.213	82.06
287.444	79.06
287.675	77.06
287.906	74.06
288.138	83.06
288.369	81.06
288.6	92.06
288.831	84.06
289.062	100.06
289.293	85.06
289.524	83.06
289.755	85.06
289.986	89.06
290.217	82.06
290.448	82.06
290.679	84.06
290.91	82.06
291.141	97.06
291.371	84.06
291.602	84.06
291.833	85.06
292.064	93.06
292.295	92.06
292.526	73.06
292.757	88.06
292.987	99.06
293.218	95.06
293.449	92.06
293.68	94.06
293.91	85.06
294.141	90.06
294.372	81.06
294.603	85.06
294.833	90.06
295.064	92.06
295.295	99.06
295.525	87.06
295.756	104.06
295.987	114.06
296.217	119.06
296.448	102.06
296.679	115.06
296.909	95.06
297.14	93.06
297.37	96.06
297.601	84.06
297.831	76.06
298.062	81.06
298.292	83.06
298.523	97.06
298.753	96.06
298.984	66.06
299.214	66.06
299.445	98.06
299.675	91.06
299.905	85.06
300.136	98.06
300.366	90.06
300.597	91.06
300.827	105.06
301.057	93.06
301.288	108.06
301.518	91.06
301.748	92.06
301.979	103.06
302.209	96.06
302.439	104.06
302.669	100.06
302.9	87.06
303.13	77.06
303.36	77.06
303.59	87.06
303.82	124.06
304.051	91.06
304.281	102.06
304.511	97.06
304.741	93.06
304.971	71.06
305.201	97.06
305.431	91.06
305.661	82.06
305.891	88.06
306.121	91.06
306.352	96.06
306.582	89.06
306.812	96.06
307.042	83.06
307.272	103.06
307.502	92.06
307.731	95.06
307.961	90.06
308.191	82.06
308.421	97.06
308.651	100.06
308.881	106.06
309.111	101.06
309.341	94.06
309.571	109.06
309.8	103.06
310.03	78.06
310.26	80.06
310.49	97.06
310.72	98.06
310.949	98.06
311.179	98.06
311.409	100.06
311.639	99.06
311.868	98.06
312.098	89.06
312.328	87.06
312.557	97.06
312.787	110.06
313.017	89.06
313.246	91.06
313.476	90.06
313.706	90.06
313.935	99.06
314.165	91.06
314.394	81.06
314.624	94.06
314.853	95.06
315.083	85.06
315.312	83.06
315.542	107.06
315.771	102.06
316.001	98.06
316.23	104.06
316.46	104.06
316.689	96.06
316.919	90.06
317.148	91.06
317.377	93.06
317.607	97.06
317.836	91.06
318.065	76.06
318.295	88.06
318.524	95.06
318.753	87.06
318.983	93.06
319.212	109.06
319.441	95.06
319.67	90.06
319.9	86.06
320.129	99.06
320.358	93.06
320.587	88.06
320.816	96.06
321.046	85.06
321.275	92.06
321.504	85.06
321.733	107.06
321.962	97.06
322.191	99.06
322.42	97.06
322.649	110.06
322.878	106.06
323.108	106.06
323.337	108.06
323.566	112.06
323.795	116.06
324.024	159.06
324.253	299.06
324.482	593.06
324.71	1151.06
324.939	1524.06
325.168	579.06
325.397	192.06
325.626	130.06
325.855	120.06
326.084	108.06
326.313	108.06
326.542	133.06
326.77	175.06
326.999	338.06
327.228	646.06
327.457	1122.06
327.686	919.06
327.914	290.06
328.143	179.06
328.372	151.06
328.6	105.06
328.829	125.06
329.058	121.06
329.287	125.06
329.515	108.06
329.744	115.06
329.972	107.06
330.201	152.06
330.43	161.06
330.658	128.06
330.887	146.06
331.115	112.06
331.344	105.06
331.572	110.06
331.801	101.06
332.03	95.06
332.258	105.06
332.486	110.06
332.715	97.06
332.943	92.06
333.172	96.06
333.4	96.06
333.629	113.06
333.857	130.06
334.085	120.06
334.314	148.06
334.542	215.06
334.771	199.06
334.999	121.06
335.227	92.06
335.455	100.06
335.684	95.06
335.912	100.06
336.14	100.06
336.369	100.06
336.597	101.06
336.825	92.06
337.053	89.06
337.281	96.06
337.51	84.06
337.738	104.06
337.966	83.06
338.194	91.06
338.422	91.06
338.65	96.06
338.878	93.06
339.106	105.06
339.334	90.06
339.562	89.06
339.79	82.06
340.018	94.06
340.246	81.06
340.474	95.06
340.702	90.06
340.93	76.06
341.158	84.06
341.386	88.06
341.614	87.06
341.842	103.06
342.07	90.06
342.298	90.06
342.526	79.06
342.754	76.06
342.981	80.06
343.209	90.06
343.437	99.06
343.665	94.06
343.893	90.06
344.12	94.06
344.348	97.06
344.576	90.06
344.804	97.06
345.031	99.06
345.259	87.06
345.487	96.06
345.714	87.06
345.942	101.06
346.17	92.06
346.397	99.06
346.625	91.06
346.853	89.06
347.08	102.06
347.308	88.06
347.535	91.06
347.763	93.06
347.99	102.06
348.218	106.06
348.445	101.06
348.673	96.06
348.9	86.06
349.128	97.06
349.355	96.06
349.583	95.06
349.81	92.06
350.037	88.06
350.265	101.06
350.492	89.06
350.72	89.06
350.947	100.06
351.174	122.06
351.402	103.06
351.629	102.06
351.856	100.06
352.083	93.06
352.311	105.06
352.538	102.06
352.765	105.06
352.992	112.06
353.22	112.06
353.447	97.06
353.674	102.06
353.901	89.06
354.128	110.06
354.355	94.06
354.583	106.06
354.81	100.06
355.037	98.06
355.264	101.06
355.491	84.06
355.718	98.06
355.945	108.06
356.172	90.06
356.399	97.06
356.626	101.06
356.853	96.06
357.08	106.06
357.307	96.06
357.534	90.06
357.761	84.06
357.988	95.06
358.215	101.06
358.441	106.06
358.668	94.06
358.895	82.06
359.122	105.06
359.349	95.06
359.576	88.06
359.802	93.06
360.029	110.06
360.256	112.06
360.483	99.06
360.709	89.06
360.936	97.06
361.163	83.06
361.39	104.06
361.616	84.06
361.843	83.06
362.07	94.06
362.296	91.06
362.523	89.06
362.749	84.06
362.976	82.06
363.203	82.06
363.429	93.06
363.656	84.06
363.882	94.06
364.109	83.06
364.335	83.06
364.562	100.06
364.788	99.06
365.015	85.06
365.241	86.06
365.468	105.06
365.694	112.06
365.92	85.06
366.147	90.06
366.373	108.06
366.599	82.06
366.826	80.06
367.052	84.06
367.278	74.06
367.505	106.06
367.731	89.06
367.957	89.06
368.184	92.06
368.41	91.06
368.636	86.06
368.862	116.06
369.089	105.06
369.315	91.06
369.541	83.06
369.767	101.06
369.993	99.06
370.219	71.06
370.445	91.06
370.672	95.06
370.898	83.06
371.124	82.06
371.35	84.06
371.576	105.06
371.802	87.06
372.028	89.06
372.254	85.06
372.48	107.06
372.706	87.06
372.932	83.06
373.158	92.06
373.384	75.06
373.61	92.06
373.835	101.06
374.061	97.06
374.287	100.06
374.513	97.06
374.739	106.06
374.965	95.06
375.191	96.06
375.416	100.06
375.642	81.06
375.868	85.06
376.094	92.06
376.319	86.06
376.545	93.06
376.771	100.06
376.997	79.06
377.222	84.06
377.448	94.06
377.674	101.06
377.899	104.06
378.125	101.06
378.35	79.06
378.576	107.06
378.802	93.06
379.027	94.06
379.253	95.06
379.478	98.06
379.704	101.06
379.929	104.06
380.155	100.06
380.38	96.06
380.606	113.06
380.831	103.06
381.057	83.06
381.282	108.06
381.507	91.06
381.733	104.06
381.958	101.06
382.184	104.06
382.409	107.06
382.634	95.06
382.86	107.06
383.085	110.06
383.31	117.06
383.535	115.06
383.761	103.06
383.986	104.06
384.211	105.06
384.436	113.06
384.662	113.06
384.887	110.06
385.112	123.06
385.337	124.06
385.562	116.06
385.787	126.06
386.013	120.06
386.238	115.06
386.463	133.06
386.688	121.06
386.913	109.06
387.138	111.06
387.363	120.06
387.588	121.06
387.813	115.06
388.038	118.06
388.263	128.06
388.488	124.06
388.713	92.06
388.938	98.06
389.163	98.06
389.387	105.06
389.612	105.06
389.837	89.06
390.062	99.06
390.287	86.06
390.512	87.06
390.736	78.06
390.961	96.06
391.186	84.06
391.411	87.06
391.636	87.06
391.86	102.06
392.085	87.06
392.31	78.06
392.534	92.06
392.759	87.06
392.984	98.06
393.208	94.06
393.433	101.06
393.658	113.06
393.882	90.06
394.107	105.06
394.331	71.06
394.556	79.06
394.78	89.06
395.005	74.06
395.229	87.06
395.454	90.06
395.678	85.06
395.903	106.06
396.127	84.06
396.352	90.06
396.576	98.06
396.801	102.06
397.025	113.06
397.249	92.06
397.474	87.06
397.698	100.06
397.922	88.06
398.147	89.06
398.371	87.06
398.595	79.06
398.82	72.06
399.044	98.06
399.268	92.06
399.492	95.06
399.717	90.06
399.941	93.06
400.165	87.06
400.389	98.06
400.613	86.06
400.837	85.06
401.062	91.06
401.286	87.06
401.51	101.06
401.734	75.06
401.958	95.06
402.182	119.06
402.406	146.06
402.63	101.06
402.854	85.06
403.078	97.06
403.302	77.06
403.526	81.06
403.75	92.06
403.974	78.06
404.198	97.06
404.422	82.06
404.645	94.06
404.869	95.06
405.093	82.06
405.317	96.06
405.541	94.06
405.765	97.06
405.988	109.06
406.212	151.06
406.436	217.06
406.66	128.06
406.883	103.06
407.107	84.06
407.331	98.06
407.555	103.06
407.778	99.06
408.002	103.06
408.226	102.06
408.449	87.06
408.673	92.06
408.896	96.06
409.12	90.06
409.344	88.06
409.567	96.06
409.791	88.06
410.014	93.06
410.238	99.06
410.461	89.06
410.685	91.06
410.908	87.06
411.132	106.06
411.355	100.06
411.578	82.06
411.802	91.06
412.025	97.06
412.249	89.06
412.472	72.06
412.695	91.06
412.919	92.06
413.142	92.06
413.365	80.06
413.589	83.06
413.812	96.06
414.035	65.06
414.258	89.06
414.482	83.06
414.705	81.06
414.928	100.06
415.151	99.06
415.374	100.06
415.597	93.06
415.821	104.06
416.044	90.06
416.267	88.06
416.49	80.06
416.713	97.06
416.936	108.06
417.159	75.06
417.382	91.06
417.605	93.06
417.828	87.06
418.051	81.06
418.274	92.06
418.497	75.06
418.72	73.06
418.943	88.06
419.166	82.06
419.389	87.06
419.611	103.06
419.834	91.06
420.057	97.06
420.28	80.06
420.503	81.06
420.726	76.06
420.948	95.06
421.171	113.06
421.394	97.06
421.617	111.06
421.839	84.06
422.062	89.06
422.285	99.06
422.507	97.06
422.73	95.06
422.953	110.06
423.175	100.06
423.398	86.06
423.621	80.06
423.843	87.06
424.066	91.06
424.288	81.06
424.511	99.06
424.733	98.06
424.956	104.06
425.178	105.06
425.401	105.06
425.623	102.06
425.846	80.06
426.068	72.06
426.291	92.06
426.513	101.06
426.735	81.06
426.958	89.06
427.18	98.06
427.402	137.06
427.625	151.06
427.847	120.06
428.069	100.06
428.292	87.06
428.514	85.06
428.736	92.06
428.958	82.06
429.181	88.06
429.403	98.06
429.625	95.06
429.847	81.06
430.069	72.06
430.292	88.06
430.514	89.06
430.736	90.06
430.958	94.06
431.18	85.06
431.402	91.06
431.624	86.06
431.846	94.06
432.068	101.06
432.29	85.06
432.512	113.06
432.734	95.06
432.956	84.06
433.178	89.06
433.4	84.06
433.622	88.06
433.844	83.06
434.066	89.06
434.287	105.06
434.509	104.06
434.731	95.06
434.953	95.06
435.175	90.06
435.397	101.06
435.618	92.06
435.84	75.06
436.062	99.06
436.284	112.06
436.505	92.06
436.727	98.06
436.949	97.06
437.17	98.06
437.392	97.06
437.614	94.06
437.835	110.06
438.057	103.06
438.278	98.06
438.5	72.06
438.721	104.06
438.943	85.06
439.165	98.06
439.386	90.06
439.608	84.06
439.829	93.06
440.05	99.06
440.272	121.06
440.493	81.06
440.715	88.06
440.936	83.06
441.158	86.06
441.379	88.06
441.6	87.06
441.822	95.06
442.043	82.06
442.264	91.06
442.486	87.06
442.707	91.06
442.928	92.06
443.149	127.06
443.371	105.06
443.592	93.06
443.813	105.06
444.034	104.06
444.255	97.06
444.476	100.06
444.698	81.06
444.919	83.06
445.14	138.06
445.361	112.06
445.582	101.06
445.803	120.06
446.024	108.06
446.245	125.06
446.466	93.06
446.687	88.06
446.908	84.06
447.129	100.06
447.35	92.06
447.571	97.06
447.792	88.06
448.013	86.06
448.234	80.06
448.455	106.06
448.675	85.06
448.896	105.06
449.117	90.06
449.338	97.06
449.559	105.06
449.779	112.06
450	96.06
450.221	79.06
450.442	86.06
450.662	87.06
450.883	87.06
451.104	104.06
451.324	95.06
451.545	83.06
451.766	84.06
451.986	84.06
452.207	84.06
452.428	109.06
452.648	93.06
452.869	95.06
453.089	105.06
453.31	98.06
453.53	83.06
453.751	91.06
453.971	84.06
454.192	95.06
454.412	92.06
454.633	95.06
454.853	89.06
455.073	103.06
455.294	87.06
455.514	100.06
455.734	79.06
455.955	94.06
456.175	96.06
456.395	92.06
456.616	72.06
456.836	80.06
457.056	92.06
457.276	94.06
457.497	83.06
457.717	89.06
457.937	95.06
458.157	85.06
458.377	89.06
458.598	110.06
458.818	128.06
459.038	141.06
459.258	97.06
459.478	87.06
459.698	88.06
459.918	73.06
460.138	73.06
460.358	76.06
460.578	92.06
460.798	86.06
461.018	73.06
461.238	69.06
461.458	83.06
461.678	91.06
461.898	85.06
462.118	79.06
462.338	80.06
462.558	82.06
462.777	84.06
462.997	84.06
463.217	87.06
463.437	90.06
463.657	82.06
463.876	77.06
464.096	87.06
464.316	73.06
464.536	89.06
464.755	85.06
464.975	92.06
465.195	149.06
465.414	142.06
465.634	96.06
465.854	93.06
466.073	93.06
466.293	82.06
466.512	87.06
466.732	81.06
466.951	91.06
467.171	104.06
467.391	102.06
467.61	103.06
467.829	105.06
468.049	128.06
468.268	130.06
468.488	86.06
468.707	93.06
468.927	85.06
469.146	92.06
469.365	87.06
469.585	90.06
469.804	96.06
470.023	83.06
470.243	82.06
470.462	92.06
470.681	83.06
470.901	88.06
471.12	93.06
471.339	86.06
471.558	87.06
471.777	78.06
471.997	87.06
472.216	149.06
472.435	242.06
472.654	119.06
472.873	96.06
473.092	84.06
473.311	87.06
473.53	91.06
473.749	84.06
473.968	104.06
474.187	105.06
474.406	82.06
474.625	76.06
474.844	76.06
475.063	77.06
475.282	88.06
475.501	82.06
475.72	88.06
475.939	101.06
476.158	77.06
476.377	87.06
476.596	83.06
476.814	104.06
477.033	99.06
477.252	91.06
477.471	86.06
477.69	85.06
477.908	86.06
478.127	91.06
478.346	103.06
478.564	84.06
478.783	95.06
479.002	91.06
479.22	102.06
479.439	91.06
479.658	97.06
479.876	96.06
480.095	89.06
480.313	94.06
480.532	90.06
480.751	111.06
480.969	163.06
481.188	409.06
481.406	268.06
481.624	112.06
481.843	94.06
482.061	82.06
482.28	75.06
482.498	89.06
482.717	93.06
482.935	97.06
483.153	87.06
483.372	100.06
483.59	83.06
483.808	79.06
484.027	91.06
484.245	89.06
484.463	92.06
484.681	96.06
484.9	83.06
485.118	90.06
485.336	96.06
485.554	92.06
485.772	99.06
485.99	96.06
486.209	108.06
486.427	105.06
486.645	107.06
486.863	99.06
487.081	100.06
487.299	105.06
487.517	78.06
487.735	87.06
487.953	101.06
488.171	94.06
488.389	97.06
488.607	90.06
488.825	86.06
489.043	83.06
489.261	90.06
489.479	90.06
489.696	89.06
489.914	104.06
490.132	96.06
490.35	89.06
490.568	85.06
490.786	88.06
491.003	96.06
491.221	78.06
491.439	100.06
491.657	77.06
491.874	92.06
492.092	92.06
492.31	89.06
492.527	94.06
492.745	87.06
492.963	75.06
493.18	91.06
493.398	95.06
493.615	102.06
493.833	95.06
494.05	105.06
494.268	77.06
494.485	83.06
494.703	81.06
494.92	94.06
495.138	77.06
495.355	95.06
495.573	85.06
495.79	101.06
496.008	85.06
496.225	81.06
496.442	94.06
496.66	91.06
496.877	80.06
497.094	88.06
497.312	96.06
497.529	83.06
497.746	94.06
497.963	90.06
498.181	92.06
498.398	103.06
498.615	110.06
498.832	94.06
499.049	91.06
499.267	101.06
499.484	83.06
499.701	98.06
499.918	83.06
500.135	88.06
500.352	90.06
500.569	81.06
500.786	115.06
501.003	76.06
501.22	79.06
501.437	85.06
501.654	100.06
501.871	99.06
502.088	83.06
502.305	88.06
502.522	107.06
502.739	95.06
502.956	82.06
503.172	100.06
503.389	99.06
503.606	89.06
503.823	100.06
504.04	88.06
504.256	91.06
504.473	85.06
504.69	96.06
504.907	82.06
505.123	71.06
505.34	86.06
505.557	94.06
505.773	87.06
505.99	98.06
506.207	100.06
506.423	101.06
506.64	95.06
506.856	81.06
507.073	73.06
507.289	89.06
507.506	89.06
507.722	110.06
507.939	105.06
508.155	89.06
508.372	80.06
508.588	85.06
508.805	75.06
509.021	90.06
509.238	106.06
509.454	96.06
509.67	103.06
509.887	109.06
510.103	142.06
510.319	196.06
510.536	692.06
510.752	2275.06
510.968	622.06
511.184	167.06
511.401	112.06
511.617	106.06
511.833	97.06
512.049	91.06
512.265	85.06
512.481	89.06
512.698	92.06
512.914	103.06
513.13	80.06
513.346	77.06
513.562	99.06
513.778	92.06
513.994	95.06
514.21	92.06
514.426	107.06
514.642	126.06
514.858	111.06
515.074	139.06
515.29	390.06
515.506	1223.06
