Data from Circ_1996_H10_HRD10591_00059.txt Node
Date: Wed Jan 03 11:33:17 EST 2024
User: Yrep
Spectrometer: HR+D1059
Trigger mode: 1
Integration Time (sec): 1.000000E-1
Scans to average: 1
Electric dark correction enabled: true
Nonlinearity correction enabled: false
Boxcar width: 0
XAxis mode: Wavelengths
Number of Pixels in Spectrum: 2048
>>>>>Begin Spectral Data<<<<<
223.165	-18.88
223.4	-18.88
223.635	-18.88
223.869	-29.88
224.104	-18.88
224.338	-18.88
224.573	-15.88
224.808	-8.88
225.042	-0.88
225.277	-2.88
225.511	15.12
225.746	-1.88
225.98	13.12
226.215	5.12
226.449	13.12
226.683	20.12
226.918	27.12
227.152	23.12
227.387	49.12
227.621	41.12
227.856	43.12
228.09	56.12
228.324	32.12
228.559	50.12
228.793	77.12
229.027	75.12
229.262	70.12
229.496	64.12
229.73	101.12
229.964	73.12
230.199	78.12
230.433	87.12
230.667	70.12
230.901	86.12
231.136	83.12
231.37	81.12
231.604	79.12
231.838	91.12
232.072	87.12
232.306	82.12
232.541	68.12
232.775	92.12
233.009	86.12
233.243	85.12
233.477	88.12
233.711	65.12
233.945	82.12
234.179	75.12
234.413	72.12
234.647	90.12
234.881	84.12
235.115	78.12
235.349	77.12
235.583	78.12
235.817	81.12
236.051	77.12
236.285	73.12
236.519	80.12
236.753	84.12
236.987	77.12
237.221	76.12
237.455	88.12
237.689	80.12
237.922	83.12
238.156	96.12
238.39	81.12
238.624	78.12
238.858	75.12
239.091	82.12
239.325	86.12
239.559	80.12
239.793	68.12
240.027	80.12
240.26	73.12
240.494	73.12
240.728	82.12
240.961	78.12
241.195	77.12
241.429	77.12
241.662	93.12
241.896	96.12
242.13	78.12
242.363	73.12
242.597	83.12
242.83	81.12
243.064	78.12
243.298	79.12
243.531	81.12
243.765	74.12
243.998	71.12
244.232	73.12
244.465	85.12
244.699	82.12
244.932	84.12
245.166	71.12
245.399	84.12
245.633	71.12
245.866	97.12
246.099	73.12
246.333	89.12
246.566	83.12
246.8	75.12
247.033	65.12
247.266	83.12
247.5	89.12
247.733	78.12
247.966	75.12
248.2	82.12
248.433	70.12
248.666	85.12
248.899	83.12
249.133	89.12
249.366	109.12
249.599	91.12
249.832	87.12
250.066	86.12
250.299	102.12
250.532	84.12
250.765	95.12
250.998	84.12
251.231	79.12
251.465	98.12
251.698	95.12
251.931	92.12
252.164	68.12
252.397	70.12
252.63	92.12
252.863	89.12
253.096	86.12
253.329	90.12
253.562	93.12
253.795	86.12
254.028	86.12
254.261	83.12
254.494	85.12
254.727	95.12
254.96	89.12
255.193	76.12
255.426	87.12
255.659	90.12
255.892	94.12
256.124	90.12
256.357	84.12
256.59	87.12
256.823	66.12
257.056	72.12
257.289	93.12
257.521	83.12
257.754	79.12
257.987	91.12
258.22	96.12
258.452	94.12
258.685	89.12
258.918	80.12
259.151	81.12
259.383	80.12
259.616	85.12
259.849	87.12
260.081	86.12
260.314	91.12
260.547	75.12
260.779	82.12
261.012	95.12
261.244	77.12
261.477	87.12
261.71	99.12
261.942	119.12
262.175	118.12
262.407	90.12
262.64	65.12
262.872	79.12
263.105	93.12
263.337	104.12
263.57	83.12
263.802	101.12
264.035	88.12
264.267	86.12
264.499	98.12
264.732	82.12
264.964	75.12
265.197	75.12
265.429	93.12
265.661	92.12
265.894	93.12
266.126	106.12
266.358	79.12
266.591	86.12
266.823	86.12
267.055	91.12
267.287	87.12
267.52	87.12
267.752	93.12
267.984	81.12
268.216	92.12
268.448	97.12
268.681	83.12
268.913	71.12
269.145	58.12
269.377	85.12
269.609	74.12
269.841	87.12
270.073	91.12
270.306	87.12
270.538	85.12
270.77	79.12
271.002	87.12
271.234	86.12
271.466	92.12
271.698	92.12
271.93	85.12
272.162	89.12
272.394	79.12
272.626	86.12
272.858	85.12
273.09	97.12
273.322	95.12
273.553	68.12
273.785	98.12
274.017	86.12
274.249	100.12
274.481	84.12
274.713	84.12
274.945	85.12
275.176	100.12
275.408	99.12
275.64	85.12
275.872	92.12
276.104	93.12
276.335	89.12
276.567	99.12
276.799	114.12
277.031	105.12
277.262	102.12
277.494	92.12
277.726	88.12
277.957	94.12
278.189	91.12
278.421	96.12
278.652	81.12
278.884	95.12
279.115	86.12
279.347	90.12
279.579	89.12
279.81	93.12
280.042	100.12
280.273	113.12
280.505	89.12
280.736	93.12
280.968	99.12
281.199	85.12
281.431	85.12
281.662	98.12
281.894	101.12
282.125	112.12
282.356	111.12
282.588	126.12
282.819	124.12
283.051	105.12
283.282	79.12
283.513	91.12
283.745	80.12
283.976	89.12
284.207	93.12
284.439	82.12
284.67	91.12
284.901	95.12
285.132	95.12
285.364	84.12
285.595	79.12
285.826	95.12
286.057	81.12
286.288	84.12
286.52	91.12
286.751	81.12
286.982	84.12
287.213	81.12
287.444	92.12
287.675	92.12
287.906	95.12
288.138	89.12
288.369	117.12
288.6	96.12
288.831	76.12
289.062	78.12
289.293	90.12
289.524	88.12
289.755	100.12
289.986	92.12
290.217	97.12
290.448	93.12
290.679	80.12
290.91	99.12
291.141	91.12
291.371	100.12
291.602	97.12
291.833	94.12
292.064	87.12
292.295	97.12
292.526	83.12
292.757	95.12
292.987	81.12
293.218	93.12
293.449	92.12
293.68	90.12
293.91	93.12
294.141	91.12
294.372	98.12
294.603	87.12
294.833	91.12
295.064	92.12
295.295	92.12
295.525	99.12
295.756	116.12
295.987	111.12
296.217	134.12
296.448	148.12
296.679	92.12
296.909	97.12
297.14	95.12
297.37	81.12
297.601	84.12
297.831	81.12
298.062	88.12
298.292	91.12
298.523	91.12
298.753	80.12
298.984	87.12
299.214	95.12
299.445	88.12
299.675	97.12
299.905	116.12
300.136	109.12
300.366	91.12
300.597	95.12
300.827	105.12
301.057	87.12
301.288	93.12
301.518	98.12
301.748	95.12
301.979	102.12
302.209	94.12
302.439	94.12
302.669	92.12
302.9	81.12
303.13	94.12
303.36	103.12
303.59	100.12
303.82	100.12
304.051	93.12
304.281	92.12
304.511	104.12
304.741	91.12
304.971	86.12
305.201	81.12
305.431	90.12
305.661	93.12
305.891	94.12
306.121	111.12
306.352	107.12
306.582	114.12
306.812	104.12
307.042	95.12
307.272	103.12
307.502	101.12
307.731	96.12
307.961	95.12
308.191	97.12
308.421	98.12
308.651	101.12
308.881	112.12
309.111	108.12
309.341	103.12
309.571	87.12
309.8	94.12
310.03	112.12
310.26	107.12
310.49	100.12
310.72	95.12
310.949	104.12
311.179	92.12
311.409	87.12
311.639	110.12
311.868	88.12
312.098	102.12
312.328	92.12
312.557	113.12
312.787	101.12
313.017	111.12
313.246	84.12
313.476	87.12
313.706	97.12
313.935	79.12
314.165	86.12
314.394	86.12
314.624	103.12
314.853	105.12
315.083	98.12
315.312	92.12
315.542	89.12
315.771	99.12
316.001	92.12
316.23	97.12
316.46	95.12
316.689	91.12
316.919	84.12
317.148	107.12
317.377	88.12
317.607	88.12
317.836	91.12
318.065	98.12
318.295	102.12
318.524	83.12
318.753	99.12
318.983	96.12
319.212	101.12
319.441	114.12
319.67	96.12
319.9	85.12
320.129	100.12
320.358	83.12
320.587	95.12
320.816	103.12
321.046	107.12
321.275	109.12
321.504	100.12
321.733	105.12
321.962	107.12
322.191	109.12
322.42	102.12
322.649	105.12
322.878	105.12
323.108	112.12
323.337	122.12
323.566	121.12
323.795	127.12
324.024	185.12
324.253	308.12
324.482	605.12
324.71	1211.12
324.939	1590.12
325.168	617.12
325.397	220.12
325.626	135.12
325.855	113.12
326.084	124.12
326.313	129.12
326.542	133.12
326.77	190.12
326.999	333.12
327.228	661.12
327.457	1148.12
327.686	914.12
327.914	302.12
328.143	189.12
328.372	171.12
328.6	126.12
328.829	117.12
329.058	105.12
329.287	125.12
329.515	104.12
329.744	113.12
329.972	122.12
330.201	172.12
330.43	185.12
330.658	151.12
330.887	150.12
331.115	117.12
331.344	94.12
331.572	107.12
331.801	99.12
332.03	111.12
332.258	97.12
332.486	93.12
332.715	106.12
332.943	106.12
333.172	99.12
333.4	100.12
333.629	107.12
333.857	125.12
334.085	125.12
334.314	178.12
334.542	234.12
334.771	209.12
334.999	122.12
335.227	119.12
335.455	99.12
335.684	100.12
335.912	96.12
336.14	113.12
336.369	100.12
336.597	99.12
336.825	103.12
337.053	87.12
337.281	97.12
337.51	91.12
337.738	89.12
337.966	104.12
338.194	101.12
338.422	93.12
338.65	99.12
338.878	100.12
339.106	89.12
339.334	91.12
339.562	87.12
339.79	89.12
340.018	93.12
340.246	98.12
340.474	113.12
340.702	106.12
340.93	91.12
341.158	97.12
341.386	102.12
341.614	88.12
341.842	88.12
342.07	97.12
342.298	112.12
342.526	96.12
342.754	91.12
342.981	91.12
343.209	90.12
343.437	84.12
343.665	90.12
343.893	96.12
344.12	100.12
344.348	79.12
344.576	104.12
344.804	105.12
345.031	92.12
345.259	108.12
345.487	83.12
345.714	68.12
345.942	90.12
346.17	102.12
346.397	98.12
346.625	98.12
346.853	81.12
347.08	91.12
347.308	95.12
347.535	87.12
347.763	81.12
347.99	94.12
348.218	103.12
348.445	94.12
348.673	100.12
348.9	89.12
349.128	96.12
349.355	99.12
349.583	92.12
349.81	91.12
350.037	100.12
350.265	100.12
350.492	106.12
350.72	100.12
350.947	85.12
351.174	113.12
351.402	120.12
351.629	97.12
351.856	99.12
352.083	97.12
352.311	93.12
352.538	116.12
352.765	95.12
352.992	126.12
353.22	126.12
353.447	106.12
353.674	108.12
353.901	102.12
354.128	82.12
354.355	89.12
354.583	99.12
354.81	100.12
355.037	97.12
355.264	98.12
355.491	84.12
355.718	98.12
355.945	111.12
356.172	117.12
356.399	88.12
356.626	106.12
356.853	101.12
357.08	90.12
357.307	90.12
357.534	92.12
357.761	82.12
357.988	98.12
358.215	85.12
358.441	91.12
358.668	67.12
358.895	95.12
359.122	98.12
359.349	94.12
359.576	93.12
359.802	114.12
360.029	98.12
360.256	106.12
360.483	97.12
360.709	94.12
360.936	81.12
361.163	95.12
361.39	84.12
361.616	80.12
361.843	98.12
362.07	104.12
362.296	84.12
362.523	93.12
362.749	93.12
362.976	86.12
363.203	105.12
363.429	89.12
363.656	86.12
363.882	94.12
364.109	108.12
364.335	102.12
364.562	91.12
364.788	86.12
365.015	108.12
365.241	86.12
365.468	116.12
365.694	106.12
365.92	94.12
366.147	105.12
366.373	79.12
366.599	98.12
366.826	81.12
367.052	99.12
367.278	79.12
367.505	83.12
367.731	98.12
367.957	100.12
368.184	106.12
368.41	104.12
368.636	108.12
368.862	109.12
369.089	101.12
369.315	81.12
369.541	91.12
369.767	87.12
369.993	99.12
370.219	86.12
370.445	90.12
370.672	105.12
370.898	84.12
371.124	95.12
371.35	90.12
371.576	104.12
371.802	87.12
372.028	79.12
372.254	83.12
372.48	91.12
372.706	84.12
372.932	79.12
373.158	84.12
373.384	119.12
373.61	85.12
373.835	83.12
374.061	98.12
374.287	101.12
374.513	113.12
374.739	86.12
374.965	82.12
375.191	94.12
375.416	89.12
375.642	88.12
375.868	103.12
376.094	97.12
376.319	91.12
376.545	79.12
376.771	87.12
376.997	101.12
377.222	96.12
377.448	89.12
377.674	93.12
377.899	91.12
378.125	97.12
378.35	92.12
378.576	91.12
378.802	88.12
379.027	110.12
379.253	88.12
379.478	100.12
379.704	91.12
379.929	95.12
380.155	96.12
380.38	114.12
380.606	90.12
380.831	98.12
381.057	93.12
381.282	89.12
381.507	106.12
381.733	103.12
381.958	105.12
382.184	93.12
382.409	101.12
382.634	104.12
382.86	101.12
383.085	105.12
383.31	92.12
383.535	98.12
383.761	82.12
383.986	103.12
384.211	92.12
384.436	103.12
384.662	102.12
384.887	101.12
385.112	102.12
385.337	110.12
385.562	103.12
385.787	105.12
386.013	101.12
386.238	115.12
386.463	99.12
386.688	93.12
386.913	104.12
387.138	107.12
387.363	107.12
387.588	102.12
387.813	85.12
388.038	106.12
388.263	112.12
388.488	123.12
388.713	103.12
388.938	106.12
389.163	97.12
389.387	89.12
389.612	81.12
389.837	96.12
390.062	101.12
390.287	82.12
390.512	101.12
390.736	86.12
390.961	95.12
391.186	100.12
391.411	94.12
391.636	87.12
391.86	86.12
392.085	82.12
392.31	93.12
392.534	71.12
392.759	82.12
392.984	66.12
393.208	74.12
393.433	96.12
393.658	90.12
393.882	86.12
394.107	94.12
394.331	90.12
394.556	85.12
394.78	89.12
395.005	94.12
395.229	98.12
395.454	79.12
395.678	79.12
395.903	89.12
396.127	81.12
396.352	88.12
396.576	78.12
396.801	89.12
397.025	106.12
397.249	101.12
397.474	100.12
397.698	96.12
397.922	95.12
398.147	97.12
398.371	75.12
398.595	86.12
398.82	90.12
399.044	96.12
399.268	87.12
399.492	91.12
399.717	73.12
399.941	84.12
400.165	102.12
400.389	85.12
400.613	94.12
400.837	87.12
401.062	89.12
401.286	92.12
401.51	97.12
401.734	98.12
401.958	95.12
402.182	130.12
402.406	159.12
402.63	118.12
402.854	89.12
403.078	85.12
403.302	101.12
403.526	90.12
403.75	91.12
403.974	101.12
404.198	91.12
404.422	99.12
404.645	111.12
404.869	81.12
405.093	89.12
405.317	91.12
405.541	94.12
405.765	91.12
405.988	120.12
406.212	177.12
406.436	224.12
406.66	127.12
406.883	102.12
407.107	89.12
407.331	99.12
407.555	107.12
407.778	111.12
408.002	88.12
408.226	103.12
408.449	92.12
408.673	91.12
408.896	83.12
409.12	97.12
409.344	87.12
409.567	81.12
409.791	101.12
410.014	97.12
410.238	107.12
410.461	99.12
410.685	101.12
410.908	89.12
411.132	114.12
411.355	97.12
411.578	96.12
411.802	86.12
412.025	94.12
412.249	86.12
412.472	97.12
412.695	89.12
412.919	84.12
413.142	96.12
413.365	91.12
413.589	94.12
413.812	91.12
414.035	98.12
414.258	86.12
414.482	79.12
414.705	96.12
414.928	86.12
415.151	98.12
415.374	100.12
415.597	86.12
415.821	97.12
416.044	88.12
416.267	83.12
416.49	89.12
416.713	85.12
416.936	90.12
417.159	101.12
417.382	94.12
417.605	95.12
417.828	100.12
418.051	95.12
418.274	77.12
418.497	90.12
418.72	83.12
418.943	98.12
419.166	92.12
419.389	99.12
419.611	95.12
419.834	100.12
420.057	89.12
420.28	83.12
420.503	85.12
420.726	80.12
420.948	82.12
421.171	94.12
421.394	110.12
421.617	94.12
421.839	94.12
422.062	93.12
422.285	90.12
422.507	84.12
422.73	87.12
422.953	86.12
423.175	91.12
423.398	89.12
423.621	95.12
423.843	89.12
424.066	89.12
424.288	82.12
424.511	82.12
424.733	101.12
424.956	102.12
425.178	92.12
425.401	106.12
425.623	102.12
425.846	84.12
426.068	87.12
426.291	89.12
426.513	103.12
426.735	90.12
426.958	98.12
427.18	98.12
427.402	118.12
427.625	167.12
427.847	124.12
428.069	116.12
428.292	87.12
428.514	86.12
428.736	99.12
428.958	93.12
429.181	97.12
429.403	79.12
429.625	81.12
429.847	85.12
430.069	101.12
430.292	92.12
430.514	91.12
430.736	90.12
430.958	84.12
431.18	78.12
431.402	92.12
431.624	103.12
431.846	89.12
432.068	90.12
432.29	87.12
432.512	83.12
432.734	91.12
432.956	98.12
433.178	84.12
433.4	99.12
433.622	106.12
433.844	76.12
434.066	96.12
434.287	97.12
434.509	103.12
434.731	93.12
434.953	82.12
435.175	84.12
435.397	91.12
435.618	80.12
435.84	79.12
436.062	112.12
436.284	114.12
436.505	107.12
436.727	98.12
436.949	91.12
437.17	76.12
437.392	78.12
437.614	84.12
437.835	98.12
438.057	122.12
438.278	112.12
438.5	85.12
438.721	116.12
438.943	96.12
439.165	84.12
439.386	73.12
439.608	95.12
439.829	84.12
440.05	101.12
440.272	132.12
440.493	92.12
440.715	103.12
440.936	91.12
441.158	95.12
441.379	92.12
441.6	81.12
441.822	105.12
442.043	103.12
442.264	92.12
442.486	91.12
442.707	105.12
442.928	113.12
443.149	123.12
443.371	114.12
443.592	108.12
443.813	96.12
444.034	92.12
444.255	95.12
444.476	89.12
444.698	82.12
444.919	95.12
445.14	124.12
445.361	103.12
445.582	107.12
445.803	126.12
446.024	115.12
446.245	129.12
446.466	107.12
446.687	84.12
446.908	94.12
447.129	104.12
447.35	78.12
447.571	102.12
447.792	102.12
448.013	85.12
448.234	119.12
448.455	106.12
448.675	101.12
448.896	116.12
449.117	109.12
449.338	85.12
449.559	131.12
449.779	114.12
450	92.12
450.221	87.12
450.442	84.12
450.662	96.12
450.883	115.12
451.104	111.12
451.324	91.12
451.545	90.12
451.766	93.12
451.986	95.12
452.207	91.12
452.428	86.12
452.648	91.12
452.869	111.12
453.089	115.12
453.31	115.12
453.53	95.12
453.751	102.12
453.971	111.12
454.192	103.12
454.412	85.12
454.633	85.12
454.853	93.12
455.073	106.12
455.294	87.12
455.514	98.12
455.734	94.12
455.955	81.12
456.175	88.12
456.395	89.12
456.616	94.12
456.836	90.12
457.056	82.12
457.276	96.12
457.497	90.12
457.717	72.12
457.937	77.12
458.157	97.12
458.377	87.12
458.598	111.12
458.818	145.12
459.038	153.12
459.258	106.12
459.478	91.12
459.698	82.12
459.918	96.12
460.138	78.12
460.358	71.12
460.578	74.12
460.798	85.12
461.018	80.12
461.238	94.12
461.458	93.12
461.678	95.12
461.898	97.12
462.118	63.12
462.338	86.12
462.558	84.12
462.777	98.12
462.997	93.12
463.217	89.12
463.437	78.12
463.657	84.12
463.876	80.12
464.096	102.12
464.316	99.12
464.536	87.12
464.755	93.12
464.975	98.12
465.195	144.12
465.414	149.12
465.634	102.12
465.854	84.12
466.073	94.12
466.293	80.12
466.512	81.12
466.732	87.12
466.951	94.12
467.171	105.12
467.391	92.12
467.61	109.12
467.829	99.12
468.049	139.12
468.268	152.12
468.488	102.12
468.707	90.12
468.927	89.12
469.146	93.12
469.365	89.12
469.585	90.12
469.804	101.12
470.023	101.12
470.243	95.12
470.462	94.12
470.681	105.12
470.901	94.12
471.12	103.12
471.339	105.12
471.558	93.12
471.777	101.12
471.997	113.12
472.216	185.12
472.435	278.12
472.654	137.12
472.873	91.12
473.092	100.12
473.311	94.12
473.53	88.12
473.749	94.12
473.968	98.12
474.187	104.12
474.406	93.12
474.625	92.12
474.844	92.12
475.063	98.12
475.282	91.12
475.501	70.12
475.72	104.12
475.939	81.12
476.158	83.12
476.377	95.12
476.596	98.12
476.814	93.12
477.033	95.12
477.252	80.12
477.471	85.12
477.69	98.12
477.908	94.12
478.127	89.12
478.346	95.12
478.564	106.12
478.783	103.12
479.002	96.12
479.22	102.12
479.439	94.12
479.658	83.12
479.876	89.12
480.095	104.12
480.313	84.12
480.532	93.12
480.751	115.12
480.969	183.12
481.188	448.12
481.406	301.12
481.624	103.12
481.843	91.12
482.061	70.12
482.28	86.12
482.498	94.12
482.717	79.12
482.935	98.12
483.153	85.12
483.372	92.12
483.59	92.12
483.808	80.12
484.027	90.12
484.245	95.12
484.463	103.12
484.681	97.12
484.9	103.12
485.118	96.12
485.336	96.12
485.554	113.12
485.772	111.12
485.99	100.12
486.209	114.12
486.427	111.12
486.645	118.12
486.863	112.12
487.081	109.12
487.299	87.12
487.517	101.12
487.735	90.12
487.953	96.12
488.171	87.12
488.389	87.12
488.607	86.12
488.825	99.12
489.043	83.12
489.261	87.12
489.479	96.12
489.696	102.12
489.914	94.12
490.132	84.12
490.35	104.12
490.568	84.12
490.786	78.12
491.003	103.12
491.221	89.12
491.439	94.12
491.657	87.12
491.874	91.12
492.092	102.12
492.31	98.12
492.527	101.12
492.745	86.12
492.963	83.12
493.18	97.12
493.398	93.12
493.615	90.12
493.833	100.12
494.05	73.12
494.268	79.12
494.485	89.12
494.703	86.12
494.92	94.12
495.138	88.12
495.355	79.12
495.573	102.12
495.79	75.12
496.008	90.12
496.225	82.12
496.442	98.12
496.66	90.12
496.877	86.12
497.094	90.12
497.312	89.12
497.529	82.12
497.746	86.12
497.963	94.12
498.181	99.12
498.398	101.12
498.615	104.12
498.832	94.12
499.049	91.12
499.267	83.12
499.484	93.12
499.701	89.12
499.918	99.12
500.135	87.12
500.352	101.12
500.569	77.12
500.786	100.12
501.003	105.12
501.22	93.12
501.437	87.12
501.654	100.12
501.871	107.12
502.088	96.12
502.305	93.12
502.522	82.12
502.739	97.12
502.956	90.12
503.172	95.12
503.389	94.12
503.606	93.12
503.823	87.12
504.04	94.12
504.256	107.12
504.473	84.12
504.69	79.12
504.907	87.12
505.123	86.12
505.34	102.12
505.557	90.12
505.773	86.12
505.99	89.12
506.207	95.12
506.423	75.12
506.64	93.12
506.856	84.12
507.073	104.12
507.289	95.12
507.506	102.12
507.722	121.12
507.939	95.12
508.155	111.12
508.372	101.12
508.588	92.12
508.805	99.12
509.021	97.12
509.238	93.12
509.454	114.12
509.67	103.12
509.887	113.12
510.103	140.12
510.319	226.12
510.536	771.12
510.752	2556.12
510.968	703.12
511.184	166.12
511.401	109.12
511.617	102.12
511.833	93.12
512.049	96.12
512.265	99.12
512.481	101.12
512.698	94.12
512.914	97.12
513.13	102.12
513.346	92.12
513.562	107.12
513.778	88.12
513.994	108.12
514.21	101.12
514.426	123.12
514.642	141.12
