Data from Circ_1996_H10_HRD10591_00055.txt Node
Date: Wed Jan 03 11:33:17 EST 2024
User: Yrep
Spectrometer: HR+D1059
Trigger mode: 1
Integration Time (sec): 1.000000E-1
Scans to average: 1
Electric dark correction enabled: true
Nonlinearity correction enabled: false
Boxcar width: 0
XAxis mode: Wavelengths
Number of Pixels in Spectrum: 2048
>>>>>Begin Spectral Data<<<<<
223.165	-14.38
223.4	-14.38
223.635	-14.38
223.869	-27.38
224.104	-21.38
224.338	-13.38
224.573	-20.38
224.808	-8.38
225.042	2.62
225.277	-2.38
225.511	-13.38
225.746	2.62
225.98	-4.38
226.215	13.62
226.449	25.62
226.683	15.62
226.918	32.62
227.152	32.62
227.387	31.62
227.621	41.62
227.856	29.62
228.09	47.62
228.324	41.62
228.559	51.62
228.793	50.62
229.027	45.62
229.262	62.62
229.496	91.62
229.73	88.62
229.964	78.62
230.199	92.62
230.433	73.62
230.667	69.62
230.901	70.62
231.136	80.62
231.37	73.62
231.604	81.62
231.838	73.62
232.072	86.62
232.306	86.62
232.541	74.62
232.775	86.62
233.009	79.62
233.243	77.62
233.477	86.62
233.711	74.62
233.945	59.62
234.179	73.62
234.413	67.62
234.647	79.62
234.881	79.62
235.115	75.62
235.349	80.62
235.583	71.62
235.817	56.62
236.051	64.62
236.285	78.62
236.519	72.62
236.753	73.62
236.987	84.62
237.221	91.62
237.455	96.62
237.689	71.62
237.922	70.62
238.156	86.62
238.39	79.62
238.624	66.62
238.858	75.62
239.091	81.62
239.325	67.62
239.559	67.62
239.793	74.62
240.027	83.62
240.26	56.62
240.494	75.62
240.728	75.62
240.961	64.62
241.195	75.62
241.429	58.62
241.662	64.62
241.896	74.62
242.13	87.62
242.363	57.62
242.597	64.62
242.83	67.62
243.064	65.62
243.298	76.62
243.531	92.62
243.765	75.62
243.998	94.62
244.232	85.62
244.465	76.62
244.699	88.62
244.932	71.62
245.166	82.62
245.399	73.62
245.633	79.62
245.866	76.62
246.099	91.62
246.333	66.62
246.566	64.62
246.8	76.62
247.033	73.62
247.266	74.62
247.5	69.62
247.733	75.62
247.966	96.62
248.2	59.62
248.433	81.62
248.666	79.62
248.899	77.62
249.133	103.62
249.366	90.62
249.599	84.62
249.832	79.62
250.066	91.62
250.299	81.62
250.532	81.62
250.765	83.62
250.998	76.62
251.231	90.62
251.465	87.62
251.698	66.62
251.931	85.62
252.164	69.62
252.397	71.62
252.63	65.62
252.863	85.62
253.096	90.62
253.329	80.62
253.562	86.62
253.795	87.62
254.028	86.62
254.261	81.62
254.494	65.62
254.727	87.62
254.96	78.62
255.193	83.62
255.426	88.62
255.659	78.62
255.892	72.62
256.124	65.62
256.357	81.62
256.59	66.62
256.823	70.62
257.056	73.62
257.289	82.62
257.521	79.62
257.754	71.62
257.987	80.62
258.22	81.62
258.452	93.62
258.685	65.62
258.918	82.62
259.151	73.62
259.383	91.62
259.616	71.62
259.849	74.62
260.081	75.62
260.314	81.62
260.547	87.62
260.779	80.62
261.012	91.62
261.244	78.62
261.477	99.62
261.71	84.62
261.942	118.62
262.175	109.62
262.407	79.62
262.64	69.62
262.872	85.62
263.105	81.62
263.337	93.62
263.57	86.62
263.802	97.62
264.035	85.62
264.267	79.62
264.499	85.62
264.732	91.62
264.964	94.62
265.197	80.62
265.429	79.62
265.661	89.62
265.894	74.62
266.126	73.62
266.358	69.62
266.591	70.62
266.823	87.62
267.055	71.62
267.287	89.62
267.52	86.62
267.752	89.62
267.984	79.62
268.216	89.62
268.448	86.62
268.681	79.62
268.913	90.62
269.145	91.62
269.377	75.62
269.609	88.62
269.841	87.62
270.073	81.62
270.306	77.62
270.538	87.62
270.77	87.62
271.002	90.62
271.234	86.62
271.466	93.62
271.698	77.62
271.93	88.62
272.162	83.62
272.394	78.62
272.626	90.62
272.858	78.62
273.09	73.62
273.322	71.62
273.553	84.62
273.785	88.62
274.017	83.62
274.249	90.62
274.481	81.62
274.713	81.62
274.945	88.62
275.176	80.62
275.408	86.62
275.64	80.62
275.872	88.62
276.104	75.62
276.335	96.62
276.567	99.62
276.799	106.62
277.031	99.62
277.262	87.62
277.494	73.62
277.726	89.62
277.957	96.62
278.189	87.62
278.421	85.62
278.652	77.62
278.884	72.62
279.115	81.62
279.347	89.62
279.579	88.62
279.81	92.62
280.042	86.62
280.273	97.62
280.505	93.62
280.736	71.62
280.968	89.62
281.199	88.62
281.431	85.62
281.662	91.62
281.894	81.62
282.125	87.62
282.356	107.62
282.588	145.62
282.819	126.62
283.051	109.62
283.282	92.62
283.513	87.62
283.745	94.62
283.976	80.62
284.207	87.62
284.439	83.62
284.67	84.62
284.901	67.62
285.132	80.62
285.364	86.62
285.595	87.62
285.826	98.62
286.057	96.62
286.288	95.62
286.52	101.62
286.751	82.62
286.982	82.62
287.213	81.62
287.444	86.62
287.675	99.62
287.906	85.62
288.138	89.62
288.369	99.62
288.6	79.62
288.831	81.62
289.062	82.62
289.293	92.62
289.524	92.62
289.755	77.62
289.986	87.62
290.217	80.62
290.448	75.62
290.679	71.62
290.91	102.62
291.141	84.62
291.371	75.62
291.602	81.62
291.833	81.62
292.064	80.62
292.295	93.62
292.526	86.62
292.757	79.62
292.987	89.62
293.218	90.62
293.449	72.62
293.68	92.62
293.91	78.62
294.141	84.62
294.372	94.62
294.603	72.62
294.833	64.62
295.064	82.62
295.295	85.62
295.525	111.62
295.756	91.62
295.987	112.62
296.217	143.62
296.448	135.62
296.679	92.62
296.909	89.62
297.14	93.62
297.37	88.62
297.601	83.62
297.831	78.62
298.062	84.62
298.292	86.62
298.523	91.62
298.753	78.62
298.984	66.62
299.214	83.62
299.445	89.62
299.675	103.62
299.905	101.62
300.136	96.62
300.366	98.62
300.597	85.62
300.827	91.62
301.057	96.62
301.288	111.62
301.518	86.62
301.748	94.62
301.979	99.62
302.209	84.62
302.439	81.62
302.669	82.62
302.9	98.62
303.13	86.62
303.36	81.62
303.59	96.62
303.82	95.62
304.051	88.62
304.281	86.62
304.511	98.62
304.741	91.62
304.971	92.62
305.201	89.62
305.431	90.62
305.661	91.62
305.891	81.62
306.121	96.62
306.352	98.62
306.582	101.62
306.812	88.62
307.042	89.62
307.272	100.62
307.502	92.62
307.731	98.62
307.961	92.62
308.191	93.62
308.421	93.62
308.651	84.62
308.881	87.62
309.111	84.62
309.341	100.62
309.571	114.62
309.8	89.62
310.03	87.62
310.26	91.62
310.49	96.62
310.72	96.62
310.949	91.62
311.179	102.62
311.409	94.62
311.639	97.62
311.868	101.62
312.098	93.62
312.328	84.62
312.557	96.62
312.787	104.62
313.017	82.62
313.246	99.62
313.476	101.62
313.706	81.62
313.935	97.62
314.165	102.62
314.394	96.62
314.624	106.62
314.853	96.62
315.083	98.62
315.312	102.62
315.542	104.62
315.771	88.62
316.001	80.62
316.23	86.62
316.46	81.62
316.689	87.62
316.919	86.62
317.148	77.62
317.377	98.62
317.607	88.62
317.836	92.62
318.065	86.62
318.295	89.62
318.524	88.62
318.753	86.62
318.983	108.62
319.212	104.62
319.441	112.62
319.67	99.62
319.9	86.62
320.129	93.62
320.358	92.62
320.587	102.62
320.816	96.62
321.046	96.62
321.275	96.62
321.504	81.62
321.733	97.62
321.962	97.62
322.191	92.62
322.42	104.62
322.649	108.62
322.878	102.62
323.108	108.62
323.337	108.62
323.566	117.62
323.795	128.62
324.024	173.62
324.253	299.62
324.482	617.62
324.71	1266.62
324.939	1670.62
325.168	663.62
325.397	221.62
325.626	130.62
325.855	127.62
326.084	108.62
326.313	113.62
326.542	134.62
326.77	181.62
326.999	326.62
327.228	650.62
327.457	1218.62
327.686	961.62
327.914	295.62
328.143	189.62
328.372	169.62
328.6	116.62
328.829	118.62
329.058	128.62
329.287	118.62
329.515	113.62
329.744	102.62
329.972	116.62
330.201	160.62
330.43	193.62
330.658	127.62
330.887	130.62
331.115	119.62
331.344	100.62
331.572	104.62
331.801	103.62
332.03	114.62
332.258	98.62
332.486	100.62
332.715	90.62
332.943	101.62
333.172	89.62
333.4	95.62
333.629	101.62
333.857	108.62
334.085	118.62
334.314	160.62
334.542	221.62
334.771	195.62
334.999	112.62
335.227	92.62
335.455	101.62
335.684	111.62
335.912	105.62
336.14	99.62
336.369	93.62
336.597	99.62
336.825	95.62
337.053	76.62
337.281	90.62
337.51	85.62
337.738	89.62
337.966	81.62
338.194	89.62
338.422	96.62
338.65	96.62
338.878	72.62
339.106	77.62
339.334	86.62
339.562	100.62
339.79	82.62
340.018	90.62
340.246	92.62
340.474	79.62
340.702	94.62
340.93	96.62
341.158	95.62
341.386	93.62
341.614	89.62
341.842	85.62
342.07	87.62
342.298	80.62
342.526	87.62
342.754	88.62
342.981	88.62
343.209	99.62
343.437	90.62
343.665	87.62
343.893	103.62
344.12	95.62
344.348	91.62
344.576	90.62
344.804	97.62
345.031	86.62
345.259	100.62
345.487	97.62
345.714	96.62
345.942	94.62
346.17	85.62
346.397	70.62
346.625	102.62
346.853	97.62
347.08	80.62
347.308	89.62
347.535	102.62
347.763	87.62
347.99	101.62
348.218	92.62
348.445	105.62
348.673	110.62
348.9	91.62
349.128	83.62
349.355	96.62
349.583	97.62
349.81	96.62
350.037	91.62
350.265	111.62
350.492	89.62
350.72	99.62
350.947	106.62
351.174	110.62
351.402	103.62
351.629	109.62
351.856	99.62
352.083	95.62
352.311	109.62
352.538	106.62
352.765	99.62
352.992	93.62
353.22	97.62
353.447	91.62
353.674	98.62
353.901	91.62
354.128	97.62
354.355	102.62
354.583	110.62
354.81	107.62
355.037	96.62
355.264	96.62
355.491	82.62
355.718	101.62
355.945	89.62
356.172	91.62
356.399	91.62
356.626	90.62
356.853	90.62
357.08	90.62
357.307	94.62
357.534	82.62
357.761	95.62
357.988	100.62
358.215	92.62
358.441	93.62
358.668	94.62
358.895	93.62
359.122	79.62
359.349	97.62
359.576	98.62
359.802	99.62
360.029	109.62
360.256	91.62
360.483	96.62
360.709	89.62
360.936	98.62
361.163	98.62
361.39	92.62
361.616	90.62
361.843	89.62
362.07	104.62
362.296	96.62
362.523	96.62
362.749	95.62
362.976	86.62
363.203	103.62
363.429	93.62
363.656	93.62
363.882	102.62
364.109	104.62
364.335	99.62
364.562	89.62
364.788	96.62
365.015	82.62
365.241	90.62
365.468	96.62
365.694	108.62
365.92	82.62
366.147	102.62
366.373	95.62
366.599	83.62
366.826	86.62
367.052	80.62
367.278	96.62
367.505	91.62
367.731	89.62
367.957	91.62
368.184	89.62
368.41	89.62
368.636	104.62
368.862	113.62
369.089	112.62
369.315	81.62
369.541	82.62
369.767	86.62
369.993	83.62
370.219	100.62
370.445	93.62
370.672	85.62
370.898	87.62
371.124	78.62
371.35	99.62
371.576	89.62
371.802	81.62
372.028	79.62
372.254	100.62
372.48	78.62
372.706	94.62
372.932	83.62
373.158	84.62
373.384	94.62
373.61	107.62
373.835	85.62
374.061	78.62
374.287	93.62
374.513	88.62
374.739	85.62
374.965	91.62
375.191	91.62
375.416	96.62
375.642	88.62
375.868	89.62
376.094	86.62
376.319	87.62
376.545	90.62
376.771	89.62
376.997	90.62
377.222	82.62
377.448	85.62
377.674	94.62
377.899	83.62
378.125	107.62
378.35	109.62
378.576	102.62
378.802	81.62
379.027	100.62
379.253	97.62
379.478	94.62
379.704	103.62
379.929	96.62
380.155	99.62
380.38	96.62
380.606	82.62
380.831	102.62
381.057	89.62
381.282	98.62
381.507	83.62
381.733	102.62
381.958	103.62
382.184	96.62
382.409	91.62
382.634	103.62
382.86	86.62
383.085	96.62
383.31	97.62
383.535	96.62
383.761	81.62
383.986	101.62
384.211	92.62
384.436	97.62
384.662	98.62
384.887	97.62
385.112	105.62
385.337	118.62
385.562	97.62
385.787	101.62
386.013	114.62
386.238	125.62
386.463	98.62
386.688	99.62
386.913	109.62
387.138	104.62
387.363	114.62
387.588	112.62
387.813	108.62
388.038	106.62
388.263	134.62
388.488	100.62
388.713	102.62
388.938	82.62
389.163	95.62
389.387	104.62
389.612	103.62
389.837	88.62
390.062	81.62
390.287	83.62
390.512	84.62
390.736	87.62
390.961	85.62
391.186	93.62
391.411	90.62
391.636	105.62
391.86	83.62
392.085	84.62
392.31	92.62
392.534	72.62
392.759	77.62
392.984	82.62
393.208	78.62
393.433	97.62
393.658	79.62
393.882	79.62
394.107	81.62
394.331	87.62
394.556	81.62
394.78	104.62
395.005	75.62
395.229	73.62
395.454	90.62
395.678	82.62
395.903	86.62
396.127	88.62
396.352	95.62
396.576	75.62
396.801	87.62
397.025	92.62
397.249	94.62
397.474	78.62
397.698	82.62
397.922	68.62
398.147	81.62
398.371	75.62
398.595	87.62
398.82	97.62
399.044	88.62
399.268	96.62
399.492	98.62
399.717	96.62
399.941	83.62
400.165	96.62
400.389	88.62
400.613	98.62
400.837	85.62
401.062	91.62
401.286	96.62
401.51	83.62
401.734	107.62
401.958	104.62
402.182	114.62
402.406	152.62
402.63	119.62
402.854	93.62
403.078	86.62
403.302	84.62
403.526	81.62
403.75	88.62
403.974	83.62
404.198	74.62
404.422	86.62
404.645	74.62
404.869	100.62
405.093	98.62
405.317	94.62
405.541	78.62
405.765	92.62
405.988	118.62
406.212	173.62
406.436	222.62
406.66	160.62
406.883	96.62
407.107	99.62
407.331	91.62
407.555	101.62
407.778	80.62
408.002	86.62
408.226	87.62
408.449	79.62
408.673	110.62
408.896	85.62
409.12	82.62
409.344	90.62
409.567	90.62
409.791	81.62
410.014	89.62
410.238	98.62
410.461	83.62
410.685	93.62
410.908	99.62
411.132	95.62
411.355	86.62
411.578	96.62
411.802	80.62
412.025	85.62
412.249	85.62
412.472	96.62
412.695	97.62
412.919	91.62
413.142	91.62
413.365	107.62
413.589	71.62
413.812	80.62
414.035	93.62
414.258	88.62
414.482	85.62
414.705	88.62
414.928	96.62
415.151	91.62
415.374	78.62
415.597	86.62
415.821	76.62
416.044	99.62
416.267	92.62
416.49	87.62
416.713	93.62
416.936	89.62
417.159	79.62
417.382	79.62
417.605	94.62
417.828	92.62
418.051	90.62
418.274	73.62
418.497	99.62
418.72	107.62
418.943	85.62
419.166	83.62
419.389	88.62
419.611	82.62
419.834	73.62
420.057	88.62
420.28	93.62
420.503	91.62
420.726	78.62
420.948	79.62
421.171	89.62
421.394	101.62
421.617	90.62
421.839	74.62
422.062	81.62
422.285	95.62
422.507	94.62
422.73	107.62
422.953	94.62
423.175	82.62
423.398	91.62
423.621	96.62
423.843	83.62
424.066	81.62
424.288	92.62
424.511	99.62
424.733	103.62
424.956	82.62
425.178	90.62
425.401	86.62
425.623	94.62
425.846	89.62
426.068	104.62
426.291	75.62
426.513	96.62
426.735	92.62
426.958	100.62
427.18	94.62
427.402	118.62
427.625	163.62
427.847	119.62
428.069	104.62
428.292	95.62
428.514	102.62
428.736	83.62
428.958	71.62
429.181	84.62
429.403	70.62
429.625	83.62
429.847	88.62
430.069	96.62
430.292	94.62
430.514	82.62
430.736	85.62
430.958	65.62
431.18	93.62
431.402	86.62
431.624	77.62
431.846	80.62
432.068	90.62
432.29	91.62
432.512	78.62
432.734	94.62
432.956	90.62
433.178	94.62
433.4	91.62
433.622	82.62
433.844	86.62
434.066	77.62
434.287	85.62
434.509	84.62
434.731	74.62
434.953	77.62
435.175	70.62
435.397	75.62
435.618	74.62
435.84	91.62
436.062	109.62
436.284	93.62
436.505	101.62
436.727	97.62
436.949	87.62
437.17	94.62
437.392	94.62
437.614	94.62
437.835	105.62
438.057	113.62
438.278	94.62
438.5	96.62
438.721	103.62
438.943	95.62
439.165	102.62
439.386	103.62
439.608	88.62
439.829	79.62
440.05	129.62
440.272	125.62
440.493	86.62
440.715	80.62
440.936	76.62
441.158	80.62
441.379	63.62
441.6	93.62
441.822	89.62
442.043	89.62
442.264	107.62
442.486	99.62
442.707	88.62
442.928	103.62
443.149	115.62
443.371	114.62
443.592	103.62
443.813	89.62
444.034	104.62
444.255	95.62
444.476	92.62
444.698	94.62
444.919	76.62
445.14	130.62
445.361	109.62
445.582	110.62
445.803	113.62
446.024	128.62
446.245	130.62
446.466	101.62
446.687	93.62
446.908	91.62
447.129	85.62
447.35	81.62
447.571	89.62
447.792	83.62
448.013	102.62
448.234	95.62
448.455	93.62
448.675	107.62
448.896	108.62
449.117	97.62
449.338	100.62
449.559	115.62
449.779	129.62
450	96.62
450.221	94.62
450.442	80.62
450.662	94.62
450.883	94.62
451.104	88.62
451.324	94.62
451.545	92.62
451.766	90.62
451.986	80.62
452.207	80.62
452.428	90.62
452.648	90.62
452.869	114.62
453.089	114.62
453.31	109.62
453.53	100.62
453.751	95.62
453.971	87.62
454.192	104.62
454.412	77.62
454.633	79.62
454.853	80.62
455.073	90.62
455.294	85.62
455.514	92.62
455.734	81.62
455.955	76.62
456.175	76.62
456.395	89.62
456.616	86.62
456.836	98.62
457.056	80.62
457.276	83.62
457.497	79.62
457.717	88.62
457.937	94.62
458.157	88.62
458.377	83.62
458.598	110.62
458.818	142.62
459.038	163.62
459.258	113.62
459.478	96.62
459.698	82.62
459.918	103.62
460.138	89.62
460.358	79.62
460.578	85.62
460.798	93.62
461.018	85.62
461.238	87.62
461.458	106.62
461.678	93.62
461.898	87.62
462.118	89.62
462.338	62.62
462.558	80.62
462.777	92.62
462.997	98.62
463.217	78.62
463.437	91.62
463.657	74.62
463.876	81.62
464.096	88.62
464.316	103.62
464.536	81.62
464.755	101.62
464.975	111.62
465.195	157.62
465.414	151.62
465.634	82.62
465.854	89.62
466.073	91.62
466.293	86.62
466.512	85.62
466.732	64.62
466.951	83.62
467.171	70.62
467.391	100.62
467.61	94.62
467.829	102.62
468.049	115.62
468.268	125.62
468.488	96.62
468.707	86.62
468.927	80.62
469.146	81.62
469.365	85.62
469.585	97.62
469.804	72.62
470.023	107.62
470.243	95.62
470.462	96.62
470.681	108.62
470.901	89.62
471.12	85.62
471.339	89.62
471.558	78.62
471.777	88.62
471.997	100.62
472.216	169.62
472.435	264.62
472.654	130.62
472.873	95.62
473.092	93.62
473.311	100.62
473.53	77.62
473.749	99.62
473.968	97.62
474.187	95.62
474.406	88.62
474.625	88.62
474.844	76.62
475.063	79.62
475.282	80.62
475.501	76.62
475.72	83.62
475.939	93.62
476.158	78.62
476.377	85.62
476.596	85.62
476.814	86.62
477.033	88.62
477.252	86.62
477.471	86.62
477.69	82.62
477.908	79.62
478.127	84.62
478.346	77.62
478.564	95.62
478.783	97.62
479.002	97.62
479.22	81.62
479.439	104.62
479.658	100.62
479.876	82.62
480.095	80.62
480.313	98.62
480.532	85.62
480.751	111.62
480.969	169.62
481.188	423.62
481.406	269.62
481.624	103.62
481.843	81.62
482.061	80.62
482.28	77.62
482.498	84.62
482.717	81.62
482.935	94.62
483.153	77.62
483.372	73.62
483.59	96.62
483.808	83.62
484.027	81.62
484.245	88.62
484.463	85.62
484.681	92.62
484.9	96.62
485.118	90.62
485.336	93.62
485.554	90.62
485.772	96.62
485.99	100.62
486.209	102.62
486.427	109.62
486.645	111.62
486.863	110.62
487.081	95.62
487.299	90.62
487.517	97.62
487.735	84.62
487.953	87.62
488.171	80.62
488.389	88.62
488.607	90.62
488.825	90.62
489.043	93.62
489.261	82.62
489.479	91.62
489.696	74.62
489.914	80.62
490.132	87.62
490.35	86.62
490.568	80.62
490.786	88.62
491.003	90.62
491.221	98.62
491.439	86.62
491.657	90.62
491.874	88.62
492.092	91.62
492.31	101.62
492.527	81.62
492.745	75.62
492.963	82.62
493.18	75.62
493.398	101.62
493.615	94.62
493.833	89.62
494.05	94.62
494.268	87.62
494.485	92.62
494.703	89.62
494.92	101.62
495.138	94.62
495.355	96.62
495.573	91.62
495.79	81.62
496.008	103.62
496.225	103.62
496.442	97.62
496.66	101.62
496.877	87.62
497.094	94.62
497.312	80.62
497.529	87.62
497.746	85.62
497.963	93.62
498.181	92.62
498.398	100.62
498.615	90.62
498.832	102.62
499.049	92.62
499.267	87.62
499.484	104.62
499.701	103.62
499.918	87.62
500.135	92.62
500.352	93.62
500.569	103.62
500.786	89.62
501.003	83.62
501.22	89.62
501.437	94.62
501.654	77.62
501.871	100.62
502.088	107.62
502.305	108.62
502.522	95.62
502.739	77.62
502.956	77.62
503.172	75.62
503.389	85.62
503.606	89.62
503.823	95.62
504.04	101.62
504.256	92.62
504.473	82.62
504.69	94.62
504.907	98.62
505.123	93.62
505.34	83.62
505.557	81.62
505.773	85.62
505.99	70.62
506.207	80.62
506.423	83.62
506.64	93.62
506.856	89.62
507.073	85.62
507.289	91.62
507.506	90.62
507.722	113.62
507.939	98.62
508.155	101.62
508.372	94.62
508.588	103.62
508.805	103.62
509.021	88.62
509.238	103.62
509.454	115.62
509.67	99.62
509.887	107.62
510.103	119.62
510.319	232.62
510.536	821.62
510.752	2641.62
510.968	709.62
511.184	146.62
511.401	94.62
511.617	92.62
511.833	96.62
512.049	85.62
512.265	90.62
512.481	85.62
512.698	70.62
512.914	78.62
513.13	79.62
513.346	100.62
513.562	83.62
513.778	109.62
513.994	90.62
514.21	105.62
514.426	117.62
514.642	122.62
514.858	128.62
515.074	161.62
515.29	436.62
515.506	1486.62
515.721	529.62
515.937	140.62
516.153	121.62
