Data from Circ_1996_H10_HRD10591_00037.txt Node
Date: Wed Jan 03 11:33:13 EST 2024
User: Yrep
Spectrometer: HR+D1059
Trigger mode: 1
Integration Time (sec): 1.000000E-1
Scans to average: 1
Electric dark correction enabled: true
Nonlinearity correction enabled: false
Boxcar width: 0
XAxis mode: Wavelengths
Number of Pixels in Spectrum: 2048
>>>>>Begin Spectral Data<<<<<
223.165	-10.25
223.4	-10.25
223.635	-10.25
223.869	-17.25
224.104	-21.25
224.338	-9.25
224.573	-16.25
224.808	-9.25
225.042	-7.25
225.277	-25.25
225.511	3.75
225.746	9.75
225.98	5.75
226.215	23.75
226.449	8.75
226.683	16.75
226.918	18.75
227.152	28.75
227.387	21.75
227.621	36.75
227.856	58.75
228.09	37.75
228.324	60.75
228.559	69.75
228.793	59.75
229.027	66.75
229.262	74.75
229.496	85.75
229.73	76.75
229.964	80.75
230.199	56.75
230.433	73.75
230.667	73.75
230.901	74.75
231.136	85.75
231.37	91.75
231.604	75.75
231.838	86.75
232.072	84.75
232.306	83.75
232.541	76.75
232.775	72.75
233.009	77.75
233.243	75.75
233.477	86.75
233.711	87.75
233.945	77.75
234.179	71.75
234.413	72.75
234.647	77.75
234.881	80.75
235.115	71.75
235.349	92.75
235.583	75.75
235.817	69.75
236.051	53.75
236.285	65.75
236.519	79.75
236.753	86.75
236.987	86.75
237.221	72.75
237.455	89.75
237.689	63.75
237.922	84.75
238.156	71.75
238.39	71.75
238.624	78.75
238.858	81.75
239.091	67.75
239.325	85.75
239.559	83.75
239.793	75.75
240.027	67.75
240.26	71.75
240.494	65.75
240.728	72.75
240.961	81.75
241.195	70.75
241.429	72.75
241.662	86.75
241.896	88.75
242.13	78.75
242.363	73.75
242.597	78.75
242.83	72.75
243.064	84.75
243.298	70.75
243.531	89.75
243.765	70.75
243.998	74.75
244.232	71.75
244.465	97.75
244.699	79.75
244.932	75.75
245.166	79.75
245.399	81.75
245.633	67.75
245.866	78.75
246.099	81.75
246.333	75.75
246.566	80.75
246.8	77.75
247.033	77.75
247.266	72.75
247.5	61.75
247.733	79.75
247.966	77.75
248.2	71.75
248.433	71.75
248.666	86.75
248.899	89.75
249.133	85.75
249.366	94.75
249.599	92.75
249.832	85.75
250.066	85.75
250.299	79.75
250.532	82.75
250.765	79.75
250.998	70.75
251.231	82.75
251.465	82.75
251.698	89.75
251.931	76.75
252.164	81.75
252.397	78.75
252.63	87.75
252.863	82.75
253.096	81.75
253.329	74.75
253.562	73.75
253.795	76.75
254.028	72.75
254.261	81.75
254.494	90.75
254.727	78.75
254.96	66.75
255.193	82.75
255.426	69.75
255.659	74.75
255.892	85.75
256.124	62.75
256.357	81.75
256.59	89.75
256.823	53.75
257.056	87.75
257.289	94.75
257.521	74.75
257.754	90.75
257.987	74.75
258.22	83.75
258.452	78.75
258.685	91.75
258.918	89.75
259.151	85.75
259.383	84.75
259.616	75.75
259.849	85.75
260.081	73.75
260.314	66.75
260.547	77.75
260.779	85.75
261.012	73.75
261.244	86.75
261.477	87.75
261.71	89.75
261.942	106.75
262.175	118.75
262.407	88.75
262.64	76.75
262.872	74.75
263.105	96.75
263.337	93.75
263.57	87.75
263.802	85.75
264.035	80.75
264.267	79.75
264.499	78.75
264.732	87.75
264.964	73.75
265.197	81.75
265.429	91.75
265.661	68.75
265.894	80.75
266.126	91.75
266.358	90.75
266.591	79.75
266.823	81.75
267.055	81.75
267.287	89.75
267.52	78.75
267.752	81.75
267.984	84.75
268.216	89.75
268.448	85.75
268.681	76.75
268.913	81.75
269.145	70.75
269.377	92.75
269.609	90.75
269.841	82.75
270.073	80.75
270.306	64.75
270.538	72.75
270.77	82.75
271.002	74.75
271.234	80.75
271.466	91.75
271.698	81.75
271.93	75.75
272.162	87.75
272.394	92.75
272.626	84.75
272.858	86.75
273.09	64.75
273.322	92.75
273.553	80.75
273.785	82.75
274.017	91.75
274.249	87.75
274.481	76.75
274.713	71.75
274.945	95.75
275.176	84.75
275.408	83.75
275.64	94.75
275.872	87.75
276.104	82.75
276.335	80.75
276.567	90.75
276.799	102.75
277.031	114.75
277.262	93.75
277.494	99.75
277.726	84.75
277.957	87.75
278.189	80.75
278.421	83.75
278.652	98.75
278.884	80.75
279.115	97.75
279.347	82.75
279.579	81.75
279.81	86.75
280.042	86.75
280.273	85.75
280.505	85.75
280.736	88.75
280.968	87.75
281.199	84.75
281.431	79.75
281.662	89.75
281.894	87.75
282.125	92.75
282.356	107.75
282.588	137.75
282.819	113.75
283.051	91.75
283.282	85.75
283.513	82.75
283.745	89.75
283.976	74.75
284.207	76.75
284.439	87.75
284.67	87.75
284.901	92.75
285.132	89.75
285.364	89.75
285.595	77.75
285.826	87.75
286.057	81.75
286.288	64.75
286.52	82.75
286.751	79.75
286.982	98.75
287.213	74.75
287.444	90.75
287.675	96.75
287.906	88.75
288.138	92.75
288.369	77.75
288.6	81.75
288.831	76.75
289.062	91.75
289.293	94.75
289.524	93.75
289.755	97.75
289.986	89.75
290.217	74.75
290.448	97.75
290.679	96.75
290.91	80.75
291.141	95.75
291.371	77.75
291.602	81.75
291.833	65.75
292.064	92.75
292.295	89.75
292.526	94.75
292.757	105.75
292.987	94.75
293.218	83.75
293.449	78.75
293.68	93.75
293.91	85.75
294.141	90.75
294.372	76.75
294.603	89.75
294.833	85.75
295.064	82.75
295.295	93.75
295.525	90.75
295.756	94.75
295.987	115.75
296.217	141.75
296.448	130.75
296.679	89.75
296.909	82.75
297.14	87.75
297.37	78.75
297.601	98.75
297.831	87.75
298.062	69.75
298.292	90.75
298.523	91.75
298.753	91.75
298.984	94.75
299.214	78.75
299.445	82.75
299.675	89.75
299.905	100.75
300.136	82.75
300.366	96.75
300.597	85.75
300.827	87.75
301.057	100.75
301.288	99.75
301.518	82.75
301.748	89.75
301.979	110.75
302.209	82.75
302.439	99.75
302.669	81.75
302.9	100.75
303.13	79.75
303.36	80.75
303.59	104.75
303.82	95.75
304.051	94.75
304.281	87.75
304.511	77.75
304.741	91.75
304.971	86.75
305.201	88.75
305.431	95.75
305.661	100.75
305.891	88.75
306.121	91.75
306.352	108.75
306.582	89.75
306.812	103.75
307.042	102.75
307.272	81.75
307.502	86.75
307.731	106.75
307.961	77.75
308.191	79.75
308.421	102.75
308.651	82.75
308.881	88.75
309.111	88.75
309.341	98.75
309.571	85.75
309.8	85.75
310.03	94.75
310.26	91.75
310.49	96.75
310.72	95.75
310.949	110.75
311.179	106.75
311.409	80.75
311.639	82.75
311.868	93.75
312.098	89.75
312.328	105.75
312.557	95.75
312.787	104.75
313.017	99.75
313.246	81.75
313.476	91.75
313.706	90.75
313.935	90.75
314.165	87.75
314.394	91.75
314.624	85.75
314.853	94.75
315.083	101.75
315.312	85.75
315.542	95.75
315.771	81.75
316.001	99.75
316.23	87.75
316.46	79.75
316.689	72.75
316.919	97.75
317.148	103.75
317.377	94.75
317.607	102.75
317.836	102.75
318.065	99.75
318.295	95.75
318.524	88.75
318.753	85.75
318.983	91.75
319.212	84.75
319.441	104.75
319.67	105.75
319.9	89.75
320.129	93.75
320.358	88.75
320.587	88.75
320.816	84.75
321.046	88.75
321.275	99.75
321.504	96.75
321.733	95.75
321.962	93.75
322.191	100.75
322.42	100.75
322.649	104.75
322.878	97.75
323.108	110.75
323.337	114.75
323.566	122.75
323.795	153.75
324.024	172.75
324.253	321.75
324.482	634.75
324.71	1241.75
324.939	1644.75
325.168	619.75
325.397	209.75
325.626	136.75
325.855	113.75
326.084	113.75
326.313	126.75
326.542	135.75
326.77	189.75
326.999	330.75
327.228	688.75
327.457	1214.75
327.686	980.75
327.914	316.75
328.143	179.75
328.372	179.75
328.6	143.75
328.829	123.75
329.058	118.75
329.287	108.75
329.515	101.75
329.744	119.75
329.972	114.75
330.201	160.75
330.43	190.75
330.658	151.75
330.887	140.75
331.115	133.75
331.344	109.75
331.572	99.75
331.801	105.75
332.03	110.75
332.258	99.75
332.486	86.75
332.715	86.75
332.943	90.75
333.172	92.75
333.4	103.75
333.629	112.75
333.857	115.75
334.085	117.75
334.314	147.75
334.542	209.75
334.771	188.75
334.999	120.75
335.227	108.75
335.455	85.75
335.684	90.75
335.912	107.75
336.14	108.75
336.369	111.75
336.597	119.75
336.825	103.75
337.053	97.75
337.281	92.75
337.51	94.75
337.738	80.75
337.966	85.75
338.194	88.75
338.422	92.75
338.65	81.75
338.878	90.75
339.106	84.75
339.334	92.75
339.562	89.75
339.79	99.75
340.018	94.75
340.246	94.75
340.474	100.75
340.702	86.75
340.93	90.75
341.158	80.75
341.386	85.75
341.614	96.75
341.842	105.75
342.07	95.75
342.298	81.75
342.526	92.75
342.754	91.75
342.981	105.75
343.209	80.75
343.437	97.75
343.665	89.75
343.893	69.75
344.12	97.75
344.348	91.75
344.576	71.75
344.804	89.75
345.031	101.75
345.259	98.75
345.487	84.75
345.714	78.75
345.942	92.75
346.17	94.75
346.397	86.75
346.625	91.75
346.853	89.75
347.08	115.75
347.308	85.75
347.535	92.75
347.763	86.75
347.99	97.75
348.218	97.75
348.445	114.75
348.673	103.75
348.9	98.75
349.128	92.75
349.355	96.75
349.583	111.75
349.81	95.75
350.037	90.75
350.265	88.75
350.492	105.75
350.72	97.75
350.947	82.75
351.174	107.75
351.402	104.75
351.629	109.75
351.856	113.75
352.083	102.75
352.311	87.75
352.538	103.75
352.765	110.75
352.992	114.75
353.22	100.75
353.447	96.75
353.674	93.75
353.901	103.75
354.128	87.75
354.355	96.75
354.583	99.75
354.81	102.75
355.037	82.75
355.264	95.75
355.491	93.75
355.718	88.75
355.945	100.75
356.172	103.75
356.399	96.75
356.626	93.75
356.853	91.75
357.08	78.75
357.307	101.75
357.534	90.75
357.761	95.75
357.988	89.75
358.215	95.75
358.441	103.75
358.668	83.75
358.895	91.75
359.122	89.75
359.349	103.75
359.576	95.75
359.802	86.75
360.029	112.75
360.256	113.75
360.483	94.75
360.709	86.75
360.936	82.75
361.163	99.75
361.39	104.75
361.616	95.75
361.843	91.75
362.07	95.75
362.296	86.75
362.523	98.75
362.749	91.75
362.976	87.75
363.203	96.75
363.429	89.75
363.656	92.75
363.882	99.75
364.109	99.75
364.335	83.75
364.562	95.75
364.788	86.75
365.015	95.75
365.241	89.75
365.468	92.75
365.694	105.75
365.92	97.75
366.147	85.75
366.373	89.75
366.599	88.75
366.826	86.75
367.052	82.75
367.278	87.75
367.505	61.75
367.731	76.75
367.957	85.75
368.184	98.75
368.41	97.75
368.636	90.75
368.862	118.75
369.089	102.75
369.315	84.75
369.541	94.75
369.767	78.75
369.993	92.75
370.219	100.75
370.445	94.75
370.672	85.75
370.898	83.75
371.124	86.75
371.35	88.75
371.576	89.75
371.802	97.75
372.028	86.75
372.254	86.75
372.48	83.75
372.706	91.75
372.932	68.75
373.158	89.75
373.384	81.75
373.61	97.75
373.835	82.75
374.061	91.75
374.287	85.75
374.513	90.75
374.739	94.75
374.965	81.75
375.191	78.75
375.416	91.75
375.642	87.75
375.868	77.75
376.094	82.75
376.319	81.75
376.545	79.75
376.771	88.75
376.997	99.75
377.222	89.75
377.448	95.75
377.674	88.75
377.899	91.75
378.125	84.75
378.35	87.75
378.576	91.75
378.802	87.75
379.027	87.75
379.253	87.75
379.478	90.75
379.704	94.75
379.929	85.75
380.155	95.75
380.38	93.75
380.606	92.75
380.831	85.75
381.057	104.75
381.282	91.75
381.507	90.75
381.733	94.75
381.958	96.75
382.184	106.75
382.409	89.75
382.634	99.75
382.86	96.75
383.085	97.75
383.31	97.75
383.535	109.75
383.761	89.75
383.986	90.75
384.211	102.75
384.436	94.75
384.662	111.75
384.887	113.75
385.112	96.75
385.337	105.75
385.562	104.75
385.787	107.75
386.013	106.75
386.238	93.75
386.463	120.75
386.688	106.75
386.913	103.75
387.138	113.75
387.363	92.75
387.588	103.75
387.813	107.75
388.038	99.75
388.263	110.75
388.488	120.75
388.713	91.75
388.938	95.75
389.163	90.75
389.387	93.75
389.612	82.75
389.837	88.75
390.062	85.75
390.287	74.75
390.512	88.75
390.736	96.75
390.961	82.75
391.186	84.75
391.411	97.75
391.636	91.75
391.86	84.75
392.085	75.75
392.31	87.75
392.534	72.75
392.759	67.75
392.984	87.75
393.208	92.75
393.433	98.75
393.658	99.75
393.882	88.75
394.107	82.75
394.331	86.75
394.556	86.75
394.78	76.75
395.005	83.75
395.229	82.75
395.454	71.75
395.678	74.75
395.903	86.75
396.127	76.75
396.352	88.75
396.576	85.75
396.801	91.75
397.025	86.75
397.249	80.75
397.474	86.75
397.698	86.75
397.922	94.75
398.147	89.75
398.371	80.75
398.595	75.75
398.82	77.75
399.044	81.75
399.268	95.75
399.492	89.75
399.717	82.75
399.941	84.75
400.165	99.75
400.389	97.75
400.613	92.75
400.837	86.75
401.062	86.75
401.286	90.75
401.51	83.75
401.734	75.75
401.958	108.75
402.182	116.75
402.406	144.75
402.63	118.75
402.854	107.75
403.078	80.75
403.302	75.75
403.526	94.75
403.75	87.75
403.974	98.75
404.198	81.75
404.422	80.75
404.645	84.75
404.869	91.75
405.093	83.75
405.317	88.75
405.541	99.75
405.765	93.75
405.988	110.75
406.212	163.75
406.436	213.75
406.66	147.75
406.883	105.75
407.107	99.75
407.331	80.75
407.555	106.75
407.778	90.75
408.002	93.75
408.226	88.75
408.449	82.75
408.673	81.75
408.896	90.75
409.12	101.75
409.344	63.75
409.567	89.75
409.791	92.75
410.014	99.75
410.238	84.75
410.461	85.75
410.685	87.75
410.908	105.75
411.132	121.75
411.355	83.75
411.578	99.75
411.802	83.75
412.025	94.75
412.249	87.75
412.472	84.75
412.695	100.75
412.919	94.75
413.142	96.75
413.365	91.75
413.589	95.75
413.812	96.75
414.035	86.75
414.258	93.75
414.482	98.75
414.705	80.75
414.928	82.75
415.151	102.75
415.374	94.75
415.597	94.75
415.821	90.75
416.044	100.75
416.267	99.75
416.49	93.75
416.713	91.75
416.936	90.75
417.159	81.75
417.382	97.75
417.605	86.75
417.828	71.75
418.051	79.75
418.274	96.75
418.497	95.75
418.72	84.75
418.943	90.75
419.166	102.75
419.389	81.75
419.611	94.75
419.834	83.75
420.057	88.75
420.28	107.75
420.503	79.75
420.726	88.75
420.948	77.75
421.171	94.75
421.394	86.75
421.617	80.75
421.839	83.75
422.062	74.75
422.285	85.75
422.507	90.75
422.73	107.75
422.953	99.75
423.175	87.75
423.398	85.75
423.621	83.75
423.843	82.75
424.066	73.75
424.288	79.75
424.511	87.75
424.733	79.75
424.956	92.75
425.178	97.75
425.401	97.75
425.623	92.75
425.846	99.75
426.068	87.75
426.291	81.75
426.513	103.75
426.735	81.75
426.958	94.75
427.18	87.75
427.402	135.75
427.625	135.75
427.847	144.75
428.069	118.75
428.292	95.75
428.514	79.75
428.736	71.75
428.958	89.75
429.181	80.75
429.403	82.75
429.625	76.75
429.847	79.75
430.069	102.75
430.292	82.75
430.514	87.75
430.736	94.75
430.958	81.75
431.18	84.75
431.402	81.75
431.624	78.75
431.846	82.75
432.068	86.75
432.29	91.75
432.512	92.75
432.734	89.75
432.956	101.75
433.178	105.75
433.4	89.75
433.622	79.75
433.844	82.75
434.066	88.75
434.287	78.75
434.509	82.75
434.731	91.75
434.953	85.75
435.175	73.75
435.397	70.75
435.618	88.75
435.84	103.75
436.062	103.75
436.284	88.75
436.505	99.75
436.727	88.75
436.949	95.75
437.17	87.75
437.392	89.75
437.614	85.75
437.835	91.75
438.057	115.75
438.278	112.75
438.5	87.75
438.721	110.75
438.943	86.75
439.165	86.75
439.386	86.75
439.608	86.75
439.829	86.75
440.05	125.75
440.272	125.75
440.493	105.75
440.715	83.75
440.936	79.75
441.158	79.75
441.379	97.75
441.6	89.75
441.822	94.75
442.043	88.75
442.264	106.75
442.486	91.75
442.707	78.75
442.928	101.75
443.149	122.75
443.371	118.75
443.592	102.75
443.813	98.75
444.034	107.75
444.255	80.75
444.476	83.75
444.698	81.75
444.919	82.75
445.14	141.75
445.361	124.75
445.582	103.75
445.803	131.75
446.024	125.75
446.245	115.75
446.466	96.75
446.687	93.75
446.908	90.75
447.129	97.75
447.35	82.75
447.571	91.75
447.792	98.75
448.013	80.75
448.234	99.75
448.455	91.75
448.675	117.75
448.896	114.75
449.117	86.75
449.338	103.75
449.559	104.75
449.779	126.75
450	87.75
450.221	75.75
450.442	87.75
450.662	93.75
450.883	103.75
451.104	115.75
451.324	96.75
451.545	91.75
451.766	75.75
451.986	88.75
452.207	93.75
452.428	98.75
452.648	107.75
452.869	93.75
453.089	103.75
453.31	106.75
453.53	83.75
453.751	102.75
453.971	103.75
454.192	100.75
454.412	95.75
454.633	87.75
454.853	69.75
455.073	86.75
455.294	89.75
455.514	88.75
455.734	105.75
455.955	90.75
456.175	90.75
456.395	99.75
456.616	73.75
456.836	82.75
457.056	90.75
457.276	74.75
457.497	94.75
457.717	84.75
457.937	92.75
458.157	74.75
458.377	77.75
458.598	109.75
458.818	140.75
459.038	152.75
459.258	98.75
459.478	99.75
459.698	93.75
459.918	73.75
460.138	77.75
460.358	83.75
460.578	99.75
460.798	90.75
461.018	90.75
461.238	81.75
461.458	86.75
461.678	92.75
461.898	95.75
462.118	77.75
462.338	97.75
462.558	89.75
462.777	84.75
462.997	83.75
463.217	80.75
463.437	91.75
463.657	91.75
463.876	93.75
464.096	90.75
464.316	78.75
464.536	89.75
464.755	98.75
464.975	105.75
465.195	166.75
465.414	149.75
465.634	97.75
465.854	85.75
466.073	78.75
466.293	91.75
466.512	96.75
466.732	103.75
466.951	78.75
467.171	85.75
467.391	99.75
467.61	99.75
467.829	103.75
468.049	126.75
468.268	130.75
468.488	82.75
468.707	81.75
468.927	87.75
469.146	89.75
469.365	83.75
469.585	87.75
469.804	97.75
470.023	80.75
470.243	103.75
470.462	94.75
470.681	116.75
470.901	86.75
471.12	87.75
471.339	75.75
471.558	90.75
471.777	97.75
471.997	98.75
472.216	169.75
472.435	249.75
472.654	127.75
472.873	98.75
473.092	80.75
473.311	74.75
473.53	79.75
473.749	84.75
473.968	92.75
474.187	98.75
474.406	97.75
474.625	82.75
474.844	70.75
475.063	91.75
475.282	95.75
475.501	92.75
475.72	81.75
475.939	75.75
476.158	79.75
476.377	83.75
476.596	75.75
476.814	92.75
477.033	88.75
477.252	92.75
477.471	89.75
477.69	89.75
477.908	89.75
478.127	112.75
478.346	91.75
478.564	92.75
478.783	89.75
479.002	87.75
479.22	87.75
479.439	102.75
479.658	96.75
479.876	102.75
480.095	93.75
480.313	96.75
480.532	107.75
480.751	91.75
480.969	170.75
481.188	410.75
481.406	254.75
481.624	104.75
481.843	82.75
482.061	77.75
482.28	92.75
482.498	86.75
482.717	83.75
482.935	94.75
483.153	83.75
483.372	90.75
483.59	87.75
483.808	76.75
484.027	85.75
484.245	79.75
484.463	86.75
484.681	105.75
484.9	99.75
485.118	91.75
485.336	91.75
485.554	99.75
485.772	96.75
485.99	87.75
486.209	106.75
486.427	108.75
486.645	107.75
486.863	115.75
487.081	93.75
487.299	93.75
487.517	86.75
487.735	92.75
487.953	80.75
488.171	97.75
488.389	86.75
488.607	86.75
488.825	88.75
489.043	87.75
489.261	86.75
489.479	90.75
489.696	94.75
489.914	101.75
490.132	85.75
490.35	77.75
490.568	97.75
490.786	97.75
491.003	92.75
491.221	77.75
491.439	97.75
491.657	110.75
491.874	98.75
492.092	79.75
492.31	104.75
492.527	83.75
492.745	97.75
492.963	104.75
493.18	79.75
493.398	105.75
493.615	94.75
493.833	101.75
494.05	87.75
494.268	94.75
494.485	86.75
494.703	86.75
494.92	94.75
495.138	89.75
495.355	87.75
495.573	92.75
495.79	80.75
496.008	97.75
496.225	94.75
496.442	86.75
496.66	87.75
496.877	92.75
497.094	91.75
497.312	90.75
497.529	98.75
497.746	86.75
497.963	92.75
498.181	90.75
498.398	78.75
498.615	105.75
498.832	97.75
499.049	86.75
499.267	91.75
499.484	78.75
499.701	82.75
499.918	96.75
500.135	85.75
500.352	88.75
500.569	79.75
500.786	92.75
501.003	111.75
501.22	82.75
501.437	103.75
501.654	79.75
501.871	98.75
502.088	85.75
502.305	103.75
502.522	84.75
502.739	94.75
502.956	78.75
503.172	96.75
503.389	107.75
503.606	95.75
503.823	103.75
504.04	88.75
504.256	98.75
504.473	89.75
504.69	87.75
504.907	100.75
505.123	87.75
505.34	95.75
505.557	96.75
505.773	94.75
505.99	99.75
506.207	87.75
506.423	80.75
506.64	83.75
506.856	74.75
507.073	98.75
507.289	89.75
507.506	81.75
507.722	110.75
507.939	114.75
508.155	97.75
508.372	85.75
508.588	100.75
508.805	91.75
509.021	105.75
509.238	94.75
509.454	96.75
509.67	106.75
509.887	95.75
510.103	122.75
510.319	201.75
510.536	761.75
510.752	2461.75
510.968	679.75
511.184	153.75
511.401	124.75
511.617	114.75
511.833	89.75
512.049	95.75
512.265	90.75
512.481	92.75
512.698	99.75
512.914	96.75
513.13	69.75
513.346	73.75
513.562	95.75
513.778	84.75
513.994	96.75
514.21	98.75
514.426	111.75
514.642	119.75
514.858	107.75
515.074	149.75
515.29	438.75
515.506	1408.75
515.721	512.75
515.937	149.75
516.153	97.75
516.369	105.75
