Data from Circ_1996_H10_HRD10591_00014.txt Node
Date: Wed Jan 03 11:33:08 EST 2024
User: Yrep
Spectrometer: HR+D1059
Trigger mode: 1
Integration Time (sec): 1.000000E-1
Scans to average: 1
Electric dark correction enabled: true
Nonlinearity correction enabled: false
Boxcar width: 0
XAxis mode: Wavelengths
Number of Pixels in Spectrum: 2048
>>>>>Begin Spectral Data<<<<<
223.165	-32.38
223.4	-32.38
223.635	-32.38
223.869	-8.38
224.104	-15.38
224.338	-30.38
224.573	-9.38
224.808	-9.38
225.042	-13.38
225.277	-2.38
225.511	-14.38
225.746	10.62
225.98	4.62
226.215	16.62
226.449	26.62
226.683	21.62
226.918	28.62
227.152	26.62
227.387	33.62
227.621	29.62
227.856	46.62
228.09	42.62
228.324	37.62
228.559	57.62
228.793	58.62
229.027	53.62
229.262	55.62
229.496	72.62
229.73	76.62
229.964	76.62
230.199	77.62
230.433	72.62
230.667	81.62
230.901	73.62
231.136	77.62
231.37	70.62
231.604	62.62
231.838	73.62
232.072	73.62
232.306	88.62
232.541	76.62
232.775	68.62
233.009	76.62
233.243	87.62
233.477	72.62
233.711	77.62
233.945	93.62
234.179	87.62
234.413	75.62
234.647	78.62
234.881	66.62
235.115	74.62
235.349	78.62
235.583	79.62
235.817	65.62
236.051	62.62
236.285	73.62
236.519	72.62
236.753	73.62
236.987	80.62
237.221	72.62
237.455	81.62
237.689	89.62
237.922	77.62
238.156	63.62
238.39	78.62
238.624	65.62
238.858	87.62
239.091	86.62
239.325	70.62
239.559	76.62
239.793	77.62
240.027	98.62
240.26	85.62
240.494	80.62
240.728	84.62
240.961	78.62
241.195	79.62
241.429	67.62
241.662	76.62
241.896	65.62
242.13	57.62
242.363	75.62
242.597	66.62
242.83	74.62
243.064	78.62
243.298	89.62
243.531	62.62
243.765	81.62
243.998	93.62
244.232	73.62
244.465	74.62
244.699	84.62
244.932	84.62
245.166	76.62
245.399	72.62
245.633	76.62
245.866	78.62
246.099	74.62
246.333	68.62
246.566	76.62
246.8	74.62
247.033	75.62
247.266	73.62
247.5	74.62
247.733	65.62
247.966	80.62
248.2	74.62
248.433	85.62
248.666	67.62
248.899	82.62
249.133	85.62
249.366	84.62
249.599	80.62
249.832	77.62
250.066	72.62
250.299	75.62
250.532	81.62
250.765	74.62
250.998	77.62
251.231	78.62
251.465	70.62
251.698	78.62
251.931	76.62
252.164	68.62
252.397	78.62
252.63	85.62
252.863	69.62
253.096	84.62
253.329	85.62
253.562	78.62
253.795	82.62
254.028	72.62
254.261	81.62
254.494	73.62
254.727	84.62
254.96	83.62
255.193	88.62
255.426	69.62
255.659	77.62
255.892	79.62
256.124	73.62
256.357	81.62
256.59	80.62
256.823	80.62
257.056	80.62
257.289	88.62
257.521	74.62
257.754	73.62
257.987	80.62
258.22	72.62
258.452	84.62
258.685	90.62
258.918	81.62
259.151	85.62
259.383	78.62
259.616	84.62
259.849	66.62
260.081	81.62
260.314	73.62
260.547	81.62
260.779	79.62
261.012	83.62
261.244	80.62
261.477	99.62
261.71	87.62
261.942	95.62
262.175	105.62
262.407	101.62
262.64	91.62
262.872	71.62
263.105	91.62
263.337	87.62
263.57	78.62
263.802	74.62
264.035	74.62
264.267	65.62
264.499	85.62
264.732	88.62
264.964	90.62
265.197	88.62
265.429	75.62
265.661	72.62
265.894	82.62
266.126	73.62
266.358	84.62
266.591	79.62
266.823	81.62
267.055	84.62
267.287	82.62
267.52	88.62
267.752	82.62
267.984	89.62
268.216	69.62
268.448	77.62
268.681	89.62
268.913	85.62
269.145	88.62
269.377	84.62
269.609	86.62
269.841	79.62
270.073	102.62
270.306	90.62
270.538	89.62
270.77	88.62
271.002	84.62
271.234	75.62
271.466	94.62
271.698	64.62
271.93	76.62
272.162	86.62
272.394	88.62
272.626	88.62
272.858	75.62
273.09	83.62
273.322	81.62
273.553	100.62
273.785	72.62
274.017	77.62
274.249	78.62
274.481	87.62
274.713	83.62
274.945	77.62
275.176	94.62
275.408	77.62
275.64	81.62
275.872	96.62
276.104	94.62
276.335	92.62
276.567	80.62
276.799	100.62
277.031	93.62
277.262	104.62
277.494	91.62
277.726	86.62
277.957	77.62
278.189	77.62
278.421	91.62
278.652	81.62
278.884	84.62
279.115	79.62
279.347	85.62
279.579	90.62
279.81	82.62
280.042	80.62
280.273	82.62
280.505	87.62
280.736	79.62
280.968	84.62
281.199	83.62
281.431	87.62
281.662	75.62
281.894	97.62
282.125	103.62
282.356	101.62
282.588	118.62
282.819	86.62
283.051	76.62
283.282	90.62
283.513	89.62
283.745	82.62
283.976	82.62
284.207	89.62
284.439	87.62
284.67	78.62
284.901	86.62
285.132	96.62
285.364	76.62
285.595	91.62
285.826	85.62
286.057	84.62
286.288	94.62
286.52	89.62
286.751	78.62
286.982	80.62
287.213	85.62
287.444	82.62
287.675	84.62
287.906	78.62
288.138	82.62
288.369	86.62
288.6	82.62
288.831	78.62
289.062	86.62
289.293	65.62
289.524	84.62
289.755	90.62
289.986	72.62
290.217	73.62
290.448	77.62
290.679	80.62
290.91	81.62
291.141	91.62
291.371	94.62
291.602	92.62
291.833	89.62
292.064	100.62
292.295	81.62
292.526	104.62
292.757	91.62
292.987	87.62
293.218	86.62
293.449	81.62
293.68	85.62
293.91	88.62
294.141	96.62
294.372	76.62
294.603	86.62
294.833	81.62
295.064	74.62
295.295	83.62
295.525	88.62
295.756	93.62
295.987	97.62
296.217	129.62
296.448	113.62
296.679	80.62
296.909	100.62
297.14	81.62
297.37	99.62
297.601	91.62
297.831	87.62
298.062	89.62
298.292	85.62
298.523	82.62
298.753	77.62
298.984	86.62
299.214	95.62
299.445	86.62
299.675	97.62
299.905	93.62
300.136	79.62
300.366	72.62
300.597	86.62
300.827	86.62
301.057	85.62
301.288	110.62
301.518	89.62
301.748	74.62
301.979	94.62
302.209	81.62
302.439	78.62
302.669	81.62
302.9	85.62
303.13	84.62
303.36	101.62
303.59	103.62
303.82	109.62
304.051	89.62
304.281	90.62
304.511	87.62
304.741	98.62
304.971	93.62
305.201	91.62
305.431	84.62
305.661	95.62
305.891	86.62
306.121	81.62
306.352	90.62
306.582	89.62
306.812	103.62
307.042	100.62
307.272	107.62
307.502	98.62
307.731	101.62
307.961	97.62
308.191	96.62
308.421	88.62
308.651	97.62
308.881	76.62
309.111	95.62
309.341	92.62
309.571	90.62
309.8	78.62
310.03	82.62
310.26	106.62
310.49	94.62
310.72	107.62
310.949	98.62
311.179	108.62
311.409	92.62
311.639	93.62
311.868	96.62
312.098	84.62
312.328	91.62
312.557	93.62
312.787	113.62
313.017	98.62
313.246	82.62
313.476	93.62
313.706	94.62
313.935	90.62
314.165	101.62
314.394	94.62
314.624	74.62
314.853	98.62
315.083	84.62
315.312	99.62
315.542	97.62
315.771	91.62
316.001	91.62
316.23	86.62
316.46	89.62
316.689	97.62
316.919	98.62
317.148	93.62
317.377	81.62
317.607	83.62
317.836	83.62
318.065	99.62
318.295	91.62
318.524	106.62
318.753	94.62
318.983	96.62
319.212	104.62
319.441	108.62
319.67	98.62
319.9	107.62
320.129	85.62
320.358	96.62
320.587	100.62
320.816	89.62
321.046	96.62
321.275	102.62
321.504	88.62
321.733	102.62
321.962	94.62
322.191	93.62
322.42	109.62
322.649	89.62
322.878	120.62
323.108	108.62
323.337	117.62
323.566	103.62
323.795	132.62
324.024	173.62
324.253	263.62
324.482	554.62
324.71	1112.62
324.939	1484.62
325.168	576.62
325.397	180.62
325.626	112.62
325.855	106.62
326.084	114.62
326.313	110.62
326.542	128.62
326.77	178.62
326.999	314.62
327.228	597.62
327.457	1076.62
327.686	858.62
327.914	270.62
328.143	172.62
328.372	140.62
328.6	118.62
328.829	103.62
329.058	96.62
329.287	110.62
329.515	116.62
329.744	116.62
329.972	126.62
330.201	154.62
330.43	168.62
330.658	130.62
330.887	141.62
331.115	109.62
331.344	91.62
331.572	98.62
331.801	98.62
332.03	90.62
332.258	101.62
332.486	93.62
332.715	105.62
332.943	89.62
333.172	87.62
333.4	96.62
333.629	105.62
333.857	116.62
334.085	106.62
334.314	144.62
334.542	202.62
334.771	170.62
334.999	121.62
335.227	96.62
335.455	113.62
335.684	99.62
335.912	101.62
336.14	87.62
336.369	98.62
336.597	99.62
336.825	104.62
337.053	90.62
337.281	82.62
337.51	89.62
337.738	84.62
337.966	96.62
338.194	88.62
338.422	101.62
338.65	93.62
338.878	75.62
339.106	96.62
339.334	97.62
339.562	99.62
339.79	85.62
340.018	86.62
340.246	71.62
340.474	82.62
340.702	96.62
340.93	88.62
341.158	78.62
341.386	90.62
341.614	99.62
341.842	98.62
342.07	96.62
342.298	97.62
342.526	80.62
342.754	84.62
342.981	75.62
343.209	98.62
343.437	92.62
343.665	81.62
343.893	100.62
344.12	81.62
344.348	82.62
344.576	98.62
344.804	87.62
345.031	98.62
345.259	89.62
345.487	101.62
345.714	99.62
345.942	102.62
346.17	92.62
346.397	81.62
346.625	82.62
346.853	103.62
347.08	80.62
347.308	84.62
347.535	89.62
347.763	88.62
347.99	80.62
348.218	85.62
348.445	92.62
348.673	98.62
348.9	84.62
349.128	95.62
349.355	92.62
349.583	83.62
349.81	92.62
350.037	98.62
350.265	87.62
350.492	100.62
350.72	83.62
350.947	88.62
351.174	92.62
351.402	106.62
351.629	97.62
351.856	88.62
352.083	97.62
352.311	81.62
352.538	105.62
352.765	106.62
352.992	112.62
353.22	119.62
353.447	109.62
353.674	88.62
353.901	75.62
354.128	103.62
354.355	93.62
354.583	90.62
354.81	89.62
355.037	101.62
355.264	100.62
355.491	92.62
355.718	100.62
355.945	85.62
356.172	94.62
356.399	72.62
356.626	92.62
356.853	81.62
357.08	92.62
357.307	90.62
357.534	86.62
357.761	80.62
357.988	85.62
358.215	102.62
358.441	97.62
358.668	92.62
358.895	89.62
359.122	92.62
359.349	85.62
359.576	89.62
359.802	86.62
360.029	96.62
360.256	96.62
360.483	90.62
360.709	82.62
360.936	91.62
361.163	76.62
361.39	85.62
361.616	89.62
361.843	84.62
362.07	101.62
362.296	89.62
362.523	75.62
362.749	88.62
362.976	64.62
363.203	90.62
363.429	80.62
363.656	86.62
363.882	90.62
364.109	81.62
364.335	85.62
364.562	94.62
364.788	68.62
365.015	101.62
365.241	98.62
365.468	108.62
365.694	72.62
365.92	90.62
366.147	88.62
366.373	85.62
366.599	92.62
366.826	93.62
367.052	89.62
367.278	85.62
367.505	77.62
367.731	78.62
367.957	84.62
368.184	86.62
368.41	82.62
368.636	111.62
368.862	125.62
369.089	103.62
369.315	84.62
369.541	97.62
369.767	80.62
369.993	102.62
370.219	92.62
370.445	89.62
370.672	92.62
370.898	74.62
371.124	85.62
371.35	86.62
371.576	75.62
371.802	94.62
372.028	86.62
372.254	87.62
372.48	78.62
372.706	94.62
372.932	88.62
373.158	83.62
373.384	101.62
373.61	96.62
373.835	88.62
374.061	90.62
374.287	88.62
374.513	105.62
374.739	91.62
374.965	82.62
375.191	100.62
375.416	97.62
375.642	76.62
375.868	100.62
376.094	89.62
376.319	91.62
376.545	85.62
376.771	80.62
376.997	82.62
377.222	76.62
377.448	109.62
377.674	85.62
377.899	82.62
378.125	112.62
378.35	95.62
378.576	89.62
378.802	96.62
379.027	97.62
379.253	95.62
379.478	98.62
379.704	81.62
379.929	98.62
380.155	106.62
380.38	95.62
380.606	90.62
380.831	103.62
381.057	94.62
381.282	89.62
381.507	96.62
381.733	90.62
381.958	91.62
382.184	93.62
382.409	105.62
382.634	92.62
382.86	108.62
383.085	100.62
383.31	95.62
383.535	104.62
383.761	110.62
383.986	97.62
384.211	88.62
384.436	101.62
384.662	95.62
384.887	118.62
385.112	120.62
385.337	118.62
385.562	116.62
385.787	117.62
386.013	111.62
386.238	125.62
386.463	117.62
386.688	120.62
386.913	113.62
387.138	113.62
387.363	110.62
387.588	110.62
387.813	119.62
388.038	106.62
388.263	112.62
388.488	112.62
388.713	96.62
388.938	93.62
389.163	104.62
389.387	90.62
389.612	87.62
389.837	99.62
390.062	99.62
390.287	87.62
390.512	91.62
390.736	93.62
390.961	102.62
391.186	97.62
391.411	94.62
391.636	86.62
391.86	74.62
392.085	84.62
392.31	97.62
392.534	90.62
392.759	79.62
392.984	88.62
393.208	95.62
393.433	117.62
393.658	103.62
393.882	93.62
394.107	82.62
394.331	87.62
394.556	87.62
394.78	93.62
395.005	92.62
395.229	77.62
395.454	66.62
395.678	88.62
395.903	81.62
396.127	95.62
396.352	89.62
396.576	101.62
396.801	95.62
397.025	102.62
397.249	87.62
397.474	95.62
397.698	59.62
397.922	79.62
398.147	60.62
398.371	76.62
398.595	93.62
398.82	92.62
399.044	92.62
399.268	98.62
399.492	81.62
399.717	97.62
399.941	84.62
400.165	88.62
400.389	78.62
400.613	88.62
400.837	86.62
401.062	79.62
401.286	102.62
401.51	85.62
401.734	75.62
401.958	84.62
402.182	93.62
402.406	145.62
402.63	111.62
402.854	84.62
403.078	88.62
403.302	88.62
403.526	87.62
403.75	74.62
403.974	76.62
404.198	76.62
404.422	80.62
404.645	70.62
404.869	91.62
405.093	102.62
405.317	100.62
405.541	93.62
405.765	101.62
405.988	108.62
406.212	161.62
406.436	202.62
406.66	129.62
406.883	101.62
407.107	84.62
407.331	91.62
407.555	95.62
407.778	91.62
408.002	90.62
408.226	106.62
408.449	84.62
408.673	86.62
408.896	92.62
409.12	88.62
409.344	85.62
409.567	87.62
409.791	87.62
410.014	100.62
410.238	82.62
410.461	97.62
410.685	101.62
410.908	101.62
411.132	109.62
411.355	89.62
411.578	106.62
411.802	74.62
412.025	79.62
412.249	92.62
412.472	87.62
412.695	89.62
412.919	93.62
413.142	79.62
413.365	80.62
413.589	108.62
413.812	73.62
414.035	97.62
414.258	86.62
414.482	88.62
414.705	89.62
414.928	82.62
415.151	95.62
415.374	79.62
415.597	89.62
415.821	93.62
416.044	75.62
416.267	88.62
416.49	75.62
416.713	86.62
416.936	98.62
417.159	78.62
417.382	80.62
417.605	95.62
417.828	98.62
418.051	105.62
418.274	80.62
418.497	74.62
418.72	87.62
418.943	80.62
419.166	106.62
419.389	98.62
419.611	87.62
419.834	96.62
420.057	83.62
420.28	97.62
420.503	82.62
420.726	74.62
420.948	86.62
421.171	84.62
421.394	81.62
421.617	84.62
421.839	83.62
422.062	94.62
422.285	100.62
422.507	101.62
422.73	100.62
422.953	98.62
423.175	90.62
423.398	81.62
423.621	77.62
423.843	82.62
424.066	77.62
424.288	93.62
424.511	100.62
424.733	95.62
424.956	92.62
425.178	93.62
425.401	97.62
425.623	103.62
425.846	87.62
426.068	97.62
426.291	83.62
426.513	95.62
426.735	96.62
426.958	80.62
427.18	97.62
427.402	114.62
427.625	137.62
427.847	116.62
428.069	114.62
428.292	94.62
428.514	93.62
428.736	76.62
428.958	85.62
429.181	104.62
429.403	84.62
429.625	88.62
429.847	88.62
430.069	92.62
430.292	97.62
430.514	86.62
430.736	85.62
430.958	79.62
431.18	77.62
431.402	98.62
431.624	89.62
431.846	77.62
432.068	89.62
432.29	90.62
432.512	97.62
432.734	87.62
432.956	93.62
433.178	84.62
433.4	104.62
433.622	90.62
433.844	89.62
434.066	105.62
434.287	92.62
434.509	86.62
434.731	96.62
434.953	88.62
435.175	90.62
435.397	93.62
435.618	87.62
435.84	85.62
436.062	110.62
436.284	107.62
436.505	97.62
436.727	95.62
436.949	93.62
437.17	92.62
437.392	84.62
437.614	90.62
437.835	91.62
438.057	91.62
438.278	88.62
438.5	93.62
438.721	106.62
438.943	89.62
439.165	76.62
439.386	82.62
439.608	88.62
439.829	108.62
440.05	109.62
440.272	106.62
440.493	92.62
440.715	98.62
440.936	77.62
441.158	75.62
441.379	85.62
441.6	94.62
441.822	79.62
442.043	86.62
442.264	97.62
442.486	87.62
442.707	90.62
442.928	91.62
443.149	120.62
443.371	115.62
443.592	98.62
443.813	93.62
444.034	108.62
444.255	79.62
444.476	87.62
444.698	71.62
444.919	87.62
445.14	114.62
445.361	111.62
445.582	109.62
445.803	124.62
446.024	96.62
446.245	106.62
446.466	87.62
446.687	88.62
446.908	81.62
447.129	82.62
447.35	92.62
447.571	80.62
447.792	84.62
448.013	84.62
448.234	108.62
448.455	92.62
448.675	95.62
448.896	102.62
449.117	90.62
449.338	85.62
449.559	102.62
449.779	104.62
450	87.62
450.221	84.62
450.442	80.62
450.662	80.62
450.883	95.62
451.104	108.62
451.324	93.62
451.545	84.62
451.766	88.62
451.986	88.62
452.207	96.62
452.428	73.62
452.648	106.62
452.869	112.62
453.089	113.62
453.31	102.62
453.53	80.62
453.751	94.62
453.971	104.62
454.192	86.62
454.412	81.62
454.633	80.62
454.853	82.62
455.073	88.62
455.294	94.62
455.514	102.62
455.734	74.62
455.955	69.62
456.175	81.62
456.395	81.62
456.616	94.62
456.836	79.62
457.056	85.62
457.276	78.62
457.497	69.62
457.717	76.62
457.937	79.62
458.157	81.62
458.377	77.62
458.598	87.62
458.818	119.62
459.038	157.62
459.258	113.62
459.478	95.62
459.698	87.62
459.918	72.62
460.138	94.62
460.358	78.62
460.578	82.62
460.798	78.62
461.018	88.62
461.238	76.62
461.458	62.62
461.678	85.62
461.898	87.62
462.118	80.62
462.338	82.62
462.558	74.62
462.777	92.62
462.997	88.62
463.217	85.62
463.437	71.62
463.657	95.62
463.876	86.62
464.096	76.62
464.316	89.62
464.536	92.62
464.755	89.62
464.975	92.62
465.195	135.62
465.414	120.62
465.634	86.62
465.854	89.62
466.073	88.62
466.293	89.62
466.512	90.62
466.732	88.62
466.951	94.62
467.171	79.62
467.391	91.62
467.61	100.62
467.829	100.62
468.049	104.62
468.268	125.62
468.488	94.62
468.707	89.62
468.927	90.62
469.146	88.62
469.365	80.62
469.585	88.62
469.804	96.62
470.023	89.62
470.243	84.62
470.462	90.62
470.681	102.62
470.901	80.62
471.12	89.62
471.339	98.62
471.558	82.62
471.777	85.62
471.997	94.62
472.216	144.62
472.435	221.62
472.654	118.62
472.873	83.62
473.092	89.62
473.311	79.62
473.53	88.62
473.749	84.62
473.968	92.62
474.187	96.62
474.406	96.62
474.625	74.62
474.844	85.62
475.063	81.62
475.282	95.62
475.501	86.62
475.72	79.62
475.939	80.62
476.158	92.62
476.377	87.62
476.596	73.62
476.814	94.62
477.033	85.62
477.252	74.62
477.471	83.62
477.69	73.62
477.908	76.62
478.127	74.62
478.346	81.62
478.564	97.62
478.783	88.62
479.002	86.62
479.22	95.62
479.439	98.62
479.658	92.62
479.876	81.62
480.095	80.62
480.313	94.62
480.532	97.62
480.751	99.62
480.969	172.62
481.188	377.62
481.406	253.62
481.624	94.62
481.843	73.62
482.061	88.62
482.28	75.62
482.498	94.62
482.717	87.62
482.935	75.62
483.153	76.62
483.372	80.62
483.59	87.62
483.808	80.62
484.027	70.62
484.245	69.62
484.463	88.62
484.681	97.62
484.9	78.62
485.118	85.62
485.336	94.62
485.554	105.62
485.772	90.62
485.99	89.62
486.209	99.62
486.427	106.62
486.645	91.62
486.863	113.62
487.081	80.62
487.299	88.62
487.517	88.62
487.735	89.62
487.953	84.62
488.171	103.62
488.389	90.62
488.607	97.62
488.825	100.62
489.043	90.62
489.261	79.62
489.479	88.62
489.696	98.62
489.914	87.62
490.132	88.62
490.35	87.62
490.568	87.62
490.786	77.62
491.003	75.62
491.221	80.62
491.439	90.62
491.657	86.62
491.874	80.62
492.092	80.62
492.31	102.62
492.527	80.62
492.745	91.62
492.963	84.62
493.18	100.62
493.398	87.62
493.615	97.62
493.833	96.62
494.05	93.62
494.268	75.62
494.485	84.62
494.703	84.62
494.92	72.62
495.138	79.62
495.355	78.62
495.573	90.62
495.79	64.62
496.008	97.62
496.225	88.62
496.442	77.62
496.66	99.62
496.877	78.62
497.094	94.62
497.312	96.62
497.529	85.62
497.746	89.62
497.963	87.62
498.181	86.62
498.398	91.62
498.615	85.62
498.832	97.62
499.049	84.62
499.267	80.62
499.484	96.62
499.701	87.62
499.918	92.62
500.135	88.62
500.352	94.62
500.569	85.62
500.786	90.62
501.003	83.62
501.22	87.62
501.437	86.62
501.654	79.62
501.871	105.62
502.088	86.62
502.305	103.62
502.522	89.62
502.739	98.62
502.956	81.62
503.172	78.62
503.389	102.62
503.606	86.62
503.823	87.62
504.04	80.62
504.256	84.62
504.473	84.62
504.69	88.62
504.907	103.62
505.123	90.62
505.34	81.62
505.557	80.62
505.773	81.62
505.99	93.62
506.207	78.62
506.423	94.62
506.64	82.62
506.856	90.62
507.073	80.62
507.289	70.62
507.506	84.62
507.722	97.62
507.939	95.62
508.155	89.62
508.372	74.62
508.588	90.62
508.805	78.62
509.021	82.62
509.238	87.62
509.454	87.62
509.67	96.62
509.887	101.62
510.103	118.62
510.319	199.62
510.536	682.62
510.752	2220.62
510.968	600.62
511.184	143.62
511.401	113.62
511.617	93.62
511.833	81.62
512.049	91.62
512.265	96.62
512.481	86.62
512.698	79.62
512.914	85.62
513.13	79.62
513.346	86.62
513.562	93.62
513.778	91.62
513.994	93.62
514.21	89.62
514.426	104.62
514.642	116.62
514.858	110.62
515.074	158.62
515.29	385.62
515.506	1214.62
515.721	436.62
515.937	125.62
516.153	108.62
516.369	85.62
516.585	100.62
