Data from Circ_1996_H10_HRD10591_00023.txt Node
Date: Wed Jan 03 11:33:10 EST 2024
User: Yrep
Spectrometer: HR+D1059
Trigger mode: 1
Integration Time (sec): 1.000000E-1
Scans to average: 1
Electric dark correction enabled: true
Nonlinearity correction enabled: false
Boxcar width: 0
XAxis mode: Wavelengths
Number of Pixels in Spectrum: 2048
>>>>>Begin Spectral Data<<<<<
223.165	-12.94
223.4	-12.94
223.635	-12.94
223.869	-7.94
224.104	-22.94
224.338	-21.94
224.573	-3.94
224.808	-9.94
225.042	-5.94
225.277	-9.94
225.511	2.06
225.746	-3.94
225.98	10.06
226.215	16.06
226.449	11.06
226.683	7.06
226.918	21.06
227.152	32.06
227.387	39.06
227.621	36.06
227.856	38.06
228.09	29.06
228.324	49.06
228.559	68.06
228.793	65.06
229.027	53.06
229.262	53.06
229.496	73.06
229.73	84.06
229.964	74.06
230.199	78.06
230.433	75.06
230.667	75.06
230.901	73.06
231.136	69.06
231.37	70.06
231.604	80.06
231.838	74.06
232.072	70.06
232.306	87.06
232.541	84.06
232.775	81.06
233.009	78.06
233.243	80.06
233.477	69.06
233.711	67.06
233.945	75.06
234.179	72.06
234.413	69.06
234.647	95.06
234.881	91.06
235.115	98.06
235.349	85.06
235.583	73.06
235.817	78.06
236.051	60.06
236.285	72.06
236.519	82.06
236.753	73.06
236.987	71.06
237.221	83.06
237.455	84.06
237.689	69.06
237.922	80.06
238.156	77.06
238.39	76.06
238.624	73.06
238.858	82.06
239.091	68.06
239.325	65.06
239.559	78.06
239.793	72.06
240.027	65.06
240.26	96.06
240.494	76.06
240.728	82.06
240.961	73.06
241.195	72.06
241.429	53.06
241.662	68.06
241.896	68.06
242.13	73.06
242.363	79.06
242.597	57.06
242.83	68.06
243.064	82.06
243.298	71.06
243.531	61.06
243.765	82.06
243.998	78.06
244.232	77.06
244.465	94.06
244.699	90.06
244.932	84.06
245.166	62.06
245.399	70.06
245.633	59.06
245.866	81.06
246.099	79.06
246.333	75.06
246.566	72.06
246.8	74.06
247.033	77.06
247.266	79.06
247.5	71.06
247.733	76.06
247.966	80.06
248.2	84.06
248.433	70.06
248.666	69.06
248.899	76.06
249.133	81.06
249.366	87.06
249.599	85.06
249.832	92.06
250.066	60.06
250.299	72.06
250.532	82.06
250.765	68.06
250.998	84.06
251.231	92.06
251.465	74.06
251.698	79.06
251.931	79.06
252.164	57.06
252.397	75.06
252.63	88.06
252.863	68.06
253.096	80.06
253.329	84.06
253.562	58.06
253.795	75.06
254.028	76.06
254.261	93.06
254.494	78.06
254.727	81.06
254.96	90.06
255.193	82.06
255.426	69.06
255.659	77.06
255.892	78.06
256.124	69.06
256.357	85.06
256.59	72.06
256.823	69.06
257.056	88.06
257.289	77.06
257.521	79.06
257.754	97.06
257.987	89.06
258.22	75.06
258.452	74.06
258.685	78.06
258.918	76.06
259.151	80.06
259.383	86.06
259.616	81.06
259.849	77.06
260.081	92.06
260.314	71.06
260.547	77.06
260.779	77.06
261.012	80.06
261.244	72.06
261.477	85.06
261.71	98.06
261.942	97.06
262.175	113.06
262.407	92.06
262.64	78.06
262.872	83.06
263.105	80.06
263.337	88.06
263.57	77.06
263.802	78.06
264.035	81.06
264.267	79.06
264.499	62.06
264.732	88.06
264.964	69.06
265.197	94.06
265.429	70.06
265.661	68.06
265.894	81.06
266.126	78.06
266.358	76.06
266.591	76.06
266.823	88.06
267.055	80.06
267.287	77.06
267.52	72.06
267.752	82.06
267.984	83.06
268.216	82.06
268.448	92.06
268.681	82.06
268.913	72.06
269.145	86.06
269.377	83.06
269.609	85.06
269.841	83.06
270.073	73.06
270.306	81.06
270.538	66.06
270.77	76.06
271.002	77.06
271.234	84.06
271.466	84.06
271.698	70.06
271.93	78.06
272.162	84.06
272.394	84.06
272.626	77.06
272.858	92.06
273.09	76.06
273.322	84.06
273.553	93.06
273.785	60.06
274.017	76.06
274.249	90.06
274.481	61.06
274.713	74.06
274.945	96.06
275.176	68.06
275.408	89.06
275.64	94.06
275.872	95.06
276.104	98.06
276.335	108.06
276.567	93.06
276.799	93.06
277.031	96.06
277.262	89.06
277.494	87.06
277.726	79.06
277.957	85.06
278.189	83.06
278.421	81.06
278.652	71.06
278.884	84.06
279.115	77.06
279.347	83.06
279.579	83.06
279.81	89.06
280.042	85.06
280.273	88.06
280.505	88.06
280.736	91.06
280.968	89.06
281.199	84.06
281.431	79.06
281.662	85.06
281.894	93.06
282.125	100.06
282.356	104.06
282.588	117.06
282.819	108.06
283.051	82.06
283.282	69.06
283.513	94.06
283.745	85.06
283.976	87.06
284.207	82.06
284.439	85.06
284.67	92.06
284.901	72.06
285.132	71.06
285.364	76.06
285.595	98.06
285.826	70.06
286.057	91.06
286.288	76.06
286.52	77.06
286.751	82.06
286.982	92.06
287.213	89.06
287.444	83.06
287.675	83.06
287.906	69.06
288.138	80.06
288.369	86.06
288.6	76.06
288.831	69.06
289.062	90.06
289.293	85.06
289.524	82.06
289.755	86.06
289.986	89.06
290.217	82.06
290.448	80.06
290.679	76.06
290.91	80.06
291.141	92.06
291.371	76.06
291.602	81.06
291.833	92.06
292.064	83.06
292.295	74.06
292.526	98.06
292.757	89.06
292.987	96.06
293.218	80.06
293.449	89.06
293.68	80.06
293.91	76.06
294.141	89.06
294.372	100.06
294.603	79.06
294.833	77.06
295.064	74.06
295.295	92.06
295.525	97.06
295.756	97.06
295.987	96.06
296.217	117.06
296.448	118.06
296.679	86.06
296.909	90.06
297.14	76.06
297.37	92.06
297.601	88.06
297.831	63.06
298.062	73.06
298.292	81.06
298.523	93.06
298.753	96.06
298.984	81.06
299.214	89.06
299.445	92.06
299.675	85.06
299.905	82.06
300.136	84.06
300.366	81.06
300.597	77.06
300.827	92.06
301.057	93.06
301.288	95.06
301.518	94.06
301.748	94.06
301.979	96.06
302.209	86.06
302.439	91.06
302.669	76.06
302.9	84.06
303.13	81.06
303.36	88.06
303.59	100.06
303.82	101.06
304.051	89.06
304.281	71.06
304.511	85.06
304.741	73.06
304.971	78.06
305.201	87.06
305.431	68.06
305.661	88.06
305.891	100.06
306.121	96.06
306.352	88.06
306.582	99.06
306.812	91.06
307.042	94.06
307.272	77.06
307.502	102.06
307.731	91.06
307.961	88.06
308.191	79.06
308.421	89.06
308.651	79.06
308.881	87.06
309.111	80.06
309.341	91.06
309.571	97.06
309.8	85.06
310.03	93.06
310.26	93.06
310.49	94.06
310.72	100.06
310.949	89.06
311.179	93.06
311.409	102.06
311.639	88.06
311.868	95.06
312.098	99.06
312.328	90.06
312.557	95.06
312.787	93.06
313.017	95.06
313.246	84.06
313.476	83.06
313.706	94.06
313.935	88.06
314.165	99.06
314.394	95.06
314.624	102.06
314.853	84.06
315.083	94.06
315.312	90.06
315.542	81.06
315.771	83.06
316.001	76.06
316.23	72.06
316.46	91.06
316.689	86.06
316.919	77.06
317.148	85.06
317.377	92.06
317.607	86.06
317.836	98.06
318.065	88.06
318.295	88.06
318.524	81.06
318.753	92.06
318.983	107.06
319.212	101.06
319.441	93.06
319.67	88.06
319.9	93.06
320.129	84.06
320.358	98.06
320.587	100.06
320.816	89.06
321.046	87.06
321.275	103.06
321.504	85.06
321.733	90.06
321.962	84.06
322.191	88.06
322.42	101.06
322.649	93.06
322.878	105.06
323.108	97.06
323.337	118.06
323.566	117.06
323.795	114.06
324.024	175.06
324.253	296.06
324.482	585.06
324.71	1190.06
324.939	1545.06
325.168	601.06
325.397	198.06
325.626	133.06
325.855	103.06
326.084	107.06
326.313	100.06
326.542	133.06
326.77	173.06
326.999	329.06
327.228	635.06
327.457	1128.06
327.686	916.06
327.914	276.06
328.143	175.06
328.372	157.06
328.6	130.06
328.829	105.06
329.058	110.06
329.287	119.06
329.515	108.06
329.744	108.06
329.972	111.06
330.201	154.06
330.43	171.06
330.658	139.06
330.887	125.06
331.115	107.06
331.344	85.06
331.572	96.06
331.801	104.06
332.03	104.06
332.258	85.06
332.486	92.06
332.715	95.06
332.943	88.06
333.172	103.06
333.4	92.06
333.629	105.06
333.857	128.06
334.085	136.06
334.314	142.06
334.542	190.06
334.771	182.06
334.999	105.06
335.227	116.06
335.455	88.06
335.684	101.06
335.912	87.06
336.14	95.06
336.369	95.06
336.597	89.06
336.825	77.06
337.053	84.06
337.281	90.06
337.51	102.06
337.738	104.06
337.966	90.06
338.194	94.06
338.422	81.06
338.65	85.06
338.878	89.06
339.106	94.06
339.334	89.06
339.562	86.06
339.79	84.06
340.018	76.06
340.246	97.06
340.474	82.06
340.702	72.06
340.93	91.06
341.158	95.06
341.386	102.06
341.614	72.06
341.842	78.06
342.07	75.06
342.298	69.06
342.526	86.06
342.754	98.06
342.981	89.06
343.209	82.06
343.437	89.06
343.665	84.06
343.893	78.06
344.12	94.06
344.348	94.06
344.576	89.06
344.804	103.06
345.031	97.06
345.259	79.06
345.487	94.06
345.714	102.06
345.942	97.06
346.17	85.06
346.397	87.06
346.625	92.06
346.853	89.06
347.08	79.06
347.308	113.06
347.535	95.06
347.763	94.06
347.99	87.06
348.218	89.06
348.445	98.06
348.673	89.06
348.9	90.06
349.128	106.06
349.355	79.06
349.583	93.06
349.81	90.06
350.037	78.06
350.265	98.06
350.492	86.06
350.72	91.06
350.947	97.06
351.174	111.06
351.402	90.06
351.629	96.06
351.856	98.06
352.083	94.06
352.311	103.06
352.538	113.06
352.765	91.06
352.992	101.06
353.22	110.06
353.447	101.06
353.674	91.06
353.901	104.06
354.128	92.06
354.355	88.06
354.583	103.06
354.81	93.06
355.037	99.06
355.264	91.06
355.491	92.06
355.718	84.06
355.945	102.06
356.172	98.06
356.399	85.06
356.626	95.06
356.853	94.06
357.08	74.06
357.307	97.06
357.534	94.06
357.761	85.06
357.988	104.06
358.215	82.06
358.441	107.06
358.668	105.06
358.895	104.06
359.122	98.06
359.349	83.06
359.576	91.06
359.802	111.06
360.029	106.06
360.256	92.06
360.483	82.06
360.709	78.06
360.936	85.06
361.163	86.06
361.39	94.06
361.616	104.06
361.843	72.06
362.07	81.06
362.296	86.06
362.523	79.06
362.749	78.06
362.976	78.06
363.203	93.06
363.429	93.06
363.656	80.06
363.882	85.06
364.109	91.06
364.335	103.06
364.562	83.06
364.788	80.06
365.015	103.06
365.241	86.06
365.468	90.06
365.694	99.06
365.92	94.06
366.147	76.06
366.373	93.06
366.599	78.06
366.826	91.06
367.052	95.06
367.278	81.06
367.505	88.06
367.731	85.06
367.957	92.06
368.184	97.06
368.41	87.06
368.636	105.06
368.862	97.06
369.089	88.06
369.315	94.06
369.541	84.06
369.767	95.06
369.993	81.06
370.219	84.06
370.445	97.06
370.672	90.06
370.898	81.06
371.124	92.06
371.35	79.06
371.576	82.06
371.802	84.06
372.028	80.06
372.254	87.06
372.48	88.06
372.706	80.06
372.932	85.06
373.158	88.06
373.384	97.06
373.61	100.06
373.835	105.06
374.061	91.06
374.287	87.06
374.513	84.06
374.739	67.06
374.965	89.06
375.191	100.06
375.416	88.06
375.642	88.06
375.868	98.06
376.094	95.06
376.319	89.06
376.545	84.06
376.771	83.06
376.997	102.06
377.222	94.06
377.448	82.06
377.674	78.06
377.899	95.06
378.125	92.06
378.35	83.06
378.576	89.06
378.802	88.06
379.027	95.06
379.253	86.06
379.478	79.06
379.704	79.06
379.929	90.06
380.155	75.06
380.38	84.06
380.606	89.06
380.831	92.06
381.057	104.06
381.282	96.06
381.507	101.06
381.733	90.06
381.958	89.06
382.184	101.06
382.409	96.06
382.634	89.06
382.86	104.06
383.085	96.06
383.31	111.06
383.535	103.06
383.761	101.06
383.986	79.06
384.211	93.06
384.436	105.06
384.662	96.06
384.887	98.06
385.112	109.06
385.337	110.06
385.562	115.06
385.787	112.06
386.013	105.06
386.238	125.06
386.463	105.06
386.688	113.06
386.913	101.06
387.138	128.06
387.363	123.06
387.588	106.06
387.813	108.06
388.038	114.06
388.263	119.06
388.488	119.06
388.713	101.06
388.938	97.06
389.163	85.06
389.387	97.06
389.612	84.06
389.837	92.06
390.062	64.06
390.287	88.06
390.512	92.06
390.736	73.06
390.961	90.06
391.186	88.06
391.411	111.06
391.636	93.06
391.86	88.06
392.085	83.06
392.31	97.06
392.534	87.06
392.759	79.06
392.984	91.06
393.208	94.06
393.433	117.06
393.658	100.06
393.882	84.06
394.107	66.06
394.331	81.06
394.556	87.06
394.78	91.06
395.005	88.06
395.229	75.06
395.454	97.06
395.678	79.06
395.903	70.06
396.127	80.06
396.352	71.06
396.576	90.06
396.801	98.06
397.025	88.06
397.249	87.06
397.474	81.06
397.698	77.06
397.922	87.06
398.147	89.06
398.371	88.06
398.595	88.06
398.82	91.06
399.044	73.06
399.268	80.06
399.492	88.06
399.717	84.06
399.941	103.06
400.165	103.06
400.389	77.06
400.613	90.06
400.837	92.06
401.062	83.06
401.286	81.06
401.51	94.06
401.734	70.06
401.958	74.06
402.182	114.06
402.406	160.06
402.63	104.06
402.854	93.06
403.078	80.06
403.302	80.06
403.526	95.06
403.75	82.06
403.974	90.06
404.198	94.06
404.422	82.06
404.645	82.06
404.869	79.06
405.093	85.06
405.317	80.06
405.541	84.06
405.765	89.06
405.988	101.06
406.212	144.06
406.436	218.06
406.66	128.06
406.883	92.06
407.107	88.06
407.331	77.06
407.555	97.06
407.778	84.06
408.002	88.06
408.226	79.06
408.449	87.06
408.673	88.06
408.896	104.06
409.12	96.06
409.344	81.06
409.567	79.06
409.791	85.06
410.014	86.06
410.238	97.06
410.461	101.06
410.685	90.06
410.908	88.06
411.132	90.06
411.355	88.06
411.578	99.06
411.802	91.06
412.025	96.06
412.249	100.06
412.472	90.06
412.695	90.06
412.919	85.06
413.142	98.06
413.365	87.06
413.589	85.06
413.812	86.06
414.035	86.06
414.258	78.06
414.482	89.06
414.705	98.06
414.928	95.06
415.151	96.06
415.374	78.06
415.597	80.06
415.821	88.06
416.044	80.06
416.267	86.06
416.49	91.06
416.713	99.06
416.936	86.06
417.159	100.06
417.382	90.06
417.605	83.06
417.828	94.06
418.051	92.06
418.274	94.06
418.497	77.06
418.72	83.06
418.943	90.06
419.166	89.06
419.389	81.06
419.611	95.06
419.834	78.06
420.057	86.06
420.28	93.06
420.503	85.06
420.726	81.06
420.948	87.06
421.171	87.06
421.394	80.06
421.617	84.06
421.839	84.06
422.062	84.06
422.285	107.06
422.507	95.06
422.73	97.06
422.953	111.06
423.175	76.06
423.398	87.06
423.621	82.06
423.843	84.06
424.066	92.06
424.288	95.06
424.511	97.06
424.733	92.06
424.956	95.06
425.178	91.06
425.401	86.06
425.623	89.06
425.846	79.06
426.068	87.06
426.291	90.06
426.513	90.06
426.735	91.06
426.958	75.06
427.18	89.06
427.402	129.06
427.625	141.06
427.847	113.06
428.069	92.06
428.292	76.06
428.514	78.06
428.736	68.06
428.958	66.06
429.181	81.06
429.403	84.06
429.625	84.06
429.847	90.06
430.069	94.06
430.292	98.06
430.514	93.06
430.736	88.06
430.958	88.06
431.18	82.06
431.402	90.06
431.624	100.06
431.846	94.06
432.068	80.06
432.29	75.06
432.512	85.06
432.734	94.06
432.956	85.06
433.178	92.06
433.4	85.06
433.622	79.06
433.844	80.06
434.066	82.06
434.287	89.06
434.509	93.06
434.731	79.06
434.953	81.06
435.175	89.06
435.397	106.06
435.618	102.06
435.84	93.06
436.062	109.06
436.284	89.06
436.505	89.06
436.727	103.06
436.949	93.06
437.17	80.06
437.392	72.06
437.614	93.06
437.835	97.06
438.057	106.06
438.278	97.06
438.5	80.06
438.721	98.06
438.943	82.06
439.165	84.06
439.386	90.06
439.608	75.06
439.829	79.06
440.05	98.06
440.272	133.06
440.493	91.06
440.715	94.06
440.936	84.06
441.158	88.06
441.379	84.06
441.6	98.06
441.822	88.06
442.043	105.06
442.264	84.06
442.486	80.06
442.707	102.06
442.928	107.06
443.149	124.06
443.371	117.06
443.592	106.06
443.813	98.06
444.034	103.06
444.255	87.06
444.476	82.06
444.698	86.06
444.919	87.06
445.14	121.06
445.361	109.06
445.582	105.06
445.803	124.06
446.024	123.06
446.245	104.06
446.466	86.06
446.687	85.06
446.908	69.06
447.129	88.06
447.35	79.06
447.571	88.06
447.792	101.06
448.013	105.06
448.234	103.06
448.455	92.06
448.675	102.06
448.896	99.06
449.117	100.06
449.338	98.06
449.559	119.06
449.779	126.06
450	95.06
450.221	86.06
450.442	85.06
450.662	78.06
450.883	101.06
451.104	86.06
451.324	93.06
451.545	84.06
451.766	75.06
451.986	75.06
452.207	92.06
452.428	77.06
452.648	97.06
452.869	102.06
453.089	103.06
453.31	95.06
453.53	94.06
453.751	85.06
453.971	85.06
454.192	122.06
454.412	100.06
454.633	86.06
454.853	96.06
455.073	90.06
455.294	78.06
455.514	85.06
455.734	85.06
455.955	73.06
456.175	76.06
456.395	72.06
456.616	77.06
456.836	101.06
457.056	74.06
457.276	97.06
457.497	85.06
457.717	96.06
457.937	71.06
458.157	80.06
458.377	93.06
458.598	97.06
458.818	128.06
459.038	146.06
459.258	106.06
459.478	76.06
459.698	92.06
459.918	79.06
460.138	79.06
460.358	70.06
460.578	79.06
460.798	71.06
461.018	81.06
461.238	73.06
461.458	80.06
461.678	93.06
461.898	84.06
462.118	71.06
462.338	94.06
462.558	79.06
462.777	77.06
462.997	80.06
463.217	77.06
463.437	73.06
463.657	85.06
463.876	80.06
464.096	79.06
464.316	81.06
464.536	93.06
464.755	95.06
464.975	115.06
465.195	156.06
465.414	150.06
465.634	79.06
465.854	68.06
466.073	96.06
466.293	70.06
466.512	90.06
466.732	76.06
466.951	70.06
467.171	96.06
467.391	84.06
467.61	93.06
467.829	113.06
468.049	117.06
468.268	126.06
468.488	95.06
468.707	75.06
468.927	85.06
469.146	63.06
469.365	89.06
469.585	96.06
469.804	91.06
470.023	84.06
470.243	84.06
470.462	90.06
470.681	93.06
470.901	82.06
471.12	84.06
471.339	81.06
471.558	77.06
471.777	90.06
471.997	102.06
472.216	170.06
472.435	238.06
472.654	103.06
472.873	88.06
473.092	92.06
473.311	79.06
473.53	89.06
473.749	98.06
473.968	91.06
474.187	91.06
474.406	95.06
474.625	90.06
474.844	89.06
475.063	68.06
475.282	86.06
475.501	90.06
475.72	76.06
475.939	78.06
476.158	79.06
476.377	98.06
476.596	78.06
476.814	101.06
477.033	88.06
477.252	73.06
477.471	84.06
477.69	91.06
477.908	88.06
478.127	88.06
478.346	82.06
478.564	100.06
478.783	83.06
479.002	84.06
479.22	80.06
479.439	102.06
479.658	88.06
479.876	90.06
480.095	84.06
480.313	95.06
480.532	91.06
480.751	109.06
480.969	163.06
481.188	374.06
481.406	242.06
481.624	104.06
481.843	79.06
482.061	82.06
482.28	86.06
482.498	78.06
482.717	100.06
482.935	89.06
483.153	77.06
483.372	77.06
483.59	82.06
483.808	100.06
484.027	69.06
484.245	90.06
484.463	103.06
484.681	103.06
484.9	81.06
485.118	103.06
485.336	102.06
485.554	95.06
485.772	100.06
485.99	101.06
486.209	106.06
486.427	105.06
486.645	98.06
486.863	106.06
487.081	96.06
487.299	96.06
487.517	103.06
487.735	81.06
487.953	84.06
488.171	81.06
488.389	78.06
488.607	89.06
488.825	94.06
489.043	82.06
489.261	82.06
489.479	93.06
489.696	97.06
489.914	96.06
490.132	81.06
490.35	91.06
490.568	101.06
490.786	86.06
491.003	87.06
491.221	93.06
491.439	96.06
491.657	87.06
491.874	80.06
492.092	65.06
492.31	88.06
492.527	86.06
492.745	85.06
492.963	105.06
493.18	74.06
493.398	93.06
493.615	93.06
493.833	91.06
494.05	76.06
494.268	90.06
494.485	78.06
494.703	88.06
494.92	74.06
495.138	87.06
495.355	96.06
495.573	104.06
495.79	88.06
496.008	78.06
496.225	63.06
496.442	86.06
496.66	93.06
496.877	95.06
497.094	82.06
497.312	94.06
497.529	87.06
497.746	86.06
497.963	82.06
498.181	105.06
498.398	99.06
498.615	102.06
498.832	91.06
499.049	76.06
499.267	99.06
499.484	79.06
499.701	90.06
499.918	74.06
500.135	98.06
500.352	82.06
500.569	90.06
500.786	82.06
501.003	83.06
501.22	88.06
501.437	86.06
501.654	97.06
501.871	91.06
502.088	85.06
502.305	114.06
502.522	76.06
502.739	81.06
502.956	80.06
503.172	98.06
503.389	91.06
503.606	97.06
503.823	90.06
504.04	95.06
504.256	94.06
504.473	92.06
504.69	86.06
504.907	92.06
505.123	95.06
505.34	87.06
505.557	102.06
505.773	98.06
505.99	74.06
506.207	81.06
506.423	90.06
506.64	89.06
506.856	95.06
507.073	101.06
507.289	82.06
507.506	96.06
507.722	105.06
507.939	87.06
508.155	105.06
508.372	88.06
508.588	79.06
508.805	87.06
509.021	97.06
509.238	95.06
509.454	100.06
509.67	84.06
509.887	105.06
510.103	133.06
510.319	210.06
510.536	721.06
510.752	2375.06
510.968	637.06
511.184	148.06
511.401	98.06
511.617	104.06
511.833	96.06
512.049	92.06
512.265	85.06
512.481	92.06
512.698	94.06
512.914	99.06
513.13	99.06
513.346	94.06
513.562	93.06
513.778	98.06
513.994	90.06
514.21	108.06
514.426	101.06
514.642	107.06
514.858	113.06
515.074	159.06
515.29	408.06
515.506	1341.06
515.721	474.06
515.937	129.06
516.153	104.06
516.369	97.06
516.585	84.06
516.801	94.06
