Data from Circ_1996_H10_HRD10591_00025.txt Node
Date: Wed Jan 03 11:33:11 EST 2024
User: Yrep
Spectrometer: HR+D1059
Trigger mode: 1
Integration Time (sec): 1.000000E-1
Scans to average: 1
Electric dark correction enabled: true
Nonlinearity correction enabled: false
Boxcar width: 0
XAxis mode: Wavelengths
Number of Pixels in Spectrum: 2048
>>>>>Begin Spectral Data<<<<<
223.165	-31
223.4	-31
223.635	-31
223.869	-18
224.104	-26
224.338	-13
224.573	-17
224.808	-20
225.042	-9
225.277	-1
225.511	5
225.746	3
225.98	-2
226.215	19
226.449	25
226.683	17
226.918	28
227.152	40
227.387	27
227.621	43
227.856	48
228.09	43
228.324	62
228.559	57
228.793	57
229.027	61
229.262	69
229.496	78
229.73	67
229.964	79
230.199	88
230.433	78
230.667	79
230.901	71
231.136	66
231.37	85
231.604	81
231.838	73
232.072	85
232.306	73
232.541	72
232.775	85
233.009	81
233.243	75
233.477	87
233.711	72
233.945	75
234.179	94
234.413	99
234.647	87
234.881	91
235.115	87
235.349	82
235.583	79
235.817	86
236.051	91
236.285	93
236.519	73
236.753	80
236.987	84
237.221	72
237.455	85
237.689	87
237.922	69
238.156	83
238.39	81
238.624	83
238.858	73
239.091	89
239.325	86
239.559	90
239.793	88
240.027	83
240.26	66
240.494	67
240.728	81
240.961	79
241.195	74
241.429	79
241.662	69
241.896	79
242.13	89
242.363	61
242.597	73
242.83	66
243.064	73
243.298	76
243.531	77
243.765	70
243.998	62
244.232	72
244.465	83
244.699	82
244.932	81
245.166	73
245.399	74
245.633	67
245.866	98
246.099	77
246.333	77
246.566	84
246.8	75
247.033	65
247.266	71
247.5	75
247.733	87
247.966	94
248.2	68
248.433	70
248.666	72
248.899	83
249.133	79
249.366	97
249.599	94
249.832	86
250.066	75
250.299	83
250.532	79
250.765	79
250.998	90
251.231	73
251.465	77
251.698	73
251.931	84
252.164	85
252.397	77
252.63	84
252.863	93
253.096	83
253.329	92
253.562	89
253.795	78
254.028	86
254.261	80
254.494	87
254.727	83
254.96	87
255.193	76
255.426	75
255.659	88
255.892	83
256.124	85
256.357	93
256.59	78
256.823	72
257.056	92
257.289	66
257.521	81
257.754	83
257.987	84
258.22	71
258.452	91
258.685	95
258.918	78
259.151	85
259.383	75
259.616	88
259.849	83
260.081	84
260.314	87
260.547	90
260.779	92
261.012	76
261.244	75
261.477	92
261.71	100
261.942	113
262.175	120
262.407	93
262.64	87
262.872	73
263.105	84
263.337	82
263.57	81
263.802	90
264.035	97
264.267	76
264.499	74
264.732	96
264.964	81
265.197	81
265.429	71
265.661	93
265.894	100
266.126	89
266.358	80
266.591	77
266.823	84
267.055	68
267.287	89
267.52	96
267.752	99
267.984	95
268.216	97
268.448	87
268.681	84
268.913	69
269.145	89
269.377	81
269.609	82
269.841	87
270.073	92
270.306	95
270.538	75
270.77	90
271.002	69
271.234	81
271.466	83
271.698	72
271.93	87
272.162	86
272.394	79
272.626	77
272.858	78
273.09	85
273.322	84
273.553	71
273.785	83
274.017	90
274.249	87
274.481	87
274.713	85
274.945	89
275.176	78
275.408	96
275.64	97
275.872	97
276.104	81
276.335	93
276.567	100
276.799	109
277.031	97
277.262	97
277.494	92
277.726	96
277.957	89
278.189	84
278.421	91
278.652	83
278.884	83
279.115	80
279.347	60
279.579	75
279.81	79
280.042	93
280.273	82
280.505	83
280.736	86
280.968	77
281.199	83
281.431	81
281.662	83
281.894	99
282.125	92
282.356	121
282.588	127
282.819	128
283.051	101
283.282	88
283.513	89
283.745	86
283.976	88
284.207	91
284.439	95
284.67	79
284.901	84
285.132	84
285.364	94
285.595	94
285.826	87
286.057	94
286.288	96
286.52	91
286.751	86
286.982	85
287.213	83
287.444	89
287.675	94
287.906	111
288.138	75
288.369	98
288.6	99
288.831	100
289.062	96
289.293	78
289.524	86
289.755	97
289.986	79
290.217	80
290.448	85
290.679	90
290.91	96
291.141	88
291.371	86
291.602	82
291.833	85
292.064	81
292.295	92
292.526	92
292.757	90
292.987	76
293.218	81
293.449	74
293.68	76
293.91	105
294.141	82
294.372	84
294.603	80
294.833	98
295.064	88
295.295	104
295.525	89
295.756	104
295.987	103
296.217	131
296.448	108
296.679	107
296.909	98
297.14	85
297.37	97
297.601	92
297.831	103
298.062	100
298.292	95
298.523	109
298.753	91
298.984	89
299.214	93
299.445	88
299.675	95
299.905	100
300.136	93
300.366	99
300.597	93
300.827	98
301.057	96
301.288	105
301.518	100
301.748	103
301.979	110
302.209	104
302.439	87
302.669	80
302.9	93
303.13	77
303.36	97
303.59	99
303.82	91
304.051	82
304.281	81
304.511	95
304.741	89
304.971	83
305.201	96
305.431	80
305.661	93
305.891	88
306.121	92
306.352	98
306.582	101
306.812	88
307.042	83
307.272	83
307.502	105
307.731	109
307.961	100
308.191	89
308.421	85
308.651	72
308.881	96
309.111	95
309.341	95
309.571	106
309.8	109
310.03	91
310.26	92
310.49	100
310.72	101
310.949	106
311.179	78
311.409	100
311.639	95
311.868	105
312.098	91
312.328	96
312.557	113
312.787	100
313.017	90
313.246	103
313.476	83
313.706	85
313.935	81
314.165	98
314.394	89
314.624	104
314.853	101
315.083	99
315.312	99
315.542	99
315.771	93
316.001	82
316.23	93
316.46	87
316.689	100
316.919	99
317.148	84
317.377	97
317.607	102
317.836	83
318.065	101
318.295	97
318.524	86
318.753	89
318.983	98
319.212	94
319.441	94
319.67	109
319.9	89
320.129	97
320.358	98
320.587	107
320.816	108
321.046	108
321.275	89
321.504	97
321.733	90
321.962	99
322.191	96
322.42	108
322.649	101
322.878	109
323.108	108
323.337	119
323.566	122
323.795	145
324.024	165
324.253	291
324.482	598
324.71	1194
324.939	1548
325.168	584
325.397	205
325.626	129
325.855	128
326.084	114
326.313	119
326.542	126
326.77	187
326.999	331
327.228	633
327.457	1141
327.686	944
327.914	277
328.143	175
328.372	172
328.6	135
328.829	111
329.058	123
329.287	136
329.515	99
329.744	122
329.972	107
330.201	164
330.43	175
330.658	143
330.887	135
331.115	119
331.344	98
331.572	76
331.801	95
332.03	78
332.258	83
332.486	87
332.715	96
332.943	101
333.172	96
333.4	87
333.629	104
333.857	122
334.085	129
334.314	130
334.542	208
334.771	192
334.999	109
335.227	99
335.455	91
335.684	86
335.912	88
336.14	99
336.369	108
336.597	92
336.825	92
337.053	99
337.281	89
337.51	83
337.738	81
337.966	100
338.194	95
338.422	109
338.65	79
338.878	90
339.106	92
339.334	91
339.562	77
339.79	84
340.018	93
340.246	100
340.474	93
340.702	94
340.93	83
341.158	83
341.386	91
341.614	99
341.842	84
342.07	101
342.298	87
342.526	80
342.754	102
342.981	88
343.209	95
343.437	98
343.665	79
343.893	91
344.12	91
344.348	87
344.576	92
344.804	95
345.031	91
345.259	96
345.487	101
345.714	103
345.942	86
346.17	96
346.397	80
346.625	104
346.853	85
347.08	99
347.308	101
347.535	110
347.763	91
347.99	92
348.218	84
348.445	99
348.673	98
348.9	105
349.128	99
349.355	85
349.583	94
349.81	97
350.037	92
350.265	104
350.492	98
350.72	91
350.947	103
351.174	106
351.402	108
351.629	105
351.856	95
352.083	97
352.311	104
352.538	97
352.765	118
352.992	108
353.22	101
353.447	104
353.674	93
353.901	88
354.128	92
354.355	101
354.583	93
354.81	81
355.037	95
355.264	95
355.491	96
355.718	80
355.945	92
356.172	112
356.399	101
356.626	93
356.853	99
357.08	109
357.307	94
357.534	89
357.761	98
357.988	108
358.215	111
358.441	104
358.668	94
358.895	98
359.122	87
359.349	80
359.576	84
359.802	91
360.029	96
360.256	104
360.483	89
360.709	88
360.936	91
361.163	86
361.39	106
361.616	88
361.843	90
362.07	88
362.296	84
362.523	87
362.749	104
362.976	92
363.203	90
363.429	105
363.656	80
363.882	101
364.109	99
364.335	84
364.562	85
364.788	81
365.015	83
365.241	98
365.468	100
365.694	102
365.92	87
366.147	102
366.373	105
366.599	95
366.826	89
367.052	95
367.278	83
367.505	90
367.731	84
367.957	90
368.184	89
368.41	105
368.636	97
368.862	107
369.089	109
369.315	100
369.541	90
369.767	97
369.993	82
370.219	94
370.445	85
370.672	99
370.898	92
371.124	101
371.35	75
371.576	88
371.802	91
372.028	82
372.254	89
372.48	84
372.706	83
372.932	87
373.158	78
373.384	93
373.61	86
373.835	91
374.061	74
374.287	91
374.513	95
374.739	82
374.965	81
375.191	90
375.416	81
375.642	95
375.868	96
376.094	91
376.319	96
376.545	95
376.771	88
376.997	85
377.222	85
377.448	87
377.674	85
377.899	92
378.125	97
378.35	91
378.576	87
378.802	99
379.027	90
379.253	87
379.478	106
379.704	104
379.929	88
380.155	93
380.38	87
380.606	92
380.831	92
381.057	98
381.282	99
381.507	107
381.733	91
381.958	104
382.184	112
382.409	108
382.634	106
382.86	108
383.085	93
383.31	94
383.535	116
383.761	114
383.986	100
384.211	104
384.436	103
384.662	98
384.887	99
385.112	112
385.337	113
385.562	105
385.787	102
386.013	110
386.238	130
386.463	119
386.688	115
386.913	105
387.138	124
387.363	107
387.588	111
387.813	111
388.038	105
388.263	121
388.488	115
388.713	100
388.938	89
389.163	95
389.387	100
389.612	84
389.837	83
390.062	89
390.287	91
390.512	92
390.736	101
390.961	94
391.186	101
391.411	95
391.636	94
391.86	95
392.085	91
392.31	91
392.534	90
392.759	92
392.984	88
393.208	91
393.433	103
393.658	96
393.882	91
394.107	88
394.331	89
394.556	97
394.78	79
395.005	79
395.229	83
395.454	84
395.678	94
395.903	85
396.127	82
396.352	96
396.576	90
396.801	87
397.025	112
397.249	89
397.474	101
397.698	92
397.922	84
398.147	90
398.371	91
398.595	88
398.82	106
399.044	89
399.268	85
399.492	90
399.717	95
399.941	100
400.165	76
400.389	93
400.613	87
400.837	100
401.062	99
401.286	92
401.51	91
401.734	92
401.958	99
402.182	128
402.406	155
402.63	114
402.854	93
403.078	101
403.302	90
403.526	91
403.75	98
403.974	83
404.198	79
404.422	90
404.645	85
404.869	82
405.093	101
405.317	105
405.541	91
405.765	108
405.988	112
406.212	153
406.436	211
406.66	145
406.883	86
407.107	76
407.331	97
407.555	100
407.778	100
408.002	87
408.226	93
408.449	79
408.673	89
408.896	91
409.12	85
409.344	90
409.567	82
409.791	82
410.014	97
410.238	94
410.461	84
410.685	92
410.908	97
411.132	103
411.355	95
411.578	91
411.802	75
412.025	69
412.249	98
412.472	100
412.695	84
412.919	98
413.142	92
413.365	76
413.589	74
413.812	95
414.035	89
414.258	84
414.482	97
414.705	76
414.928	103
415.151	93
415.374	97
415.597	81
415.821	99
416.044	85
416.267	88
416.49	80
416.713	83
416.936	101
417.159	87
417.382	84
417.605	92
417.828	78
418.051	103
418.274	84
418.497	81
418.72	88
418.943	105
419.166	95
419.389	88
419.611	92
419.834	86
420.057	77
420.28	104
420.503	93
420.726	87
420.948	85
421.171	95
421.394	84
421.617	88
421.839	83
422.062	80
422.285	94
422.507	78
422.73	90
422.953	105
423.175	88
423.398	87
423.621	79
423.843	89
424.066	96
424.288	86
424.511	87
424.733	74
424.956	95
425.178	93
425.401	99
425.623	96
425.846	91
426.068	79
426.291	91
426.513	89
426.735	83
426.958	100
427.18	112
427.402	135
427.625	141
427.847	116
428.069	106
428.292	95
428.514	101
428.736	90
428.958	88
429.181	93
429.403	87
429.625	88
429.847	100
430.069	108
430.292	95
430.514	89
430.736	85
430.958	82
431.18	80
431.402	79
431.624	95
431.846	85
432.068	87
432.29	84
432.512	97
432.734	93
432.956	90
433.178	100
433.4	95
433.622	89
433.844	96
434.066	100
434.287	82
434.509	94
434.731	102
434.953	75
435.175	86
435.397	92
435.618	104
435.84	110
436.062	114
436.284	97
436.505	90
436.727	84
436.949	80
437.17	87
437.392	92
437.614	92
437.835	112
438.057	105
438.278	95
438.5	93
438.721	105
438.943	93
439.165	79
439.386	71
439.608	80
439.829	96
440.05	104
440.272	111
440.493	89
440.715	78
440.936	83
441.158	89
441.379	88
441.6	89
441.822	95
442.043	89
442.264	105
442.486	88
442.707	96
442.928	95
443.149	123
443.371	103
443.592	96
443.813	94
444.034	105
444.255	93
444.476	89
444.698	88
444.919	84
445.14	135
445.361	120
445.582	102
445.803	117
446.024	123
446.245	108
446.466	101
446.687	96
446.908	85
447.129	90
447.35	95
447.571	91
447.792	91
448.013	96
448.234	96
448.455	94
448.675	95
448.896	88
449.117	110
449.338	101
449.559	110
449.779	121
450	107
450.221	97
450.442	95
450.662	96
450.883	112
451.104	112
451.324	95
451.545	86
451.766	91
451.986	92
452.207	95
452.428	77
452.648	88
452.869	108
453.089	102
453.31	117
453.53	84
453.751	96
453.971	102
454.192	101
454.412	94
454.633	96
454.853	88
455.073	95
455.294	85
455.514	94
455.734	96
455.955	87
456.175	87
456.395	99
456.616	83
456.836	91
457.056	79
457.276	88
457.497	87
457.717	81
457.937	90
458.157	91
458.377	86
458.598	96
458.818	135
459.038	139
459.258	99
459.478	90
459.698	83
459.918	85
460.138	92
460.358	82
460.578	97
460.798	96
461.018	85
461.238	88
461.458	89
461.678	108
461.898	92
462.118	91
462.338	103
462.558	79
462.777	81
462.997	83
463.217	72
463.437	82
463.657	71
463.876	89
464.096	98
464.316	83
464.536	99
464.755	88
464.975	99
465.195	152
465.414	155
465.634	103
465.854	100
466.073	91
466.293	81
466.512	87
466.732	81
466.951	85
467.171	83
467.391	93
467.61	110
467.829	111
468.049	132
468.268	136
468.488	98
468.707	87
468.927	82
469.146	83
469.365	72
469.585	101
469.804	106
470.023	87
470.243	77
470.462	100
470.681	99
470.901	89
471.12	96
471.339	93
471.558	90
471.777	100
471.997	121
472.216	163
472.435	245
472.654	107
472.873	98
473.092	79
473.311	81
473.53	79
473.749	110
473.968	92
474.187	95
474.406	98
474.625	93
474.844	101
475.063	73
475.282	82
475.501	78
475.72	96
475.939	79
476.158	92
476.377	83
476.596	93
476.814	103
477.033	94
477.252	90
477.471	93
477.69	77
477.908	101
478.127	95
478.346	94
478.564	100
478.783	99
479.002	89
479.22	105
479.439	107
479.658	89
479.876	99
480.095	96
480.313	83
480.532	100
480.751	106
480.969	177
481.188	387
481.406	257
481.624	115
481.843	89
482.061	90
482.28	91
482.498	87
482.717	81
482.935	84
483.153	85
483.372	91
483.59	73
483.808	87
484.027	91
484.245	91
484.463	92
484.681	97
484.9	85
485.118	93
485.336	99
485.554	97
485.772	104
485.99	101
486.209	95
486.427	96
486.645	102
486.863	110
487.081	116
487.299	100
487.517	100
487.735	87
487.953	87
488.171	102
488.389	90
488.607	99
488.825	92
489.043	85
489.261	89
489.479	90
489.696	84
489.914	101
490.132	90
490.35	88
490.568	100
490.786	80
491.003	93
491.221	85
491.439	92
491.657	86
491.874	98
492.092	75
492.31	90
492.527	95
492.745	84
492.963	92
493.18	81
493.398	83
493.615	99
493.833	107
494.05	83
494.268	91
494.485	98
494.703	96
494.92	87
495.138	97
495.355	87
495.573	69
495.79	97
496.008	89
496.225	93
496.442	96
496.66	100
496.877	99
497.094	93
497.312	100
497.529	90
497.746	91
497.963	86
498.181	82
498.398	87
498.615	119
498.832	104
499.049	92
499.267	83
499.484	91
499.701	88
499.918	87
500.135	83
500.352	97
500.569	101
500.786	82
501.003	77
501.22	92
501.437	83
501.654	83
501.871	100
502.088	85
502.305	98
502.522	97
502.739	101
502.956	94
503.172	92
503.389	97
503.606	96
503.823	85
504.04	92
504.256	98
504.473	96
504.69	87
504.907	101
505.123	91
505.34	100
505.557	92
505.773	84
505.99	79
506.207	81
506.423	87
506.64	91
506.856	100
507.073	97
507.289	79
507.506	96
507.722	110
507.939	100
508.155	92
508.372	98
508.588	100
508.805	91
509.021	102
509.238	105
509.454	101
509.67	98
509.887	100
510.103	103
510.319	217
510.536	713
510.752	2282
510.968	621
511.184	147
511.401	105
511.617	93
511.833	106
512.049	98
512.265	80
512.481	99
512.698	91
512.914	84
513.13	95
513.346	97
513.562	96
513.778	88
513.994	82
514.21	106
514.426	105
514.642	106
514.858	103
515.074	159
515.29	391
515.506	1267
515.721	493
515.937	138
516.153	112
516.369	105
516.585	83
516.801	79
517.016	87
517.232	88
517.448	93
517.664	89
517.879	102
518.095	91
518.311	92
518.527	83
518.742	91
518.958	112
519.173	99
519.389	90
519.605	98
519.82	88
520.036	101
520.251	122
520.467	100
520.682	96
520.898	112
521.113	122
521.329	131
521.544	187
521.76	493
521.975	2135
522.19	1293
522.406	285
522.621	118
522.836	105
523.052	102
523.267	90
523.482	100
523.698	97
523.913	114
524.128	118
524.343	89
524.559	95
524.774	87
524.989	74
525.204	104
525.419	95
525.634	87
525.849	90
526.064	93
526.28	84
526.495	80
526.71	91
526.925	87
527.14	77
527.355	90
527.57	80
527.785	82
527.999	99
528.214	97
528.429	89
528.644	89
528.859	94
529.074	85
529.289	129
529.503	167
529.718	91
529.933	100
530.148	89
530.363	90
530.577	97
530.792	97
531.007	89
531.221	89
531.436	102
531.651	83
531.865	100
532.08	81
532.295	96
532.509	94
532.724	93
532.938	104
533.153	88
533.367	89
533.582	84
533.796	85
534.011	85
534.225	103
534.44	98
534.654	99
534.868	96
535.083	87
535.297	100
535.511	107
535.726	101
535.94	88
536.154	86
536.369	85
536.583	79
536.797	85
537.011	96
537.225	94
537.44	85
537.654	96
537.868	91
538.082	101
538.296	98
538.51	89
538.724	89
538.938	90
539.153	85
539.367	97
539.581	99
539.795	83
540.009	104
540.222	85
540.436	84
540.65	96
540.864	85
541.078	92
541.292	90
541.506	83
541.72	91
541.934	90
542.147	78
542.361	83
542.575	94
542.789	99
543.002	103
543.216	87
543.43	89
543.644	77
543.857	99
544.071	81
544.285	101
544.498	95
544.712	90
544.925	74
545.139	105
545.352	86
545.566	91
545.779	88
545.993	98
546.206	93
546.42	92
546.633	92
546.847	84
547.06	91
547.274	103
547.487	86
547.7	94
547.914	88
548.127	85
548.34	91
548.554	83
548.767	79
548.98	91
549.193	79
549.407	98
549.62	87
549.833	82
550.046	98
550.259	86
550.473	93
550.686	91
550.899	98
551.112	84
551.325	101
551.538	87
551.751	83
551.964	73
552.177	95
552.39	92
552.603	79
552.816	83
553.029	95
553.242	83
553.455	110
553.667	108
553.88	106
554.093	81
554.306	91
554.519	94
554.732	94
554.944	90
555.157	81
555.37	77
555.583	84
555.795	91
556.008	95
556.221	95
556.433	90
556.646	91
556.859	92
557.071	103
557.284	98
557.496	85
557.709	77
557.921	91
558.134	86
558.346	93
558.559	95
558.771	97
558.984	100
559.196	101
559.409	75
559.621	83
559.833	96
560.046	92
560.258	94
560.47	87
560.683	113
560.895	89
561.107	91
561.32	101
561.532	78
561.744	98
561.956	92
562.168	88
562.381	91
562.593	98
562.805	94
563.017	92
563.229	89
563.441	92
563.653	92
563.865	93
564.077	82
564.289	89
564.501	89
564.713	104
564.925	91
565.137	111
565.349	100
565.561	83
565.773	85
565.985	84
566.197	97
566.408	107
566.62	76
566.832	80
567.044	88
567.255	83
567.467	81
567.679	77
567.891	95
568.102	92
568.314	86
568.526	75
568.737	82
568.949	82
569.161	81
569.372	89
569.584	104
569.795	93
570.007	117
570.218	234
570.43	126
570.641	93
570.853	101
571.064	81
571.276	92
571.487	94
571.698	95
571.91	78
572.121	100
572.333	84
572.544	84
572.755	82
572.966	95
573.178	83
573.389	99
573.6	101
573.811	92
574.023	91
574.234	96
574.445	97
574.656	82
574.867	101
575.078	92
575.289	89
575.501	91
575.712	88
575.923	89
576.134	97
576.345	92
576.556	81
576.767	92
576.978	96
577.188	94
577.399	110
577.61	98
577.821	93
578.032	95
578.243	250
578.454	679
578.665	206
578.875	107
579.086	91
579.297	97
579.508	96
579.718	93
579.929	83
580.14	93
580.35	90
580.561	87
580.772	101
580.982	91
581.193	96
581.403	97
581.614	84
581.825	96
582.035	81
582.246	77
582.456	82
582.667	93
582.877	82
583.087	93
583.298	79
583.508	93
583.719	90
583.929	91
584.139	73
