Data from Circ_1996_H10_HRD10591_00048.txt Node
Date: Wed Jan 03 11:33:15 EST 2024
User: Yrep
Spectrometer: HR+D1059
Trigger mode: 1
Integration Time (sec): 1.000000E-1
Scans to average: 1
Electric dark correction enabled: true
Nonlinearity correction enabled: false
Boxcar width: 0
XAxis mode: Wavelengths
Number of Pixels in Spectrum: 2048
>>>>>Begin Spectral Data<<<<<
223.165	-15.62
223.4	-15.62
223.635	-15.62
223.869	-14.62
224.104	-26.62
224.338	-21.62
224.573	-15.62
224.808	-13.62
225.042	4.38
225.277	8.38
225.511	4.38
225.746	-14.62
225.98	8.38
226.215	6.38
226.449	17.38
226.683	25.38
226.918	21.38
227.152	26.38
227.387	25.38
227.621	35.38
227.856	50.38
228.09	46.38
228.324	63.38
228.559	57.38
228.793	51.38
229.027	59.38
229.262	69.38
229.496	86.38
229.73	86.38
229.964	74.38
230.199	65.38
230.433	69.38
230.667	84.38
230.901	76.38
231.136	86.38
231.37	70.38
231.604	73.38
231.838	80.38
232.072	74.38
232.306	88.38
232.541	87.38
232.775	79.38
233.009	88.38
233.243	71.38
233.477	90.38
233.711	83.38
233.945	85.38
234.179	83.38
234.413	79.38
234.647	83.38
234.881	79.38
235.115	72.38
235.349	78.38
235.583	90.38
235.817	71.38
236.051	81.38
236.285	75.38
236.519	75.38
236.753	95.38
236.987	92.38
237.221	94.38
237.455	76.38
237.689	72.38
237.922	79.38
238.156	78.38
238.39	84.38
238.624	73.38
238.858	80.38
239.091	59.38
239.325	66.38
239.559	81.38
239.793	79.38
240.027	66.38
240.26	77.38
240.494	82.38
240.728	79.38
240.961	66.38
241.195	81.38
241.429	81.38
241.662	78.38
241.896	68.38
242.13	82.38
242.363	82.38
242.597	86.38
242.83	71.38
243.064	86.38
243.298	80.38
243.531	78.38
243.765	70.38
243.998	70.38
244.232	80.38
244.465	83.38
244.699	73.38
244.932	83.38
245.166	84.38
245.399	79.38
245.633	77.38
245.866	87.38
246.099	90.38
246.333	84.38
246.566	75.38
246.8	80.38
247.033	77.38
247.266	84.38
247.5	80.38
247.733	76.38
247.966	86.38
248.2	84.38
248.433	73.38
248.666	76.38
248.899	81.38
249.133	89.38
249.366	92.38
249.599	87.38
249.832	93.38
250.066	83.38
250.299	84.38
250.532	79.38
250.765	85.38
250.998	84.38
251.231	90.38
251.465	72.38
251.698	81.38
251.931	88.38
252.164	80.38
252.397	70.38
252.63	86.38
252.863	70.38
253.096	77.38
253.329	76.38
253.562	81.38
253.795	72.38
254.028	83.38
254.261	72.38
254.494	69.38
254.727	72.38
254.96	80.38
255.193	90.38
255.426	77.38
255.659	83.38
255.892	72.38
256.124	86.38
256.357	88.38
256.59	81.38
256.823	81.38
257.056	84.38
257.289	80.38
257.521	80.38
257.754	86.38
257.987	86.38
258.22	91.38
258.452	92.38
258.685	73.38
258.918	77.38
259.151	78.38
259.383	83.38
259.616	91.38
259.849	78.38
260.081	76.38
260.314	78.38
260.547	94.38
260.779	88.38
261.012	88.38
261.244	91.38
261.477	91.38
261.71	93.38
261.942	110.38
262.175	114.38
262.407	95.38
262.64	83.38
262.872	81.38
263.105	77.38
263.337	80.38
263.57	79.38
263.802	90.38
264.035	80.38
264.267	89.38
264.499	92.38
264.732	84.38
264.964	78.38
265.197	70.38
265.429	88.38
265.661	84.38
265.894	97.38
266.126	89.38
266.358	89.38
266.591	88.38
266.823	76.38
267.055	83.38
267.287	93.38
267.52	73.38
267.752	98.38
267.984	88.38
268.216	73.38
268.448	88.38
268.681	93.38
268.913	90.38
269.145	79.38
269.377	77.38
269.609	97.38
269.841	77.38
270.073	87.38
270.306	82.38
270.538	80.38
270.77	76.38
271.002	89.38
271.234	78.38
271.466	89.38
271.698	95.38
271.93	81.38
272.162	90.38
272.394	80.38
272.626	71.38
272.858	82.38
273.09	92.38
273.322	80.38
273.553	83.38
273.785	85.38
274.017	81.38
274.249	75.38
274.481	90.38
274.713	92.38
274.945	82.38
275.176	77.38
275.408	80.38
275.64	84.38
275.872	83.38
276.104	96.38
276.335	94.38
276.567	98.38
276.799	106.38
277.031	101.38
277.262	94.38
277.494	85.38
277.726	95.38
277.957	101.38
278.189	85.38
278.421	83.38
278.652	75.38
278.884	88.38
279.115	89.38
279.347	82.38
279.579	88.38
279.81	85.38
280.042	97.38
280.273	92.38
280.505	81.38
280.736	80.38
280.968	88.38
281.199	76.38
281.431	81.38
281.662	72.38
281.894	100.38
282.125	113.38
282.356	119.38
282.588	143.38
282.819	112.38
283.051	85.38
283.282	76.38
283.513	95.38
283.745	85.38
283.976	82.38
284.207	86.38
284.439	96.38
284.67	96.38
284.901	84.38
285.132	68.38
285.364	80.38
285.595	84.38
285.826	73.38
286.057	103.38
286.288	86.38
286.52	81.38
286.751	80.38
286.982	89.38
287.213	81.38
287.444	93.38
287.675	77.38
287.906	89.38
288.138	102.38
288.369	103.38
288.6	92.38
288.831	88.38
289.062	81.38
289.293	90.38
289.524	78.38
289.755	83.38
289.986	87.38
290.217	101.38
290.448	76.38
290.679	98.38
290.91	91.38
291.141	81.38
291.371	90.38
291.602	90.38
291.833	94.38
292.064	90.38
292.295	90.38
292.526	77.38
292.757	87.38
292.987	103.38
293.218	84.38
293.449	91.38
293.68	90.38
293.91	92.38
294.141	113.38
294.372	94.38
294.603	89.38
294.833	81.38
295.064	81.38
295.295	103.38
295.525	88.38
295.756	97.38
295.987	114.38
296.217	155.38
296.448	118.38
296.679	97.38
296.909	79.38
297.14	98.38
297.37	83.38
297.601	84.38
297.831	89.38
298.062	92.38
298.292	88.38
298.523	91.38
298.753	90.38
298.984	97.38
299.214	84.38
299.445	70.38
299.675	83.38
299.905	93.38
300.136	102.38
300.366	90.38
300.597	89.38
300.827	96.38
301.057	90.38
301.288	87.38
301.518	82.38
301.748	96.38
301.979	91.38
302.209	95.38
302.439	77.38
302.669	87.38
302.9	100.38
303.13	91.38
303.36	96.38
303.59	106.38
303.82	103.38
304.051	92.38
304.281	96.38
304.511	96.38
304.741	74.38
304.971	86.38
305.201	90.38
305.431	94.38
305.661	90.38
305.891	83.38
306.121	117.38
306.352	99.38
306.582	110.38
306.812	90.38
307.042	93.38
307.272	106.38
307.502	100.38
307.731	95.38
307.961	84.38
308.191	90.38
308.421	102.38
308.651	90.38
308.881	105.38
309.111	110.38
309.341	102.38
309.571	109.38
309.8	98.38
310.03	114.38
310.26	103.38
310.49	94.38
310.72	106.38
310.949	106.38
311.179	95.38
311.409	82.38
311.639	96.38
311.868	96.38
312.098	101.38
312.328	90.38
312.557	94.38
312.787	107.38
313.017	107.38
313.246	95.38
313.476	95.38
313.706	84.38
313.935	93.38
314.165	99.38
314.394	98.38
314.624	102.38
314.853	93.38
315.083	94.38
315.312	107.38
315.542	89.38
315.771	100.38
316.001	98.38
316.23	88.38
316.46	86.38
316.689	93.38
316.919	96.38
317.148	92.38
317.377	113.38
317.607	77.38
317.836	103.38
318.065	101.38
318.295	89.38
318.524	93.38
318.753	100.38
318.983	106.38
319.212	88.38
319.441	110.38
319.67	115.38
319.9	98.38
320.129	96.38
320.358	94.38
320.587	98.38
320.816	100.38
321.046	93.38
321.275	88.38
321.504	96.38
321.733	93.38
321.962	96.38
322.191	109.38
322.42	117.38
322.649	111.38
322.878	93.38
323.108	109.38
323.337	114.38
323.566	124.38
323.795	132.38
324.024	174.38
324.253	323.38
324.482	671.38
324.71	1353.38
324.939	1778.38
325.168	673.38
325.397	228.38
325.626	144.38
325.855	130.38
326.084	116.38
326.313	132.38
326.542	157.38
326.77	202.38
326.999	365.38
327.228	719.38
327.457	1272.38
327.686	1028.38
327.914	297.38
328.143	203.38
328.372	176.38
328.6	128.38
328.829	126.38
329.058	133.38
329.287	129.38
329.515	106.38
329.744	120.38
329.972	139.38
330.201	163.38
330.43	182.38
330.658	148.38
330.887	158.38
331.115	116.38
331.344	113.38
331.572	93.38
331.801	95.38
332.03	98.38
332.258	112.38
332.486	108.38
332.715	83.38
332.943	102.38
333.172	85.38
333.4	91.38
333.629	113.38
333.857	116.38
334.085	137.38
334.314	154.38
334.542	212.38
334.771	202.38
334.999	115.38
335.227	101.38
335.455	91.38
335.684	109.38
335.912	116.38
336.14	104.38
336.369	98.38
336.597	90.38
336.825	99.38
337.053	90.38
337.281	81.38
337.51	89.38
337.738	88.38
337.966	85.38
338.194	89.38
338.422	90.38
338.65	88.38
338.878	98.38
339.106	91.38
339.334	98.38
339.562	91.38
339.79	91.38
340.018	89.38
340.246	85.38
340.474	94.38
340.702	101.38
340.93	88.38
341.158	83.38
341.386	74.38
341.614	109.38
341.842	107.38
342.07	92.38
342.298	90.38
342.526	100.38
342.754	89.38
342.981	93.38
343.209	82.38
343.437	95.38
343.665	83.38
343.893	93.38
344.12	98.38
344.348	89.38
344.576	96.38
344.804	105.38
345.031	93.38
345.259	94.38
345.487	91.38
345.714	93.38
345.942	97.38
346.17	93.38
346.397	87.38
346.625	94.38
346.853	94.38
347.08	87.38
347.308	90.38
347.535	103.38
347.763	102.38
347.99	101.38
348.218	115.38
348.445	109.38
348.673	97.38
348.9	86.38
349.128	108.38
349.355	101.38
349.583	102.38
349.81	105.38
350.037	77.38
350.265	84.38
350.492	103.38
350.72	97.38
350.947	95.38
351.174	118.38
351.402	108.38
351.629	107.38
351.856	96.38
352.083	110.38
352.311	106.38
352.538	96.38
352.765	123.38
352.992	124.38
353.22	118.38
353.447	107.38
353.674	101.38
353.901	107.38
354.128	119.38
354.355	101.38
354.583	83.38
354.81	96.38
355.037	95.38
355.264	110.38
355.491	98.38
355.718	94.38
355.945	92.38
356.172	107.38
356.399	96.38
356.626	92.38
356.853	94.38
357.08	92.38
357.307	93.38
357.534	98.38
357.761	86.38
357.988	96.38
358.215	93.38
358.441	91.38
358.668	100.38
358.895	90.38
359.122	97.38
359.349	85.38
359.576	94.38
359.802	92.38
360.029	98.38
360.256	121.38
360.483	97.38
360.709	84.38
360.936	94.38
361.163	102.38
361.39	94.38
361.616	91.38
361.843	87.38
362.07	87.38
362.296	81.38
362.523	102.38
362.749	94.38
362.976	103.38
363.203	99.38
363.429	96.38
363.656	85.38
363.882	85.38
364.109	92.38
364.335	94.38
364.562	86.38
364.788	91.38
365.015	100.38
365.241	110.38
365.468	100.38
365.694	107.38
365.92	111.38
366.147	96.38
366.373	89.38
366.599	98.38
366.826	84.38
367.052	94.38
367.278	90.38
367.505	98.38
367.731	105.38
367.957	101.38
368.184	110.38
368.41	82.38
368.636	117.38
368.862	110.38
369.089	109.38
369.315	96.38
369.541	84.38
369.767	93.38
369.993	92.38
370.219	94.38
370.445	85.38
370.672	83.38
370.898	84.38
371.124	89.38
371.35	93.38
371.576	75.38
371.802	87.38
372.028	91.38
372.254	96.38
372.48	92.38
372.706	90.38
372.932	92.38
373.158	77.38
373.384	84.38
373.61	111.38
373.835	94.38
374.061	96.38
374.287	104.38
374.513	81.38
374.739	96.38
374.965	97.38
375.191	94.38
375.416	96.38
375.642	97.38
375.868	94.38
376.094	83.38
376.319	85.38
376.545	92.38
376.771	104.38
376.997	87.38
377.222	98.38
377.448	85.38
377.674	90.38
377.899	80.38
378.125	81.38
378.35	106.38
378.576	105.38
378.802	95.38
379.027	81.38
379.253	88.38
379.478	91.38
379.704	94.38
379.929	79.38
380.155	90.38
380.38	96.38
380.606	100.38
380.831	76.38
381.057	93.38
381.282	86.38
381.507	98.38
381.733	105.38
381.958	92.38
382.184	85.38
382.409	101.38
382.634	108.38
382.86	97.38
383.085	100.38
383.31	113.38
383.535	102.38
383.761	104.38
383.986	110.38
384.211	102.38
384.436	111.38
384.662	114.38
384.887	115.38
385.112	100.38
385.337	115.38
385.562	114.38
385.787	100.38
386.013	124.38
386.238	115.38
386.463	115.38
386.688	124.38
386.913	93.38
387.138	104.38
387.363	107.38
387.588	116.38
387.813	90.38
388.038	106.38
388.263	125.38
388.488	120.38
388.713	97.38
388.938	85.38
389.163	92.38
389.387	102.38
389.612	82.38
389.837	107.38
390.062	100.38
390.287	106.38
390.512	100.38
390.736	96.38
390.961	85.38
391.186	93.38
391.411	92.38
391.636	98.38
391.86	91.38
392.085	95.38
392.31	90.38
392.534	100.38
392.759	104.38
392.984	96.38
393.208	92.38
393.433	116.38
393.658	93.38
393.882	83.38
394.107	94.38
394.331	100.38
394.556	83.38
394.78	84.38
395.005	95.38
395.229	82.38
395.454	91.38
395.678	92.38
395.903	92.38
396.127	102.38
396.352	99.38
396.576	99.38
396.801	92.38
397.025	88.38
397.249	81.38
397.474	82.38
397.698	89.38
397.922	91.38
398.147	91.38
398.371	76.38
398.595	91.38
398.82	93.38
399.044	76.38
399.268	69.38
399.492	84.38
399.717	75.38
399.941	84.38
400.165	82.38
400.389	91.38
400.613	92.38
400.837	96.38
401.062	105.38
401.286	77.38
401.51	85.38
401.734	88.38
401.958	93.38
402.182	137.38
402.406	175.38
402.63	131.38
402.854	95.38
403.078	92.38
403.302	93.38
403.526	85.38
403.75	88.38
403.974	86.38
404.198	84.38
404.422	89.38
404.645	91.38
404.869	88.38
405.093	105.38
405.317	112.38
405.541	109.38
405.765	100.38
405.988	120.38
406.212	186.38
406.436	237.38
406.66	141.38
406.883	91.38
407.107	86.38
407.331	99.38
407.555	101.38
407.778	93.38
408.002	101.38
408.226	102.38
408.449	86.38
408.673	100.38
408.896	88.38
409.12	99.38
409.344	95.38
409.567	83.38
409.791	90.38
410.014	99.38
410.238	100.38
410.461	100.38
410.685	97.38
410.908	91.38
411.132	100.38
411.355	101.38
411.578	94.38
411.802	91.38
412.025	98.38
412.249	108.38
412.472	78.38
412.695	92.38
412.919	97.38
413.142	92.38
413.365	89.38
413.589	88.38
413.812	93.38
414.035	105.38
414.258	89.38
414.482	88.38
414.705	90.38
414.928	101.38
415.151	98.38
415.374	98.38
415.597	90.38
415.821	86.38
416.044	81.38
416.267	95.38
416.49	77.38
416.713	85.38
416.936	91.38
417.159	92.38
417.382	76.38
417.605	106.38
417.828	81.38
418.051	80.38
418.274	73.38
418.497	86.38
418.72	88.38
418.943	88.38
419.166	94.38
419.389	90.38
419.611	84.38
419.834	96.38
420.057	85.38
420.28	88.38
420.503	88.38
420.726	81.38
420.948	98.38
421.171	94.38
421.394	82.38
421.617	104.38
421.839	90.38
422.062	94.38
422.285	83.38
422.507	114.38
422.73	102.38
422.953	81.38
423.175	100.38
423.398	101.38
423.621	85.38
423.843	92.38
424.066	99.38
424.288	89.38
424.511	100.38
424.733	95.38
424.956	101.38
425.178	99.38
425.401	113.38
425.623	106.38
425.846	107.38
426.068	93.38
426.291	99.38
426.513	88.38
426.735	94.38
426.958	91.38
427.18	102.38
427.402	131.38
427.625	158.38
427.847	141.38
428.069	109.38
428.292	90.38
428.514	92.38
428.736	89.38
428.958	76.38
429.181	83.38
429.403	89.38
429.625	87.38
429.847	89.38
430.069	109.38
430.292	100.38
430.514	83.38
430.736	81.38
430.958	90.38
431.18	94.38
431.402	98.38
431.624	77.38
431.846	75.38
432.068	89.38
432.29	78.38
432.512	96.38
432.734	91.38
432.956	85.38
433.178	94.38
433.4	97.38
433.622	102.38
433.844	92.38
434.066	86.38
434.287	103.38
434.509	92.38
434.731	86.38
434.953	89.38
435.175	89.38
435.397	103.38
435.618	94.38
435.84	88.38
436.062	108.38
436.284	89.38
436.505	96.38
436.727	99.38
436.949	107.38
437.17	94.38
437.392	79.38
437.614	96.38
437.835	107.38
438.057	112.38
438.278	120.38
438.5	98.38
438.721	116.38
438.943	102.38
439.165	97.38
439.386	89.38
439.608	96.38
439.829	102.38
440.05	113.38
440.272	120.38
440.493	92.38
440.715	82.38
440.936	91.38
441.158	85.38
441.379	96.38
441.6	99.38
441.822	97.38
442.043	91.38
442.264	93.38
442.486	99.38
442.707	88.38
442.928	100.38
443.149	136.38
443.371	117.38
443.592	108.38
443.813	108.38
444.034	92.38
444.255	88.38
444.476	89.38
444.698	93.38
444.919	89.38
445.14	124.38
445.361	132.38
445.582	111.38
445.803	131.38
446.024	130.38
446.245	115.38
446.466	115.38
446.687	95.38
446.908	90.38
447.129	101.38
447.35	83.38
447.571	94.38
447.792	90.38
448.013	108.38
448.234	103.38
448.455	93.38
448.675	117.38
448.896	122.38
449.117	106.38
449.338	77.38
449.559	123.38
449.779	118.38
450	101.38
450.221	82.38
450.442	93.38
450.662	88.38
450.883	110.38
451.104	97.38
451.324	97.38
451.545	84.38
451.766	80.38
451.986	85.38
452.207	84.38
452.428	90.38
452.648	104.38
452.869	91.38
453.089	102.38
453.31	98.38
453.53	96.38
453.751	94.38
453.971	108.38
454.192	113.38
454.412	102.38
454.633	90.38
454.853	80.38
455.073	83.38
455.294	93.38
455.514	110.38
455.734	90.38
455.955	93.38
456.175	88.38
456.395	92.38
456.616	85.38
456.836	98.38
457.056	76.38
457.276	74.38
457.497	92.38
457.717	77.38
457.937	85.38
458.157	86.38
458.377	95.38
458.598	110.38
458.818	148.38
459.038	160.38
459.258	124.38
459.478	79.38
459.698	93.38
459.918	96.38
460.138	88.38
460.358	91.38
460.578	80.38
460.798	96.38
461.018	100.38
461.238	74.38
461.458	90.38
461.678	85.38
461.898	83.38
462.118	91.38
462.338	85.38
462.558	91.38
462.777	63.38
462.997	91.38
463.217	91.38
463.437	99.38
463.657	92.38
463.876	98.38
464.096	76.38
464.316	98.38
464.536	90.38
464.755	96.38
464.975	102.38
465.195	160.38
465.414	144.38
465.634	109.38
465.854	102.38
466.073	85.38
466.293	102.38
466.512	87.38
466.732	69.38
466.951	78.38
467.171	107.38
467.391	106.38
467.61	106.38
467.829	100.38
468.049	121.38
468.268	138.38
468.488	95.38
468.707	96.38
468.927	76.38
469.146	87.38
469.365	88.38
469.585	91.38
469.804	101.38
470.023	105.38
470.243	93.38
470.462	93.38
470.681	107.38
470.901	102.38
471.12	100.38
471.339	88.38
471.558	85.38
471.777	100.38
471.997	108.38
472.216	181.38
472.435	272.38
472.654	108.38
472.873	90.38
473.092	86.38
473.311	98.38
473.53	104.38
473.749	89.38
473.968	96.38
474.187	107.38
474.406	99.38
474.625	93.38
474.844	96.38
475.063	96.38
475.282	90.38
475.501	90.38
475.72	101.38
475.939	88.38
476.158	89.38
476.377	86.38
476.596	79.38
476.814	85.38
477.033	96.38
477.252	104.38
477.471	79.38
477.69	84.38
477.908	92.38
478.127	96.38
478.346	91.38
478.564	96.38
478.783	95.38
479.002	83.38
479.22	98.38
479.439	117.38
479.658	108.38
479.876	96.38
480.095	93.38
480.313	88.38
480.532	85.38
480.751	100.38
480.969	182.38
481.188	418.38
481.406	259.38
481.624	106.38
481.843	96.38
482.061	84.38
482.28	93.38
482.498	86.38
482.717	83.38
482.935	86.38
483.153	86.38
483.372	89.38
483.59	91.38
483.808	89.38
484.027	77.38
484.245	97.38
484.463	80.38
484.681	98.38
484.9	88.38
485.118	92.38
485.336	96.38
485.554	99.38
485.772	94.38
485.99	98.38
486.209	105.38
486.427	117.38
486.645	104.38
486.863	113.38
487.081	101.38
487.299	93.38
487.517	102.38
487.735	97.38
487.953	102.38
488.171	107.38
488.389	113.38
488.607	108.38
488.825	97.38
489.043	95.38
489.261	84.38
489.479	88.38
489.696	90.38
489.914	83.38
490.132	70.38
490.35	95.38
490.568	94.38
490.786	85.38
491.003	93.38
491.221	93.38
491.439	94.38
491.657	98.38
491.874	102.38
492.092	85.38
492.31	80.38
492.527	100.38
492.745	101.38
492.963	106.38
493.18	95.38
493.398	79.38
493.615	87.38
493.833	93.38
494.05	96.38
494.268	102.38
494.485	92.38
494.703	96.38
494.92	97.38
495.138	85.38
495.355	90.38
495.573	92.38
495.79	84.38
496.008	100.38
496.225	93.38
496.442	90.38
496.66	90.38
496.877	86.38
497.094	88.38
497.312	108.38
497.529	93.38
497.746	95.38
497.963	90.38
498.181	107.38
498.398	98.38
498.615	113.38
498.832	99.38
499.049	82.38
499.267	96.38
499.484	91.38
499.701	89.38
499.918	97.38
500.135	105.38
500.352	105.38
500.569	89.38
500.786	85.38
501.003	80.38
501.22	76.38
501.437	106.38
501.654	94.38
501.871	109.38
502.088	77.38
502.305	101.38
502.522	99.38
502.739	104.38
502.956	85.38
503.172	99.38
503.389	85.38
503.606	108.38
503.823	84.38
504.04	87.38
504.256	91.38
504.473	99.38
504.69	94.38
504.907	90.38
505.123	83.38
505.34	92.38
505.557	114.38
505.773	92.38
505.99	93.38
506.207	97.38
506.423	109.38
506.64	92.38
506.856	85.38
507.073	104.38
507.289	97.38
507.506	88.38
507.722	96.38
507.939	105.38
508.155	104.38
508.372	88.38
508.588	99.38
508.805	100.38
509.021	101.38
509.238	101.38
509.454	97.38
509.67	112.38
509.887	102.38
510.103	136.38
510.319	227.38
510.536	863.38
510.752	2833.38
510.968	747.38
511.184	167.38
511.401	116.38
511.617	107.38
511.833	77.38
512.049	80.38
512.265	93.38
512.481	86.38
512.698	85.38
512.914	106.38
513.13	92.38
513.346	106.38
513.562	89.38
513.778	96.38
513.994	115.38
514.21	114.38
514.426	121.38
514.642	127.38
514.858	123.38
