Data from Circ_1996_H10_HRD10591_00058.txt Node
Date: Wed Jan 03 11:33:17 EST 2024
User: Yrep
Spectrometer: HR+D1059
Trigger mode: 1
Integration Time (sec): 1.000000E-1
Scans to average: 1
Electric dark correction enabled: true
Nonlinearity correction enabled: false
Boxcar width: 0
XAxis mode: Wavelengths
Number of Pixels in Spectrum: 2048
>>>>>Begin Spectral Data<<<<<
223.165	-28.62
223.4	-28.62
223.635	-28.62
223.869	-4.62
224.104	-8.62
224.338	-16.62
224.573	-11.62
224.808	-12.62
225.042	-17.62
225.277	-4.62
225.511	8.38
225.746	10.38
225.98	5.38
226.215	-5.62
226.449	13.38
226.683	20.38
226.918	35.38
227.152	17.38
227.387	44.38
227.621	42.38
227.856	51.38
228.09	31.38
228.324	39.38
228.559	65.38
228.793	67.38
229.027	64.38
229.262	65.38
229.496	75.38
229.73	91.38
229.964	83.38
230.199	78.38
230.433	68.38
230.667	76.38
230.901	80.38
231.136	82.38
231.37	90.38
231.604	81.38
231.838	76.38
232.072	90.38
232.306	84.38
232.541	78.38
232.775	87.38
233.009	87.38
233.243	90.38
233.477	91.38
233.711	79.38
233.945	74.38
234.179	80.38
234.413	65.38
234.647	76.38
234.881	85.38
235.115	88.38
235.349	68.38
235.583	92.38
235.817	66.38
236.051	76.38
236.285	68.38
236.519	64.38
236.753	83.38
236.987	76.38
237.221	97.38
237.455	85.38
237.689	58.38
237.922	78.38
238.156	83.38
238.39	68.38
238.624	72.38
238.858	79.38
239.091	81.38
239.325	78.38
239.559	88.38
239.793	78.38
240.027	74.38
240.26	74.38
240.494	78.38
240.728	78.38
240.961	86.38
241.195	72.38
241.429	68.38
241.662	80.38
241.896	77.38
242.13	70.38
242.363	75.38
242.597	84.38
242.83	67.38
243.064	74.38
243.298	85.38
243.531	79.38
243.765	69.38
243.998	86.38
244.232	77.38
244.465	64.38
244.699	68.38
244.932	73.38
245.166	78.38
245.399	73.38
245.633	94.38
245.866	91.38
246.099	82.38
246.333	68.38
246.566	79.38
246.8	77.38
247.033	77.38
247.266	77.38
247.5	85.38
247.733	70.38
247.966	85.38
248.2	94.38
248.433	77.38
248.666	75.38
248.899	76.38
249.133	82.38
249.366	95.38
249.599	107.38
249.832	84.38
250.066	80.38
250.299	71.38
250.532	95.38
250.765	90.38
250.998	76.38
251.231	67.38
251.465	79.38
251.698	76.38
251.931	90.38
252.164	109.38
252.397	82.38
252.63	82.38
252.863	74.38
253.096	72.38
253.329	79.38
253.562	78.38
253.795	74.38
254.028	88.38
254.261	89.38
254.494	97.38
254.727	92.38
254.96	83.38
255.193	86.38
255.426	74.38
255.659	83.38
255.892	92.38
256.124	71.38
256.357	72.38
256.59	64.38
256.823	67.38
257.056	72.38
257.289	79.38
257.521	84.38
257.754	83.38
257.987	84.38
258.22	87.38
258.452	90.38
258.685	77.38
258.918	73.38
259.151	78.38
259.383	79.38
259.616	93.38
259.849	89.38
260.081	87.38
260.314	85.38
260.547	83.38
260.779	85.38
261.012	80.38
261.244	89.38
261.477	98.38
261.71	94.38
261.942	117.38
262.175	119.38
262.407	93.38
262.64	82.38
262.872	91.38
263.105	88.38
263.337	88.38
263.57	92.38
263.802	86.38
264.035	84.38
264.267	86.38
264.499	91.38
264.732	98.38
264.964	80.38
265.197	96.38
265.429	96.38
265.661	104.38
265.894	83.38
266.126	85.38
266.358	88.38
266.591	101.38
266.823	94.38
267.055	79.38
267.287	106.38
267.52	86.38
267.752	79.38
267.984	73.38
268.216	77.38
268.448	75.38
268.681	73.38
268.913	69.38
269.145	91.38
269.377	91.38
269.609	86.38
269.841	107.38
270.073	82.38
270.306	81.38
270.538	86.38
270.77	82.38
271.002	72.38
271.234	78.38
271.466	91.38
271.698	76.38
271.93	83.38
272.162	89.38
272.394	85.38
272.626	91.38
272.858	85.38
273.09	85.38
273.322	87.38
273.553	70.38
273.785	84.38
274.017	82.38
274.249	81.38
274.481	90.38
274.713	80.38
274.945	85.38
275.176	87.38
275.408	78.38
275.64	83.38
275.872	76.38
276.104	79.38
276.335	78.38
276.567	100.38
276.799	108.38
277.031	102.38
277.262	96.38
277.494	82.38
277.726	86.38
277.957	82.38
278.189	83.38
278.421	102.38
278.652	94.38
278.884	83.38
279.115	79.38
279.347	80.38
279.579	89.38
279.81	89.38
280.042	86.38
280.273	67.38
280.505	83.38
280.736	101.38
280.968	91.38
281.199	78.38
281.431	90.38
281.662	94.38
281.894	79.38
282.125	112.38
282.356	130.38
282.588	141.38
282.819	127.38
283.051	84.38
283.282	103.38
283.513	83.38
283.745	87.38
283.976	94.38
284.207	98.38
284.439	92.38
284.67	91.38
284.901	85.38
285.132	98.38
285.364	97.38
285.595	84.38
285.826	82.38
286.057	92.38
286.288	81.38
286.52	90.38
286.751	91.38
286.982	88.38
287.213	88.38
287.444	85.38
287.675	96.38
287.906	78.38
288.138	99.38
288.369	92.38
288.6	92.38
288.831	91.38
289.062	90.38
289.293	97.38
289.524	97.38
289.755	94.38
289.986	80.38
290.217	95.38
290.448	97.38
290.679	98.38
290.91	91.38
291.141	95.38
291.371	96.38
291.602	89.38
291.833	97.38
292.064	93.38
292.295	94.38
292.526	97.38
292.757	81.38
292.987	90.38
293.218	82.38
293.449	89.38
293.68	72.38
293.91	113.38
294.141	91.38
294.372	83.38
294.603	99.38
294.833	100.38
295.064	98.38
295.295	86.38
295.525	91.38
295.756	113.38
295.987	128.38
296.217	165.38
296.448	126.38
296.679	106.38
296.909	98.38
297.14	75.38
297.37	83.38
297.601	90.38
297.831	94.38
298.062	89.38
298.292	81.38
298.523	93.38
298.753	92.38
298.984	84.38
299.214	77.38
299.445	89.38
299.675	92.38
299.905	104.38
300.136	93.38
300.366	91.38
300.597	91.38
300.827	95.38
301.057	100.38
301.288	107.38
301.518	91.38
301.748	92.38
301.979	97.38
302.209	93.38
302.439	83.38
302.669	80.38
302.9	76.38
303.13	90.38
303.36	84.38
303.59	107.38
303.82	119.38
304.051	89.38
304.281	94.38
304.511	92.38
304.741	92.38
304.971	92.38
305.201	86.38
305.431	79.38
305.661	97.38
305.891	94.38
306.121	92.38
306.352	104.38
306.582	109.38
306.812	94.38
307.042	94.38
307.272	91.38
307.502	98.38
307.731	93.38
307.961	93.38
308.191	95.38
308.421	89.38
308.651	93.38
308.881	93.38
309.111	89.38
309.341	93.38
309.571	100.38
309.8	102.38
310.03	95.38
310.26	86.38
310.49	90.38
310.72	94.38
310.949	100.38
311.179	110.38
311.409	90.38
311.639	91.38
311.868	102.38
312.098	105.38
312.328	88.38
312.557	113.38
312.787	100.38
313.017	87.38
313.246	80.38
313.476	93.38
313.706	93.38
313.935	105.38
314.165	100.38
314.394	102.38
314.624	97.38
314.853	101.38
315.083	99.38
315.312	88.38
315.542	90.38
315.771	95.38
316.001	88.38
316.23	89.38
316.46	77.38
316.689	83.38
316.919	110.38
317.148	111.38
317.377	102.38
317.607	99.38
317.836	100.38
318.065	86.38
318.295	75.38
318.524	84.38
318.753	91.38
318.983	102.38
319.212	92.38
319.441	106.38
319.67	110.38
319.9	84.38
320.129	99.38
320.358	102.38
320.587	104.38
320.816	110.38
321.046	106.38
321.275	97.38
321.504	98.38
321.733	97.38
321.962	100.38
322.191	92.38
322.42	81.38
322.649	101.38
322.878	106.38
323.108	128.38
323.337	112.38
323.566	123.38
323.795	130.38
324.024	183.38
324.253	320.38
324.482	714.38
324.71	1362.38
324.939	1820.38
325.168	697.38
325.397	233.38
325.626	133.38
325.855	125.38
326.084	120.38
326.313	119.38
326.542	134.38
326.77	209.38
326.999	386.38
327.228	731.38
327.457	1285.38
327.686	1061.38
327.914	332.38
328.143	209.38
328.372	184.38
328.6	140.38
328.829	121.38
329.058	123.38
329.287	121.38
329.515	99.38
329.744	114.38
329.972	125.38
330.201	154.38
330.43	182.38
330.658	147.38
330.887	129.38
331.115	108.38
331.344	101.38
331.572	106.38
331.801	95.38
332.03	105.38
332.258	105.38
332.486	98.38
332.715	110.38
332.943	88.38
333.172	105.38
333.4	106.38
333.629	101.38
333.857	131.38
334.085	139.38
334.314	166.38
334.542	220.38
334.771	214.38
334.999	113.38
335.227	102.38
335.455	103.38
335.684	98.38
335.912	97.38
336.14	116.38
336.369	108.38
336.597	107.38
336.825	89.38
337.053	87.38
337.281	76.38
337.51	84.38
337.738	101.38
337.966	95.38
338.194	105.38
338.422	97.38
338.65	94.38
338.878	89.38
339.106	88.38
339.334	91.38
339.562	91.38
339.79	89.38
340.018	100.38
340.246	89.38
340.474	85.38
340.702	96.38
340.93	98.38
341.158	97.38
341.386	95.38
341.614	83.38
341.842	92.38
342.07	102.38
342.298	95.38
342.526	81.38
342.754	87.38
342.981	93.38
343.209	82.38
343.437	96.38
343.665	95.38
343.893	97.38
344.12	111.38
344.348	90.38
344.576	79.38
344.804	77.38
345.031	88.38
345.259	93.38
345.487	96.38
345.714	100.38
345.942	96.38
346.17	100.38
346.397	86.38
346.625	75.38
346.853	94.38
347.08	89.38
347.308	99.38
347.535	102.38
347.763	88.38
347.99	114.38
348.218	103.38
348.445	108.38
348.673	109.38
348.9	93.38
349.128	99.38
349.355	93.38
349.583	90.38
349.81	99.38
350.037	94.38
350.265	92.38
350.492	102.38
350.72	102.38
350.947	98.38
351.174	123.38
351.402	103.38
351.629	109.38
351.856	102.38
352.083	98.38
352.311	102.38
352.538	96.38
352.765	109.38
352.992	108.38
353.22	113.38
353.447	103.38
353.674	103.38
353.901	92.38
354.128	94.38
354.355	95.38
354.583	101.38
354.81	87.38
355.037	95.38
355.264	105.38
355.491	99.38
355.718	102.38
355.945	101.38
356.172	91.38
356.399	91.38
356.626	96.38
356.853	102.38
357.08	91.38
357.307	102.38
357.534	88.38
357.761	107.38
357.988	80.38
358.215	98.38
358.441	92.38
358.668	97.38
358.895	91.38
359.122	88.38
359.349	89.38
359.576	107.38
359.802	84.38
360.029	96.38
360.256	112.38
360.483	112.38
360.709	84.38
360.936	91.38
361.163	86.38
361.39	95.38
361.616	102.38
361.843	88.38
362.07	99.38
362.296	99.38
362.523	99.38
362.749	96.38
362.976	89.38
363.203	97.38
363.429	89.38
363.656	85.38
363.882	80.38
364.109	85.38
364.335	106.38
364.562	98.38
364.788	88.38
365.015	95.38
365.241	91.38
365.468	111.38
365.694	110.38
365.92	97.38
366.147	102.38
366.373	90.38
366.599	86.38
366.826	89.38
367.052	94.38
367.278	85.38
367.505	100.38
367.731	94.38
367.957	93.38
368.184	79.38
368.41	105.38
368.636	119.38
368.862	124.38
369.089	114.38
369.315	96.38
369.541	99.38
369.767	89.38
369.993	94.38
370.219	93.38
370.445	100.38
370.672	86.38
370.898	89.38
371.124	91.38
371.35	77.38
371.576	89.38
371.802	85.38
372.028	88.38
372.254	101.38
372.48	85.38
372.706	85.38
372.932	86.38
373.158	98.38
373.384	93.38
373.61	98.38
373.835	86.38
374.061	99.38
374.287	97.38
374.513	89.38
374.739	87.38
374.965	72.38
375.191	97.38
375.416	103.38
375.642	84.38
375.868	83.38
376.094	100.38
376.319	89.38
376.545	103.38
376.771	96.38
376.997	101.38
377.222	98.38
377.448	91.38
377.674	75.38
377.899	85.38
378.125	94.38
378.35	102.38
378.576	91.38
378.802	85.38
379.027	88.38
379.253	88.38
379.478	90.38
379.704	94.38
379.929	91.38
380.155	99.38
380.38	104.38
380.606	84.38
380.831	95.38
381.057	120.38
381.282	99.38
381.507	107.38
381.733	92.38
381.958	102.38
382.184	85.38
382.409	116.38
382.634	109.38
382.86	99.38
383.085	95.38
383.31	107.38
383.535	99.38
383.761	106.38
383.986	97.38
384.211	90.38
384.436	87.38
384.662	98.38
384.887	100.38
385.112	109.38
385.337	101.38
385.562	102.38
385.787	94.38
386.013	106.38
386.238	115.38
386.463	100.38
386.688	109.38
386.913	107.38
387.138	107.38
387.363	99.38
387.588	106.38
387.813	98.38
388.038	110.38
388.263	105.38
388.488	125.38
388.713	85.38
388.938	95.38
389.163	80.38
389.387	98.38
389.612	84.38
389.837	85.38
390.062	96.38
390.287	87.38
390.512	99.38
390.736	83.38
390.961	98.38
391.186	97.38
391.411	95.38
391.636	97.38
391.86	94.38
392.085	102.38
392.31	89.38
392.534	94.38
392.759	87.38
392.984	84.38
393.208	98.38
393.433	101.38
393.658	104.38
393.882	87.38
394.107	86.38
394.331	89.38
394.556	81.38
394.78	93.38
395.005	94.38
395.229	89.38
395.454	96.38
395.678	90.38
395.903	86.38
396.127	96.38
396.352	93.38
396.576	77.38
396.801	87.38
397.025	89.38
397.249	89.38
397.474	93.38
397.698	92.38
397.922	76.38
398.147	97.38
398.371	85.38
398.595	91.38
398.82	94.38
399.044	80.38
399.268	103.38
399.492	90.38
399.717	85.38
399.941	96.38
400.165	92.38
400.389	84.38
400.613	72.38
400.837	89.38
401.062	89.38
401.286	96.38
401.51	87.38
401.734	79.38
401.958	112.38
402.182	131.38
402.406	178.38
402.63	124.38
402.854	96.38
403.078	85.38
403.302	96.38
403.526	88.38
403.75	101.38
403.974	84.38
404.198	94.38
404.422	77.38
404.645	92.38
404.869	73.38
405.093	92.38
405.317	100.38
405.541	103.38
405.765	95.38
405.988	114.38
406.212	175.38
406.436	234.38
406.66	142.38
406.883	91.38
407.107	99.38
407.331	97.38
407.555	100.38
407.778	100.38
408.002	101.38
408.226	86.38
408.449	93.38
408.673	90.38
408.896	92.38
409.12	93.38
409.344	77.38
409.567	95.38
409.791	95.38
410.014	99.38
410.238	83.38
410.461	82.38
410.685	102.38
410.908	76.38
411.132	108.38
411.355	96.38
411.578	110.38
411.802	77.38
412.025	82.38
412.249	96.38
412.472	93.38
412.695	104.38
412.919	91.38
413.142	89.38
413.365	90.38
413.589	99.38
413.812	84.38
414.035	88.38
414.258	101.38
414.482	87.38
414.705	85.38
414.928	95.38
415.151	86.38
415.374	100.38
415.597	100.38
415.821	102.38
416.044	75.38
416.267	94.38
416.49	80.38
416.713	88.38
416.936	98.38
417.159	89.38
417.382	90.38
417.605	99.38
417.828	94.38
418.051	100.38
418.274	92.38
418.497	97.38
418.72	91.38
418.943	88.38
419.166	84.38
419.389	97.38
419.611	106.38
419.834	74.38
420.057	81.38
420.28	82.38
420.503	84.38
420.726	90.38
420.948	87.38
421.171	96.38
421.394	101.38
421.617	96.38
421.839	90.38
422.062	90.38
422.285	97.38
422.507	101.38
422.73	109.38
422.953	94.38
423.175	102.38
423.398	97.38
423.621	97.38
423.843	90.38
424.066	86.38
424.288	79.38
424.511	98.38
424.733	100.38
424.956	110.38
425.178	114.38
425.401	109.38
425.623	101.38
425.846	84.38
426.068	98.38
426.291	95.38
426.513	100.38
426.735	83.38
426.958	94.38
427.18	107.38
427.402	128.38
427.625	161.38
427.847	122.38
428.069	112.38
428.292	92.38
428.514	85.38
428.736	92.38
428.958	87.38
429.181	83.38
429.403	81.38
429.625	91.38
429.847	72.38
430.069	94.38
430.292	91.38
430.514	87.38
430.736	93.38
430.958	74.38
431.18	98.38
431.402	78.38
431.624	101.38
431.846	78.38
432.068	90.38
432.29	81.38
432.512	100.38
432.734	84.38
432.956	86.38
433.178	96.38
433.4	99.38
433.622	89.38
433.844	82.38
434.066	94.38
434.287	100.38
434.509	87.38
434.731	86.38
434.953	96.38
435.175	86.38
435.397	92.38
435.618	74.38
435.84	104.38
436.062	106.38
436.284	118.38
436.505	96.38
436.727	98.38
436.949	92.38
437.17	83.38
437.392	79.38
437.614	90.38
437.835	120.38
438.057	118.38
438.278	112.38
438.5	91.38
438.721	118.38
438.943	101.38
439.165	74.38
439.386	84.38
439.608	86.38
439.829	96.38
440.05	127.38
440.272	125.38
440.493	104.38
440.715	102.38
440.936	94.38
441.158	91.38
441.379	89.38
441.6	96.38
441.822	95.38
442.043	96.38
442.264	88.38
442.486	89.38
442.707	85.38
442.928	104.38
443.149	133.38
443.371	140.38
443.592	100.38
443.813	104.38
444.034	109.38
444.255	102.38
444.476	88.38
444.698	100.38
444.919	87.38
445.14	123.38
445.361	108.38
445.582	102.38
445.803	120.38
446.024	122.38
446.245	129.38
446.466	108.38
446.687	81.38
446.908	92.38
447.129	85.38
447.35	82.38
447.571	95.38
447.792	99.38
448.013	112.38
448.234	104.38
448.455	121.38
448.675	116.38
448.896	107.38
449.117	114.38
449.338	112.38
449.559	113.38
449.779	111.38
450	98.38
450.221	90.38
450.442	90.38
450.662	107.38
450.883	106.38
451.104	93.38
451.324	92.38
451.545	94.38
451.766	84.38
451.986	76.38
452.207	94.38
452.428	86.38
452.648	93.38
452.869	110.38
453.089	118.38
453.31	116.38
453.53	102.38
453.751	90.38
453.971	93.38
454.192	113.38
454.412	99.38
454.633	97.38
454.853	89.38
455.073	85.38
455.294	76.38
455.514	100.38
455.734	107.38
455.955	101.38
456.175	98.38
456.395	81.38
456.616	83.38
456.836	96.38
457.056	77.38
457.276	99.38
457.497	99.38
457.717	90.38
457.937	85.38
458.157	96.38
458.377	92.38
458.598	98.38
458.818	144.38
459.038	161.38
459.258	115.38
459.478	95.38
459.698	93.38
459.918	80.38
460.138	91.38
460.358	93.38
460.578	91.38
460.798	111.38
461.018	89.38
461.238	85.38
461.458	80.38
461.678	92.38
461.898	81.38
462.118	93.38
462.338	92.38
462.558	93.38
462.777	97.38
462.997	93.38
463.217	88.38
463.437	102.38
463.657	101.38
463.876	91.38
464.096	101.38
464.316	100.38
464.536	82.38
464.755	99.38
464.975	111.38
465.195	173.38
465.414	172.38
465.634	100.38
465.854	104.38
466.073	91.38
466.293	89.38
466.512	83.38
466.732	100.38
466.951	89.38
467.171	102.38
467.391	94.38
467.61	118.38
467.829	102.38
468.049	120.38
468.268	148.38
468.488	87.38
468.707	80.38
468.927	82.38
469.146	96.38
469.365	90.38
469.585	105.38
469.804	113.38
470.023	103.38
470.243	94.38
470.462	101.38
470.681	110.38
470.901	96.38
471.12	90.38
471.339	99.38
471.558	94.38
471.777	83.38
471.997	100.38
472.216	176.38
472.435	269.38
472.654	124.38
472.873	88.38
473.092	86.38
473.311	95.38
473.53	85.38
473.749	93.38
473.968	86.38
474.187	115.38
474.406	96.38
474.625	85.38
474.844	89.38
475.063	91.38
475.282	87.38
475.501	77.38
475.72	94.38
475.939	77.38
476.158	91.38
476.377	84.38
476.596	95.38
476.814	100.38
477.033	91.38
477.252	85.38
477.471	96.38
477.69	91.38
477.908	90.38
478.127	86.38
478.346	80.38
478.564	96.38
478.783	106.38
479.002	105.38
479.22	87.38
479.439	108.38
479.658	97.38
479.876	103.38
480.095	85.38
480.313	98.38
480.532	108.38
480.751	101.38
480.969	189.38
481.188	458.38
481.406	285.38
481.624	108.38
481.843	101.38
482.061	88.38
482.28	94.38
482.498	102.38
482.717	96.38
482.935	91.38
483.153	85.38
483.372	92.38
483.59	88.38
483.808	84.38
484.027	91.38
484.245	106.38
484.463	92.38
484.681	96.38
484.9	103.38
485.118	93.38
485.336	98.38
485.554	98.38
485.772	102.38
485.99	90.38
486.209	97.38
486.427	122.38
486.645	121.38
486.863	121.38
487.081	97.38
487.299	99.38
487.517	81.38
487.735	95.38
487.953	86.38
488.171	111.38
488.389	83.38
488.607	100.38
488.825	82.38
489.043	92.38
489.261	97.38
489.479	79.38
489.696	94.38
489.914	87.38
490.132	97.38
490.35	93.38
490.568	94.38
490.786	93.38
491.003	85.38
491.221	89.38
491.439	82.38
491.657	90.38
491.874	95.38
492.092	97.38
492.31	90.38
492.527	79.38
492.745	91.38
492.963	81.38
493.18	90.38
493.398	100.38
493.615	97.38
493.833	99.38
494.05	93.38
494.268	99.38
494.485	78.38
494.703	81.38
494.92	92.38
495.138	80.38
495.355	74.38
495.573	88.38
495.79	96.38
496.008	77.38
496.225	80.38
496.442	90.38
496.66	93.38
496.877	79.38
497.094	90.38
497.312	96.38
497.529	85.38
497.746	94.38
497.963	84.38
498.181	104.38
498.398	97.38
498.615	108.38
498.832	99.38
499.049	100.38
499.267	92.38
499.484	91.38
499.701	79.38
499.918	89.38
500.135	100.38
500.352	85.38
500.569	65.38
500.786	97.38
501.003	86.38
501.22	92.38
501.437	96.38
501.654	88.38
501.871	97.38
502.088	92.38
502.305	89.38
502.522	78.38
502.739	92.38
502.956	93.38
503.172	91.38
503.389	112.38
503.606	101.38
503.823	106.38
504.04	98.38
504.256	89.38
504.473	96.38
504.69	80.38
504.907	94.38
505.123	86.38
505.34	93.38
505.557	86.38
505.773	84.38
505.99	70.38
506.207	88.38
506.423	88.38
506.64	89.38
506.856	96.38
507.073	92.38
507.289	95.38
507.506	86.38
507.722	124.38
507.939	115.38
508.155	92.38
508.372	77.38
508.588	102.38
508.805	94.38
509.021	86.38
509.238	109.38
509.454	100.38
509.67	90.38
509.887	101.38
510.103	129.38
510.319	210.38
510.536	848.38
510.752	2896.38
510.968	786.38
511.184	165.38
511.401	115.38
511.617	101.38
511.833	93.38
512.049	107.38
512.265	83.38
512.481	92.38
512.698	98.38
512.914	100.38
513.13	113.38
513.346	101.38
513.562	81.38
513.778	94.38
513.994	100.38
514.21	114.38
514.426	121.38
514.642	143.38
514.858	113.38
515.074	187.38
