Data from Circ_1996_H10_HRD10591_00074.txt Node
Date: Wed Jan 03 11:33:20 EST 2024
User: Yrep
Spectrometer: HR+D1059
Trigger mode: 1
Integration Time (sec): 1.000000E-1
Scans to average: 1
Electric dark correction enabled: true
Nonlinearity correction enabled: false
Boxcar width: 0
XAxis mode: Wavelengths
Number of Pixels in Spectrum: 2048
>>>>>Begin Spectral Data<<<<<
223.165	-6.12
223.4	-6.12
223.635	-6.12
223.869	-12.12
224.104	-17.12
224.338	-4.12
224.573	-17.12
224.808	-21.12
225.042	-9.12
225.277	-13.12
225.511	-13.12
225.746	-0.12
225.98	5.88
226.215	6.88
226.449	15.88
226.683	26.88
226.918	28.88
227.152	28.88
227.387	46.88
227.621	32.88
227.856	35.88
228.09	31.88
228.324	56.88
228.559	54.88
228.793	58.88
229.027	49.88
229.262	66.88
229.496	62.88
229.73	70.88
229.964	72.88
230.199	69.88
230.433	75.88
230.667	58.88
230.901	61.88
231.136	69.88
231.37	76.88
231.604	84.88
231.838	74.88
232.072	73.88
232.306	68.88
232.541	81.88
232.775	73.88
233.009	72.88
233.243	66.88
233.477	74.88
233.711	81.88
233.945	70.88
234.179	80.88
234.413	84.88
234.647	86.88
234.881	69.88
235.115	82.88
235.349	71.88
235.583	81.88
235.817	73.88
236.051	77.88
236.285	72.88
236.519	62.88
236.753	69.88
236.987	69.88
237.221	77.88
237.455	82.88
237.689	76.88
237.922	69.88
238.156	66.88
238.39	62.88
238.624	81.88
238.858	61.88
239.091	70.88
239.325	55.88
239.559	78.88
239.793	72.88
240.027	79.88
240.26	87.88
240.494	65.88
240.728	74.88
240.961	83.88
241.195	72.88
241.429	72.88
241.662	73.88
241.896	70.88
242.13	68.88
242.363	57.88
242.597	71.88
242.83	68.88
243.064	66.88
243.298	79.88
243.531	67.88
243.765	64.88
243.998	77.88
244.232	79.88
244.465	68.88
244.699	80.88
244.932	75.88
245.166	78.88
245.399	82.88
245.633	80.88
245.866	78.88
246.099	86.88
246.333	58.88
246.566	67.88
246.8	83.88
247.033	73.88
247.266	82.88
247.5	71.88
247.733	68.88
247.966	77.88
248.2	67.88
248.433	80.88
248.666	68.88
248.899	84.88
249.133	84.88
249.366	83.88
249.599	101.88
249.832	90.88
250.066	81.88
250.299	76.88
250.532	78.88
250.765	65.88
250.998	69.88
251.231	76.88
251.465	69.88
251.698	81.88
251.931	87.88
252.164	72.88
252.397	84.88
252.63	81.88
252.863	80.88
253.096	69.88
253.329	73.88
253.562	72.88
253.795	73.88
254.028	69.88
254.261	67.88
254.494	87.88
254.727	76.88
254.96	81.88
255.193	73.88
255.426	75.88
255.659	82.88
255.892	74.88
256.124	87.88
256.357	75.88
256.59	71.88
256.823	87.88
257.056	79.88
257.289	76.88
257.521	84.88
257.754	84.88
257.987	73.88
258.22	74.88
258.452	92.88
258.685	82.88
258.918	74.88
259.151	73.88
259.383	59.88
259.616	77.88
259.849	76.88
260.081	72.88
260.314	86.88
260.547	91.88
260.779	62.88
261.012	68.88
261.244	70.88
261.477	86.88
261.71	90.88
261.942	100.88
262.175	134.88
262.407	88.88
262.64	75.88
262.872	74.88
263.105	75.88
263.337	81.88
263.57	83.88
263.802	77.88
264.035	91.88
264.267	90.88
264.499	74.88
264.732	88.88
264.964	73.88
265.197	73.88
265.429	66.88
265.661	72.88
265.894	93.88
266.126	80.88
266.358	79.88
266.591	81.88
266.823	86.88
267.055	78.88
267.287	75.88
267.52	81.88
267.752	85.88
267.984	79.88
268.216	93.88
268.448	82.88
268.681	78.88
268.913	83.88
269.145	87.88
269.377	81.88
269.609	85.88
269.841	71.88
270.073	85.88
270.306	99.88
270.538	78.88
270.77	79.88
271.002	78.88
271.234	78.88
271.466	74.88
271.698	83.88
271.93	83.88
272.162	83.88
272.394	79.88
272.626	86.88
272.858	80.88
273.09	78.88
273.322	76.88
273.553	77.88
273.785	70.88
274.017	93.88
274.249	79.88
274.481	89.88
274.713	79.88
274.945	86.88
275.176	89.88
275.408	85.88
275.64	75.88
275.872	90.88
276.104	76.88
276.335	84.88
276.567	92.88
276.799	100.88
277.031	95.88
277.262	102.88
277.494	86.88
277.726	90.88
277.957	83.88
278.189	70.88
278.421	91.88
278.652	77.88
278.884	76.88
279.115	79.88
279.347	83.88
279.579	78.88
279.81	80.88
280.042	96.88
280.273	87.88
280.505	78.88
280.736	67.88
280.968	90.88
281.199	83.88
281.431	82.88
281.662	81.88
281.894	94.88
282.125	98.88
282.356	109.88
282.588	138.88
282.819	129.88
283.051	78.88
283.282	76.88
283.513	73.88
283.745	87.88
283.976	65.88
284.207	69.88
284.439	73.88
284.67	77.88
284.901	92.88
285.132	80.88
285.364	91.88
285.595	90.88
285.826	76.88
286.057	87.88
286.288	72.88
286.52	82.88
286.751	83.88
286.982	72.88
287.213	78.88
287.444	82.88
287.675	90.88
287.906	95.88
288.138	91.88
288.369	88.88
288.6	80.88
288.831	85.88
289.062	71.88
289.293	79.88
289.524	82.88
289.755	97.88
289.986	87.88
290.217	91.88
290.448	70.88
290.679	74.88
290.91	95.88
291.141	77.88
291.371	85.88
291.602	89.88
291.833	86.88
292.064	92.88
292.295	87.88
292.526	73.88
292.757	97.88
292.987	85.88
293.218	73.88
293.449	66.88
293.68	79.88
293.91	85.88
294.141	81.88
294.372	84.88
294.603	82.88
294.833	87.88
295.064	78.88
295.295	77.88
295.525	91.88
295.756	89.88
295.987	109.88
296.217	133.88
296.448	131.88
296.679	83.88
296.909	92.88
297.14	77.88
297.37	80.88
297.601	78.88
297.831	89.88
298.062	85.88
298.292	74.88
298.523	89.88
298.753	74.88
298.984	90.88
299.214	88.88
299.445	89.88
299.675	93.88
299.905	98.88
300.136	85.88
300.366	89.88
300.597	69.88
300.827	92.88
301.057	91.88
301.288	99.88
301.518	91.88
301.748	71.88
301.979	94.88
302.209	93.88
302.439	82.88
302.669	83.88
302.9	90.88
303.13	92.88
303.36	84.88
303.59	102.88
303.82	104.88
304.051	108.88
304.281	89.88
304.511	93.88
304.741	75.88
304.971	80.88
305.201	95.88
305.431	83.88
305.661	73.88
305.891	78.88
306.121	90.88
306.352	98.88
306.582	102.88
306.812	93.88
307.042	89.88
307.272	93.88
307.502	87.88
307.731	106.88
307.961	105.88
308.191	87.88
308.421	83.88
308.651	80.88
308.881	86.88
309.111	88.88
309.341	94.88
309.571	102.88
309.8	88.88
310.03	94.88
310.26	103.88
310.49	100.88
310.72	86.88
310.949	113.88
311.179	83.88
311.409	100.88
311.639	87.88
311.868	91.88
312.098	81.88
312.328	88.88
312.557	94.88
312.787	94.88
313.017	108.88
313.246	92.88
313.476	101.88
313.706	91.88
313.935	99.88
314.165	82.88
314.394	87.88
314.624	85.88
314.853	96.88
315.083	100.88
315.312	91.88
315.542	89.88
315.771	77.88
316.001	79.88
316.23	87.88
316.46	90.88
316.689	87.88
316.919	92.88
317.148	83.88
317.377	98.88
317.607	90.88
317.836	89.88
318.065	79.88
318.295	91.88
318.524	97.88
318.753	79.88
318.983	96.88
319.212	94.88
319.441	87.88
319.67	100.88
319.9	89.88
320.129	80.88
320.358	93.88
320.587	87.88
320.816	99.88
321.046	103.88
321.275	97.88
321.504	94.88
321.733	93.88
321.962	96.88
322.191	101.88
322.42	111.88
322.649	94.88
322.878	99.88
323.108	92.88
323.337	104.88
323.566	117.88
323.795	149.88
324.024	163.88
324.253	311.88
324.482	639.88
324.71	1288.88
324.939	1714.88
325.168	662.88
325.397	222.88
325.626	117.88
325.855	127.88
326.084	118.88
326.313	121.88
326.542	128.88
326.77	203.88
326.999	337.88
327.228	687.88
327.457	1227.88
327.686	1022.88
327.914	310.88
328.143	187.88
328.372	160.88
328.6	118.88
328.829	114.88
329.058	125.88
329.287	115.88
329.515	96.88
329.744	97.88
329.972	127.88
330.201	165.88
330.43	197.88
330.658	142.88
330.887	155.88
331.115	121.88
331.344	92.88
331.572	99.88
331.801	97.88
332.03	95.88
332.258	94.88
332.486	96.88
332.715	82.88
332.943	90.88
333.172	103.88
333.4	96.88
333.629	106.88
333.857	120.88
334.085	139.88
334.314	168.88
334.542	233.88
334.771	222.88
334.999	121.88
335.227	90.88
335.455	95.88
335.684	85.88
335.912	83.88
336.14	112.88
336.369	104.88
336.597	114.88
336.825	87.88
337.053	88.88
337.281	73.88
337.51	84.88
337.738	90.88
337.966	85.88
338.194	89.88
338.422	100.88
338.65	79.88
338.878	91.88
339.106	94.88
339.334	92.88
339.562	86.88
339.79	76.88
340.018	89.88
340.246	88.88
340.474	86.88
340.702	90.88
340.93	77.88
341.158	98.88
341.386	92.88
341.614	88.88
341.842	82.88
342.07	82.88
342.298	85.88
342.526	84.88
342.754	94.88
342.981	81.88
343.209	89.88
343.437	97.88
343.665	90.88
343.893	95.88
344.12	100.88
344.348	93.88
344.576	82.88
344.804	99.88
345.031	85.88
345.259	85.88
345.487	118.88
345.714	87.88
345.942	86.88
346.17	97.88
346.397	85.88
346.625	79.88
346.853	88.88
347.08	85.88
347.308	85.88
347.535	91.88
347.763	97.88
347.99	93.88
348.218	89.88
348.445	89.88
348.673	100.88
348.9	87.88
349.128	106.88
349.355	89.88
349.583	74.88
349.81	89.88
350.037	79.88
350.265	82.88
350.492	95.88
350.72	107.88
350.947	105.88
351.174	102.88
351.402	118.88
351.629	77.88
351.856	89.88
352.083	99.88
352.311	109.88
352.538	93.88
352.765	112.88
352.992	103.88
353.22	96.88
353.447	94.88
353.674	103.88
353.901	94.88
354.128	83.88
354.355	83.88
354.583	86.88
354.81	95.88
355.037	97.88
355.264	88.88
355.491	91.88
355.718	102.88
355.945	97.88
356.172	82.88
356.399	87.88
356.626	99.88
356.853	83.88
357.08	97.88
357.307	94.88
357.534	76.88
357.761	86.88
357.988	95.88
358.215	90.88
358.441	89.88
358.668	88.88
358.895	89.88
359.122	87.88
359.349	82.88
359.576	81.88
359.802	98.88
360.029	114.88
360.256	99.88
360.483	84.88
360.709	92.88
360.936	87.88
361.163	89.88
361.39	85.88
361.616	79.88
361.843	77.88
362.07	77.88
362.296	94.88
362.523	76.88
362.749	88.88
362.976	94.88
363.203	99.88
363.429	85.88
363.656	93.88
363.882	88.88
364.109	88.88
364.335	88.88
364.562	71.88
364.788	90.88
365.015	96.88
365.241	94.88
365.468	111.88
365.694	102.88
365.92	83.88
366.147	91.88
366.373	74.88
366.599	83.88
366.826	98.88
367.052	67.88
367.278	89.88
367.505	93.88
367.731	84.88
367.957	86.88
368.184	76.88
368.41	90.88
368.636	105.88
368.862	121.88
369.089	101.88
369.315	88.88
369.541	99.88
369.767	82.88
369.993	93.88
370.219	89.88
370.445	83.88
370.672	91.88
370.898	88.88
371.124	86.88
371.35	86.88
371.576	68.88
371.802	74.88
372.028	76.88
372.254	90.88
372.48	81.88
372.706	86.88
372.932	76.88
373.158	81.88
373.384	90.88
373.61	77.88
373.835	75.88
374.061	85.88
374.287	101.88
374.513	62.88
374.739	90.88
374.965	76.88
375.191	76.88
375.416	87.88
375.642	96.88
375.868	83.88
376.094	87.88
376.319	90.88
376.545	87.88
376.771	84.88
376.997	83.88
377.222	86.88
377.448	94.88
377.674	75.88
377.899	87.88
378.125	90.88
378.35	86.88
378.576	87.88
378.802	90.88
379.027	85.88
379.253	94.88
379.478	82.88
379.704	95.88
379.929	98.88
380.155	84.88
380.38	90.88
380.606	90.88
380.831	76.88
381.057	84.88
381.282	94.88
381.507	94.88
381.733	86.88
381.958	92.88
382.184	86.88
382.409	89.88
382.634	91.88
382.86	89.88
383.085	89.88
383.31	99.88
383.535	94.88
383.761	105.88
383.986	78.88
384.211	84.88
384.436	97.88
384.662	85.88
384.887	96.88
385.112	94.88
385.337	91.88
385.562	94.88
385.787	106.88
386.013	98.88
386.238	109.88
386.463	92.88
386.688	104.88
386.913	101.88
387.138	93.88
387.363	103.88
387.588	97.88
387.813	95.88
388.038	100.88
388.263	105.88
388.488	95.88
388.713	85.88
388.938	79.88
389.163	90.88
389.387	83.88
389.612	81.88
389.837	88.88
390.062	78.88
390.287	84.88
390.512	80.88
390.736	86.88
390.961	82.88
391.186	83.88
391.411	86.88
391.636	95.88
391.86	78.88
392.085	74.88
392.31	90.88
392.534	86.88
392.759	87.88
392.984	94.88
393.208	86.88
393.433	102.88
393.658	98.88
393.882	70.88
394.107	78.88
394.331	79.88
394.556	81.88
394.78	84.88
395.005	93.88
395.229	77.88
395.454	81.88
395.678	93.88
395.903	70.88
396.127	87.88
396.352	67.88
396.576	86.88
396.801	76.88
397.025	93.88
397.249	87.88
397.474	91.88
397.698	61.88
397.922	94.88
398.147	81.88
398.371	70.88
398.595	82.88
398.82	103.88
399.044	79.88
399.268	77.88
399.492	74.88
399.717	79.88
399.941	84.88
400.165	78.88
400.389	82.88
400.613	99.88
400.837	77.88
401.062	90.88
401.286	88.88
401.51	90.88
401.734	90.88
401.958	84.88
402.182	126.88
402.406	155.88
402.63	109.88
402.854	81.88
403.078	84.88
403.302	81.88
403.526	82.88
403.75	77.88
403.974	93.88
404.198	77.88
404.422	89.88
404.645	80.88
404.869	87.88
405.093	93.88
405.317	98.88
405.541	97.88
405.765	79.88
405.988	114.88
406.212	171.88
406.436	238.88
406.66	145.88
406.883	111.88
407.107	94.88
407.331	81.88
407.555	79.88
407.778	83.88
408.002	83.88
408.226	89.88
408.449	81.88
408.673	88.88
408.896	92.88
409.12	85.88
409.344	82.88
409.567	94.88
409.791	87.88
410.014	94.88
410.238	83.88
410.461	84.88
410.685	75.88
410.908	89.88
411.132	84.88
411.355	94.88
411.578	87.88
411.802	88.88
412.025	86.88
412.249	87.88
412.472	82.88
412.695	94.88
412.919	85.88
413.142	82.88
413.365	76.88
413.589	76.88
413.812	85.88
414.035	80.88
414.258	75.88
414.482	81.88
414.705	84.88
414.928	84.88
415.151	78.88
415.374	84.88
415.597	85.88
415.821	69.88
416.044	85.88
416.267	94.88
416.49	74.88
416.713	82.88
416.936	76.88
417.159	93.88
417.382	94.88
417.605	74.88
417.828	84.88
418.051	104.88
418.274	92.88
418.497	101.88
418.72	69.88
418.943	91.88
419.166	92.88
419.389	81.88
419.611	94.88
419.834	78.88
420.057	83.88
420.28	73.88
420.503	94.88
420.726	84.88
420.948	82.88
421.171	94.88
421.394	86.88
421.617	83.88
421.839	82.88
422.062	89.88
422.285	101.88
422.507	92.88
422.73	85.88
422.953	87.88
423.175	83.88
423.398	73.88
423.621	76.88
423.843	84.88
424.066	82.88
424.288	82.88
424.511	73.88
424.733	93.88
424.956	95.88
425.178	78.88
425.401	108.88
425.623	102.88
425.846	79.88
426.068	84.88
426.291	91.88
426.513	90.88
426.735	91.88
426.958	75.88
427.18	89.88
427.402	111.88
427.625	150.88
427.847	134.88
428.069	114.88
428.292	84.88
428.514	73.88
428.736	91.88
428.958	82.88
429.181	58.88
429.403	89.88
429.625	73.88
429.847	76.88
430.069	96.88
430.292	95.88
430.514	70.88
430.736	87.88
430.958	91.88
431.18	83.88
431.402	77.88
431.624	68.88
431.846	86.88
432.068	73.88
432.29	78.88
432.512	70.88
432.734	73.88
432.956	92.88
433.178	91.88
433.4	83.88
433.622	99.88
433.844	75.88
434.066	84.88
434.287	79.88
434.509	68.88
434.731	88.88
434.953	80.88
435.175	74.88
435.397	70.88
435.618	78.88
435.84	97.88
436.062	87.88
436.284	105.88
436.505	92.88
436.727	94.88
436.949	90.88
437.17	91.88
437.392	77.88
437.614	108.88
437.835	96.88
438.057	108.88
438.278	102.88
438.5	86.88
438.721	102.88
438.943	86.88
439.165	87.88
439.386	94.88
439.608	82.88
439.829	78.88
440.05	101.88
440.272	125.88
440.493	95.88
440.715	83.88
440.936	94.88
441.158	98.88
441.379	99.88
441.6	88.88
441.822	77.88
442.043	79.88
442.264	92.88
442.486	86.88
442.707	85.88
442.928	99.88
443.149	118.88
443.371	107.88
443.592	91.88
443.813	85.88
444.034	94.88
444.255	76.88
444.476	91.88
444.698	77.88
444.919	77.88
445.14	138.88
445.361	107.88
445.582	100.88
445.803	126.88
446.024	106.88
446.245	111.88
446.466	109.88
446.687	70.88
446.908	87.88
447.129	86.88
447.35	81.88
447.571	91.88
447.792	74.88
448.013	87.88
448.234	98.88
448.455	77.88
448.675	100.88
448.896	96.88
449.117	93.88
449.338	100.88
449.559	101.88
449.779	109.88
450	103.88
450.221	93.88
450.442	89.88
450.662	94.88
450.883	114.88
451.104	109.88
451.324	91.88
451.545	78.88
451.766	83.88
451.986	77.88
452.207	90.88
452.428	102.88
452.648	100.88
452.869	103.88
453.089	99.88
453.31	116.88
453.53	79.88
453.751	90.88
453.971	95.88
454.192	99.88
454.412	85.88
454.633	88.88
454.853	85.88
455.073	99.88
455.294	95.88
455.514	97.88
455.734	89.88
455.955	76.88
456.175	106.88
456.395	85.88
456.616	67.88
456.836	90.88
457.056	90.88
457.276	81.88
457.497	88.88
457.717	80.88
457.937	85.88
458.157	86.88
458.377	94.88
458.598	95.88
458.818	146.88
459.038	169.88
459.258	110.88
459.478	71.88
459.698	87.88
459.918	82.88
460.138	76.88
460.358	91.88
460.578	79.88
460.798	72.88
461.018	94.88
461.238	71.88
461.458	82.88
461.678	81.88
461.898	73.88
462.118	85.88
462.338	74.88
462.558	72.88
462.777	69.88
462.997	84.88
463.217	85.88
463.437	90.88
463.657	86.88
463.876	87.88
464.096	85.88
464.316	93.88
464.536	94.88
464.755	93.88
464.975	116.88
465.195	161.88
465.414	148.88
465.634	98.88
465.854	86.88
466.073	94.88
466.293	98.88
466.512	93.88
466.732	71.88
466.951	86.88
467.171	87.88
467.391	70.88
467.61	103.88
467.829	100.88
468.049	134.88
468.268	133.88
468.488	107.88
468.707	82.88
468.927	81.88
469.146	85.88
469.365	70.88
469.585	70.88
469.804	84.88
470.023	101.88
470.243	79.88
470.462	99.88
470.681	89.88
470.901	62.88
471.12	86.88
471.339	81.88
471.558	93.88
471.777	82.88
471.997	102.88
472.216	172.88
472.435	275.88
472.654	121.88
472.873	78.88
473.092	85.88
473.311	82.88
473.53	74.88
473.749	86.88
473.968	83.88
474.187	88.88
474.406	90.88
474.625	92.88
474.844	75.88
475.063	94.88
475.282	82.88
475.501	79.88
475.72	79.88
475.939	91.88
476.158	78.88
476.377	75.88
476.596	85.88
476.814	84.88
477.033	84.88
477.252	93.88
477.471	74.88
477.69	89.88
477.908	83.88
478.127	81.88
478.346	77.88
478.564	75.88
478.783	87.88
479.002	96.88
479.22	85.88
479.439	99.88
479.658	99.88
479.876	84.88
480.095	86.88
480.313	99.88
480.532	90.88
480.751	114.88
480.969	188.88
481.188	475.88
481.406	295.88
481.624	105.88
481.843	87.88
482.061	76.88
482.28	82.88
482.498	85.88
482.717	98.88
482.935	86.88
483.153	99.88
483.372	87.88
483.59	82.88
483.808	94.88
484.027	85.88
484.245	88.88
484.463	78.88
484.681	100.88
484.9	91.88
485.118	91.88
485.336	85.88
485.554	93.88
485.772	93.88
485.99	94.88
486.209	105.88
486.427	107.88
486.645	102.88
486.863	103.88
487.081	96.88
487.299	104.88
487.517	85.88
487.735	78.88
487.953	87.88
488.171	89.88
488.389	101.88
488.607	105.88
488.825	86.88
489.043	85.88
489.261	97.88
489.479	72.88
489.696	75.88
489.914	86.88
490.132	89.88
490.35	91.88
490.568	87.88
490.786	87.88
491.003	93.88
491.221	86.88
491.439	90.88
491.657	100.88
491.874	86.88
492.092	99.88
492.31	100.88
492.527	84.88
492.745	88.88
492.963	85.88
493.18	80.88
493.398	100.88
493.615	89.88
493.833	86.88
494.05	101.88
494.268	78.88
494.485	82.88
494.703	80.88
494.92	99.88
495.138	87.88
495.355	86.88
495.573	79.88
495.79	78.88
496.008	79.88
496.225	92.88
496.442	81.88
496.66	81.88
496.877	81.88
497.094	70.88
497.312	82.88
497.529	81.88
497.746	86.88
497.963	71.88
498.181	89.88
498.398	88.88
498.615	108.88
498.832	95.88
499.049	90.88
499.267	76.88
499.484	90.88
499.701	90.88
499.918	78.88
500.135	80.88
500.352	87.88
500.569	80.88
500.786	90.88
501.003	85.88
501.22	92.88
501.437	86.88
501.654	97.88
501.871	104.88
502.088	80.88
502.305	86.88
502.522	86.88
502.739	86.88
502.956	77.88
503.172	87.88
503.389	94.88
503.606	108.88
503.823	85.88
504.04	93.88
504.256	73.88
504.473	82.88
504.69	95.88
504.907	80.88
505.123	69.88
505.34	69.88
505.557	82.88
505.773	91.88
505.99	88.88
506.207	79.88
506.423	86.88
506.64	85.88
506.856	90.88
507.073	83.88
507.289	94.88
507.506	93.88
507.722	114.88
507.939	105.88
508.155	91.88
508.372	77.88
508.588	87.88
508.805	82.88
509.021	95.88
509.238	104.88
509.454	106.88
509.67	84.88
509.887	110.88
510.103	129.88
510.319	214.88
510.536	833.88
510.752	2761.88
510.968	742.88
511.184	180.88
511.401	110.88
511.617	93.88
511.833	100.88
512.049	86.88
512.265	83.88
512.481	107.88
512.698	97.88
512.914	90.88
513.13	100.88
513.346	81.88
513.562	78.88
513.778	90.88
513.994	97.88
514.21	101.88
514.426	130.88
514.642	123.88
514.858	121.88
515.074	144.88
515.29	465.88
515.506	1571.88
515.721	568.88
515.937	138.88
516.153	100.88
516.369	100.88
516.585	95.88
516.801	101.88
517.016	89.88
