Data from Circ_1996_H10_HRD10591_00050.txt Node
Date: Wed Jan 03 11:33:16 EST 2024
User: Yrep
Spectrometer: HR+D1059
Trigger mode: 1
Integration Time (sec): 1.000000E-1
Scans to average: 1
Electric dark correction enabled: true
Nonlinearity correction enabled: false
Boxcar width: 0
XAxis mode: Wavelengths
Number of Pixels in Spectrum: 2048
>>>>>Begin Spectral Data<<<<<
223.165	-20.69
223.4	-20.69
223.635	-20.69
223.869	-17.69
224.104	-24.69
224.338	-16.69
224.573	-11.69
224.808	-12.69
225.042	-14.69
225.277	-1.69
225.511	-13.69
225.746	3.31
225.98	8.31
226.215	21.31
226.449	23.31
226.683	24.31
226.918	26.31
227.152	27.31
227.387	31.31
227.621	28.31
227.856	45.31
228.09	43.31
228.324	52.31
228.559	50.31
228.793	65.31
229.027	65.31
229.262	76.31
229.496	74.31
229.73	94.31
229.964	83.31
230.199	90.31
230.433	63.31
230.667	90.31
230.901	83.31
231.136	73.31
231.37	84.31
231.604	92.31
231.838	81.31
232.072	88.31
232.306	92.31
232.541	80.31
232.775	82.31
233.009	85.31
233.243	81.31
233.477	86.31
233.711	86.31
233.945	73.31
234.179	65.31
234.413	68.31
234.647	80.31
234.881	87.31
235.115	81.31
235.349	76.31
235.583	87.31
235.817	90.31
236.051	69.31
236.285	75.31
236.519	79.31
236.753	90.31
236.987	69.31
237.221	73.31
237.455	87.31
237.689	80.31
237.922	80.31
238.156	69.31
238.39	80.31
238.624	75.31
238.858	84.31
239.091	77.31
239.325	80.31
239.559	87.31
239.793	73.31
240.027	84.31
240.26	80.31
240.494	79.31
240.728	71.31
240.961	73.31
241.195	70.31
241.429	73.31
241.662	89.31
241.896	74.31
242.13	67.31
242.363	75.31
242.597	74.31
242.83	85.31
243.064	80.31
243.298	80.31
243.531	84.31
243.765	101.31
243.998	77.31
244.232	77.31
244.465	85.31
244.699	69.31
244.932	87.31
245.166	77.31
245.399	82.31
245.633	78.31
245.866	79.31
246.099	72.31
246.333	73.31
246.566	81.31
246.8	92.31
247.033	84.31
247.266	81.31
247.5	75.31
247.733	93.31
247.966	82.31
248.2	76.31
248.433	80.31
248.666	75.31
248.899	76.31
249.133	81.31
249.366	103.31
249.599	100.31
249.832	71.31
250.066	84.31
250.299	79.31
250.532	86.31
250.765	83.31
250.998	65.31
251.231	77.31
251.465	95.31
251.698	98.31
251.931	84.31
252.164	87.31
252.397	80.31
252.63	73.31
252.863	85.31
253.096	76.31
253.329	85.31
253.562	78.31
253.795	87.31
254.028	71.31
254.261	76.31
254.494	85.31
254.727	77.31
254.96	82.31
255.193	87.31
255.426	69.31
255.659	87.31
255.892	79.31
256.124	79.31
256.357	81.31
256.59	88.31
256.823	68.31
257.056	86.31
257.289	68.31
257.521	89.31
257.754	78.31
257.987	90.31
258.22	92.31
258.452	95.31
258.685	76.31
258.918	76.31
259.151	84.31
259.383	79.31
259.616	90.31
259.849	66.31
260.081	82.31
260.314	98.31
260.547	88.31
260.779	86.31
261.012	91.31
261.244	66.31
261.477	84.31
261.71	89.31
261.942	135.31
262.175	123.31
262.407	87.31
262.64	80.31
262.872	91.31
263.105	97.31
263.337	75.31
263.57	90.31
263.802	97.31
264.035	73.31
264.267	73.31
264.499	88.31
264.732	75.31
264.964	87.31
265.197	82.31
265.429	95.31
265.661	87.31
265.894	86.31
266.126	88.31
266.358	86.31
266.591	80.31
266.823	91.31
267.055	77.31
267.287	89.31
267.52	79.31
267.752	83.31
267.984	85.31
268.216	77.31
268.448	88.31
268.681	74.31
268.913	89.31
269.145	76.31
269.377	87.31
269.609	88.31
269.841	93.31
270.073	79.31
270.306	90.31
270.538	96.31
270.77	106.31
271.002	79.31
271.234	82.31
271.466	94.31
271.698	87.31
271.93	94.31
272.162	94.31
272.394	82.31
272.626	90.31
272.858	88.31
273.09	85.31
273.322	84.31
273.553	80.31
273.785	76.31
274.017	83.31
274.249	86.31
274.481	77.31
274.713	77.31
274.945	93.31
275.176	78.31
275.408	84.31
275.64	75.31
275.872	89.31
276.104	84.31
276.335	95.31
276.567	105.31
276.799	104.31
277.031	97.31
277.262	87.31
277.494	87.31
277.726	72.31
277.957	94.31
278.189	79.31
278.421	84.31
278.652	90.31
278.884	99.31
279.115	90.31
279.347	91.31
279.579	79.31
279.81	90.31
280.042	86.31
280.273	91.31
280.505	97.31
280.736	93.31
280.968	93.31
281.199	84.31
281.431	98.31
281.662	99.31
281.894	96.31
282.125	96.31
282.356	122.31
282.588	149.31
282.819	111.31
283.051	81.31
283.282	80.31
283.513	89.31
283.745	74.31
283.976	107.31
284.207	98.31
284.439	92.31
284.67	96.31
284.901	78.31
285.132	75.31
285.364	82.31
285.595	101.31
285.826	76.31
286.057	88.31
286.288	79.31
286.52	99.31
286.751	90.31
286.982	91.31
287.213	97.31
287.444	88.31
287.675	85.31
287.906	80.31
288.138	91.31
288.369	87.31
288.6	82.31
288.831	81.31
289.062	73.31
289.293	93.31
289.524	91.31
289.755	70.31
289.986	86.31
290.217	97.31
290.448	84.31
290.679	84.31
290.91	86.31
291.141	81.31
291.371	78.31
291.602	81.31
291.833	100.31
292.064	93.31
292.295	80.31
292.526	96.31
292.757	81.31
292.987	73.31
293.218	104.31
293.449	77.31
293.68	87.31
293.91	87.31
294.141	89.31
294.372	96.31
294.603	100.31
294.833	97.31
295.064	88.31
295.295	100.31
295.525	85.31
295.756	105.31
295.987	119.31
296.217	131.31
296.448	137.31
296.679	101.31
296.909	101.31
297.14	96.31
297.37	100.31
297.601	108.31
297.831	83.31
298.062	95.31
298.292	110.31
298.523	98.31
298.753	99.31
298.984	91.31
299.214	85.31
299.445	91.31
299.675	89.31
299.905	100.31
300.136	106.31
300.366	92.31
300.597	98.31
300.827	97.31
301.057	98.31
301.288	101.31
301.518	98.31
301.748	94.31
301.979	101.31
302.209	93.31
302.439	99.31
302.669	87.31
302.9	85.31
303.13	91.31
303.36	104.31
303.59	114.31
303.82	85.31
304.051	93.31
304.281	77.31
304.511	109.31
304.741	93.31
304.971	96.31
305.201	107.31
305.431	96.31
305.661	87.31
305.891	87.31
306.121	83.31
306.352	97.31
306.582	101.31
306.812	86.31
307.042	98.31
307.272	107.31
307.502	98.31
307.731	88.31
307.961	100.31
308.191	104.31
308.421	96.31
308.651	95.31
308.881	93.31
309.111	97.31
309.341	96.31
309.571	97.31
309.8	98.31
310.03	93.31
310.26	98.31
310.49	98.31
310.72	95.31
310.949	96.31
311.179	98.31
311.409	104.31
311.639	92.31
311.868	108.31
312.098	112.31
312.328	106.31
312.557	94.31
312.787	107.31
313.017	109.31
313.246	93.31
313.476	111.31
313.706	94.31
313.935	112.31
314.165	114.31
314.394	112.31
314.624	96.31
314.853	113.31
315.083	98.31
315.312	92.31
315.542	95.31
315.771	90.31
316.001	110.31
316.23	99.31
316.46	81.31
316.689	91.31
316.919	106.31
317.148	104.31
317.377	81.31
317.607	94.31
317.836	94.31
318.065	87.31
318.295	74.31
318.524	96.31
318.753	94.31
318.983	84.31
319.212	103.31
319.441	101.31
319.67	111.31
319.9	116.31
320.129	96.31
320.358	98.31
320.587	107.31
320.816	91.31
321.046	89.31
321.275	110.31
321.504	90.31
321.733	100.31
321.962	92.31
322.191	89.31
322.42	117.31
322.649	116.31
322.878	112.31
323.108	103.31
323.337	120.31
323.566	128.31
323.795	129.31
324.024	180.31
324.253	345.31
324.482	689.31
324.71	1279.31
324.939	1673.31
325.168	656.31
325.397	235.31
325.626	142.31
325.855	124.31
326.084	127.31
326.313	122.31
326.542	140.31
326.77	189.31
326.999	339.31
327.228	669.31
327.457	1236.31
327.686	987.31
327.914	322.31
328.143	202.31
328.372	173.31
328.6	151.31
328.829	139.31
329.058	145.31
329.287	122.31
329.515	100.31
329.744	120.31
329.972	129.31
330.201	158.31
330.43	185.31
330.658	137.31
330.887	139.31
331.115	118.31
331.344	112.31
331.572	103.31
331.801	98.31
332.03	116.31
332.258	101.31
332.486	94.31
332.715	87.31
332.943	77.31
333.172	103.31
333.4	89.31
333.629	104.31
333.857	130.31
334.085	139.31
334.314	163.31
334.542	208.31
334.771	189.31
334.999	119.31
335.227	93.31
335.455	92.31
335.684	89.31
335.912	90.31
336.14	107.31
336.369	104.31
336.597	90.31
336.825	105.31
337.053	93.31
337.281	113.31
337.51	104.31
337.738	118.31
337.966	100.31
338.194	101.31
338.422	90.31
338.65	95.31
338.878	100.31
339.106	80.31
339.334	96.31
339.562	85.31
339.79	94.31
340.018	99.31
340.246	101.31
340.474	95.31
340.702	98.31
340.93	96.31
341.158	103.31
341.386	103.31
341.614	99.31
341.842	96.31
342.07	98.31
342.298	94.31
342.526	94.31
342.754	91.31
342.981	80.31
343.209	77.31
343.437	88.31
343.665	91.31
343.893	96.31
344.12	101.31
344.348	89.31
344.576	95.31
344.804	97.31
345.031	108.31
345.259	80.31
345.487	91.31
345.714	91.31
345.942	87.31
346.17	101.31
346.397	107.31
346.625	97.31
346.853	83.31
347.08	97.31
347.308	88.31
347.535	85.31
347.763	96.31
347.99	100.31
348.218	107.31
348.445	105.31
348.673	103.31
348.9	106.31
349.128	101.31
349.355	83.31
349.583	92.31
349.81	94.31
350.037	101.31
350.265	98.31
350.492	110.31
350.72	91.31
350.947	104.31
351.174	92.31
351.402	110.31
351.629	108.31
351.856	115.31
352.083	99.31
352.311	107.31
352.538	101.31
352.765	100.31
352.992	123.31
353.22	124.31
353.447	97.31
353.674	106.31
353.901	101.31
354.128	102.31
354.355	95.31
354.583	99.31
354.81	94.31
355.037	95.31
355.264	105.31
355.491	94.31
355.718	104.31
355.945	105.31
356.172	101.31
356.399	95.31
356.626	83.31
356.853	84.31
357.08	96.31
357.307	92.31
357.534	85.31
357.761	106.31
357.988	106.31
358.215	103.31
358.441	89.31
358.668	96.31
358.895	89.31
359.122	91.31
359.349	74.31
359.576	97.31
359.802	99.31
360.029	126.31
360.256	108.31
360.483	112.31
360.709	113.31
360.936	92.31
361.163	95.31
361.39	88.31
361.616	89.31
361.843	97.31
362.07	84.31
362.296	100.31
362.523	90.31
362.749	90.31
362.976	87.31
363.203	86.31
363.429	100.31
363.656	98.31
363.882	92.31
364.109	104.31
364.335	89.31
364.562	96.31
364.788	97.31
365.015	104.31
365.241	102.31
365.468	104.31
365.694	112.31
365.92	96.31
366.147	91.31
366.373	96.31
366.599	88.31
366.826	96.31
367.052	99.31
367.278	94.31
367.505	92.31
367.731	98.31
367.957	102.31
368.184	87.31
368.41	109.31
368.636	106.31
368.862	119.31
369.089	100.31
369.315	83.31
369.541	89.31
369.767	87.31
369.993	89.31
370.219	93.31
370.445	97.31
370.672	77.31
370.898	92.31
371.124	97.31
371.35	82.31
371.576	91.31
371.802	99.31
372.028	93.31
372.254	87.31
372.48	83.31
372.706	87.31
372.932	104.31
373.158	98.31
373.384	87.31
373.61	96.31
373.835	93.31
374.061	89.31
374.287	91.31
374.513	105.31
374.739	92.31
374.965	96.31
375.191	100.31
375.416	93.31
375.642	87.31
375.868	100.31
376.094	90.31
376.319	91.31
376.545	97.31
376.771	98.31
376.997	93.31
377.222	96.31
377.448	95.31
377.674	90.31
377.899	79.31
378.125	77.31
378.35	91.31
378.576	105.31
378.802	100.31
379.027	79.31
379.253	83.31
379.478	79.31
379.704	100.31
379.929	100.31
380.155	94.31
380.38	93.31
380.606	97.31
380.831	95.31
381.057	96.31
381.282	99.31
381.507	93.31
381.733	105.31
381.958	111.31
382.184	114.31
382.409	110.31
382.634	117.31
382.86	108.31
383.085	108.31
383.31	112.31
383.535	108.31
383.761	107.31
383.986	91.31
384.211	95.31
384.436	103.31
384.662	108.31
384.887	106.31
385.112	114.31
385.337	100.31
385.562	103.31
385.787	103.31
386.013	108.31
386.238	104.31
386.463	106.31
386.688	118.31
386.913	103.31
387.138	110.31
387.363	106.31
387.588	102.31
387.813	106.31
388.038	104.31
388.263	115.31
388.488	119.31
388.713	94.31
388.938	100.31
389.163	102.31
389.387	87.31
389.612	100.31
389.837	95.31
390.062	98.31
390.287	85.31
390.512	83.31
390.736	76.31
390.961	89.31
391.186	113.31
391.411	95.31
391.636	90.31
391.86	92.31
392.085	85.31
392.31	90.31
392.534	94.31
392.759	81.31
392.984	94.31
393.208	89.31
393.433	115.31
393.658	113.31
393.882	95.31
394.107	93.31
394.331	83.31
394.556	91.31
394.78	75.31
395.005	87.31
395.229	81.31
395.454	91.31
395.678	99.31
395.903	96.31
396.127	85.31
396.352	95.31
396.576	92.31
396.801	92.31
397.025	90.31
397.249	91.31
397.474	92.31
397.698	97.31
397.922	96.31
398.147	84.31
398.371	92.31
398.595	92.31
398.82	83.31
399.044	97.31
399.268	73.31
399.492	82.31
399.717	87.31
399.941	96.31
400.165	83.31
400.389	96.31
400.613	88.31
400.837	92.31
401.062	76.31
401.286	96.31
401.51	85.31
401.734	85.31
401.958	103.31
402.182	130.31
402.406	153.31
402.63	112.31
402.854	100.31
403.078	81.31
403.302	88.31
403.526	91.31
403.75	89.31
403.974	92.31
404.198	81.31
404.422	87.31
404.645	94.31
404.869	90.31
405.093	98.31
405.317	105.31
405.541	99.31
405.765	101.31
405.988	107.31
406.212	167.31
406.436	233.31
406.66	161.31
406.883	100.31
407.107	96.31
407.331	100.31
407.555	97.31
407.778	99.31
408.002	91.31
408.226	106.31
408.449	83.31
408.673	72.31
408.896	87.31
409.12	98.31
409.344	82.31
409.567	86.31
409.791	77.31
410.014	100.31
410.238	80.31
410.461	85.31
410.685	96.31
410.908	95.31
411.132	97.31
411.355	93.31
411.578	84.31
411.802	83.31
412.025	85.31
412.249	83.31
412.472	90.31
412.695	91.31
412.919	84.31
413.142	87.31
413.365	104.31
413.589	91.31
413.812	92.31
414.035	82.31
414.258	80.31
414.482	101.31
414.705	78.31
414.928	86.31
415.151	83.31
415.374	81.31
415.597	98.31
415.821	88.31
416.044	86.31
416.267	97.31
416.49	87.31
416.713	91.31
416.936	101.31
417.159	86.31
417.382	84.31
417.605	86.31
417.828	91.31
418.051	91.31
418.274	84.31
418.497	98.31
418.72	104.31
418.943	83.31
419.166	102.31
419.389	79.31
419.611	79.31
419.834	83.31
420.057	91.31
420.28	73.31
420.503	88.31
420.726	79.31
420.948	84.31
421.171	96.31
421.394	85.31
421.617	90.31
421.839	96.31
422.062	85.31
422.285	100.31
422.507	101.31
422.73	104.31
422.953	82.31
423.175	85.31
423.398	101.31
423.621	103.31
423.843	94.31
424.066	89.31
424.288	90.31
424.511	83.31
424.733	92.31
424.956	89.31
425.178	98.31
425.401	103.31
425.623	87.31
425.846	98.31
426.068	109.31
426.291	89.31
426.513	91.31
426.735	93.31
426.958	98.31
427.18	90.31
427.402	119.31
427.625	137.31
427.847	141.31
428.069	127.31
428.292	93.31
428.514	85.31
428.736	84.31
428.958	86.31
429.181	85.31
429.403	76.31
429.625	91.31
429.847	87.31
430.069	99.31
430.292	92.31
430.514	81.31
430.736	82.31
430.958	91.31
431.18	100.31
431.402	94.31
431.624	99.31
431.846	94.31
432.068	80.31
432.29	95.31
432.512	87.31
432.734	87.31
432.956	98.31
433.178	86.31
433.4	102.31
433.622	87.31
433.844	91.31
434.066	100.31
434.287	88.31
434.509	88.31
434.731	76.31
434.953	89.31
435.175	92.31
435.397	94.31
435.618	79.31
435.84	94.31
436.062	111.31
436.284	109.31
436.505	90.31
436.727	89.31
436.949	84.31
437.17	86.31
437.392	77.31
437.614	75.31
437.835	105.31
438.057	99.31
438.278	107.31
438.5	93.31
438.721	112.31
438.943	101.31
439.165	93.31
439.386	84.31
439.608	81.31
439.829	104.31
440.05	114.31
440.272	121.31
440.493	106.31
440.715	96.31
440.936	92.31
441.158	86.31
441.379	82.31
441.6	78.31
441.822	90.31
442.043	83.31
442.264	96.31
442.486	89.31
442.707	94.31
442.928	107.31
443.149	108.31
443.371	122.31
443.592	104.31
443.813	105.31
444.034	101.31
444.255	91.31
444.476	95.31
444.698	82.31
444.919	98.31
445.14	129.31
445.361	141.31
445.582	111.31
445.803	131.31
446.024	113.31
446.245	112.31
446.466	89.31
446.687	107.31
446.908	87.31
447.129	90.31
447.35	87.31
447.571	94.31
447.792	103.31
448.013	99.31
448.234	108.31
448.455	109.31
448.675	114.31
448.896	105.31
449.117	90.31
449.338	96.31
449.559	115.31
449.779	122.31
450	92.31
450.221	83.31
450.442	99.31
450.662	85.31
450.883	109.31
451.104	107.31
451.324	90.31
451.545	84.31
451.766	84.31
451.986	98.31
452.207	92.31
452.428	90.31
452.648	101.31
452.869	113.31
453.089	113.31
453.31	123.31
453.53	100.31
453.751	83.31
453.971	100.31
454.192	105.31
454.412	83.31
454.633	78.31
454.853	81.31
455.073	90.31
455.294	86.31
455.514	90.31
455.734	95.31
455.955	94.31
456.175	100.31
456.395	100.31
456.616	98.31
456.836	74.31
457.056	83.31
457.276	89.31
457.497	68.31
457.717	95.31
457.937	93.31
458.157	93.31
458.377	87.31
458.598	96.31
458.818	151.31
459.038	156.31
459.258	109.31
459.478	83.31
459.698	97.31
459.918	90.31
460.138	83.31
460.358	85.31
460.578	93.31
460.798	100.31
461.018	99.31
461.238	84.31
461.458	95.31
461.678	86.31
461.898	86.31
462.118	79.31
462.338	82.31
462.558	66.31
462.777	85.31
462.997	83.31
463.217	91.31
463.437	90.31
463.657	87.31
463.876	99.31
464.096	87.31
464.316	82.31
464.536	100.31
464.755	91.31
464.975	103.31
465.195	174.31
465.414	161.31
465.634	97.31
465.854	100.31
466.073	88.31
466.293	80.31
466.512	80.31
466.732	74.31
466.951	79.31
467.171	98.31
467.391	95.31
467.61	99.31
467.829	95.31
468.049	125.31
468.268	122.31
468.488	93.31
468.707	84.31
468.927	95.31
469.146	79.31
469.365	85.31
469.585	98.31
469.804	100.31
470.023	108.31
470.243	96.31
470.462	95.31
470.681	107.31
470.901	96.31
471.12	80.31
471.339	82.31
471.558	99.31
471.777	101.31
471.997	105.31
472.216	181.31
472.435	266.31
472.654	97.31
472.873	87.31
473.092	82.31
473.311	89.31
473.53	81.31
473.749	89.31
473.968	81.31
474.187	101.31
474.406	98.31
474.625	86.31
474.844	92.31
475.063	92.31
475.282	95.31
475.501	96.31
475.72	94.31
475.939	81.31
476.158	84.31
476.377	84.31
476.596	75.31
476.814	94.31
477.033	101.31
477.252	93.31
477.471	93.31
477.69	99.31
477.908	79.31
478.127	89.31
478.346	95.31
478.564	87.31
478.783	108.31
479.002	99.31
479.22	99.31
479.439	107.31
479.658	104.31
479.876	90.31
480.095	104.31
480.313	90.31
480.532	87.31
480.751	104.31
480.969	172.31
481.188	427.31
481.406	253.31
481.624	102.31
481.843	79.31
482.061	96.31
482.28	88.31
482.498	84.31
482.717	89.31
482.935	88.31
483.153	104.31
483.372	85.31
483.59	96.31
483.808	97.31
484.027	84.31
484.245	93.31
484.463	74.31
484.681	110.31
484.9	98.31
485.118	89.31
485.336	89.31
485.554	98.31
485.772	111.31
485.99	110.31
486.209	109.31
486.427	119.31
486.645	100.31
486.863	96.31
487.081	100.31
487.299	90.31
487.517	97.31
487.735	93.31
487.953	81.31
488.171	98.31
488.389	90.31
488.607	81.31
488.825	95.31
489.043	93.31
489.261	95.31
489.479	83.31
489.696	101.31
489.914	90.31
490.132	93.31
490.35	95.31
490.568	82.31
490.786	93.31
491.003	79.31
491.221	81.31
491.439	104.31
491.657	90.31
491.874	93.31
492.092	95.31
492.31	80.31
492.527	95.31
492.745	82.31
492.963	92.31
493.18	73.31
493.398	93.31
493.615	88.31
493.833	85.31
494.05	89.31
494.268	91.31
494.485	92.31
494.703	104.31
494.92	89.31
495.138	94.31
495.355	84.31
495.573	94.31
495.79	87.31
496.008	100.31
496.225	102.31
496.442	94.31
496.66	93.31
496.877	84.31
497.094	90.31
497.312	104.31
497.529	90.31
497.746	108.31
497.963	91.31
498.181	91.31
498.398	94.31
498.615	98.31
498.832	104.31
499.049	78.31
499.267	80.31
499.484	91.31
499.701	76.31
499.918	91.31
500.135	99.31
500.352	94.31
500.569	89.31
500.786	79.31
501.003	83.31
501.22	95.31
501.437	93.31
501.654	106.31
501.871	93.31
502.088	81.31
502.305	87.31
502.522	95.31
502.739	96.31
502.956	108.31
503.172	104.31
503.389	97.31
503.606	95.31
503.823	94.31
504.04	108.31
504.256	90.31
504.473	88.31
504.69	88.31
504.907	88.31
505.123	83.31
505.34	99.31
505.557	81.31
505.773	88.31
505.99	106.31
506.207	103.31
506.423	71.31
506.64	76.31
506.856	92.31
507.073	86.31
507.289	84.31
507.506	103.31
507.722	127.31
507.939	114.31
508.155	98.31
508.372	89.31
508.588	81.31
508.805	98.31
509.021	91.31
509.238	94.31
509.454	106.31
509.67	95.31
509.887	98.31
510.103	130.31
510.319	232.31
510.536	804.31
510.752	2748.31
510.968	719.31
511.184	173.31
511.401	105.31
511.617	89.31
511.833	86.31
512.049	80.31
512.265	80.31
512.481	93.31
512.698	87.31
512.914	103.31
513.13	90.31
513.346	88.31
513.562	92.31
513.778	96.31
513.994	97.31
514.21	98.31
514.426	114.31
514.642	139.31
514.858	141.31
515.074	188.31
