Data from Circ_1996_H10_HRD10591_00067.txt Node
Date: Wed Jan 03 11:33:19 EST 2024
User: Yrep
Spectrometer: HR+D1059
Trigger mode: 1
Integration Time (sec): 1.000000E-1
Scans to average: 1
Electric dark correction enabled: true
Nonlinearity correction enabled: false
Boxcar width: 0
XAxis mode: Wavelengths
Number of Pixels in Spectrum: 2048
>>>>>Begin Spectral Data<<<<<
223.165	-8.06
223.4	-8.06
223.635	-8.06
223.869	-21.06
224.104	-26.06
224.338	-5.06
224.573	-16.06
224.808	-12.06
225.042	4.94
225.277	-6.06
225.511	-4.06
225.746	9.94
225.98	1.94
226.215	9.94
226.449	19.94
226.683	17.94
226.918	17.94
227.152	15.94
227.387	28.94
227.621	29.94
227.856	42.94
228.09	52.94
228.324	44.94
228.559	50.94
228.793	49.94
229.027	62.94
229.262	69.94
229.496	59.94
229.73	89.94
229.964	84.94
230.199	77.94
230.433	61.94
230.667	72.94
230.901	69.94
231.136	75.94
231.37	75.94
231.604	91.94
231.838	71.94
232.072	78.94
232.306	62.94
232.541	82.94
232.775	81.94
233.009	81.94
233.243	94.94
233.477	79.94
233.711	92.94
233.945	76.94
234.179	80.94
234.413	75.94
234.647	59.94
234.881	73.94
235.115	87.94
235.349	72.94
235.583	80.94
235.817	79.94
236.051	73.94
236.285	89.94
236.519	76.94
236.753	92.94
236.987	90.94
237.221	92.94
237.455	75.94
237.689	86.94
237.922	86.94
238.156	76.94
238.39	84.94
238.624	63.94
238.858	80.94
239.091	74.94
239.325	90.94
239.559	90.94
239.793	73.94
240.027	85.94
240.26	74.94
240.494	73.94
240.728	76.94
240.961	86.94
241.195	84.94
241.429	95.94
241.662	77.94
241.896	81.94
242.13	82.94
242.363	79.94
242.597	79.94
242.83	81.94
243.064	87.94
243.298	71.94
243.531	80.94
243.765	75.94
243.998	79.94
244.232	83.94
244.465	74.94
244.699	81.94
244.932	68.94
245.166	74.94
245.399	81.94
245.633	85.94
245.866	84.94
246.099	66.94
246.333	72.94
246.566	75.94
246.8	74.94
247.033	84.94
247.266	76.94
247.5	72.94
247.733	81.94
247.966	93.94
248.2	77.94
248.433	89.94
248.666	75.94
248.899	80.94
249.133	83.94
249.366	107.94
249.599	109.94
249.832	75.94
250.066	84.94
250.299	88.94
250.532	85.94
250.765	81.94
250.998	83.94
251.231	83.94
251.465	75.94
251.698	78.94
251.931	79.94
252.164	82.94
252.397	67.94
252.63	90.94
252.863	79.94
253.096	72.94
253.329	77.94
253.562	74.94
253.795	69.94
254.028	73.94
254.261	74.94
254.494	88.94
254.727	73.94
254.96	82.94
255.193	75.94
255.426	85.94
255.659	92.94
255.892	82.94
256.124	72.94
256.357	80.94
256.59	80.94
256.823	91.94
257.056	79.94
257.289	87.94
257.521	81.94
257.754	81.94
257.987	90.94
258.22	92.94
258.452	95.94
258.685	81.94
258.918	90.94
259.151	81.94
259.383	91.94
259.616	78.94
259.849	81.94
260.081	73.94
260.314	82.94
260.547	81.94
260.779	80.94
261.012	83.94
261.244	90.94
261.477	99.94
261.71	101.94
261.942	125.94
262.175	128.94
262.407	91.94
262.64	73.94
262.872	81.94
263.105	85.94
263.337	87.94
263.57	93.94
263.802	81.94
264.035	83.94
264.267	90.94
264.499	85.94
264.732	80.94
264.964	91.94
265.197	78.94
265.429	84.94
265.661	83.94
265.894	80.94
266.126	77.94
266.358	96.94
266.591	89.94
266.823	81.94
267.055	80.94
267.287	87.94
267.52	82.94
267.752	81.94
267.984	79.94
268.216	80.94
268.448	84.94
268.681	87.94
268.913	85.94
269.145	76.94
269.377	90.94
269.609	91.94
269.841	88.94
270.073	82.94
270.306	81.94
270.538	87.94
270.77	90.94
271.002	87.94
271.234	72.94
271.466	88.94
271.698	79.94
271.93	99.94
272.162	77.94
272.394	80.94
272.626	73.94
272.858	84.94
273.09	80.94
273.322	101.94
273.553	89.94
273.785	97.94
274.017	82.94
274.249	99.94
274.481	81.94
274.713	81.94
274.945	79.94
275.176	87.94
275.408	96.94
275.64	101.94
275.872	99.94
276.104	92.94
276.335	85.94
276.567	101.94
276.799	109.94
277.031	103.94
277.262	71.94
277.494	87.94
277.726	77.94
277.957	83.94
278.189	83.94
278.421	87.94
278.652	64.94
278.884	83.94
279.115	86.94
279.347	84.94
279.579	96.94
279.81	99.94
280.042	99.94
280.273	111.94
280.505	99.94
280.736	81.94
280.968	86.94
281.199	89.94
281.431	96.94
281.662	91.94
281.894	99.94
282.125	106.94
282.356	138.94
282.588	138.94
282.819	107.94
283.051	94.94
283.282	80.94
283.513	92.94
283.745	91.94
283.976	90.94
284.207	89.94
284.439	83.94
284.67	107.94
284.901	101.94
285.132	100.94
285.364	98.94
285.595	80.94
285.826	94.94
286.057	91.94
286.288	94.94
286.52	88.94
286.751	76.94
286.982	74.94
287.213	83.94
287.444	81.94
287.675	71.94
287.906	96.94
288.138	82.94
288.369	107.94
288.6	96.94
288.831	94.94
289.062	94.94
289.293	83.94
289.524	81.94
289.755	82.94
289.986	73.94
290.217	98.94
290.448	84.94
290.679	86.94
290.91	74.94
291.141	84.94
291.371	95.94
291.602	79.94
291.833	85.94
292.064	89.94
292.295	81.94
292.526	96.94
292.757	97.94
292.987	86.94
293.218	85.94
293.449	80.94
293.68	80.94
293.91	77.94
294.141	100.94
294.372	87.94
294.603	98.94
294.833	91.94
295.064	81.94
295.295	79.94
295.525	90.94
295.756	104.94
295.987	111.94
296.217	139.94
296.448	136.94
296.679	95.94
296.909	84.94
297.14	83.94
297.37	90.94
297.601	97.94
297.831	76.94
298.062	85.94
298.292	76.94
298.523	84.94
298.753	79.94
298.984	91.94
299.214	87.94
299.445	91.94
299.675	97.94
299.905	109.94
300.136	93.94
300.366	83.94
300.597	97.94
300.827	94.94
301.057	98.94
301.288	121.94
301.518	90.94
301.748	97.94
301.979	97.94
302.209	91.94
302.439	96.94
302.669	101.94
302.9	87.94
303.13	87.94
303.36	105.94
303.59	94.94
303.82	101.94
304.051	102.94
304.281	85.94
304.511	115.94
304.741	84.94
304.971	87.94
305.201	90.94
305.431	82.94
305.661	88.94
305.891	105.94
306.121	86.94
306.352	104.94
306.582	111.94
306.812	96.94
307.042	97.94
307.272	91.94
307.502	94.94
307.731	100.94
307.961	100.94
308.191	87.94
308.421	97.94
308.651	102.94
308.881	95.94
309.111	93.94
309.341	96.94
309.571	87.94
309.8	85.94
310.03	109.94
310.26	105.94
310.49	102.94
310.72	101.94
310.949	105.94
311.179	96.94
311.409	92.94
311.639	82.94
311.868	125.94
312.098	108.94
312.328	107.94
312.557	95.94
312.787	109.94
313.017	92.94
313.246	97.94
313.476	90.94
313.706	88.94
313.935	100.94
314.165	94.94
314.394	89.94
314.624	93.94
314.853	80.94
315.083	97.94
315.312	98.94
315.542	87.94
315.771	98.94
316.001	88.94
316.23	75.94
316.46	80.94
316.689	88.94
316.919	94.94
317.148	100.94
317.377	89.94
317.607	86.94
317.836	91.94
318.065	103.94
318.295	80.94
318.524	91.94
318.753	98.94
318.983	94.94
319.212	100.94
319.441	93.94
319.67	99.94
319.9	94.94
320.129	79.94
320.358	106.94
320.587	90.94
320.816	109.94
321.046	103.94
321.275	103.94
321.504	99.94
321.733	89.94
321.962	107.94
322.191	120.94
322.42	91.94
322.649	123.94
322.878	127.94
323.108	116.94
323.337	123.94
323.566	119.94
323.795	141.94
324.024	191.94
324.253	332.94
324.482	700.94
324.71	1366.94
324.939	1791.94
325.168	686.94
325.397	227.94
325.626	148.94
325.855	125.94
326.084	130.94
326.313	127.94
326.542	136.94
326.77	207.94
326.999	369.94
327.228	714.94
327.457	1299.94
327.686	1049.94
327.914	340.94
328.143	212.94
328.372	186.94
328.6	148.94
328.829	126.94
329.058	129.94
329.287	130.94
329.515	110.94
329.744	114.94
329.972	119.94
330.201	174.94
330.43	209.94
330.658	141.94
330.887	135.94
331.115	129.94
331.344	106.94
331.572	108.94
331.801	100.94
332.03	104.94
332.258	100.94
332.486	92.94
332.715	101.94
332.943	89.94
333.172	95.94
333.4	85.94
333.629	104.94
333.857	114.94
334.085	128.94
334.314	183.94
334.542	252.94
334.771	235.94
334.999	148.94
335.227	103.94
335.455	110.94
335.684	94.94
335.912	101.94
336.14	101.94
336.369	120.94
336.597	101.94
336.825	75.94
337.053	101.94
337.281	89.94
337.51	89.94
337.738	93.94
337.966	99.94
338.194	104.94
338.422	96.94
338.65	103.94
338.878	84.94
339.106	98.94
339.334	107.94
339.562	93.94
339.79	88.94
340.018	88.94
340.246	92.94
340.474	95.94
340.702	87.94
340.93	84.94
341.158	90.94
341.386	105.94
341.614	121.94
341.842	99.94
342.07	94.94
342.298	82.94
342.526	92.94
342.754	80.94
342.981	91.94
343.209	96.94
343.437	108.94
343.665	92.94
343.893	93.94
344.12	106.94
344.348	87.94
344.576	85.94
344.804	80.94
345.031	100.94
345.259	100.94
345.487	97.94
345.714	94.94
345.942	88.94
346.17	92.94
346.397	106.94
346.625	105.94
346.853	87.94
347.08	91.94
347.308	95.94
347.535	97.94
347.763	99.94
347.99	102.94
348.218	108.94
348.445	89.94
348.673	93.94
348.9	99.94
349.128	97.94
349.355	89.94
349.583	85.94
349.81	99.94
350.037	107.94
350.265	85.94
350.492	107.94
350.72	96.94
350.947	92.94
351.174	112.94
351.402	107.94
351.629	101.94
351.856	100.94
352.083	115.94
352.311	114.94
352.538	115.94
352.765	107.94
352.992	123.94
353.22	114.94
353.447	120.94
353.674	105.94
353.901	110.94
354.128	116.94
354.355	100.94
354.583	103.94
354.81	88.94
355.037	97.94
355.264	80.94
355.491	96.94
355.718	91.94
355.945	85.94
356.172	84.94
356.399	94.94
356.626	92.94
356.853	93.94
357.08	94.94
357.307	105.94
357.534	76.94
357.761	98.94
357.988	101.94
358.215	102.94
358.441	89.94
358.668	92.94
358.895	86.94
359.122	106.94
359.349	89.94
359.576	109.94
359.802	96.94
360.029	95.94
360.256	101.94
360.483	100.94
360.709	99.94
360.936	94.94
361.163	90.94
361.39	104.94
361.616	100.94
361.843	79.94
362.07	96.94
362.296	102.94
362.523	102.94
362.749	83.94
362.976	95.94
363.203	115.94
363.429	83.94
363.656	83.94
363.882	83.94
364.109	81.94
364.335	81.94
364.562	86.94
364.788	86.94
365.015	101.94
365.241	99.94
365.468	97.94
365.694	103.94
365.92	105.94
366.147	107.94
366.373	79.94
366.599	95.94
366.826	95.94
367.052	86.94
367.278	96.94
367.505	98.94
367.731	98.94
367.957	88.94
368.184	83.94
368.41	83.94
368.636	104.94
368.862	132.94
369.089	120.94
369.315	101.94
369.541	89.94
369.767	80.94
369.993	106.94
370.219	91.94
370.445	101.94
370.672	83.94
370.898	73.94
371.124	86.94
371.35	95.94
371.576	88.94
371.802	89.94
372.028	84.94
372.254	94.94
372.48	90.94
372.706	102.94
372.932	89.94
373.158	64.94
373.384	90.94
373.61	79.94
373.835	103.94
374.061	89.94
374.287	86.94
374.513	96.94
374.739	89.94
374.965	76.94
375.191	78.94
375.416	65.94
375.642	90.94
375.868	97.94
376.094	88.94
376.319	84.94
376.545	83.94
376.771	91.94
376.997	94.94
377.222	94.94
377.448	86.94
377.674	78.94
377.899	88.94
378.125	88.94
378.35	83.94
378.576	76.94
378.802	83.94
379.027	100.94
379.253	84.94
379.478	92.94
379.704	77.94
379.929	88.94
380.155	105.94
380.38	97.94
380.606	90.94
380.831	98.94
381.057	101.94
381.282	100.94
381.507	97.94
381.733	91.94
381.958	90.94
382.184	87.94
382.409	95.94
382.634	96.94
382.86	92.94
383.085	97.94
383.31	98.94
383.535	95.94
383.761	116.94
383.986	100.94
384.211	95.94
384.436	89.94
384.662	103.94
384.887	90.94
385.112	103.94
385.337	113.94
385.562	117.94
385.787	108.94
386.013	98.94
386.238	108.94
386.463	99.94
386.688	109.94
386.913	96.94
387.138	94.94
387.363	100.94
387.588	88.94
387.813	101.94
388.038	88.94
388.263	117.94
388.488	120.94
388.713	94.94
388.938	93.94
389.163	101.94
389.387	94.94
389.612	85.94
389.837	90.94
390.062	87.94
390.287	91.94
390.512	82.94
390.736	77.94
390.961	87.94
391.186	101.94
391.411	87.94
391.636	84.94
391.86	82.94
392.085	93.94
392.31	88.94
392.534	101.94
392.759	92.94
392.984	94.94
393.208	93.94
393.433	118.94
393.658	96.94
393.882	85.94
394.107	87.94
394.331	90.94
394.556	99.94
394.78	89.94
395.005	98.94
395.229	95.94
395.454	80.94
395.678	67.94
395.903	79.94
396.127	101.94
396.352	87.94
396.576	105.94
396.801	100.94
397.025	86.94
397.249	78.94
397.474	93.94
397.698	91.94
397.922	85.94
398.147	76.94
398.371	93.94
398.595	84.94
398.82	87.94
399.044	87.94
399.268	73.94
399.492	96.94
399.717	99.94
399.941	87.94
400.165	87.94
400.389	92.94
400.613	87.94
400.837	84.94
401.062	89.94
401.286	107.94
401.51	105.94
401.734	95.94
401.958	87.94
402.182	133.94
402.406	164.94
402.63	120.94
402.854	92.94
403.078	92.94
403.302	93.94
403.526	86.94
403.75	94.94
403.974	90.94
404.198	89.94
404.422	96.94
404.645	64.94
404.869	71.94
405.093	75.94
405.317	101.94
405.541	88.94
405.765	95.94
405.988	136.94
406.212	187.94
406.436	248.94
406.66	161.94
406.883	97.94
407.107	94.94
407.331	99.94
407.555	97.94
407.778	99.94
408.002	88.94
408.226	80.94
408.449	80.94
408.673	80.94
408.896	81.94
409.12	94.94
409.344	100.94
409.567	92.94
409.791	93.94
410.014	98.94
410.238	91.94
410.461	85.94
410.685	90.94
410.908	105.94
411.132	93.94
411.355	91.94
411.578	91.94
411.802	94.94
412.025	82.94
412.249	101.94
412.472	99.94
412.695	105.94
412.919	88.94
413.142	98.94
413.365	92.94
413.589	88.94
413.812	84.94
414.035	88.94
414.258	84.94
414.482	91.94
414.705	80.94
414.928	89.94
415.151	85.94
415.374	104.94
415.597	86.94
415.821	94.94
416.044	78.94
416.267	97.94
416.49	90.94
416.713	83.94
416.936	106.94
417.159	85.94
417.382	103.94
417.605	112.94
417.828	87.94
418.051	94.94
418.274	90.94
418.497	91.94
418.72	95.94
418.943	90.94
419.166	93.94
419.389	78.94
419.611	94.94
419.834	82.94
420.057	96.94
420.28	91.94
420.503	87.94
420.726	88.94
420.948	78.94
421.171	81.94
421.394	91.94
421.617	101.94
421.839	97.94
422.062	98.94
422.285	82.94
422.507	99.94
422.73	90.94
422.953	93.94
423.175	89.94
423.398	107.94
423.621	88.94
423.843	88.94
424.066	72.94
424.288	89.94
424.511	93.94
424.733	95.94
424.956	87.94
425.178	92.94
425.401	111.94
425.623	114.94
425.846	85.94
426.068	76.94
426.291	100.94
426.513	91.94
426.735	89.94
426.958	84.94
427.18	92.94
427.402	120.94
427.625	158.94
427.847	141.94
428.069	110.94
428.292	87.94
428.514	107.94
428.736	84.94
428.958	92.94
429.181	93.94
429.403	89.94
429.625	83.94
429.847	81.94
430.069	105.94
430.292	81.94
430.514	85.94
430.736	97.94
430.958	104.94
431.18	93.94
431.402	81.94
431.624	79.94
431.846	74.94
432.068	75.94
432.29	88.94
432.512	79.94
432.734	87.94
432.956	93.94
433.178	96.94
433.4	91.94
433.622	80.94
433.844	84.94
434.066	85.94
434.287	87.94
434.509	88.94
434.731	96.94
434.953	100.94
435.175	89.94
435.397	73.94
435.618	72.94
435.84	82.94
436.062	117.94
436.284	109.94
436.505	88.94
436.727	89.94
436.949	98.94
437.17	96.94
437.392	97.94
437.614	95.94
437.835	99.94
438.057	106.94
438.278	107.94
438.5	93.94
438.721	96.94
438.943	111.94
439.165	87.94
439.386	88.94
439.608	79.94
439.829	96.94
440.05	96.94
440.272	130.94
440.493	90.94
440.715	100.94
440.936	97.94
441.158	89.94
441.379	87.94
441.6	93.94
441.822	99.94
442.043	81.94
442.264	107.94
442.486	99.94
442.707	95.94
442.928	107.94
443.149	120.94
443.371	125.94
443.592	108.94
443.813	97.94
444.034	101.94
444.255	95.94
444.476	82.94
444.698	81.94
444.919	88.94
445.14	140.94
445.361	103.94
445.582	114.94
445.803	127.94
446.024	127.94
446.245	127.94
446.466	104.94
446.687	90.94
446.908	90.94
447.129	87.94
447.35	83.94
447.571	96.94
447.792	92.94
448.013	104.94
448.234	100.94
448.455	81.94
448.675	97.94
448.896	114.94
449.117	105.94
449.338	84.94
449.559	117.94
449.779	107.94
450	84.94
450.221	82.94
450.442	91.94
450.662	96.94
450.883	91.94
451.104	116.94
451.324	71.94
451.545	89.94
451.766	85.94
451.986	76.94
452.207	73.94
452.428	85.94
452.648	99.94
452.869	103.94
453.089	122.94
453.31	105.94
453.53	85.94
453.751	93.94
453.971	104.94
454.192	104.94
454.412	97.94
454.633	82.94
454.853	89.94
455.073	95.94
455.294	78.94
455.514	90.94
455.734	98.94
455.955	93.94
456.175	91.94
456.395	84.94
456.616	68.94
456.836	81.94
457.056	85.94
457.276	73.94
457.497	82.94
457.717	86.94
457.937	86.94
458.157	86.94
458.377	89.94
458.598	109.94
458.818	156.94
459.038	153.94
459.258	110.94
459.478	90.94
459.698	85.94
459.918	95.94
460.138	97.94
460.358	96.94
460.578	84.94
460.798	101.94
461.018	83.94
461.238	103.94
461.458	73.94
461.678	72.94
461.898	83.94
462.118	90.94
462.338	72.94
462.558	89.94
462.777	83.94
462.997	91.94
463.217	80.94
463.437	71.94
463.657	93.94
463.876	92.94
464.096	95.94
464.316	83.94
464.536	96.94
464.755	107.94
464.975	111.94
465.195	168.94
465.414	164.94
465.634	100.94
465.854	85.94
466.073	85.94
466.293	88.94
466.512	80.94
466.732	87.94
466.951	97.94
467.171	82.94
467.391	100.94
467.61	103.94
467.829	99.94
468.049	123.94
468.268	140.94
468.488	95.94
468.707	90.94
468.927	76.94
469.146	82.94
469.365	84.94
469.585	83.94
469.804	95.94
470.023	93.94
470.243	105.94
470.462	101.94
470.681	119.94
470.901	95.94
471.12	81.94
471.339	71.94
471.558	86.94
471.777	89.94
471.997	115.94
472.216	174.94
472.435	311.94
472.654	126.94
472.873	83.94
473.092	78.94
473.311	85.94
473.53	90.94
473.749	87.94
473.968	88.94
474.187	94.94
474.406	89.94
474.625	103.94
474.844	92.94
475.063	84.94
475.282	82.94
475.501	79.94
475.72	71.94
475.939	90.94
476.158	77.94
476.377	81.94
476.596	90.94
476.814	88.94
477.033	93.94
477.252	93.94
477.471	98.94
477.69	82.94
477.908	89.94
478.127	92.94
478.346	97.94
478.564	79.94
478.783	97.94
479.002	93.94
479.22	88.94
479.439	100.94
479.658	108.94
479.876	110.94
480.095	82.94
480.313	100.94
480.532	95.94
480.751	115.94
480.969	177.94
481.188	504.94
481.406	289.94
481.624	117.94
481.843	87.94
482.061	94.94
482.28	95.94
482.498	81.94
482.717	79.94
482.935	97.94
483.153	87.94
483.372	79.94
483.59	74.94
483.808	89.94
484.027	80.94
484.245	98.94
484.463	92.94
484.681	88.94
484.9	86.94
485.118	91.94
485.336	97.94
485.554	108.94
485.772	94.94
485.99	107.94
486.209	101.94
486.427	99.94
486.645	110.94
486.863	107.94
487.081	89.94
487.299	98.94
487.517	73.94
487.735	86.94
487.953	92.94
488.171	91.94
488.389	106.94
488.607	92.94
488.825	87.94
489.043	99.94
489.261	94.94
489.479	65.94
489.696	83.94
489.914	83.94
490.132	95.94
490.35	82.94
490.568	92.94
490.786	77.94
491.003	82.94
491.221	93.94
491.439	82.94
491.657	88.94
491.874	94.94
492.092	91.94
492.31	89.94
492.527	73.94
492.745	93.94
492.963	96.94
493.18	100.94
493.398	91.94
493.615	100.94
493.833	97.94
494.05	99.94
494.268	94.94
494.485	97.94
494.703	97.94
494.92	89.94
495.138	93.94
495.355	89.94
495.573	98.94
495.79	91.94
496.008	109.94
496.225	94.94
496.442	99.94
496.66	96.94
496.877	93.94
497.094	90.94
497.312	93.94
497.529	91.94
497.746	78.94
497.963	93.94
498.181	91.94
498.398	92.94
498.615	109.94
498.832	111.94
499.049	81.94
499.267	85.94
499.484	91.94
499.701	92.94
499.918	90.94
500.135	96.94
500.352	91.94
500.569	93.94
500.786	80.94
501.003	89.94
501.22	90.94
501.437	93.94
501.654	85.94
501.871	95.94
502.088	88.94
502.305	96.94
502.522	95.94
502.739	91.94
502.956	91.94
503.172	94.94
503.389	90.94
503.606	115.94
503.823	105.94
504.04	90.94
504.256	85.94
504.473	81.94
504.69	89.94
504.907	79.94
505.123	88.94
505.34	91.94
505.557	86.94
505.773	85.94
505.99	91.94
506.207	82.94
506.423	81.94
506.64	79.94
506.856	97.94
507.073	82.94
507.289	103.94
507.506	102.94
507.722	98.94
507.939	111.94
508.155	95.94
508.372	81.94
508.588	99.94
508.805	101.94
509.021	96.94
509.238	86.94
509.454	98.94
509.67	105.94
509.887	115.94
510.103	125.94
510.319	218.94
510.536	877.94
510.752	2911.94
510.968	777.94
511.184	179.94
511.401	112.94
511.617	92.94
511.833	89.94
512.049	96.94
512.265	93.94
512.481	79.94
512.698	80.94
512.914	86.94
513.13	89.94
513.346	77.94
513.562	83.94
513.778	107.94
513.994	95.94
514.21	109.94
514.426	115.94
514.642	134.94
514.858	137.94
515.074	188.94
515.29	481.94
515.506	1660.94
