Data from Circ_1996_H10_HRD10591_00044.txt Node
Date: Wed Jan 03 11:33:14 EST 2024
User: Yrep
Spectrometer: HR+D1059
Trigger mode: 1
Integration Time (sec): 1.000000E-1
Scans to average: 1
Electric dark correction enabled: true
Nonlinearity correction enabled: false
Boxcar width: 0
XAxis mode: Wavelengths
Number of Pixels in Spectrum: 2048
>>>>>Begin Spectral Data<<<<<
223.165	-27.69
223.4	-27.69
223.635	-27.69
223.869	-20.69
224.104	-21.69
224.338	-15.69
224.573	-20.69
224.808	-18.69
225.042	-10.69
225.277	-5.69
225.511	2.31
225.746	5.31
225.98	7.31
226.215	20.31
226.449	18.31
226.683	22.31
226.918	28.31
227.152	37.31
227.387	40.31
227.621	24.31
227.856	47.31
228.09	56.31
228.324	48.31
228.559	54.31
228.793	50.31
229.027	61.31
229.262	68.31
229.496	58.31
229.73	73.31
229.964	78.31
230.199	71.31
230.433	51.31
230.667	74.31
230.901	81.31
231.136	74.31
231.37	76.31
231.604	64.31
231.838	74.31
232.072	81.31
232.306	84.31
232.541	87.31
232.775	69.31
233.009	77.31
233.243	90.31
233.477	80.31
233.711	76.31
233.945	78.31
234.179	73.31
234.413	73.31
234.647	73.31
234.881	87.31
235.115	70.31
235.349	76.31
235.583	65.31
235.817	76.31
236.051	75.31
236.285	93.31
236.519	71.31
236.753	77.31
236.987	86.31
237.221	86.31
237.455	88.31
237.689	72.31
237.922	84.31
238.156	77.31
238.39	80.31
238.624	81.31
238.858	82.31
239.091	66.31
239.325	57.31
239.559	79.31
239.793	79.31
240.027	76.31
240.26	62.31
240.494	74.31
240.728	76.31
240.961	78.31
241.195	83.31
241.429	72.31
241.662	65.31
241.896	72.31
242.13	69.31
242.363	71.31
242.597	65.31
242.83	88.31
243.064	70.31
243.298	80.31
243.531	72.31
243.765	80.31
243.998	77.31
244.232	85.31
244.465	80.31
244.699	84.31
244.932	76.31
245.166	75.31
245.399	57.31
245.633	75.31
245.866	69.31
246.099	77.31
246.333	64.31
246.566	68.31
246.8	74.31
247.033	73.31
247.266	77.31
247.5	71.31
247.733	69.31
247.966	70.31
248.2	64.31
248.433	74.31
248.666	92.31
248.899	79.31
249.133	90.31
249.366	74.31
249.599	84.31
249.832	84.31
250.066	82.31
250.299	81.31
250.532	71.31
250.765	74.31
250.998	61.31
251.231	68.31
251.465	67.31
251.698	74.31
251.931	72.31
252.164	75.31
252.397	68.31
252.63	86.31
252.863	85.31
253.096	75.31
253.329	82.31
253.562	76.31
253.795	85.31
254.028	79.31
254.261	83.31
254.494	84.31
254.727	78.31
254.96	63.31
255.193	62.31
255.426	64.31
255.659	77.31
255.892	92.31
256.124	76.31
256.357	76.31
256.59	75.31
256.823	73.31
257.056	74.31
257.289	90.31
257.521	74.31
257.754	72.31
257.987	84.31
258.22	90.31
258.452	73.31
258.685	66.31
258.918	87.31
259.151	79.31
259.383	88.31
259.616	73.31
259.849	70.31
260.081	78.31
260.314	75.31
260.547	70.31
260.779	89.31
261.012	77.31
261.244	85.31
261.477	98.31
261.71	89.31
261.942	116.31
262.175	108.31
262.407	88.31
262.64	90.31
262.872	77.31
263.105	74.31
263.337	66.31
263.57	89.31
263.802	72.31
264.035	82.31
264.267	87.31
264.499	76.31
264.732	88.31
264.964	77.31
265.197	79.31
265.429	72.31
265.661	76.31
265.894	93.31
266.126	85.31
266.358	81.31
266.591	72.31
266.823	81.31
267.055	87.31
267.287	77.31
267.52	81.31
267.752	69.31
267.984	86.31
268.216	74.31
268.448	89.31
268.681	89.31
268.913	87.31
269.145	84.31
269.377	74.31
269.609	80.31
269.841	96.31
270.073	89.31
270.306	82.31
270.538	84.31
270.77	80.31
271.002	81.31
271.234	87.31
271.466	90.31
271.698	69.31
271.93	93.31
272.162	77.31
272.394	82.31
272.626	80.31
272.858	77.31
273.09	102.31
273.322	87.31
273.553	97.31
273.785	78.31
274.017	79.31
274.249	80.31
274.481	91.31
274.713	81.31
274.945	83.31
275.176	76.31
275.408	93.31
275.64	74.31
275.872	77.31
276.104	61.31
276.335	83.31
276.567	95.31
276.799	96.31
277.031	103.31
277.262	100.31
277.494	76.31
277.726	80.31
277.957	90.31
278.189	80.31
278.421	80.31
278.652	89.31
278.884	90.31
279.115	87.31
279.347	69.31
279.579	77.31
279.81	85.31
280.042	89.31
280.273	84.31
280.505	96.31
280.736	99.31
280.968	87.31
281.199	94.31
281.431	89.31
281.662	82.31
281.894	70.31
282.125	102.31
282.356	110.31
282.588	129.31
282.819	120.31
283.051	94.31
283.282	73.31
283.513	94.31
283.745	81.31
283.976	80.31
284.207	81.31
284.439	85.31
284.67	77.31
284.901	87.31
285.132	91.31
285.364	68.31
285.595	81.31
285.826	82.31
286.057	85.31
286.288	81.31
286.52	85.31
286.751	84.31
286.982	83.31
287.213	88.31
287.444	86.31
287.675	82.31
287.906	85.31
288.138	68.31
288.369	95.31
288.6	91.31
288.831	72.31
289.062	101.31
289.293	88.31
289.524	84.31
289.755	85.31
289.986	83.31
290.217	89.31
290.448	79.31
290.679	86.31
290.91	91.31
291.141	82.31
291.371	92.31
291.602	84.31
291.833	81.31
292.064	82.31
292.295	105.31
292.526	76.31
292.757	89.31
292.987	95.31
293.218	95.31
293.449	92.31
293.68	92.31
293.91	87.31
294.141	94.31
294.372	85.31
294.603	78.31
294.833	89.31
295.064	81.31
295.295	97.31
295.525	81.31
295.756	90.31
295.987	114.31
296.217	136.31
296.448	124.31
296.679	94.31
296.909	95.31
297.14	88.31
297.37	85.31
297.601	77.31
297.831	90.31
298.062	84.31
298.292	82.31
298.523	85.31
298.753	85.31
298.984	81.31
299.214	93.31
299.445	92.31
299.675	92.31
299.905	89.31
300.136	74.31
300.366	89.31
300.597	72.31
300.827	93.31
301.057	106.31
301.288	95.31
301.518	76.31
301.748	96.31
301.979	106.31
302.209	93.31
302.439	90.31
302.669	87.31
302.9	85.31
303.13	79.31
303.36	87.31
303.59	95.31
303.82	93.31
304.051	85.31
304.281	94.31
304.511	79.31
304.741	101.31
304.971	90.31
305.201	80.31
305.431	103.31
305.661	89.31
305.891	91.31
306.121	92.31
306.352	80.31
306.582	94.31
306.812	84.31
307.042	75.31
307.272	101.31
307.502	101.31
307.731	94.31
307.961	84.31
308.191	92.31
308.421	78.31
308.651	91.31
308.881	102.31
309.111	94.31
309.341	96.31
309.571	94.31
309.8	85.31
310.03	95.31
310.26	94.31
310.49	81.31
310.72	108.31
310.949	83.31
311.179	88.31
311.409	87.31
311.639	88.31
311.868	99.31
312.098	95.31
312.328	88.31
312.557	91.31
312.787	97.31
313.017	110.31
313.246	96.31
313.476	90.31
313.706	95.31
313.935	90.31
314.165	90.31
314.394	83.31
314.624	92.31
314.853	96.31
315.083	87.31
315.312	97.31
315.542	80.31
315.771	98.31
316.001	92.31
316.23	78.31
316.46	93.31
316.689	89.31
316.919	77.31
317.148	101.31
317.377	86.31
317.607	91.31
317.836	92.31
318.065	76.31
318.295	96.31
318.524	90.31
318.753	80.31
318.983	95.31
319.212	91.31
319.441	104.31
319.67	90.31
319.9	88.31
320.129	88.31
320.358	105.31
320.587	104.31
320.816	96.31
321.046	86.31
321.275	91.31
321.504	79.31
321.733	88.31
321.962	87.31
322.191	92.31
322.42	95.31
322.649	97.31
322.878	99.31
323.108	104.31
323.337	95.31
323.566	111.31
323.795	121.31
324.024	161.31
324.253	304.31
324.482	607.31
324.71	1165.31
324.939	1544.31
325.168	610.31
325.397	197.31
325.626	128.31
325.855	114.31
326.084	110.31
326.313	117.31
326.542	123.31
326.77	174.31
326.999	327.31
327.228	645.31
327.457	1140.31
327.686	944.31
327.914	284.31
328.143	166.31
328.372	156.31
328.6	119.31
328.829	113.31
329.058	109.31
329.287	111.31
329.515	101.31
329.744	112.31
329.972	115.31
330.201	127.31
330.43	171.31
330.658	125.31
330.887	128.31
331.115	125.31
331.344	115.31
331.572	107.31
331.801	120.31
332.03	93.31
332.258	66.31
332.486	88.31
332.715	92.31
332.943	80.31
333.172	77.31
333.4	101.31
333.629	103.31
333.857	115.31
334.085	129.31
334.314	151.31
334.542	217.31
334.771	180.31
334.999	103.31
335.227	101.31
335.455	93.31
335.684	107.31
335.912	86.31
336.14	94.31
336.369	92.31
336.597	94.31
336.825	93.31
337.053	83.31
337.281	75.31
337.51	97.31
337.738	93.31
337.966	94.31
338.194	98.31
338.422	97.31
338.65	96.31
338.878	88.31
339.106	86.31
339.334	92.31
339.562	92.31
339.79	91.31
340.018	77.31
340.246	79.31
340.474	92.31
340.702	87.31
340.93	89.31
341.158	83.31
341.386	102.31
341.614	88.31
341.842	91.31
342.07	77.31
342.298	71.31
342.526	82.31
342.754	90.31
342.981	99.31
343.209	88.31
343.437	79.31
343.665	89.31
343.893	81.31
344.12	104.31
344.348	97.31
344.576	72.31
344.804	80.31
345.031	103.31
345.259	90.31
345.487	80.31
345.714	105.31
345.942	74.31
346.17	81.31
346.397	80.31
346.625	89.31
346.853	96.31
347.08	89.31
347.308	94.31
347.535	88.31
347.763	95.31
347.99	92.31
348.218	99.31
348.445	98.31
348.673	98.31
348.9	74.31
349.128	85.31
349.355	92.31
349.583	81.31
349.81	93.31
350.037	79.31
350.265	84.31
350.492	82.31
350.72	93.31
350.947	108.31
351.174	98.31
351.402	98.31
351.629	108.31
351.856	87.31
352.083	96.31
352.311	109.31
352.538	106.31
352.765	119.31
352.992	113.31
353.22	107.31
353.447	105.31
353.674	92.31
353.901	91.31
354.128	91.31
354.355	82.31
354.583	87.31
354.81	96.31
355.037	99.31
355.264	95.31
355.491	104.31
355.718	98.31
355.945	101.31
356.172	96.31
356.399	98.31
356.626	103.31
356.853	88.31
357.08	98.31
357.307	89.31
357.534	90.31
357.761	95.31
357.988	96.31
358.215	97.31
358.441	96.31
358.668	91.31
358.895	103.31
359.122	85.31
359.349	80.31
359.576	91.31
359.802	94.31
360.029	99.31
360.256	98.31
360.483	90.31
360.709	78.31
360.936	94.31
361.163	92.31
361.39	90.31
361.616	96.31
361.843	96.31
362.07	81.31
362.296	86.31
362.523	90.31
362.749	88.31
362.976	96.31
363.203	83.31
363.429	96.31
363.656	88.31
363.882	87.31
364.109	82.31
364.335	96.31
364.562	85.31
364.788	83.31
365.015	85.31
365.241	91.31
365.468	92.31
365.694	87.31
365.92	83.31
366.147	87.31
366.373	83.31
366.599	93.31
366.826	81.31
367.052	87.31
367.278	85.31
367.505	94.31
367.731	86.31
367.957	89.31
368.184	84.31
368.41	103.31
368.636	106.31
368.862	97.31
369.089	112.31
369.315	86.31
369.541	80.31
369.767	73.31
369.993	87.31
370.219	89.31
370.445	84.31
370.672	92.31
370.898	77.31
371.124	86.31
371.35	91.31
371.576	72.31
371.802	85.31
372.028	103.31
372.254	84.31
372.48	100.31
372.706	74.31
372.932	86.31
373.158	93.31
373.384	88.31
373.61	79.31
373.835	94.31
374.061	85.31
374.287	84.31
374.513	81.31
374.739	84.31
374.965	96.31
375.191	77.31
375.416	86.31
375.642	79.31
375.868	84.31
376.094	91.31
376.319	85.31
376.545	92.31
376.771	90.31
376.997	98.31
377.222	88.31
377.448	93.31
377.674	88.31
377.899	71.31
378.125	79.31
378.35	85.31
378.576	87.31
378.802	94.31
379.027	102.31
379.253	93.31
379.478	97.31
379.704	98.31
379.929	98.31
380.155	102.31
380.38	93.31
380.606	93.31
380.831	84.31
381.057	97.31
381.282	109.31
381.507	103.31
381.733	99.31
381.958	97.31
382.184	90.31
382.409	110.31
382.634	110.31
382.86	88.31
383.085	98.31
383.31	95.31
383.535	93.31
383.761	95.31
383.986	90.31
384.211	92.31
384.436	93.31
384.662	101.31
384.887	111.31
385.112	100.31
385.337	117.31
385.562	108.31
385.787	109.31
386.013	109.31
386.238	112.31
386.463	105.31
386.688	108.31
386.913	89.31
387.138	111.31
387.363	102.31
387.588	111.31
387.813	110.31
388.038	110.31
388.263	119.31
388.488	103.31
388.713	89.31
388.938	88.31
389.163	96.31
389.387	93.31
389.612	100.31
389.837	96.31
390.062	86.31
390.287	90.31
390.512	102.31
390.736	89.31
390.961	101.31
391.186	103.31
391.411	103.31
391.636	96.31
391.86	85.31
392.085	95.31
392.31	80.31
392.534	82.31
392.759	86.31
392.984	74.31
393.208	88.31
393.433	101.31
393.658	86.31
393.882	74.31
394.107	86.31
394.331	96.31
394.556	92.31
394.78	86.31
395.005	92.31
395.229	78.31
395.454	83.31
395.678	65.31
395.903	81.31
396.127	88.31
396.352	87.31
396.576	85.31
396.801	89.31
397.025	93.31
397.249	80.31
397.474	95.31
397.698	69.31
397.922	81.31
398.147	78.31
398.371	96.31
398.595	85.31
398.82	93.31
399.044	69.31
399.268	77.31
399.492	80.31
399.717	86.31
399.941	79.31
400.165	86.31
400.389	92.31
400.613	91.31
400.837	87.31
401.062	70.31
401.286	71.31
401.51	83.31
401.734	85.31
401.958	94.31
402.182	118.31
402.406	156.31
402.63	116.31
402.854	93.31
403.078	88.31
403.302	84.31
403.526	80.31
403.75	91.31
403.974	84.31
404.198	86.31
404.422	88.31
404.645	82.31
404.869	102.31
405.093	97.31
405.317	76.31
405.541	94.31
405.765	87.31
405.988	104.31
406.212	162.31
406.436	194.31
406.66	133.31
406.883	97.31
407.107	88.31
407.331	87.31
407.555	103.31
407.778	89.31
408.002	95.31
408.226	95.31
408.449	82.31
408.673	88.31
408.896	80.31
409.12	87.31
409.344	74.31
409.567	81.31
409.791	80.31
410.014	82.31
410.238	88.31
410.461	96.31
410.685	91.31
410.908	100.31
411.132	95.31
411.355	86.31
411.578	84.31
411.802	101.31
412.025	86.31
412.249	89.31
412.472	98.31
412.695	98.31
412.919	88.31
413.142	84.31
413.365	87.31
413.589	96.31
413.812	91.31
414.035	95.31
414.258	80.31
414.482	76.31
414.705	91.31
414.928	96.31
415.151	85.31
415.374	97.31
415.597	79.31
415.821	95.31
416.044	71.31
416.267	88.31
416.49	88.31
416.713	77.31
416.936	82.31
417.159	95.31
417.382	85.31
417.605	77.31
417.828	70.31
418.051	87.31
418.274	94.31
418.497	84.31
418.72	79.31
418.943	82.31
419.166	87.31
419.389	81.31
419.611	88.31
419.834	80.31
420.057	87.31
420.28	78.31
420.503	69.31
420.726	91.31
420.948	85.31
421.171	97.31
421.394	87.31
421.617	82.31
421.839	95.31
422.062	79.31
422.285	103.31
422.507	89.31
422.73	92.31
422.953	88.31
423.175	82.31
423.398	84.31
423.621	88.31
423.843	81.31
424.066	88.31
424.288	86.31
424.511	71.31
424.733	92.31
424.956	94.31
425.178	95.31
425.401	90.31
425.623	87.31
425.846	101.31
426.068	100.31
426.291	90.31
426.513	93.31
426.735	92.31
426.958	88.31
427.18	88.31
427.402	117.31
427.625	154.31
427.847	120.31
428.069	95.31
428.292	86.31
428.514	87.31
428.736	84.31
428.958	82.31
429.181	95.31
429.403	75.31
429.625	85.31
429.847	89.31
430.069	91.31
430.292	76.31
430.514	80.31
430.736	85.31
430.958	84.31
431.18	94.31
431.402	72.31
431.624	94.31
431.846	93.31
432.068	81.31
432.29	69.31
432.512	86.31
432.734	88.31
432.956	79.31
433.178	83.31
433.4	86.31
433.622	84.31
433.844	77.31
434.066	81.31
434.287	88.31
434.509	90.31
434.731	85.31
434.953	94.31
435.175	82.31
435.397	90.31
435.618	85.31
435.84	89.31
436.062	104.31
436.284	90.31
436.505	82.31
436.727	86.31
436.949	78.31
437.17	87.31
437.392	90.31
437.614	84.31
437.835	105.31
438.057	112.31
438.278	103.31
438.5	79.31
438.721	113.31
438.943	88.31
439.165	86.31
439.386	93.31
439.608	79.31
439.829	93.31
440.05	109.31
440.272	128.31
440.493	64.31
440.715	82.31
440.936	105.31
441.158	91.31
441.379	84.31
441.6	85.31
441.822	96.31
442.043	90.31
442.264	96.31
442.486	94.31
442.707	92.31
442.928	91.31
443.149	122.31
443.371	116.31
443.592	91.31
443.813	108.31
444.034	98.31
444.255	88.31
444.476	80.31
444.698	85.31
444.919	83.31
445.14	129.31
445.361	111.31
445.582	100.31
445.803	112.31
446.024	109.31
446.245	110.31
446.466	98.31
446.687	88.31
446.908	81.31
447.129	86.31
447.35	90.31
447.571	89.31
447.792	90.31
448.013	91.31
448.234	92.31
448.455	91.31
448.675	94.31
448.896	113.31
449.117	93.31
449.338	90.31
449.559	100.31
449.779	112.31
450	89.31
450.221	86.31
450.442	81.31
450.662	90.31
450.883	101.31
451.104	113.31
451.324	77.31
451.545	86.31
451.766	94.31
451.986	92.31
452.207	89.31
452.428	82.31
452.648	98.31
452.869	102.31
453.089	90.31
453.31	101.31
453.53	101.31
453.751	83.31
453.971	99.31
454.192	88.31
454.412	97.31
454.633	71.31
454.853	97.31
455.073	91.31
455.294	88.31
455.514	83.31
455.734	84.31
455.955	96.31
456.175	86.31
456.395	89.31
456.616	89.31
456.836	81.31
457.056	90.31
457.276	71.31
457.497	88.31
457.717	70.31
457.937	85.31
458.157	86.31
458.377	85.31
458.598	99.31
458.818	133.31
459.038	155.31
459.258	98.31
459.478	84.31
459.698	91.31
459.918	72.31
460.138	70.31
460.358	93.31
460.578	74.31
460.798	91.31
461.018	85.31
461.238	84.31
461.458	73.31
461.678	71.31
461.898	84.31
462.118	72.31
462.338	83.31
462.558	84.31
462.777	80.31
462.997	82.31
463.217	81.31
463.437	74.31
463.657	86.31
463.876	84.31
464.096	71.31
464.316	83.31
464.536	93.31
464.755	90.31
464.975	98.31
465.195	145.31
465.414	132.31
465.634	88.31
465.854	74.31
466.073	89.31
466.293	83.31
466.512	82.31
466.732	83.31
466.951	90.31
467.171	84.31
467.391	81.31
467.61	103.31
467.829	91.31
468.049	115.31
468.268	132.31
468.488	88.31
468.707	73.31
468.927	89.31
469.146	76.31
469.365	78.31
469.585	88.31
469.804	95.31
470.023	92.31
470.243	94.31
470.462	93.31
470.681	103.31
470.901	83.31
471.12	84.31
471.339	74.31
471.558	83.31
471.777	96.31
471.997	85.31
472.216	166.31
472.435	237.31
472.654	110.31
472.873	77.31
473.092	80.31
473.311	93.31
473.53	82.31
473.749	78.31
473.968	79.31
474.187	97.31
474.406	80.31
474.625	85.31
474.844	82.31
475.063	86.31
475.282	86.31
475.501	90.31
475.72	101.31
475.939	89.31
476.158	92.31
476.377	85.31
476.596	77.31
476.814	80.31
477.033	104.31
477.252	85.31
477.471	80.31
477.69	77.31
477.908	78.31
478.127	84.31
478.346	85.31
478.564	106.31
478.783	90.31
479.002	88.31
479.22	73.31
479.439	93.31
479.658	108.31
479.876	86.31
480.095	92.31
480.313	84.31
480.532	86.31
480.751	97.31
480.969	164.31
481.188	389.31
481.406	235.31
481.624	106.31
481.843	82.31
482.061	88.31
482.28	86.31
482.498	77.31
482.717	81.31
482.935	96.31
483.153	86.31
483.372	87.31
483.59	90.31
483.808	84.31
484.027	80.31
484.245	106.31
484.463	66.31
484.681	82.31
484.9	101.31
485.118	93.31
485.336	98.31
485.554	104.31
485.772	90.31
485.99	105.31
486.209	98.31
486.427	100.31
486.645	105.31
486.863	102.31
487.081	106.31
487.299	83.31
487.517	97.31
487.735	95.31
487.953	94.31
488.171	80.31
488.389	93.31
488.607	81.31
488.825	84.31
489.043	86.31
489.261	78.31
489.479	80.31
489.696	72.31
489.914	88.31
490.132	87.31
490.35	83.31
490.568	94.31
490.786	85.31
491.003	104.31
491.221	78.31
491.439	84.31
491.657	95.31
491.874	93.31
492.092	83.31
492.31	85.31
492.527	82.31
492.745	89.31
492.963	81.31
493.18	92.31
493.398	77.31
493.615	78.31
493.833	96.31
494.05	76.31
494.268	72.31
494.485	90.31
494.703	87.31
494.92	82.31
495.138	93.31
495.355	91.31
495.573	78.31
495.79	87.31
496.008	81.31
496.225	86.31
496.442	98.31
496.66	94.31
496.877	97.31
497.094	92.31
497.312	75.31
497.529	96.31
497.746	95.31
497.963	97.31
498.181	90.31
498.398	100.31
498.615	102.31
498.832	103.31
499.049	88.31
499.267	75.31
499.484	70.31
499.701	77.31
499.918	89.31
500.135	110.31
500.352	79.31
500.569	79.31
500.786	82.31
501.003	85.31
501.22	92.31
501.437	74.31
501.654	76.31
501.871	91.31
502.088	93.31
502.305	80.31
502.522	84.31
502.739	80.31
502.956	87.31
503.172	97.31
503.389	96.31
503.606	106.31
503.823	100.31
504.04	93.31
504.256	102.31
504.473	84.31
504.69	88.31
504.907	77.31
505.123	84.31
505.34	95.31
505.557	98.31
505.773	84.31
505.99	97.31
506.207	77.31
506.423	88.31
506.64	92.31
506.856	96.31
507.073	100.31
507.289	89.31
507.506	95.31
507.722	87.31
507.939	95.31
508.155	102.31
508.372	81.31
508.588	91.31
508.805	99.31
509.021	92.31
509.238	94.31
509.454	104.31
509.67	83.31
509.887	116.31
510.103	132.31
510.319	207.31
510.536	761.31
510.752	2448.31
510.968	656.31
511.184	143.31
511.401	103.31
511.617	96.31
511.833	99.31
512.049	89.31
512.265	94.31
512.481	80.31
512.698	99.31
512.914	91.31
513.13	84.31
513.346	81.31
513.562	85.31
513.778	82.31
513.994	97.31
514.21	94.31
514.426	113.31
514.642	119.31
514.858	129.31
515.074	157.31
515.29	383.31
515.506	1365.31
515.721	497.31
515.937	148.31
516.153	110.31
516.369	101.31
516.585	78.31
516.801	94.31
517.016	89.31
