Data from Circ_1996_H10_HRD10591_00029.txt Node
Date: Wed Jan 03 11:33:11 EST 2024
User: Yrep
Spectrometer: HR+D1059
Trigger mode: 1
Integration Time (sec): 1.000000E-1
Scans to average: 1
Electric dark correction enabled: true
Nonlinearity correction enabled: false
Boxcar width: 0
XAxis mode: Wavelengths
Number of Pixels in Spectrum: 2048
>>>>>Begin Spectral Data<<<<<
223.165	-6.19
223.4	-6.19
223.635	-6.19
223.869	-11.19
224.104	-17.19
224.338	-19.19
224.573	-17.19
224.808	-7.19
225.042	-12.19
225.277	-0.19
225.511	-9.19
225.746	2.81
225.98	2.81
226.215	2.81
226.449	17.81
226.683	15.81
226.918	21.81
227.152	35.81
227.387	25.81
227.621	27.81
227.856	34.81
228.09	43.81
228.324	39.81
228.559	49.81
228.793	76.81
229.027	60.81
229.262	50.81
229.496	77.81
229.73	77.81
229.964	81.81
230.199	75.81
230.433	81.81
230.667	86.81
230.901	74.81
231.136	74.81
231.37	79.81
231.604	78.81
231.838	86.81
232.072	81.81
232.306	79.81
232.541	77.81
232.775	73.81
233.009	77.81
233.243	71.81
233.477	81.81
233.711	78.81
233.945	94.81
234.179	90.81
234.413	72.81
234.647	85.81
234.881	67.81
235.115	81.81
235.349	87.81
235.583	78.81
235.817	77.81
236.051	83.81
236.285	82.81
236.519	79.81
236.753	77.81
236.987	80.81
237.221	77.81
237.455	82.81
237.689	77.81
237.922	55.81
238.156	73.81
238.39	74.81
238.624	74.81
238.858	75.81
239.091	74.81
239.325	86.81
239.559	71.81
239.793	68.81
240.027	71.81
240.26	79.81
240.494	75.81
240.728	80.81
240.961	82.81
241.195	78.81
241.429	92.81
241.662	75.81
241.896	71.81
242.13	78.81
242.363	73.81
242.597	77.81
242.83	81.81
243.064	78.81
243.298	77.81
243.531	71.81
243.765	85.81
243.998	64.81
244.232	84.81
244.465	87.81
244.699	72.81
244.932	69.81
245.166	89.81
245.399	79.81
245.633	78.81
245.866	95.81
246.099	74.81
246.333	74.81
246.566	84.81
246.8	65.81
247.033	76.81
247.266	80.81
247.5	76.81
247.733	74.81
247.966	72.81
248.2	80.81
248.433	86.81
248.666	89.81
248.899	89.81
249.133	73.81
249.366	88.81
249.599	87.81
249.832	81.81
250.066	76.81
250.299	86.81
250.532	92.81
250.765	77.81
250.998	73.81
251.231	71.81
251.465	81.81
251.698	76.81
251.931	85.81
252.164	69.81
252.397	75.81
252.63	82.81
252.863	87.81
253.096	81.81
253.329	90.81
253.562	70.81
253.795	78.81
254.028	67.81
254.261	79.81
254.494	82.81
254.727	84.81
254.96	81.81
255.193	88.81
255.426	77.81
255.659	78.81
255.892	91.81
256.124	77.81
256.357	80.81
256.59	89.81
256.823	94.81
257.056	79.81
257.289	83.81
257.521	85.81
257.754	81.81
257.987	78.81
258.22	78.81
258.452	74.81
258.685	87.81
258.918	65.81
259.151	86.81
259.383	88.81
259.616	81.81
259.849	71.81
260.081	86.81
260.314	81.81
260.547	84.81
260.779	87.81
261.012	82.81
261.244	72.81
261.477	82.81
261.71	94.81
261.942	92.81
262.175	110.81
262.407	91.81
262.64	78.81
262.872	77.81
263.105	89.81
263.337	76.81
263.57	82.81
263.802	85.81
264.035	87.81
264.267	86.81
264.499	76.81
264.732	91.81
264.964	90.81
265.197	75.81
265.429	73.81
265.661	78.81
265.894	87.81
266.126	68.81
266.358	80.81
266.591	84.81
266.823	81.81
267.055	88.81
267.287	87.81
267.52	74.81
267.752	88.81
267.984	90.81
268.216	88.81
268.448	80.81
268.681	70.81
268.913	92.81
269.145	85.81
269.377	83.81
269.609	82.81
269.841	87.81
270.073	73.81
270.306	75.81
270.538	80.81
270.77	86.81
271.002	88.81
271.234	86.81
271.466	92.81
271.698	80.81
271.93	78.81
272.162	90.81
272.394	107.81
272.626	84.81
272.858	104.81
273.09	98.81
273.322	82.81
273.553	84.81
273.785	89.81
274.017	85.81
274.249	90.81
274.481	88.81
274.713	81.81
274.945	84.81
275.176	74.81
275.408	77.81
275.64	87.81
275.872	97.81
276.104	90.81
276.335	81.81
276.567	104.81
276.799	105.81
277.031	98.81
277.262	91.81
277.494	94.81
277.726	86.81
277.957	90.81
278.189	94.81
278.421	89.81
278.652	81.81
278.884	78.81
279.115	85.81
279.347	86.81
279.579	78.81
279.81	74.81
280.042	86.81
280.273	105.81
280.505	77.81
280.736	97.81
280.968	83.81
281.199	101.81
281.431	88.81
281.662	83.81
281.894	97.81
282.125	110.81
282.356	123.81
282.588	133.81
282.819	107.81
283.051	96.81
283.282	103.81
283.513	83.81
283.745	82.81
283.976	96.81
284.207	81.81
284.439	81.81
284.67	94.81
284.901	80.81
285.132	86.81
285.364	87.81
285.595	86.81
285.826	83.81
286.057	73.81
286.288	77.81
286.52	88.81
286.751	87.81
286.982	89.81
287.213	79.81
287.444	97.81
287.675	79.81
287.906	81.81
288.138	87.81
288.369	86.81
288.6	70.81
288.831	82.81
289.062	83.81
289.293	78.81
289.524	70.81
289.755	83.81
289.986	77.81
290.217	75.81
290.448	91.81
290.679	85.81
290.91	94.81
291.141	91.81
291.371	89.81
291.602	77.81
291.833	78.81
292.064	84.81
292.295	93.81
292.526	96.81
292.757	91.81
292.987	82.81
293.218	96.81
293.449	94.81
293.68	69.81
293.91	82.81
294.141	76.81
294.372	86.81
294.603	80.81
294.833	102.81
295.064	94.81
295.295	82.81
295.525	94.81
295.756	96.81
295.987	124.81
296.217	143.81
296.448	139.81
296.679	94.81
296.909	104.81
297.14	99.81
297.37	87.81
297.601	81.81
297.831	90.81
298.062	88.81
298.292	78.81
298.523	81.81
298.753	85.81
298.984	96.81
299.214	91.81
299.445	67.81
299.675	88.81
299.905	86.81
300.136	79.81
300.366	94.81
300.597	80.81
300.827	103.81
301.057	92.81
301.288	94.81
301.518	92.81
301.748	99.81
301.979	99.81
302.209	92.81
302.439	79.81
302.669	94.81
302.9	83.81
303.13	88.81
303.36	94.81
303.59	97.81
303.82	95.81
304.051	90.81
304.281	77.81
304.511	78.81
304.741	86.81
304.971	81.81
305.201	85.81
305.431	82.81
305.661	80.81
305.891	88.81
306.121	96.81
306.352	84.81
306.582	124.81
306.812	89.81
307.042	91.81
307.272	89.81
307.502	101.81
307.731	104.81
307.961	100.81
308.191	88.81
308.421	81.81
308.651	98.81
308.881	99.81
309.111	101.81
309.341	99.81
309.571	98.81
309.8	85.81
310.03	93.81
310.26	93.81
310.49	95.81
310.72	88.81
310.949	111.81
311.179	100.81
311.409	77.81
311.639	83.81
311.868	84.81
312.098	90.81
312.328	84.81
312.557	106.81
312.787	106.81
313.017	107.81
313.246	92.81
313.476	87.81
313.706	97.81
313.935	76.81
314.165	91.81
314.394	83.81
314.624	107.81
314.853	88.81
315.083	88.81
315.312	87.81
315.542	82.81
315.771	85.81
316.001	87.81
316.23	86.81
316.46	89.81
316.689	93.81
316.919	93.81
317.148	87.81
317.377	85.81
317.607	86.81
317.836	74.81
318.065	75.81
318.295	92.81
318.524	85.81
318.753	83.81
318.983	104.81
319.212	111.81
319.441	98.81
319.67	102.81
319.9	85.81
320.129	92.81
320.358	104.81
320.587	99.81
320.816	89.81
321.046	98.81
321.275	99.81
321.504	89.81
321.733	98.81
321.962	95.81
322.191	95.81
322.42	91.81
322.649	99.81
322.878	102.81
323.108	104.81
323.337	106.81
323.566	128.81
323.795	126.81
324.024	166.81
324.253	304.81
324.482	551.81
324.71	1170.81
324.939	1493.81
325.168	587.81
325.397	189.81
325.626	133.81
325.855	103.81
326.084	113.81
326.313	123.81
326.542	137.81
326.77	189.81
326.999	316.81
327.228	631.81
327.457	1099.81
327.686	910.81
327.914	283.81
328.143	187.81
328.372	155.81
328.6	128.81
328.829	103.81
329.058	116.81
329.287	117.81
329.515	98.81
329.744	108.81
329.972	114.81
330.201	138.81
330.43	172.81
330.658	147.81
330.887	144.81
331.115	109.81
331.344	86.81
331.572	98.81
331.801	104.81
332.03	82.81
332.258	92.81
332.486	78.81
332.715	91.81
332.943	92.81
333.172	85.81
333.4	99.81
333.629	106.81
333.857	110.81
334.085	120.81
334.314	162.81
334.542	201.81
334.771	190.81
334.999	130.81
335.227	91.81
335.455	86.81
335.684	105.81
335.912	97.81
336.14	85.81
336.369	91.81
336.597	102.81
336.825	98.81
337.053	96.81
337.281	83.81
337.51	98.81
337.738	90.81
337.966	79.81
338.194	101.81
338.422	102.81
338.65	79.81
338.878	72.81
339.106	86.81
339.334	94.81
339.562	87.81
339.79	63.81
340.018	82.81
340.246	95.81
340.474	88.81
340.702	89.81
340.93	91.81
341.158	92.81
341.386	93.81
341.614	94.81
341.842	88.81
342.07	95.81
342.298	105.81
342.526	87.81
342.754	83.81
342.981	83.81
343.209	95.81
343.437	91.81
343.665	94.81
343.893	86.81
344.12	94.81
344.348	102.81
344.576	91.81
344.804	92.81
345.031	71.81
345.259	87.81
345.487	83.81
345.714	76.81
345.942	79.81
346.17	108.81
346.397	100.81
346.625	92.81
346.853	100.81
347.08	84.81
347.308	85.81
347.535	88.81
347.763	100.81
347.99	88.81
348.218	98.81
348.445	91.81
348.673	93.81
348.9	92.81
349.128	91.81
349.355	89.81
349.583	88.81
349.81	82.81
350.037	106.81
350.265	90.81
350.492	100.81
350.72	81.81
350.947	91.81
351.174	96.81
351.402	91.81
351.629	96.81
351.856	90.81
352.083	90.81
352.311	104.81
352.538	99.81
352.765	105.81
352.992	114.81
353.22	117.81
353.447	99.81
353.674	105.81
353.901	96.81
354.128	92.81
354.355	99.81
354.583	106.81
354.81	102.81
355.037	91.81
355.264	97.81
355.491	78.81
355.718	87.81
355.945	93.81
356.172	97.81
356.399	104.81
356.626	90.81
356.853	95.81
357.08	95.81
357.307	102.81
357.534	102.81
357.761	70.81
357.988	105.81
358.215	98.81
358.441	91.81
358.668	92.81
358.895	91.81
359.122	96.81
359.349	95.81
359.576	90.81
359.802	96.81
360.029	107.81
360.256	101.81
360.483	73.81
360.709	99.81
360.936	94.81
361.163	92.81
361.39	92.81
361.616	83.81
361.843	78.81
362.07	87.81
362.296	86.81
362.523	88.81
362.749	93.81
362.976	94.81
363.203	90.81
363.429	85.81
363.656	94.81
363.882	80.81
364.109	89.81
364.335	85.81
364.562	90.81
364.788	85.81
365.015	95.81
365.241	108.81
365.468	95.81
365.694	103.81
365.92	91.81
366.147	84.81
366.373	93.81
366.599	78.81
366.826	87.81
367.052	90.81
367.278	82.81
367.505	84.81
367.731	99.81
367.957	98.81
368.184	79.81
368.41	96.81
368.636	109.81
368.862	111.81
369.089	94.81
369.315	97.81
369.541	85.81
369.767	92.81
369.993	96.81
370.219	79.81
370.445	92.81
370.672	85.81
370.898	93.81
371.124	87.81
371.35	81.81
371.576	62.81
371.802	89.81
372.028	85.81
372.254	91.81
372.48	85.81
372.706	68.81
372.932	87.81
373.158	81.81
373.384	86.81
373.61	99.81
373.835	109.81
374.061	91.81
374.287	89.81
374.513	85.81
374.739	86.81
374.965	90.81
375.191	77.81
375.416	83.81
375.642	105.81
375.868	87.81
376.094	89.81
376.319	81.81
376.545	86.81
376.771	89.81
376.997	95.81
377.222	72.81
377.448	89.81
377.674	95.81
377.899	94.81
378.125	94.81
378.35	92.81
378.576	91.81
378.802	91.81
379.027	95.81
379.253	87.81
379.478	81.81
379.704	93.81
379.929	88.81
380.155	91.81
380.38	84.81
380.606	79.81
380.831	88.81
381.057	85.81
381.282	106.81
381.507	94.81
381.733	91.81
381.958	96.81
382.184	91.81
382.409	104.81
382.634	94.81
382.86	116.81
383.085	108.81
383.31	105.81
383.535	94.81
383.761	94.81
383.986	104.81
384.211	112.81
384.436	105.81
384.662	121.81
384.887	106.81
385.112	110.81
385.337	107.81
385.562	94.81
385.787	102.81
386.013	109.81
386.238	105.81
386.463	114.81
386.688	119.81
386.913	95.81
387.138	112.81
387.363	105.81
387.588	117.81
387.813	115.81
388.038	107.81
388.263	119.81
388.488	103.81
388.713	92.81
388.938	97.81
389.163	83.81
389.387	86.81
389.612	86.81
389.837	81.81
390.062	83.81
390.287	94.81
390.512	101.81
390.736	91.81
390.961	98.81
391.186	90.81
391.411	78.81
391.636	84.81
391.86	87.81
392.085	93.81
392.31	91.81
392.534	91.81
392.759	85.81
392.984	92.81
393.208	89.81
393.433	103.81
393.658	105.81
393.882	76.81
394.107	83.81
394.331	97.81
394.556	95.81
394.78	93.81
395.005	73.81
395.229	98.81
395.454	85.81
395.678	86.81
395.903	90.81
396.127	81.81
396.352	77.81
396.576	96.81
396.801	85.81
397.025	94.81
397.249	91.81
397.474	82.81
397.698	92.81
397.922	91.81
398.147	93.81
398.371	76.81
398.595	78.81
398.82	87.81
399.044	82.81
399.268	75.81
399.492	84.81
399.717	79.81
399.941	89.81
400.165	77.81
400.389	88.81
400.613	89.81
400.837	89.81
401.062	85.81
401.286	85.81
401.51	76.81
401.734	93.81
401.958	80.81
402.182	125.81
402.406	146.81
402.63	111.81
402.854	109.81
403.078	81.81
403.302	85.81
403.526	85.81
403.75	88.81
403.974	90.81
404.198	88.81
404.422	89.81
404.645	87.81
404.869	95.81
405.093	90.81
405.317	102.81
405.541	99.81
405.765	88.81
405.988	114.81
406.212	165.81
406.436	224.81
406.66	139.81
406.883	96.81
407.107	80.81
407.331	98.81
407.555	87.81
407.778	94.81
408.002	87.81
408.226	84.81
408.449	82.81
408.673	96.81
408.896	82.81
409.12	90.81
409.344	95.81
409.567	96.81
409.791	88.81
410.014	96.81
410.238	91.81
410.461	106.81
410.685	87.81
410.908	106.81
411.132	90.81
411.355	99.81
411.578	70.81
411.802	85.81
412.025	85.81
412.249	87.81
412.472	93.81
412.695	88.81
412.919	88.81
413.142	91.81
413.365	87.81
413.589	90.81
413.812	97.81
414.035	85.81
414.258	84.81
414.482	93.81
414.705	90.81
414.928	79.81
415.151	91.81
415.374	83.81
415.597	94.81
415.821	79.81
416.044	93.81
416.267	75.81
416.49	79.81
416.713	83.81
416.936	92.81
417.159	89.81
417.382	90.81
417.605	82.81
417.828	86.81
418.051	88.81
418.274	95.81
418.497	93.81
418.72	73.81
418.943	73.81
419.166	98.81
419.389	83.81
419.611	93.81
419.834	91.81
420.057	96.81
420.28	81.81
420.503	82.81
420.726	84.81
420.948	78.81
421.171	83.81
421.394	92.81
421.617	97.81
421.839	81.81
422.062	88.81
422.285	87.81
422.507	99.81
422.73	93.81
422.953	80.81
423.175	96.81
423.398	86.81
423.621	78.81
423.843	86.81
424.066	102.81
424.288	94.81
424.511	88.81
424.733	96.81
424.956	89.81
425.178	91.81
425.401	86.81
425.623	89.81
425.846	82.81
426.068	98.81
426.291	90.81
426.513	87.81
426.735	107.81
426.958	80.81
427.18	92.81
427.402	123.81
427.625	153.81
427.847	121.81
428.069	98.81
428.292	100.81
428.514	94.81
428.736	89.81
428.958	85.81
429.181	89.81
429.403	85.81
429.625	73.81
429.847	92.81
430.069	93.81
430.292	93.81
430.514	88.81
430.736	75.81
430.958	99.81
431.18	90.81
431.402	93.81
431.624	92.81
431.846	80.81
432.068	90.81
432.29	85.81
432.512	80.81
432.734	104.81
432.956	77.81
433.178	77.81
433.4	96.81
433.622	103.81
433.844	89.81
434.066	99.81
434.287	88.81
434.509	92.81
434.731	88.81
434.953	83.81
435.175	91.81
435.397	93.81
435.618	89.81
435.84	91.81
436.062	94.81
436.284	94.81
436.505	105.81
436.727	82.81
436.949	94.81
437.17	96.81
437.392	82.81
437.614	90.81
437.835	85.81
438.057	105.81
438.278	96.81
438.5	93.81
438.721	103.81
438.943	110.81
439.165	93.81
439.386	94.81
439.608	80.81
439.829	90.81
440.05	114.81
440.272	131.81
440.493	85.81
440.715	98.81
440.936	80.81
441.158	91.81
441.379	91.81
441.6	101.81
441.822	89.81
442.043	97.81
442.264	96.81
442.486	95.81
442.707	93.81
442.928	104.81
443.149	106.81
443.371	114.81
443.592	98.81
443.813	97.81
444.034	111.81
444.255	89.81
444.476	75.81
444.698	87.81
444.919	92.81
445.14	145.81
445.361	128.81
445.582	97.81
445.803	122.81
446.024	127.81
446.245	113.81
446.466	98.81
446.687	89.81
446.908	78.81
447.129	90.81
447.35	85.81
447.571	85.81
447.792	94.81
448.013	87.81
448.234	86.81
448.455	99.81
448.675	107.81
448.896	97.81
449.117	93.81
449.338	97.81
449.559	117.81
449.779	105.81
450	89.81
450.221	93.81
450.442	94.81
450.662	89.81
450.883	93.81
451.104	114.81
451.324	95.81
451.545	88.81
451.766	79.81
451.986	91.81
452.207	92.81
452.428	97.81
452.648	112.81
452.869	111.81
453.089	114.81
453.31	102.81
453.53	92.81
453.751	88.81
453.971	96.81
454.192	107.81
454.412	90.81
454.633	83.81
454.853	94.81
455.073	83.81
455.294	82.81
455.514	90.81
455.734	86.81
455.955	86.81
456.175	65.81
456.395	88.81
456.616	81.81
456.836	83.81
457.056	88.81
457.276	73.81
457.497	83.81
457.717	92.81
457.937	88.81
458.157	94.81
458.377	75.81
458.598	98.81
458.818	132.81
459.038	148.81
459.258	98.81
459.478	86.81
459.698	87.81
459.918	93.81
460.138	88.81
460.358	91.81
460.578	96.81
460.798	96.81
461.018	96.81
461.238	75.81
461.458	85.81
461.678	81.81
461.898	89.81
462.118	81.81
462.338	78.81
462.558	78.81
462.777	84.81
462.997	81.81
463.217	81.81
463.437	89.81
463.657	78.81
463.876	85.81
464.096	82.81
464.316	85.81
464.536	88.81
464.755	95.81
464.975	95.81
465.195	142.81
465.414	124.81
465.634	69.81
465.854	92.81
466.073	83.81
466.293	80.81
466.512	63.81
466.732	90.81
466.951	75.81
467.171	94.81
467.391	99.81
467.61	112.81
467.829	86.81
468.049	119.81
468.268	127.81
468.488	104.81
468.707	81.81
468.927	94.81
469.146	78.81
469.365	78.81
469.585	89.81
469.804	87.81
470.023	87.81
470.243	101.81
470.462	102.81
470.681	99.81
470.901	80.81
471.12	96.81
471.339	77.81
471.558	84.81
471.777	93.81
471.997	92.81
472.216	152.81
472.435	245.81
472.654	121.81
472.873	93.81
473.092	88.81
473.311	80.81
473.53	85.81
473.749	78.81
473.968	104.81
474.187	109.81
474.406	101.81
474.625	83.81
474.844	97.81
475.063	87.81
475.282	98.81
475.501	92.81
475.72	95.81
475.939	83.81
476.158	74.81
476.377	96.81
476.596	96.81
476.814	79.81
477.033	96.81
477.252	79.81
477.471	88.81
477.69	82.81
477.908	90.81
478.127	98.81
478.346	81.81
478.564	74.81
478.783	80.81
479.002	86.81
479.22	94.81
479.439	98.81
479.658	99.81
479.876	88.81
480.095	86.81
480.313	101.81
480.532	98.81
480.751	109.81
480.969	162.81
481.188	367.81
481.406	248.81
481.624	115.81
481.843	102.81
482.061	82.81
482.28	88.81
482.498	92.81
482.717	82.81
482.935	85.81
483.153	104.81
483.372	86.81
483.59	85.81
483.808	78.81
484.027	98.81
484.245	74.81
484.463	84.81
484.681	91.81
484.9	112.81
485.118	103.81
485.336	101.81
485.554	89.81
485.772	109.81
485.99	99.81
486.209	100.81
486.427	108.81
486.645	118.81
486.863	101.81
487.081	92.81
487.299	95.81
487.517	94.81
487.735	95.81
487.953	106.81
488.171	99.81
488.389	99.81
488.607	109.81
488.825	101.81
489.043	90.81
489.261	80.81
489.479	89.81
489.696	90.81
489.914	95.81
490.132	94.81
490.35	83.81
490.568	98.81
490.786	84.81
491.003	86.81
491.221	79.81
491.439	91.81
491.657	90.81
491.874	96.81
492.092	90.81
492.31	90.81
492.527	100.81
492.745	98.81
492.963	89.81
493.18	89.81
493.398	84.81
493.615	86.81
493.833	105.81
494.05	80.81
494.268	84.81
494.485	79.81
494.703	70.81
494.92	95.81
495.138	77.81
495.355	91.81
495.573	101.81
495.79	80.81
496.008	91.81
496.225	92.81
496.442	79.81
496.66	105.81
496.877	91.81
497.094	97.81
497.312	88.81
497.529	100.81
497.746	73.81
497.963	63.81
498.181	89.81
498.398	101.81
498.615	97.81
498.832	110.81
499.049	83.81
499.267	79.81
499.484	86.81
499.701	77.81
499.918	79.81
500.135	83.81
500.352	81.81
500.569	87.81
500.786	94.81
501.003	94.81
501.22	98.81
501.437	74.81
501.654	88.81
501.871	102.81
502.088	101.81
502.305	99.81
502.522	89.81
502.739	78.81
502.956	93.81
503.172	97.81
503.389	105.81
503.606	113.81
503.823	89.81
504.04	89.81
504.256	87.81
504.473	95.81
504.69	101.81
504.907	96.81
505.123	89.81
505.34	95.81
505.557	84.81
505.773	81.81
505.99	89.81
506.207	88.81
506.423	97.81
506.64	85.81
506.856	94.81
507.073	81.81
507.289	99.81
507.506	87.81
507.722	108.81
507.939	97.81
508.155	108.81
508.372	98.81
508.588	95.81
508.805	93.81
509.021	88.81
509.238	94.81
509.454	93.81
509.67	122.81
509.887	112.81
510.103	137.81
510.319	208.81
510.536	728.81
510.752	2389.81
510.968	665.81
511.184	144.81
511.401	119.81
511.617	97.81
511.833	91.81
512.049	94.81
512.265	105.81
512.481	85.81
512.698	77.81
512.914	87.81
513.13	93.81
513.346	95.81
513.562	88.81
513.778	101.81
513.994	95.81
514.21	101.81
514.426	125.81
514.642	119.81
514.858	115.81
515.074	160.81
515.29	428.81
515.506	1349.81
515.721	480.81
515.937	141.81
516.153	107.81
516.369	81.81
516.585	96.81
