Data from Circ_1996_H10_HRD10591_00094.txt Node
Date: Wed Jan 03 11:33:24 EST 2024
User: Yrep
Spectrometer: HR+D1059
Trigger mode: 1
Integration Time (sec): 1.000000E-1
Scans to average: 1
Electric dark correction enabled: true
Nonlinearity correction enabled: false
Boxcar width: 0
XAxis mode: Wavelengths
Number of Pixels in Spectrum: 2048
>>>>>Begin Spectral Data<<<<<
223.165	-25.69
223.4	-25.69
223.635	-25.69
223.869	-19.69
224.104	-19.69
224.338	-22.69
224.573	-23.69
224.808	-3.69
225.042	-14.69
225.277	-18.69
225.511	-13.69
225.746	10.31
225.98	30.31
226.215	10.31
226.449	17.31
226.683	31.31
226.918	20.31
227.152	42.31
227.387	36.31
227.621	32.31
227.856	66.31
228.09	48.31
228.324	53.31
228.559	53.31
228.793	73.31
229.027	67.31
229.262	65.31
229.496	70.31
229.73	76.31
229.964	85.31
230.199	89.31
230.433	74.31
230.667	77.31
230.901	80.31
231.136	85.31
231.37	84.31
231.604	96.31
231.838	88.31
232.072	86.31
232.306	82.31
232.541	74.31
232.775	83.31
233.009	83.31
233.243	85.31
233.477	80.31
233.711	83.31
233.945	82.31
234.179	76.31
234.413	85.31
234.647	74.31
234.881	82.31
235.115	95.31
235.349	77.31
235.583	84.31
235.817	88.31
236.051	83.31
236.285	78.31
236.519	89.31
236.753	75.31
236.987	91.31
237.221	88.31
237.455	95.31
237.689	92.31
237.922	83.31
238.156	72.31
238.39	77.31
238.624	74.31
238.858	77.31
239.091	84.31
239.325	65.31
239.559	67.31
239.793	81.31
240.027	74.31
240.26	80.31
240.494	82.31
240.728	75.31
240.961	64.31
241.195	89.31
241.429	78.31
241.662	80.31
241.896	78.31
242.13	61.31
242.363	84.31
242.597	84.31
242.83	72.31
243.064	81.31
243.298	77.31
243.531	66.31
243.765	83.31
243.998	80.31
244.232	71.31
244.465	89.31
244.699	90.31
244.932	80.31
245.166	90.31
245.399	84.31
245.633	90.31
245.866	75.31
246.099	91.31
246.333	76.31
246.566	88.31
246.8	74.31
247.033	94.31
247.266	87.31
247.5	66.31
247.733	99.31
247.966	73.31
248.2	94.31
248.433	66.31
248.666	68.31
248.899	79.31
249.133	79.31
249.366	81.31
249.599	88.31
249.832	93.31
250.066	94.31
250.299	96.31
250.532	88.31
250.765	85.31
250.998	84.31
251.231	81.31
251.465	81.31
251.698	82.31
251.931	85.31
252.164	85.31
252.397	75.31
252.63	81.31
252.863	84.31
253.096	89.31
253.329	85.31
253.562	88.31
253.795	102.31
254.028	92.31
254.261	74.31
254.494	90.31
254.727	89.31
254.96	84.31
255.193	76.31
255.426	83.31
255.659	72.31
255.892	91.31
256.124	90.31
256.357	75.31
256.59	90.31
256.823	97.31
257.056	80.31
257.289	77.31
257.521	78.31
257.754	69.31
257.987	89.31
258.22	87.31
258.452	87.31
258.685	93.31
258.918	84.31
259.151	90.31
259.383	88.31
259.616	80.31
259.849	89.31
260.081	69.31
260.314	84.31
260.547	80.31
260.779	83.31
261.012	86.31
261.244	96.31
261.477	99.31
261.71	89.31
261.942	113.31
262.175	119.31
262.407	109.31
262.64	90.31
262.872	105.31
263.105	101.31
263.337	88.31
263.57	83.31
263.802	92.31
264.035	94.31
264.267	85.31
264.499	92.31
264.732	81.31
264.964	97.31
265.197	85.31
265.429	80.31
265.661	88.31
265.894	84.31
266.126	98.31
266.358	78.31
266.591	89.31
266.823	88.31
267.055	74.31
267.287	80.31
267.52	84.31
267.752	82.31
267.984	95.31
268.216	77.31
268.448	85.31
268.681	89.31
268.913	97.31
269.145	80.31
269.377	89.31
269.609	75.31
269.841	100.31
270.073	80.31
270.306	81.31
270.538	86.31
270.77	99.31
271.002	93.31
271.234	93.31
271.466	95.31
271.698	83.31
271.93	78.31
272.162	99.31
272.394	107.31
272.626	80.31
272.858	69.31
273.09	88.31
273.322	99.31
273.553	89.31
273.785	77.31
274.017	94.31
274.249	84.31
274.481	87.31
274.713	89.31
274.945	90.31
275.176	86.31
275.408	93.31
275.64	81.31
275.872	86.31
276.104	87.31
276.335	81.31
276.567	106.31
276.799	99.31
277.031	102.31
277.262	115.31
277.494	98.31
277.726	103.31
277.957	83.31
278.189	84.31
278.421	86.31
278.652	93.31
278.884	77.31
279.115	87.31
279.347	84.31
279.579	79.31
279.81	90.31
280.042	99.31
280.273	91.31
280.505	98.31
280.736	96.31
280.968	101.31
281.199	91.31
281.431	92.31
281.662	85.31
281.894	92.31
282.125	97.31
282.356	112.31
282.588	126.31
282.819	108.31
283.051	93.31
283.282	78.31
283.513	100.31
283.745	91.31
283.976	90.31
284.207	103.31
284.439	100.31
284.67	89.31
284.901	102.31
285.132	79.31
285.364	87.31
285.595	98.31
285.826	67.31
286.057	93.31
286.288	91.31
286.52	84.31
286.751	86.31
286.982	91.31
287.213	74.31
287.444	104.31
287.675	89.31
287.906	98.31
288.138	97.31
288.369	99.31
288.6	105.31
288.831	84.31
289.062	88.31
289.293	81.31
289.524	85.31
289.755	91.31
289.986	83.31
290.217	84.31
290.448	91.31
290.679	97.31
290.91	77.31
291.141	90.31
291.371	80.31
291.602	92.31
291.833	100.31
292.064	87.31
292.295	95.31
292.526	92.31
292.757	84.31
292.987	99.31
293.218	86.31
293.449	81.31
293.68	76.31
293.91	81.31
294.141	89.31
294.372	84.31
294.603	96.31
294.833	88.31
295.064	78.31
295.295	77.31
295.525	80.31
295.756	102.31
295.987	116.31
296.217	139.31
296.448	118.31
296.679	99.31
296.909	106.31
297.14	94.31
297.37	87.31
297.601	94.31
297.831	89.31
298.062	94.31
298.292	89.31
298.523	83.31
298.753	76.31
298.984	87.31
299.214	95.31
299.445	101.31
299.675	91.31
299.905	86.31
300.136	86.31
300.366	91.31
300.597	102.31
300.827	98.31
301.057	113.31
301.288	105.31
301.518	90.31
301.748	80.31
301.979	97.31
302.209	100.31
302.439	88.31
302.669	96.31
302.9	76.31
303.13	93.31
303.36	99.31
303.59	89.31
303.82	92.31
304.051	100.31
304.281	101.31
304.511	95.31
304.741	82.31
304.971	82.31
305.201	91.31
305.431	95.31
305.661	81.31
305.891	88.31
306.121	105.31
306.352	115.31
306.582	112.31
306.812	91.31
307.042	96.31
307.272	115.31
307.502	106.31
307.731	85.31
307.961	104.31
308.191	93.31
308.421	98.31
308.651	98.31
308.881	78.31
309.111	91.31
309.341	86.31
309.571	101.31
309.8	93.31
310.03	104.31
310.26	106.31
310.49	98.31
310.72	109.31
310.949	121.31
311.179	99.31
311.409	98.31
311.639	100.31
311.868	86.31
312.098	90.31
312.328	91.31
312.557	96.31
312.787	108.31
313.017	80.31
313.246	89.31
313.476	94.31
313.706	94.31
313.935	92.31
314.165	104.31
314.394	93.31
314.624	94.31
314.853	99.31
315.083	91.31
315.312	89.31
315.542	86.31
315.771	89.31
316.001	96.31
316.23	92.31
316.46	95.31
316.689	100.31
316.919	89.31
317.148	93.31
317.377	97.31
317.607	106.31
317.836	103.31
318.065	107.31
318.295	83.31
318.524	92.31
318.753	92.31
318.983	90.31
319.212	93.31
319.441	100.31
319.67	107.31
319.9	94.31
320.129	88.31
320.358	91.31
320.587	105.31
320.816	95.31
321.046	118.31
321.275	93.31
321.504	95.31
321.733	82.31
321.962	108.31
322.191	81.31
322.42	118.31
322.649	122.31
322.878	102.31
323.108	110.31
323.337	104.31
323.566	123.31
323.795	140.31
324.024	182.31
324.253	303.31
324.482	600.31
324.71	1196.31
324.939	1595.31
325.168	625.31
325.397	210.31
325.626	141.31
325.855	125.31
326.084	116.31
326.313	125.31
326.542	141.31
326.77	180.31
326.999	322.31
327.228	638.31
327.457	1149.31
327.686	932.31
327.914	304.31
328.143	184.31
328.372	172.31
328.6	119.31
328.829	120.31
329.058	137.31
329.287	133.31
329.515	126.31
329.744	107.31
329.972	135.31
330.201	177.31
330.43	226.31
330.658	160.31
330.887	152.31
331.115	120.31
331.344	98.31
331.572	120.31
331.801	104.31
332.03	114.31
332.258	106.31
332.486	86.31
332.715	94.31
332.943	79.31
333.172	104.31
333.4	116.31
333.629	118.31
333.857	124.31
334.085	132.31
334.314	173.31
334.542	259.31
334.771	243.31
334.999	131.31
335.227	106.31
335.455	97.31
335.684	96.31
335.912	111.31
336.14	103.31
336.369	113.31
336.597	100.31
336.825	104.31
337.053	101.31
337.281	97.31
337.51	95.31
337.738	77.31
337.966	111.31
338.194	98.31
338.422	92.31
338.65	101.31
338.878	91.31
339.106	94.31
339.334	84.31
339.562	95.31
339.79	93.31
340.018	102.31
340.246	103.31
340.474	94.31
340.702	94.31
340.93	77.31
341.158	87.31
341.386	105.31
341.614	91.31
341.842	95.31
342.07	99.31
342.298	99.31
342.526	98.31
342.754	84.31
342.981	93.31
343.209	81.31
343.437	82.31
343.665	100.31
343.893	84.31
344.12	92.31
344.348	83.31
344.576	93.31
344.804	100.31
345.031	101.31
345.259	96.31
345.487	88.31
345.714	98.31
345.942	84.31
346.17	85.31
346.397	99.31
346.625	89.31
346.853	95.31
347.08	90.31
347.308	106.31
347.535	94.31
347.763	91.31
347.99	97.31
348.218	95.31
348.445	104.31
348.673	104.31
348.9	90.31
349.128	114.31
349.355	91.31
349.583	104.31
349.81	92.31
350.037	90.31
350.265	85.31
350.492	108.31
350.72	98.31
350.947	109.31
351.174	99.31
351.402	121.31
351.629	102.31
351.856	102.31
352.083	125.31
352.311	99.31
352.538	108.31
352.765	103.31
352.992	109.31
353.22	114.31
353.447	99.31
353.674	86.31
353.901	96.31
354.128	87.31
354.355	96.31
354.583	100.31
354.81	99.31
355.037	108.31
355.264	102.31
355.491	97.31
355.718	90.31
355.945	100.31
356.172	97.31
356.399	95.31
356.626	93.31
356.853	86.31
357.08	88.31
357.307	101.31
357.534	95.31
357.761	104.31
357.988	109.31
358.215	102.31
358.441	90.31
358.668	99.31
358.895	86.31
359.122	90.31
359.349	76.31
359.576	68.31
359.802	92.31
360.029	108.31
360.256	98.31
360.483	84.31
360.709	85.31
360.936	99.31
361.163	93.31
361.39	90.31
361.616	82.31
361.843	92.31
362.07	91.31
362.296	82.31
362.523	106.31
362.749	103.31
362.976	97.31
363.203	102.31
363.429	89.31
363.656	99.31
363.882	101.31
364.109	89.31
364.335	97.31
364.562	87.31
364.788	86.31
365.015	110.31
365.241	109.31
365.468	116.31
365.694	102.31
365.92	101.31
366.147	98.31
366.373	91.31
366.599	102.31
366.826	97.31
367.052	92.31
367.278	98.31
367.505	84.31
367.731	91.31
367.957	97.31
368.184	108.31
368.41	113.31
368.636	108.31
368.862	98.31
369.089	116.31
369.315	100.31
369.541	86.31
369.767	96.31
369.993	97.31
370.219	93.31
370.445	89.31
370.672	101.31
370.898	93.31
371.124	87.31
371.35	91.31
371.576	90.31
371.802	79.31
372.028	88.31
372.254	82.31
372.48	108.31
372.706	100.31
372.932	80.31
373.158	90.31
373.384	93.31
373.61	93.31
373.835	89.31
374.061	88.31
374.287	92.31
374.513	91.31
374.739	96.31
374.965	81.31
375.191	94.31
375.416	95.31
375.642	80.31
375.868	102.31
376.094	93.31
376.319	82.31
376.545	99.31
376.771	99.31
376.997	80.31
377.222	89.31
377.448	94.31
377.674	96.31
377.899	105.31
378.125	81.31
378.35	102.31
378.576	90.31
378.802	96.31
379.027	79.31
379.253	84.31
379.478	97.31
379.704	90.31
379.929	82.31
380.155	101.31
380.38	99.31
380.606	93.31
380.831	90.31
381.057	96.31
381.282	102.31
381.507	98.31
381.733	94.31
381.958	90.31
382.184	94.31
382.409	102.31
382.634	87.31
382.86	99.31
383.085	99.31
383.31	84.31
383.535	100.31
383.761	95.31
383.986	105.31
384.211	89.31
384.436	99.31
384.662	106.31
384.887	98.31
385.112	106.31
385.337	100.31
385.562	108.31
385.787	93.31
386.013	101.31
386.238	129.31
386.463	110.31
386.688	109.31
386.913	102.31
387.138	104.31
387.363	97.31
387.588	108.31
387.813	101.31
388.038	113.31
388.263	112.31
388.488	109.31
388.713	104.31
388.938	96.31
389.163	101.31
389.387	100.31
389.612	82.31
389.837	100.31
390.062	102.31
390.287	96.31
390.512	89.31
390.736	89.31
390.961	90.31
391.186	103.31
391.411	99.31
391.636	95.31
391.86	92.31
392.085	98.31
392.31	81.31
392.534	92.31
392.759	87.31
392.984	83.31
393.208	93.31
393.433	102.31
393.658	99.31
393.882	95.31
394.107	91.31
394.331	89.31
394.556	98.31
394.78	81.31
395.005	82.31
395.229	78.31
395.454	82.31
395.678	89.31
395.903	98.31
396.127	101.31
396.352	90.31
396.576	88.31
396.801	85.31
397.025	88.31
397.249	88.31
397.474	95.31
397.698	107.31
397.922	88.31
398.147	85.31
398.371	79.31
398.595	83.31
398.82	83.31
399.044	84.31
399.268	87.31
399.492	84.31
399.717	73.31
399.941	95.31
400.165	111.31
400.389	105.31
400.613	88.31
400.837	90.31
401.062	89.31
401.286	93.31
401.51	86.31
401.734	90.31
401.958	97.31
402.182	111.31
402.406	158.31
402.63	127.31
402.854	111.31
403.078	88.31
403.302	91.31
403.526	82.31
403.75	80.31
403.974	79.31
404.198	90.31
404.422	91.31
404.645	98.31
404.869	111.31
405.093	88.31
405.317	100.31
405.541	109.31
405.765	92.31
405.988	113.31
406.212	162.31
406.436	220.31
406.66	149.31
406.883	99.31
407.107	104.31
407.331	102.31
407.555	100.31
407.778	97.31
408.002	85.31
408.226	94.31
408.449	90.31
408.673	94.31
408.896	82.31
409.12	93.31
409.344	85.31
409.567	100.31
409.791	98.31
410.014	100.31
410.238	97.31
410.461	102.31
410.685	100.31
410.908	97.31
411.132	98.31
411.355	93.31
411.578	90.31
411.802	84.31
412.025	83.31
412.249	102.31
412.472	92.31
412.695	97.31
412.919	74.31
413.142	85.31
413.365	94.31
413.589	89.31
413.812	93.31
414.035	108.31
414.258	86.31
414.482	100.31
414.705	85.31
414.928	93.31
415.151	84.31
415.374	96.31
415.597	92.31
415.821	90.31
416.044	90.31
416.267	89.31
416.49	87.31
416.713	93.31
416.936	92.31
417.159	81.31
417.382	97.31
417.605	81.31
417.828	91.31
418.051	91.31
418.274	96.31
418.497	86.31
418.72	89.31
418.943	73.31
419.166	92.31
419.389	83.31
419.611	101.31
419.834	99.31
420.057	78.31
420.28	91.31
420.503	98.31
420.726	86.31
420.948	80.31
421.171	99.31
421.394	85.31
421.617	90.31
421.839	97.31
422.062	92.31
422.285	83.31
422.507	96.31
422.73	109.31
422.953	101.31
423.175	96.31
423.398	89.31
423.621	101.31
423.843	92.31
424.066	85.31
424.288	98.31
424.511	80.31
424.733	99.31
424.956	81.31
425.178	102.31
425.401	102.31
425.623	102.31
425.846	102.31
426.068	96.31
426.291	80.31
426.513	96.31
426.735	105.31
426.958	86.31
427.18	106.31
427.402	109.31
427.625	148.31
427.847	140.31
428.069	118.31
428.292	84.31
428.514	94.31
428.736	86.31
428.958	86.31
429.181	91.31
429.403	80.31
429.625	84.31
429.847	92.31
430.069	102.31
430.292	98.31
430.514	90.31
430.736	78.31
430.958	91.31
431.18	90.31
431.402	77.31
431.624	86.31
431.846	78.31
432.068	95.31
432.29	89.31
432.512	94.31
432.734	92.31
432.956	95.31
433.178	87.31
433.4	90.31
433.622	80.31
433.844	83.31
434.066	86.31
434.287	91.31
434.509	105.31
434.731	82.31
434.953	79.31
435.175	93.31
435.397	91.31
435.618	90.31
435.84	87.31
436.062	97.31
436.284	96.31
436.505	95.31
436.727	96.31
436.949	105.31
437.17	87.31
437.392	92.31
437.614	89.31
437.835	104.31
438.057	109.31
438.278	104.31
438.5	100.31
438.721	97.31
438.943	98.31
439.165	88.31
439.386	77.31
439.608	105.31
439.829	94.31
440.05	100.31
440.272	109.31
440.493	88.31
440.715	83.31
440.936	89.31
441.158	95.31
441.379	100.31
441.6	82.31
441.822	99.31
442.043	115.31
442.264	108.31
442.486	97.31
442.707	94.31
442.928	109.31
443.149	134.31
443.371	134.31
443.592	114.31
443.813	105.31
444.034	91.31
444.255	92.31
444.476	80.31
444.698	90.31
444.919	97.31
445.14	123.31
445.361	108.31
445.582	110.31
445.803	118.31
446.024	124.31
446.245	129.31
446.466	96.31
446.687	95.31
446.908	99.31
447.129	82.31
447.35	90.31
447.571	105.31
447.792	97.31
448.013	93.31
448.234	101.31
448.455	86.31
448.675	111.31
448.896	117.31
449.117	100.31
449.338	101.31
449.559	111.31
449.779	108.31
450	85.31
450.221	92.31
450.442	85.31
450.662	86.31
450.883	95.31
451.104	110.31
451.324	95.31
451.545	94.31
451.766	91.31
451.986	82.31
452.207	110.31
452.428	85.31
452.648	101.31
452.869	111.31
453.089	116.31
453.31	110.31
453.53	83.31
453.751	82.31
453.971	101.31
454.192	110.31
454.412	96.31
454.633	87.31
454.853	91.31
455.073	93.31
455.294	89.31
455.514	102.31
455.734	89.31
455.955	78.31
456.175	86.31
456.395	90.31
456.616	96.31
456.836	96.31
457.056	88.31
457.276	89.31
457.497	90.31
457.717	83.31
457.937	84.31
458.157	89.31
458.377	90.31
458.598	98.31
458.818	138.31
459.038	150.31
459.258	112.31
459.478	89.31
459.698	76.31
459.918	90.31
460.138	94.31
460.358	101.31
460.578	81.31
460.798	81.31
461.018	101.31
461.238	75.31
461.458	90.31
461.678	88.31
461.898	81.31
462.118	89.31
462.338	92.31
462.558	80.31
462.777	80.31
462.997	88.31
463.217	88.31
463.437	91.31
463.657	93.31
463.876	92.31
464.096	99.31
464.316	97.31
464.536	110.31
464.755	97.31
464.975	104.31
465.195	154.31
465.414	148.31
465.634	99.31
465.854	91.31
466.073	85.31
466.293	86.31
466.512	92.31
466.732	93.31
466.951	102.31
467.171	85.31
467.391	92.31
467.61	106.31
467.829	106.31
468.049	145.31
468.268	162.31
468.488	98.31
468.707	97.31
468.927	99.31
469.146	93.31
469.365	85.31
469.585	86.31
469.804	107.31
470.023	99.31
470.243	99.31
470.462	91.31
470.681	99.31
470.901	89.31
471.12	86.31
471.339	94.31
471.558	97.31
471.777	93.31
471.997	111.31
472.216	194.31
472.435	326.31
472.654	152.31
472.873	92.31
473.092	94.31
473.311	89.31
473.53	88.31
473.749	90.31
473.968	102.31
474.187	100.31
474.406	87.31
474.625	88.31
474.844	77.31
475.063	85.31
475.282	92.31
475.501	93.31
475.72	91.31
475.939	82.31
476.158	88.31
476.377	98.31
476.596	94.31
476.814	88.31
477.033	91.31
477.252	93.31
477.471	95.31
477.69	98.31
477.908	104.31
478.127	95.31
478.346	79.31
478.564	84.31
478.783	113.31
479.002	87.31
479.22	99.31
479.439	106.31
479.658	94.31
479.876	94.31
480.095	96.31
480.313	92.31
480.532	102.31
480.751	113.31
480.969	200.31
481.188	537.31
481.406	339.31
481.624	128.31
481.843	96.31
482.061	82.31
482.28	114.31
482.498	98.31
482.717	88.31
482.935	86.31
483.153	81.31
483.372	80.31
483.59	104.31
483.808	103.31
484.027	104.31
484.245	84.31
484.463	100.31
484.681	90.31
484.9	88.31
485.118	98.31
485.336	101.31
485.554	105.31
485.772	98.31
485.99	116.31
486.209	106.31
486.427	107.31
486.645	112.31
486.863	109.31
487.081	102.31
487.299	111.31
487.517	90.31
487.735	90.31
487.953	101.31
488.171	91.31
488.389	100.31
488.607	86.31
488.825	107.31
489.043	94.31
489.261	88.31
489.479	93.31
489.696	99.31
489.914	83.31
490.132	95.31
490.35	90.31
490.568	95.31
490.786	90.31
491.003	91.31
491.221	91.31
491.439	101.31
491.657	93.31
491.874	97.31
492.092	98.31
492.31	101.31
492.527	91.31
492.745	89.31
492.963	115.31
493.18	79.31
493.398	78.31
493.615	98.31
493.833	108.31
494.05	94.31
494.268	97.31
494.485	105.31
494.703	82.31
494.92	96.31
495.138	86.31
495.355	86.31
495.573	91.31
495.79	93.31
496.008	94.31
496.225	110.31
496.442	90.31
496.66	95.31
496.877	94.31
497.094	97.31
497.312	113.31
497.529	100.31
497.746	89.31
497.963	87.31
498.181	85.31
498.398	98.31
498.615	109.31
498.832	96.31
499.049	97.31
499.267	89.31
499.484	86.31
499.701	77.31
499.918	81.31
500.135	94.31
500.352	108.31
500.569	82.31
500.786	94.31
501.003	96.31
501.22	76.31
501.437	80.31
501.654	96.31
501.871	99.31
502.088	86.31
502.305	94.31
502.522	105.31
502.739	88.31
502.956	108.31
503.172	103.31
503.389	91.31
503.606	114.31
503.823	116.31
504.04	87.31
504.256	84.31
504.473	81.31
504.69	102.31
504.907	103.31
505.123	92.31
505.34	98.31
505.557	77.31
505.773	113.31
505.99	99.31
506.207	91.31
506.423	92.31
506.64	89.31
506.856	96.31
507.073	84.31
507.289	99.31
507.506	96.31
507.722	95.31
507.939	109.31
508.155	99.31
508.372	94.31
508.588	92.31
508.805	101.31
509.021	87.31
509.238	93.31
509.454	98.31
509.67	106.31
509.887	102.31
510.103	148.31
510.319	212.31
510.536	784.31
510.752	2648.31
510.968	732.31
511.184	158.31
511.401	119.31
511.617	101.31
511.833	91.31
512.049	88.31
512.265	95.31
512.481	106.31
512.698	109.31
512.914	103.31
513.13	106.31
513.346	97.31
513.562	86.31
513.778	102.31
513.994	109.31
514.21	106.31
514.426	105.31
514.642	142.31
514.858	120.31
