Data from Circ_1996_H10_HRD10591_00082.txt Node
Date: Wed Jan 03 11:33:22 EST 2024
User: Yrep
Spectrometer: HR+D1059
Trigger mode: 1
Integration Time (sec): 1.000000E-1
Scans to average: 1
Electric dark correction enabled: true
Nonlinearity correction enabled: false
Boxcar width: 0
XAxis mode: Wavelengths
Number of Pixels in Spectrum: 2048
>>>>>Begin Spectral Data<<<<<
223.165	-11.25
223.4	-11.25
223.635	-11.25
223.869	-21.25
224.104	-10.25
224.338	-10.25
224.573	-18.25
224.808	-24.25
225.042	-12.25
225.277	-2.25
225.511	-5.25
225.746	3.75
225.98	2.75
226.215	5.75
226.449	13.75
226.683	26.75
226.918	34.75
227.152	27.75
227.387	44.75
227.621	40.75
227.856	44.75
228.09	49.75
228.324	59.75
228.559	54.75
228.793	71.75
229.027	56.75
229.262	70.75
229.496	83.75
229.73	75.75
229.964	80.75
230.199	64.75
230.433	63.75
230.667	86.75
230.901	76.75
231.136	74.75
231.37	70.75
231.604	74.75
231.838	94.75
232.072	84.75
232.306	68.75
232.541	83.75
232.775	88.75
233.009	96.75
233.243	91.75
233.477	71.75
233.711	79.75
233.945	85.75
234.179	76.75
234.413	81.75
234.647	80.75
234.881	82.75
235.115	92.75
235.349	67.75
235.583	74.75
235.817	82.75
236.051	73.75
236.285	73.75
236.519	81.75
236.753	84.75
236.987	72.75
237.221	91.75
237.455	75.75
237.689	67.75
237.922	76.75
238.156	87.75
238.39	74.75
238.624	80.75
238.858	98.75
239.091	85.75
239.325	67.75
239.559	81.75
239.793	76.75
240.027	71.75
240.26	56.75
240.494	63.75
240.728	67.75
240.961	67.75
241.195	103.75
241.429	86.75
241.662	73.75
241.896	70.75
242.13	75.75
242.363	84.75
242.597	88.75
242.83	67.75
243.064	79.75
243.298	73.75
243.531	71.75
243.765	81.75
243.998	75.75
244.232	72.75
244.465	76.75
244.699	89.75
244.932	80.75
245.166	93.75
245.399	68.75
245.633	75.75
245.866	75.75
246.099	82.75
246.333	85.75
246.566	86.75
246.8	77.75
247.033	73.75
247.266	91.75
247.5	95.75
247.733	73.75
247.966	72.75
248.2	91.75
248.433	96.75
248.666	65.75
248.899	67.75
249.133	89.75
249.366	108.75
249.599	91.75
249.832	75.75
250.066	91.75
250.299	71.75
250.532	77.75
250.765	71.75
250.998	71.75
251.231	71.75
251.465	83.75
251.698	89.75
251.931	83.75
252.164	63.75
252.397	73.75
252.63	102.75
252.863	91.75
253.096	74.75
253.329	83.75
253.562	80.75
253.795	70.75
254.028	85.75
254.261	78.75
254.494	71.75
254.727	78.75
254.96	89.75
255.193	82.75
255.426	80.75
255.659	82.75
255.892	83.75
256.124	81.75
256.357	80.75
256.59	84.75
256.823	72.75
257.056	79.75
257.289	70.75
257.521	88.75
257.754	73.75
257.987	79.75
258.22	76.75
258.452	90.75
258.685	74.75
258.918	95.75
259.151	94.75
259.383	84.75
259.616	77.75
259.849	86.75
260.081	80.75
260.314	85.75
260.547	82.75
260.779	90.75
261.012	80.75
261.244	73.75
261.477	100.75
261.71	109.75
261.942	127.75
262.175	95.75
262.407	86.75
262.64	82.75
262.872	87.75
263.105	88.75
263.337	84.75
263.57	83.75
263.802	88.75
264.035	90.75
264.267	78.75
264.499	82.75
264.732	93.75
264.964	75.75
265.197	87.75
265.429	76.75
265.661	74.75
265.894	98.75
266.126	74.75
266.358	94.75
266.591	75.75
266.823	81.75
267.055	80.75
267.287	90.75
267.52	82.75
267.752	88.75
267.984	93.75
268.216	81.75
268.448	87.75
268.681	77.75
268.913	104.75
269.145	73.75
269.377	83.75
269.609	74.75
269.841	83.75
270.073	72.75
270.306	88.75
270.538	98.75
270.77	85.75
271.002	77.75
271.234	76.75
271.466	96.75
271.698	106.75
271.93	83.75
272.162	84.75
272.394	85.75
272.626	84.75
272.858	78.75
273.09	84.75
273.322	77.75
273.553	83.75
273.785	88.75
274.017	87.75
274.249	88.75
274.481	77.75
274.713	88.75
274.945	91.75
275.176	81.75
275.408	87.75
275.64	90.75
275.872	88.75
276.104	86.75
276.335	87.75
276.567	82.75
276.799	90.75
277.031	98.75
277.262	93.75
277.494	99.75
277.726	92.75
277.957	78.75
278.189	91.75
278.421	100.75
278.652	84.75
278.884	87.75
279.115	69.75
279.347	83.75
279.579	78.75
279.81	94.75
280.042	94.75
280.273	83.75
280.505	79.75
280.736	84.75
280.968	84.75
281.199	86.75
281.431	101.75
281.662	87.75
281.894	91.75
282.125	91.75
282.356	106.75
282.588	130.75
282.819	98.75
283.051	95.75
283.282	92.75
283.513	93.75
283.745	82.75
283.976	92.75
284.207	87.75
284.439	82.75
284.67	83.75
284.901	101.75
285.132	90.75
285.364	97.75
285.595	103.75
285.826	82.75
286.057	58.75
286.288	92.75
286.52	81.75
286.751	82.75
286.982	85.75
287.213	80.75
287.444	89.75
287.675	81.75
287.906	87.75
288.138	91.75
288.369	84.75
288.6	80.75
288.831	90.75
289.062	91.75
289.293	87.75
289.524	68.75
289.755	86.75
289.986	71.75
290.217	95.75
290.448	81.75
290.679	79.75
290.91	92.75
291.141	90.75
291.371	89.75
291.602	81.75
291.833	89.75
292.064	88.75
292.295	84.75
292.526	87.75
292.757	85.75
292.987	75.75
293.218	79.75
293.449	82.75
293.68	68.75
293.91	82.75
294.141	91.75
294.372	94.75
294.603	83.75
294.833	81.75
295.064	80.75
295.295	71.75
295.525	93.75
295.756	103.75
295.987	129.75
296.217	118.75
296.448	105.75
296.679	81.75
296.909	83.75
297.14	81.75
297.37	90.75
297.601	83.75
297.831	88.75
298.062	82.75
298.292	91.75
298.523	78.75
298.753	89.75
298.984	80.75
299.214	90.75
299.445	82.75
299.675	86.75
299.905	99.75
300.136	95.75
300.366	88.75
300.597	85.75
300.827	102.75
301.057	90.75
301.288	110.75
301.518	94.75
301.748	93.75
301.979	104.75
302.209	105.75
302.439	88.75
302.669	92.75
302.9	86.75
303.13	82.75
303.36	81.75
303.59	94.75
303.82	106.75
304.051	100.75
304.281	104.75
304.511	93.75
304.741	87.75
304.971	84.75
305.201	100.75
305.431	97.75
305.661	97.75
305.891	89.75
306.121	82.75
306.352	105.75
306.582	100.75
306.812	92.75
307.042	92.75
307.272	99.75
307.502	91.75
307.731	111.75
307.961	105.75
308.191	90.75
308.421	98.75
308.651	93.75
308.881	79.75
309.111	94.75
309.341	102.75
309.571	82.75
309.8	108.75
310.03	108.75
310.26	103.75
310.49	93.75
310.72	111.75
310.949	98.75
311.179	86.75
311.409	77.75
311.639	98.75
311.868	90.75
312.098	98.75
312.328	103.75
312.557	99.75
312.787	104.75
313.017	91.75
313.246	87.75
313.476	86.75
313.706	96.75
313.935	103.75
314.165	103.75
314.394	89.75
314.624	94.75
314.853	88.75
315.083	97.75
315.312	97.75
315.542	75.75
315.771	109.75
316.001	87.75
316.23	79.75
316.46	89.75
316.689	88.75
316.919	96.75
317.148	92.75
317.377	104.75
317.607	109.75
317.836	95.75
318.065	83.75
318.295	87.75
318.524	90.75
318.753	82.75
318.983	92.75
319.212	106.75
319.441	92.75
319.67	107.75
319.9	96.75
320.129	86.75
320.358	97.75
320.587	101.75
320.816	98.75
321.046	101.75
321.275	91.75
321.504	101.75
321.733	74.75
321.962	84.75
322.191	97.75
322.42	102.75
322.649	102.75
322.878	104.75
323.108	122.75
323.337	90.75
323.566	99.75
323.795	126.75
324.024	154.75
324.253	282.75
324.482	546.75
324.71	1126.75
324.939	1484.75
325.168	577.75
325.397	200.75
325.626	124.75
325.855	118.75
326.084	115.75
326.313	101.75
326.542	142.75
326.77	191.75
326.999	315.75
327.228	624.75
327.457	1074.75
327.686	880.75
327.914	262.75
328.143	182.75
328.372	177.75
328.6	116.75
328.829	108.75
329.058	118.75
329.287	115.75
329.515	110.75
329.744	122.75
329.972	142.75
330.201	177.75
330.43	202.75
330.658	142.75
330.887	120.75
331.115	112.75
331.344	92.75
331.572	99.75
331.801	115.75
332.03	101.75
332.258	97.75
332.486	87.75
332.715	90.75
332.943	89.75
333.172	83.75
333.4	99.75
333.629	98.75
333.857	128.75
334.085	132.75
334.314	172.75
334.542	228.75
334.771	232.75
334.999	122.75
335.227	90.75
335.455	98.75
335.684	101.75
335.912	106.75
336.14	106.75
336.369	108.75
336.597	116.75
336.825	86.75
337.053	82.75
337.281	82.75
337.51	90.75
337.738	89.75
337.966	106.75
338.194	94.75
338.422	100.75
338.65	90.75
338.878	97.75
339.106	90.75
339.334	91.75
339.562	84.75
339.79	88.75
340.018	89.75
340.246	91.75
340.474	105.75
340.702	88.75
340.93	99.75
341.158	95.75
341.386	104.75
341.614	86.75
341.842	91.75
342.07	89.75
342.298	86.75
342.526	85.75
342.754	85.75
342.981	85.75
343.209	96.75
343.437	92.75
343.665	76.75
343.893	94.75
344.12	96.75
344.348	101.75
344.576	96.75
344.804	82.75
345.031	102.75
345.259	92.75
345.487	91.75
345.714	85.75
345.942	97.75
346.17	98.75
346.397	93.75
346.625	88.75
346.853	87.75
347.08	98.75
347.308	90.75
347.535	90.75
347.763	84.75
347.99	96.75
348.218	99.75
348.445	94.75
348.673	91.75
348.9	95.75
349.128	97.75
349.355	93.75
349.583	98.75
349.81	99.75
350.037	103.75
350.265	98.75
350.492	79.75
350.72	84.75
350.947	95.75
351.174	110.75
351.402	104.75
351.629	112.75
351.856	104.75
352.083	94.75
352.311	98.75
352.538	103.75
352.765	100.75
352.992	113.75
353.22	110.75
353.447	104.75
353.674	89.75
353.901	90.75
354.128	100.75
354.355	103.75
354.583	95.75
354.81	91.75
355.037	97.75
355.264	113.75
355.491	89.75
355.718	105.75
355.945	110.75
356.172	85.75
356.399	73.75
356.626	93.75
356.853	95.75
357.08	97.75
357.307	84.75
357.534	92.75
357.761	102.75
357.988	93.75
358.215	99.75
358.441	89.75
358.668	94.75
358.895	94.75
359.122	86.75
359.349	91.75
359.576	99.75
359.802	95.75
360.029	104.75
360.256	104.75
360.483	88.75
360.709	94.75
360.936	95.75
361.163	90.75
361.39	99.75
361.616	96.75
361.843	93.75
362.07	106.75
362.296	81.75
362.523	84.75
362.749	83.75
362.976	86.75
363.203	86.75
363.429	102.75
363.656	94.75
363.882	94.75
364.109	79.75
364.335	89.75
364.562	92.75
364.788	95.75
365.015	117.75
365.241	102.75
365.468	127.75
365.694	104.75
365.92	83.75
366.147	82.75
366.373	86.75
366.599	82.75
366.826	99.75
367.052	83.75
367.278	91.75
367.505	79.75
367.731	93.75
367.957	75.75
368.184	86.75
368.41	94.75
368.636	108.75
368.862	106.75
369.089	105.75
369.315	93.75
369.541	95.75
369.767	104.75
369.993	76.75
370.219	86.75
370.445	84.75
370.672	92.75
370.898	79.75
371.124	97.75
371.35	76.75
371.576	94.75
371.802	83.75
372.028	88.75
372.254	79.75
372.48	79.75
372.706	82.75
372.932	91.75
373.158	81.75
373.384	90.75
373.61	98.75
373.835	82.75
374.061	93.75
374.287	88.75
374.513	92.75
374.739	89.75
374.965	93.75
375.191	97.75
375.416	91.75
375.642	84.75
375.868	79.75
376.094	83.75
376.319	77.75
376.545	86.75
376.771	100.75
376.997	81.75
377.222	86.75
377.448	102.75
377.674	86.75
377.899	83.75
378.125	78.75
378.35	74.75
378.576	99.75
378.802	97.75
379.027	97.75
379.253	96.75
379.478	99.75
379.704	87.75
379.929	90.75
380.155	95.75
380.38	92.75
380.606	87.75
380.831	88.75
381.057	88.75
381.282	100.75
381.507	87.75
381.733	97.75
381.958	89.75
382.184	98.75
382.409	88.75
382.634	93.75
382.86	91.75
383.085	112.75
383.31	91.75
383.535	89.75
383.761	86.75
383.986	103.75
384.211	98.75
384.436	110.75
384.662	98.75
384.887	109.75
385.112	113.75
385.337	98.75
385.562	110.75
385.787	93.75
386.013	126.75
386.238	121.75
386.463	89.75
386.688	110.75
386.913	99.75
387.138	92.75
387.363	100.75
387.588	94.75
387.813	93.75
388.038	112.75
388.263	105.75
388.488	103.75
388.713	97.75
388.938	107.75
389.163	95.75
389.387	97.75
389.612	100.75
389.837	90.75
390.062	94.75
390.287	90.75
390.512	76.75
390.736	74.75
390.961	84.75
391.186	86.75
391.411	97.75
391.636	90.75
391.86	84.75
392.085	84.75
392.31	84.75
392.534	86.75
392.759	98.75
392.984	94.75
393.208	96.75
393.433	101.75
393.658	104.75
393.882	80.75
394.107	86.75
394.331	84.75
394.556	83.75
394.78	85.75
395.005	94.75
395.229	91.75
395.454	91.75
395.678	99.75
395.903	85.75
396.127	86.75
396.352	74.75
396.576	72.75
396.801	85.75
397.025	85.75
397.249	91.75
397.474	80.75
397.698	91.75
397.922	79.75
398.147	81.75
398.371	86.75
398.595	85.75
398.82	76.75
399.044	82.75
399.268	92.75
399.492	88.75
399.717	103.75
399.941	95.75
400.165	61.75
400.389	94.75
400.613	86.75
400.837	87.75
401.062	97.75
401.286	84.75
401.51	86.75
401.734	86.75
401.958	84.75
402.182	115.75
402.406	139.75
402.63	129.75
402.854	104.75
403.078	78.75
403.302	90.75
403.526	90.75
403.75	76.75
403.974	93.75
404.198	81.75
404.422	79.75
404.645	86.75
404.869	82.75
405.093	101.75
405.317	94.75
405.541	96.75
405.765	89.75
405.988	112.75
406.212	138.75
406.436	192.75
406.66	123.75
406.883	96.75
407.107	92.75
407.331	103.75
407.555	83.75
407.778	97.75
408.002	79.75
408.226	84.75
408.449	82.75
408.673	83.75
408.896	96.75
409.12	81.75
409.344	91.75
409.567	90.75
409.791	71.75
410.014	110.75
410.238	100.75
410.461	82.75
410.685	111.75
410.908	90.75
411.132	99.75
411.355	80.75
411.578	90.75
411.802	94.75
412.025	74.75
412.249	100.75
412.472	83.75
412.695	99.75
412.919	102.75
413.142	90.75
413.365	102.75
413.589	86.75
413.812	74.75
414.035	98.75
414.258	82.75
414.482	80.75
414.705	95.75
414.928	97.75
415.151	100.75
415.374	97.75
415.597	91.75
415.821	86.75
416.044	91.75
416.267	90.75
416.49	90.75
416.713	79.75
416.936	87.75
417.159	87.75
417.382	88.75
417.605	87.75
417.828	90.75
418.051	93.75
418.274	100.75
418.497	90.75
418.72	79.75
418.943	90.75
419.166	77.75
419.389	100.75
419.611	84.75
419.834	95.75
420.057	86.75
420.28	95.75
420.503	89.75
420.726	73.75
420.948	95.75
421.171	85.75
421.394	94.75
421.617	77.75
421.839	81.75
422.062	95.75
422.285	92.75
422.507	100.75
422.73	98.75
422.953	73.75
423.175	99.75
423.398	97.75
423.621	92.75
423.843	80.75
424.066	82.75
424.288	87.75
424.511	87.75
424.733	96.75
424.956	109.75
425.178	92.75
425.401	90.75
425.623	96.75
425.846	93.75
426.068	106.75
426.291	93.75
426.513	88.75
426.735	81.75
426.958	87.75
427.18	91.75
427.402	108.75
427.625	134.75
427.847	119.75
428.069	102.75
428.292	78.75
428.514	82.75
428.736	82.75
428.958	86.75
429.181	87.75
429.403	81.75
429.625	86.75
429.847	87.75
430.069	87.75
430.292	92.75
430.514	89.75
430.736	88.75
430.958	78.75
431.18	71.75
431.402	70.75
431.624	76.75
431.846	90.75
432.068	82.75
432.29	79.75
432.512	95.75
432.734	89.75
432.956	86.75
433.178	96.75
433.4	87.75
433.622	86.75
433.844	83.75
434.066	90.75
434.287	92.75
434.509	81.75
434.731	89.75
434.953	88.75
435.175	91.75
435.397	84.75
435.618	81.75
435.84	93.75
436.062	100.75
436.284	112.75
436.505	86.75
436.727	86.75
436.949	84.75
437.17	94.75
437.392	76.75
437.614	89.75
437.835	106.75
438.057	106.75
438.278	89.75
438.5	100.75
438.721	101.75
438.943	97.75
439.165	87.75
439.386	89.75
439.608	91.75
439.829	88.75
440.05	111.75
440.272	114.75
440.493	86.75
440.715	79.75
440.936	90.75
441.158	78.75
441.379	89.75
441.6	93.75
441.822	89.75
442.043	94.75
442.264	91.75
442.486	93.75
442.707	78.75
442.928	89.75
443.149	118.75
443.371	112.75
443.592	93.75
443.813	106.75
444.034	88.75
444.255	90.75
444.476	90.75
444.698	90.75
444.919	77.75
445.14	115.75
445.361	100.75
445.582	105.75
445.803	108.75
446.024	118.75
446.245	112.75
446.466	104.75
446.687	84.75
446.908	81.75
447.129	90.75
447.35	87.75
447.571	95.75
447.792	90.75
448.013	104.75
448.234	119.75
448.455	94.75
448.675	86.75
448.896	96.75
449.117	95.75
449.338	100.75
449.559	132.75
449.779	107.75
450	91.75
450.221	82.75
450.442	83.75
450.662	104.75
450.883	101.75
451.104	114.75
451.324	80.75
451.545	72.75
451.766	83.75
451.986	86.75
452.207	82.75
452.428	80.75
452.648	87.75
452.869	111.75
453.089	114.75
453.31	111.75
453.53	107.75
453.751	102.75
453.971	100.75
454.192	99.75
454.412	91.75
454.633	80.75
454.853	98.75
455.073	84.75
455.294	103.75
455.514	99.75
455.734	96.75
455.955	92.75
456.175	81.75
456.395	93.75
456.616	88.75
456.836	81.75
457.056	74.75
457.276	88.75
457.497	87.75
457.717	80.75
457.937	88.75
458.157	79.75
458.377	90.75
458.598	99.75
458.818	115.75
459.038	147.75
459.258	99.75
459.478	98.75
459.698	82.75
459.918	98.75
460.138	91.75
460.358	81.75
460.578	77.75
460.798	74.75
461.018	83.75
461.238	88.75
461.458	89.75
461.678	84.75
461.898	78.75
462.118	88.75
462.338	77.75
462.558	88.75
462.777	76.75
462.997	78.75
463.217	82.75
463.437	89.75
463.657	84.75
463.876	91.75
464.096	95.75
464.316	80.75
464.536	86.75
464.755	98.75
464.975	96.75
465.195	149.75
465.414	155.75
465.634	86.75
465.854	86.75
466.073	89.75
466.293	95.75
466.512	100.75
466.732	81.75
466.951	89.75
467.171	94.75
467.391	92.75
467.61	88.75
467.829	95.75
468.049	134.75
468.268	136.75
468.488	94.75
468.707	86.75
468.927	85.75
469.146	85.75
469.365	86.75
469.585	95.75
469.804	105.75
470.023	85.75
470.243	78.75
470.462	105.75
470.681	106.75
470.901	104.75
471.12	80.75
471.339	84.75
471.558	77.75
471.777	92.75
471.997	93.75
472.216	182.75
472.435	293.75
472.654	104.75
472.873	99.75
473.092	88.75
473.311	80.75
473.53	86.75
473.749	90.75
473.968	100.75
474.187	104.75
474.406	80.75
474.625	84.75
474.844	76.75
475.063	81.75
475.282	75.75
475.501	74.75
475.72	81.75
475.939	80.75
476.158	78.75
476.377	76.75
476.596	81.75
476.814	90.75
477.033	92.75
477.252	80.75
477.471	89.75
477.69	76.75
477.908	92.75
478.127	89.75
478.346	92.75
478.564	83.75
478.783	87.75
479.002	98.75
479.22	94.75
479.439	106.75
479.658	89.75
479.876	96.75
480.095	89.75
480.313	86.75
480.532	106.75
480.751	115.75
480.969	188.75
481.188	499.75
481.406	319.75
481.624	136.75
481.843	89.75
482.061	92.75
482.28	94.75
482.498	85.75
482.717	75.75
482.935	81.75
483.153	84.75
483.372	96.75
483.59	75.75
483.808	95.75
484.027	82.75
484.245	98.75
484.463	76.75
484.681	95.75
484.9	85.75
485.118	92.75
485.336	79.75
485.554	94.75
485.772	106.75
485.99	128.75
486.209	96.75
486.427	108.75
486.645	106.75
486.863	100.75
487.081	94.75
487.299	97.75
487.517	93.75
487.735	89.75
487.953	90.75
488.171	92.75
488.389	95.75
488.607	101.75
488.825	94.75
489.043	93.75
489.261	84.75
489.479	82.75
489.696	93.75
489.914	92.75
490.132	90.75
490.35	97.75
490.568	88.75
490.786	97.75
491.003	89.75
491.221	86.75
491.439	68.75
491.657	92.75
491.874	80.75
492.092	88.75
492.31	89.75
492.527	98.75
492.745	80.75
492.963	92.75
493.18	88.75
493.398	89.75
493.615	94.75
493.833	96.75
494.05	93.75
494.268	90.75
494.485	83.75
494.703	87.75
494.92	94.75
495.138	83.75
495.355	88.75
495.573	79.75
495.79	102.75
496.008	95.75
496.225	104.75
496.442	91.75
496.66	80.75
496.877	86.75
497.094	97.75
497.312	80.75
497.529	94.75
497.746	88.75
497.963	89.75
498.181	87.75
498.398	95.75
498.615	87.75
498.832	109.75
499.049	90.75
499.267	98.75
499.484	86.75
499.701	71.75
499.918	84.75
500.135	93.75
500.352	83.75
500.569	103.75
500.786	92.75
501.003	98.75
501.22	97.75
501.437	89.75
501.654	101.75
501.871	98.75
502.088	100.75
502.305	80.75
502.522	82.75
502.739	77.75
502.956	93.75
503.172	98.75
503.389	93.75
503.606	98.75
503.823	99.75
504.04	81.75
504.256	83.75
504.473	92.75
504.69	99.75
504.907	92.75
505.123	90.75
505.34	89.75
505.557	98.75
505.773	90.75
505.99	88.75
506.207	71.75
506.423	94.75
506.64	96.75
506.856	92.75
507.073	87.75
507.289	79.75
507.506	79.75
507.722	107.75
507.939	93.75
508.155	93.75
508.372	108.75
508.588	110.75
508.805	100.75
509.021	96.75
509.238	111.75
509.454	91.75
509.67	100.75
509.887	99.75
510.103	128.75
510.319	203.75
510.536	697.75
510.752	2262.75
510.968	631.75
511.184	153.75
511.401	96.75
511.617	94.75
511.833	91.75
512.049	86.75
512.265	86.75
512.481	96.75
512.698	72.75
512.914	97.75
513.13	92.75
513.346	92.75
513.562	85.75
513.778	110.75
513.994	90.75
514.21	92.75
514.426	117.75
514.642	109.75
514.858	123.75
515.074	155.75
515.29	413.75
515.506	1265.75
515.721	462.75
515.937	141.75
516.153	107.75
516.369	99.75
