Data from Circ_1996_H10_HRD10591_00013.txt Node
Date: Wed Jan 03 11:33:08 EST 2024
User: Yrep
Spectrometer: HR+D1059
Trigger mode: 1
Integration Time (sec): 1.000000E-1
Scans to average: 1
Electric dark correction enabled: true
Nonlinearity correction enabled: false
Boxcar width: 0
XAxis mode: Wavelengths
Number of Pixels in Spectrum: 2048
>>>>>Begin Spectral Data<<<<<
223.165	-14.5
223.4	-14.5
223.635	-14.5
223.869	-12.5
224.104	-18.5
224.338	-23.5
224.573	-7.5
224.808	-13.5
225.042	-6.5
225.277	-11.5
225.511	-4.5
225.746	0.5
225.98	9.5
226.215	13.5
226.449	11.5
226.683	19.5
226.918	24.5
227.152	33.5
227.387	41.5
227.621	38.5
227.856	27.5
228.09	51.5
228.324	44.5
228.559	43.5
228.793	57.5
229.027	71.5
229.262	67.5
229.496	82.5
229.73	67.5
229.964	82.5
230.199	80.5
230.433	94.5
230.667	75.5
230.901	75.5
231.136	77.5
231.37	80.5
231.604	86.5
231.838	91.5
232.072	76.5
232.306	83.5
232.541	73.5
232.775	84.5
233.009	88.5
233.243	78.5
233.477	83.5
233.711	74.5
233.945	82.5
234.179	82.5
234.413	72.5
234.647	83.5
234.881	87.5
235.115	61.5
235.349	82.5
235.583	88.5
235.817	81.5
236.051	84.5
236.285	66.5
236.519	71.5
236.753	83.5
236.987	89.5
237.221	83.5
237.455	83.5
237.689	85.5
237.922	63.5
238.156	84.5
238.39	71.5
238.624	75.5
238.858	80.5
239.091	64.5
239.325	77.5
239.559	89.5
239.793	72.5
240.027	77.5
240.26	72.5
240.494	74.5
240.728	67.5
240.961	75.5
241.195	75.5
241.429	78.5
241.662	72.5
241.896	59.5
242.13	73.5
242.363	77.5
242.597	89.5
242.83	74.5
243.064	78.5
243.298	75.5
243.531	77.5
243.765	77.5
243.998	82.5
244.232	87.5
244.465	78.5
244.699	68.5
244.932	75.5
245.166	65.5
245.399	75.5
245.633	81.5
245.866	79.5
246.099	85.5
246.333	88.5
246.566	82.5
246.8	85.5
247.033	64.5
247.266	75.5
247.5	87.5
247.733	82.5
247.966	80.5
248.2	86.5
248.433	87.5
248.666	78.5
248.899	84.5
249.133	85.5
249.366	106.5
249.599	98.5
249.832	83.5
250.066	92.5
250.299	81.5
250.532	82.5
250.765	76.5
250.998	69.5
251.231	94.5
251.465	93.5
251.698	81.5
251.931	86.5
252.164	83.5
252.397	72.5
252.63	71.5
252.863	81.5
253.096	66.5
253.329	89.5
253.562	84.5
253.795	77.5
254.028	90.5
254.261	79.5
254.494	78.5
254.727	72.5
254.96	81.5
255.193	91.5
255.426	75.5
255.659	87.5
255.892	81.5
256.124	94.5
256.357	90.5
256.59	73.5
256.823	90.5
257.056	85.5
257.289	80.5
257.521	85.5
257.754	87.5
257.987	81.5
258.22	79.5
258.452	83.5
258.685	92.5
258.918	87.5
259.151	90.5
259.383	84.5
259.616	75.5
259.849	90.5
260.081	94.5
260.314	81.5
260.547	84.5
260.779	78.5
261.012	73.5
261.244	85.5
261.477	101.5
261.71	91.5
261.942	113.5
262.175	90.5
262.407	75.5
262.64	99.5
262.872	79.5
263.105	64.5
263.337	85.5
263.57	78.5
263.802	80.5
264.035	80.5
264.267	84.5
264.499	98.5
264.732	82.5
264.964	96.5
265.197	91.5
265.429	75.5
265.661	95.5
265.894	86.5
266.126	85.5
266.358	76.5
266.591	83.5
266.823	89.5
267.055	79.5
267.287	85.5
267.52	81.5
267.752	81.5
267.984	76.5
268.216	88.5
268.448	84.5
268.681	81.5
268.913	88.5
269.145	82.5
269.377	97.5
269.609	77.5
269.841	84.5
270.073	91.5
270.306	85.5
270.538	85.5
270.77	66.5
271.002	88.5
271.234	96.5
271.466	90.5
271.698	88.5
271.93	85.5
272.162	103.5
272.394	88.5
272.626	98.5
272.858	75.5
273.09	85.5
273.322	89.5
273.553	85.5
273.785	93.5
274.017	90.5
274.249	69.5
274.481	97.5
274.713	78.5
274.945	93.5
275.176	108.5
275.408	89.5
275.64	78.5
275.872	85.5
276.104	87.5
276.335	68.5
276.567	86.5
276.799	93.5
277.031	95.5
277.262	93.5
277.494	84.5
277.726	84.5
277.957	84.5
278.189	89.5
278.421	89.5
278.652	85.5
278.884	77.5
279.115	104.5
279.347	88.5
279.579	88.5
279.81	84.5
280.042	92.5
280.273	115.5
280.505	95.5
280.736	92.5
280.968	80.5
281.199	94.5
281.431	93.5
281.662	85.5
281.894	96.5
282.125	88.5
282.356	114.5
282.588	141.5
282.819	96.5
283.051	75.5
283.282	85.5
283.513	95.5
283.745	91.5
283.976	80.5
284.207	105.5
284.439	85.5
284.67	83.5
284.901	76.5
285.132	76.5
285.364	94.5
285.595	87.5
285.826	91.5
286.057	89.5
286.288	106.5
286.52	79.5
286.751	81.5
286.982	83.5
287.213	91.5
287.444	87.5
287.675	102.5
287.906	92.5
288.138	93.5
288.369	101.5
288.6	83.5
288.831	74.5
289.062	92.5
289.293	79.5
289.524	87.5
289.755	80.5
289.986	67.5
290.217	80.5
290.448	87.5
290.679	95.5
290.91	84.5
291.141	102.5
291.371	91.5
291.602	88.5
291.833	65.5
292.064	97.5
292.295	82.5
292.526	101.5
292.757	94.5
292.987	94.5
293.218	111.5
293.449	75.5
293.68	96.5
293.91	98.5
294.141	93.5
294.372	101.5
294.603	73.5
294.833	88.5
295.064	95.5
295.295	96.5
295.525	90.5
295.756	95.5
295.987	97.5
296.217	139.5
296.448	123.5
296.679	106.5
296.909	83.5
297.14	87.5
297.37	91.5
297.601	79.5
297.831	91.5
298.062	88.5
298.292	94.5
298.523	105.5
298.753	79.5
298.984	84.5
299.214	89.5
299.445	85.5
299.675	107.5
299.905	107.5
300.136	101.5
300.366	91.5
300.597	88.5
300.827	99.5
301.057	109.5
301.288	89.5
301.518	96.5
301.748	84.5
301.979	101.5
302.209	91.5
302.439	100.5
302.669	80.5
302.9	96.5
303.13	88.5
303.36	106.5
303.59	99.5
303.82	107.5
304.051	94.5
304.281	96.5
304.511	81.5
304.741	86.5
304.971	94.5
305.201	90.5
305.431	97.5
305.661	97.5
305.891	88.5
306.121	89.5
306.352	79.5
306.582	96.5
306.812	101.5
307.042	102.5
307.272	97.5
307.502	91.5
307.731	105.5
307.961	92.5
308.191	90.5
308.421	106.5
308.651	80.5
308.881	97.5
309.111	88.5
309.341	105.5
309.571	98.5
309.8	103.5
310.03	108.5
310.26	84.5
310.49	98.5
310.72	96.5
310.949	105.5
311.179	83.5
311.409	94.5
311.639	99.5
311.868	105.5
312.098	91.5
312.328	93.5
312.557	111.5
312.787	111.5
313.017	97.5
313.246	106.5
313.476	81.5
313.706	91.5
313.935	94.5
314.165	99.5
314.394	82.5
314.624	89.5
314.853	92.5
315.083	68.5
315.312	91.5
315.542	91.5
315.771	91.5
316.001	93.5
316.23	94.5
316.46	82.5
316.689	92.5
316.919	96.5
317.148	69.5
317.377	73.5
317.607	87.5
317.836	99.5
318.065	93.5
318.295	87.5
318.524	98.5
318.753	80.5
318.983	84.5
319.212	89.5
319.441	117.5
319.67	108.5
319.9	98.5
320.129	96.5
320.358	99.5
320.587	84.5
320.816	111.5
321.046	87.5
321.275	98.5
321.504	68.5
321.733	92.5
321.962	103.5
322.191	91.5
322.42	113.5
322.649	109.5
322.878	98.5
323.108	112.5
323.337	119.5
323.566	125.5
323.795	143.5
324.024	183.5
324.253	290.5
324.482	603.5
324.71	1169.5
324.939	1553.5
325.168	624.5
325.397	193.5
325.626	130.5
325.855	112.5
326.084	124.5
326.313	121.5
326.542	139.5
326.77	187.5
326.999	334.5
327.228	635.5
327.457	1120.5
327.686	919.5
327.914	304.5
328.143	183.5
328.372	175.5
328.6	127.5
328.829	110.5
329.058	111.5
329.287	132.5
329.515	114.5
329.744	100.5
329.972	133.5
330.201	155.5
330.43	197.5
330.658	162.5
330.887	139.5
331.115	114.5
331.344	109.5
331.572	114.5
331.801	104.5
332.03	114.5
332.258	89.5
332.486	94.5
332.715	109.5
332.943	100.5
333.172	93.5
333.4	89.5
333.629	109.5
333.857	100.5
334.085	122.5
334.314	170.5
334.542	224.5
334.771	204.5
334.999	117.5
335.227	109.5
335.455	96.5
335.684	93.5
335.912	87.5
336.14	107.5
336.369	110.5
336.597	101.5
336.825	99.5
337.053	81.5
337.281	84.5
337.51	93.5
337.738	104.5
337.966	98.5
338.194	86.5
338.422	100.5
338.65	96.5
338.878	85.5
339.106	95.5
339.334	85.5
339.562	90.5
339.79	87.5
340.018	88.5
340.246	101.5
340.474	103.5
340.702	95.5
340.93	101.5
341.158	109.5
341.386	92.5
341.614	94.5
341.842	92.5
342.07	93.5
342.298	91.5
342.526	97.5
342.754	95.5
342.981	89.5
343.209	97.5
343.437	104.5
343.665	93.5
343.893	104.5
344.12	84.5
344.348	96.5
344.576	83.5
344.804	88.5
345.031	91.5
345.259	103.5
345.487	93.5
345.714	111.5
345.942	99.5
346.17	92.5
346.397	82.5
346.625	102.5
346.853	87.5
347.08	87.5
347.308	87.5
347.535	89.5
347.763	101.5
347.99	95.5
348.218	104.5
348.445	97.5
348.673	103.5
348.9	97.5
349.128	92.5
349.355	88.5
349.583	87.5
349.81	88.5
350.037	89.5
350.265	94.5
350.492	81.5
350.72	102.5
350.947	100.5
351.174	92.5
351.402	114.5
351.629	103.5
351.856	107.5
352.083	109.5
352.311	103.5
352.538	107.5
352.765	105.5
352.992	103.5
353.22	109.5
353.447	112.5
353.674	87.5
353.901	95.5
354.128	117.5
354.355	93.5
354.583	94.5
354.81	105.5
355.037	91.5
355.264	108.5
355.491	103.5
355.718	107.5
355.945	99.5
356.172	86.5
356.399	88.5
356.626	99.5
356.853	101.5
357.08	113.5
357.307	97.5
357.534	89.5
357.761	107.5
357.988	106.5
358.215	114.5
358.441	103.5
358.668	117.5
358.895	100.5
359.122	96.5
359.349	84.5
359.576	76.5
359.802	99.5
360.029	107.5
360.256	108.5
360.483	96.5
360.709	81.5
360.936	95.5
361.163	97.5
361.39	100.5
361.616	85.5
361.843	84.5
362.07	87.5
362.296	102.5
362.523	105.5
362.749	84.5
362.976	76.5
363.203	103.5
363.429	92.5
363.656	98.5
363.882	98.5
364.109	82.5
364.335	97.5
364.562	94.5
364.788	92.5
365.015	101.5
365.241	108.5
365.468	114.5
365.694	117.5
365.92	90.5
366.147	83.5
366.373	97.5
366.599	98.5
366.826	76.5
367.052	76.5
367.278	89.5
367.505	98.5
367.731	98.5
367.957	96.5
368.184	89.5
368.41	107.5
368.636	99.5
368.862	120.5
369.089	99.5
369.315	89.5
369.541	91.5
369.767	97.5
369.993	93.5
370.219	100.5
370.445	100.5
370.672	79.5
370.898	87.5
371.124	85.5
371.35	94.5
371.576	111.5
371.802	87.5
372.028	100.5
372.254	93.5
372.48	95.5
372.706	85.5
372.932	105.5
373.158	83.5
373.384	87.5
373.61	102.5
373.835	96.5
374.061	79.5
374.287	99.5
374.513	92.5
374.739	91.5
374.965	84.5
375.191	80.5
375.416	97.5
375.642	106.5
375.868	107.5
376.094	93.5
376.319	98.5
376.545	91.5
376.771	78.5
376.997	92.5
377.222	92.5
377.448	90.5
377.674	95.5
377.899	98.5
378.125	94.5
378.35	91.5
378.576	88.5
378.802	74.5
379.027	101.5
379.253	91.5
379.478	101.5
379.704	105.5
379.929	96.5
380.155	88.5
380.38	99.5
380.606	109.5
380.831	93.5
381.057	100.5
381.282	100.5
381.507	101.5
381.733	100.5
381.958	111.5
382.184	99.5
382.409	108.5
382.634	99.5
382.86	106.5
383.085	105.5
383.31	123.5
383.535	99.5
383.761	111.5
383.986	113.5
384.211	117.5
384.436	111.5
384.662	106.5
384.887	116.5
385.112	136.5
385.337	117.5
385.562	125.5
385.787	117.5
386.013	107.5
386.238	131.5
386.463	126.5
386.688	129.5
386.913	111.5
387.138	117.5
387.363	115.5
387.588	105.5
387.813	93.5
388.038	109.5
388.263	138.5
388.488	119.5
388.713	103.5
388.938	92.5
389.163	109.5
389.387	107.5
389.612	82.5
389.837	82.5
390.062	92.5
390.287	95.5
390.512	92.5
390.736	87.5
390.961	77.5
391.186	91.5
391.411	91.5
391.636	95.5
391.86	96.5
392.085	94.5
392.31	88.5
392.534	90.5
392.759	103.5
392.984	88.5
393.208	106.5
393.433	122.5
393.658	101.5
393.882	90.5
394.107	98.5
394.331	86.5
394.556	86.5
394.78	93.5
395.005	100.5
395.229	94.5
395.454	96.5
395.678	99.5
395.903	85.5
396.127	95.5
396.352	91.5
396.576	89.5
396.801	95.5
397.025	91.5
397.249	91.5
397.474	92.5
397.698	115.5
397.922	89.5
398.147	98.5
398.371	85.5
398.595	88.5
398.82	74.5
399.044	96.5
399.268	81.5
399.492	88.5
399.717	98.5
399.941	92.5
400.165	92.5
400.389	81.5
400.613	87.5
400.837	88.5
401.062	96.5
401.286	95.5
401.51	98.5
401.734	100.5
401.958	90.5
402.182	106.5
402.406	159.5
402.63	121.5
402.854	99.5
403.078	89.5
403.302	97.5
403.526	82.5
403.75	90.5
403.974	80.5
404.198	92.5
404.422	84.5
404.645	87.5
404.869	84.5
405.093	99.5
405.317	95.5
405.541	103.5
405.765	110.5
405.988	119.5
406.212	173.5
406.436	215.5
406.66	146.5
406.883	83.5
407.107	99.5
407.331	95.5
407.555	96.5
407.778	109.5
408.002	93.5
408.226	81.5
408.449	84.5
408.673	83.5
408.896	97.5
409.12	98.5
409.344	93.5
409.567	87.5
409.791	109.5
410.014	101.5
410.238	106.5
410.461	99.5
410.685	86.5
410.908	88.5
411.132	112.5
411.355	96.5
411.578	91.5
411.802	102.5
412.025	97.5
412.249	85.5
412.472	83.5
412.695	100.5
412.919	84.5
413.142	81.5
413.365	91.5
413.589	81.5
413.812	95.5
414.035	101.5
414.258	94.5
414.482	92.5
414.705	91.5
414.928	92.5
415.151	103.5
415.374	106.5
415.597	93.5
415.821	94.5
416.044	93.5
416.267	101.5
416.49	80.5
416.713	81.5
416.936	85.5
417.159	89.5
417.382	99.5
417.605	91.5
417.828	88.5
418.051	99.5
418.274	80.5
418.497	93.5
418.72	93.5
418.943	92.5
419.166	84.5
419.389	100.5
419.611	84.5
419.834	88.5
420.057	94.5
420.28	77.5
420.503	92.5
420.726	91.5
420.948	100.5
421.171	101.5
421.394	83.5
421.617	105.5
421.839	97.5
422.062	84.5
422.285	93.5
422.507	112.5
422.73	109.5
422.953	89.5
423.175	75.5
423.398	82.5
423.621	86.5
423.843	92.5
424.066	91.5
424.288	102.5
424.511	81.5
424.733	84.5
424.956	107.5
425.178	90.5
425.401	85.5
425.623	109.5
425.846	102.5
426.068	86.5
426.291	98.5
426.513	99.5
426.735	102.5
426.958	106.5
427.18	104.5
427.402	117.5
427.625	147.5
427.847	101.5
428.069	112.5
428.292	97.5
428.514	88.5
428.736	96.5
428.958	93.5
429.181	102.5
429.403	79.5
429.625	91.5
429.847	94.5
430.069	91.5
430.292	104.5
430.514	95.5
430.736	100.5
430.958	93.5
431.18	75.5
431.402	79.5
431.624	84.5
431.846	74.5
432.068	88.5
432.29	97.5
432.512	97.5
432.734	97.5
432.956	97.5
433.178	103.5
433.4	88.5
433.622	97.5
433.844	101.5
434.066	95.5
434.287	96.5
434.509	103.5
434.731	113.5
434.953	92.5
435.175	83.5
435.397	98.5
435.618	87.5
435.84	95.5
436.062	110.5
436.284	100.5
436.505	80.5
436.727	84.5
436.949	74.5
437.17	82.5
437.392	78.5
437.614	90.5
437.835	97.5
438.057	107.5
438.278	101.5
438.5	95.5
438.721	108.5
438.943	99.5
439.165	96.5
439.386	82.5
439.608	102.5
439.829	95.5
440.05	104.5
440.272	127.5
440.493	94.5
440.715	90.5
440.936	95.5
441.158	100.5
441.379	77.5
441.6	91.5
441.822	91.5
442.043	86.5
442.264	96.5
442.486	105.5
442.707	81.5
442.928	101.5
443.149	115.5
443.371	125.5
443.592	106.5
443.813	103.5
444.034	96.5
444.255	96.5
444.476	82.5
444.698	90.5
444.919	99.5
445.14	156.5
445.361	114.5
445.582	122.5
445.803	129.5
446.024	119.5
446.245	126.5
446.466	107.5
446.687	90.5
446.908	81.5
447.129	84.5
447.35	91.5
447.571	91.5
447.792	97.5
448.013	100.5
448.234	95.5
448.455	90.5
448.675	112.5
448.896	123.5
449.117	105.5
449.338	100.5
449.559	113.5
449.779	125.5
450	83.5
450.221	91.5
450.442	88.5
450.662	95.5
450.883	105.5
451.104	110.5
451.324	93.5
451.545	94.5
451.766	97.5
451.986	88.5
452.207	87.5
452.428	100.5
452.648	100.5
452.869	105.5
453.089	108.5
453.31	101.5
453.53	91.5
453.751	91.5
453.971	97.5
454.192	106.5
454.412	104.5
454.633	84.5
454.853	94.5
455.073	85.5
455.294	83.5
455.514	97.5
455.734	74.5
455.955	91.5
456.175	89.5
456.395	80.5
456.616	87.5
456.836	80.5
457.056	87.5
457.276	84.5
457.497	83.5
457.717	91.5
457.937	82.5
458.157	91.5
458.377	97.5
458.598	103.5
458.818	143.5
459.038	139.5
459.258	115.5
459.478	82.5
459.698	85.5
459.918	88.5
460.138	93.5
460.358	82.5
460.578	92.5
460.798	97.5
461.018	87.5
461.238	79.5
461.458	79.5
461.678	76.5
461.898	81.5
462.118	68.5
462.338	88.5
462.558	93.5
462.777	81.5
462.997	85.5
463.217	97.5
463.437	95.5
463.657	84.5
463.876	82.5
464.096	83.5
464.316	90.5
464.536	90.5
464.755	101.5
464.975	109.5
465.195	162.5
465.414	139.5
465.634	92.5
465.854	89.5
466.073	81.5
466.293	81.5
466.512	90.5
466.732	94.5
466.951	91.5
467.171	97.5
467.391	101.5
467.61	112.5
467.829	111.5
468.049	125.5
468.268	146.5
468.488	88.5
468.707	91.5
468.927	81.5
469.146	81.5
469.365	86.5
469.585	93.5
469.804	97.5
470.023	92.5
470.243	73.5
470.462	103.5
470.681	101.5
470.901	82.5
471.12	78.5
471.339	93.5
471.558	72.5
471.777	98.5
471.997	124.5
472.216	182.5
472.435	283.5
472.654	129.5
472.873	98.5
473.092	82.5
473.311	84.5
473.53	85.5
473.749	76.5
473.968	88.5
474.187	111.5
474.406	94.5
474.625	83.5
474.844	93.5
475.063	88.5
475.282	85.5
475.501	77.5
475.72	92.5
475.939	77.5
476.158	85.5
476.377	88.5
476.596	67.5
476.814	88.5
477.033	87.5
477.252	79.5
477.471	80.5
477.69	87.5
477.908	79.5
478.127	93.5
478.346	75.5
478.564	85.5
478.783	87.5
479.002	103.5
479.22	90.5
479.439	92.5
479.658	102.5
479.876	96.5
480.095	97.5
480.313	92.5
480.532	112.5
480.751	111.5
480.969	171.5
481.188	460.5
481.406	299.5
481.624	109.5
481.843	93.5
482.061	94.5
482.28	81.5
482.498	78.5
482.717	85.5
482.935	87.5
483.153	91.5
483.372	89.5
483.59	74.5
483.808	76.5
484.027	102.5
484.245	90.5
484.463	98.5
484.681	98.5
484.9	79.5
485.118	103.5
485.336	87.5
485.554	92.5
485.772	103.5
485.99	120.5
486.209	120.5
486.427	96.5
486.645	116.5
486.863	99.5
487.081	114.5
487.299	87.5
487.517	93.5
487.735	106.5
487.953	96.5
488.171	97.5
488.389	97.5
488.607	97.5
488.825	90.5
489.043	99.5
489.261	92.5
489.479	80.5
489.696	85.5
489.914	100.5
490.132	92.5
490.35	91.5
490.568	95.5
490.786	92.5
491.003	105.5
491.221	97.5
491.439	93.5
491.657	79.5
491.874	100.5
492.092	87.5
492.31	98.5
492.527	88.5
492.745	88.5
492.963	99.5
493.18	94.5
493.398	95.5
493.615	81.5
493.833	92.5
494.05	95.5
494.268	90.5
494.485	87.5
494.703	91.5
494.92	83.5
495.138	82.5
495.355	85.5
495.573	99.5
495.79	91.5
496.008	102.5
496.225	105.5
496.442	77.5
496.66	92.5
496.877	86.5
497.094	87.5
497.312	95.5
497.529	71.5
497.746	99.5
497.963	83.5
498.181	85.5
498.398	92.5
498.615	100.5
498.832	97.5
499.049	92.5
499.267	86.5
499.484	98.5
499.701	85.5
499.918	81.5
500.135	91.5
500.352	99.5
500.569	83.5
500.786	83.5
501.003	105.5
501.22	96.5
501.437	81.5
501.654	84.5
501.871	98.5
502.088	79.5
502.305	89.5
502.522	96.5
502.739	92.5
502.956	89.5
503.172	91.5
503.389	79.5
503.606	91.5
503.823	92.5
504.04	95.5
504.256	90.5
504.473	81.5
504.69	87.5
504.907	109.5
505.123	92.5
505.34	77.5
505.557	85.5
505.773	96.5
505.99	91.5
506.207	83.5
506.423	85.5
506.64	100.5
506.856	92.5
507.073	97.5
507.289	91.5
507.506	96.5
507.722	103.5
507.939	97.5
508.155	95.5
508.372	84.5
508.588	96.5
508.805	99.5
509.021	82.5
509.238	98.5
509.454	87.5
509.67	108.5
509.887	101.5
510.103	112.5
510.319	180.5
510.536	711.5
510.752	2340.5
510.968	633.5
511.184	154.5
511.401	103.5
511.617	85.5
511.833	84.5
512.049	82.5
512.265	88.5
512.481	92.5
512.698	87.5
512.914	96.5
513.13	106.5
513.346	88.5
513.562	90.5
513.778	103.5
513.994	94.5
514.21	111.5
514.426	117.5
514.642	112.5
514.858	99.5
515.074	159.5
515.29	411.5
515.506	1315.5
515.721	471.5
515.937	127.5
516.153	95.5
516.369	96.5
516.585	88.5
516.801	87.5
517.016	83.5
517.232	93.5
517.448	106.5
517.664	99.5
517.879	104.5
518.095	92.5
518.311	91.5
518.527	99.5
518.742	89.5
518.958	98.5
519.173	84.5
519.389	99.5
519.605	89.5
519.82	96.5
520.036	97.5
520.251	131.5
520.467	114.5
520.682	113.5
520.898	100.5
521.113	109.5
521.329	114.5
521.544	189.5
521.76	513.5
521.975	2219.5
522.19	1338.5
522.406	284.5
522.621	132.5
522.836	112.5
523.052	94.5
523.267	98.5
523.482	80.5
523.698	100.5
523.913	125.5
524.128	101.5
524.343	98.5
524.559	80.5
524.774	82.5
524.989	101.5
525.204	103.5
525.419	95.5
525.634	83.5
525.849	94.5
526.064	75.5
526.28	84.5
526.495	95.5
526.71	97.5
526.925	81.5
527.14	84.5
527.355	83.5
527.57	85.5
527.785	93.5
527.999	84.5
528.214	91.5
528.429	96.5
528.644	85.5
528.859	93.5
529.074	102.5
529.289	112.5
529.503	162.5
529.718	92.5
529.933	86.5
530.148	90.5
530.363	81.5
530.577	87.5
530.792	93.5
531.007	88.5
531.221	97.5
531.436	88.5
531.651	93.5
531.865	97.5
532.08	87.5
532.295	91.5
532.509	84.5
532.724	87.5
532.938	80.5
533.153	112.5
533.367	90.5
533.582	79.5
533.796	89.5
534.011	89.5
534.225	95.5
534.44	94.5
534.654	97.5
