Data from Circ_1996_H10_HRD10591_00005.txt Node
Date: Wed Jan 03 11:33:07 EST 2024
User: Yrep
Spectrometer: HR+D1059
Trigger mode: 1
Integration Time (sec): 1.000000E-1
Scans to average: 1
Electric dark correction enabled: true
Nonlinearity correction enabled: false
Boxcar width: 0
XAxis mode: Wavelengths
Number of Pixels in Spectrum: 2048
>>>>>Begin Spectral Data<<<<<
223.165	-28.19
223.4	-28.19
223.635	-28.19
223.869	-20.19
224.104	-10.19
224.338	-11.19
224.573	-25.19
224.808	-14.19
225.042	-4.19
225.277	1.81
225.511	1.81
225.746	0.81
225.98	12.81
226.215	15.81
226.449	21.81
226.683	0.81
226.918	16.81
227.152	40.81
227.387	28.81
227.621	37.81
227.856	46.81
228.09	49.81
228.324	58.81
228.559	68.81
228.793	62.81
229.027	58.81
229.262	63.81
229.496	56.81
229.73	85.81
229.964	87.81
230.199	83.81
230.433	77.81
230.667	77.81
230.901	71.81
231.136	71.81
231.37	81.81
231.604	73.81
231.838	91.81
232.072	77.81
232.306	76.81
232.541	82.81
232.775	79.81
233.009	87.81
233.243	84.81
233.477	81.81
233.711	75.81
233.945	80.81
234.179	95.81
234.413	75.81
234.647	82.81
234.881	82.81
235.115	77.81
235.349	78.81
235.583	80.81
235.817	78.81
236.051	91.81
236.285	69.81
236.519	65.81
236.753	89.81
236.987	79.81
237.221	84.81
237.455	81.81
237.689	68.81
237.922	80.81
238.156	70.81
238.39	84.81
238.624	76.81
238.858	72.81
239.091	68.81
239.325	69.81
239.559	84.81
239.793	76.81
240.027	84.81
240.26	82.81
240.494	80.81
240.728	75.81
240.961	56.81
241.195	84.81
241.429	60.81
241.662	87.81
241.896	70.81
242.13	89.81
242.363	84.81
242.597	75.81
242.83	71.81
243.064	91.81
243.298	63.81
243.531	74.81
243.765	82.81
243.998	87.81
244.232	74.81
244.465	89.81
244.699	86.81
244.932	84.81
245.166	87.81
245.399	82.81
245.633	71.81
245.866	81.81
246.099	73.81
246.333	78.81
246.566	77.81
246.8	96.81
247.033	73.81
247.266	82.81
247.5	73.81
247.733	87.81
247.966	95.81
248.2	79.81
248.433	72.81
248.666	75.81
248.899	76.81
249.133	88.81
249.366	90.81
249.599	91.81
249.832	87.81
250.066	89.81
250.299	66.81
250.532	83.81
250.765	88.81
250.998	87.81
251.231	88.81
251.465	77.81
251.698	78.81
251.931	95.81
252.164	73.81
252.397	65.81
252.63	74.81
252.863	79.81
253.096	67.81
253.329	82.81
253.562	85.81
253.795	89.81
254.028	78.81
254.261	82.81
254.494	92.81
254.727	66.81
254.96	81.81
255.193	82.81
255.426	72.81
255.659	79.81
255.892	83.81
256.124	74.81
256.357	105.81
256.59	76.81
256.823	68.81
257.056	88.81
257.289	89.81
257.521	79.81
257.754	75.81
257.987	81.81
258.22	85.81
258.452	85.81
258.685	82.81
258.918	81.81
259.151	84.81
259.383	78.81
259.616	76.81
259.849	82.81
260.081	99.81
260.314	77.81
260.547	69.81
260.779	84.81
261.012	79.81
261.244	85.81
261.477	74.81
261.71	87.81
261.942	87.81
262.175	112.81
262.407	100.81
262.64	79.81
262.872	80.81
263.105	87.81
263.337	72.81
263.57	76.81
263.802	88.81
264.035	91.81
264.267	81.81
264.499	77.81
264.732	70.81
264.964	74.81
265.197	79.81
265.429	76.81
265.661	76.81
265.894	86.81
266.126	91.81
266.358	72.81
266.591	84.81
266.823	80.81
267.055	101.81
267.287	83.81
267.52	72.81
267.752	71.81
267.984	84.81
268.216	96.81
268.448	88.81
268.681	86.81
268.913	72.81
269.145	87.81
269.377	82.81
269.609	67.81
269.841	71.81
270.073	83.81
270.306	70.81
270.538	73.81
270.77	81.81
271.002	90.81
271.234	86.81
271.466	84.81
271.698	67.81
271.93	75.81
272.162	67.81
272.394	86.81
272.626	75.81
272.858	90.81
273.09	87.81
273.322	86.81
273.553	83.81
273.785	72.81
274.017	90.81
274.249	85.81
274.481	71.81
274.713	91.81
274.945	99.81
275.176	87.81
275.408	87.81
275.64	78.81
275.872	77.81
276.104	82.81
276.335	89.81
276.567	89.81
276.799	104.81
277.031	95.81
277.262	94.81
277.494	94.81
277.726	80.81
277.957	72.81
278.189	79.81
278.421	89.81
278.652	87.81
278.884	85.81
279.115	96.81
279.347	105.81
279.579	81.81
279.81	94.81
280.042	89.81
280.273	87.81
280.505	91.81
280.736	89.81
280.968	81.81
281.199	87.81
281.431	89.81
281.662	71.81
281.894	96.81
282.125	96.81
282.356	106.81
282.588	133.81
282.819	99.81
283.051	77.81
283.282	95.81
283.513	87.81
283.745	75.81
283.976	91.81
284.207	90.81
284.439	80.81
284.67	98.81
284.901	94.81
285.132	82.81
285.364	90.81
285.595	86.81
285.826	91.81
286.057	82.81
286.288	80.81
286.52	80.81
286.751	89.81
286.982	95.81
287.213	93.81
287.444	79.81
287.675	93.81
287.906	112.81
288.138	97.81
288.369	93.81
288.6	83.81
288.831	89.81
289.062	97.81
289.293	80.81
289.524	84.81
289.755	95.81
289.986	75.81
290.217	99.81
290.448	87.81
290.679	82.81
290.91	87.81
291.141	98.81
291.371	87.81
291.602	87.81
291.833	98.81
292.064	81.81
292.295	91.81
292.526	83.81
292.757	79.81
292.987	87.81
293.218	97.81
293.449	83.81
293.68	79.81
293.91	99.81
294.141	84.81
294.372	89.81
294.603	86.81
294.833	94.81
295.064	95.81
295.295	75.81
295.525	97.81
295.756	91.81
295.987	103.81
296.217	129.81
296.448	117.81
296.679	91.81
296.909	82.81
297.14	90.81
297.37	77.81
297.601	92.81
297.831	83.81
298.062	97.81
298.292	83.81
298.523	85.81
298.753	99.81
298.984	88.81
299.214	83.81
299.445	99.81
299.675	97.81
299.905	98.81
300.136	84.81
300.366	85.81
300.597	93.81
300.827	89.81
301.057	96.81
301.288	98.81
301.518	96.81
301.748	102.81
301.979	110.81
302.209	85.81
302.439	83.81
302.669	83.81
302.9	93.81
303.13	83.81
303.36	89.81
303.59	73.81
303.82	91.81
304.051	98.81
304.281	98.81
304.511	91.81
304.741	91.81
304.971	87.81
305.201	86.81
305.431	100.81
305.661	99.81
305.891	97.81
306.121	94.81
306.352	92.81
306.582	93.81
306.812	85.81
307.042	98.81
307.272	95.81
307.502	97.81
307.731	108.81
307.961	100.81
308.191	93.81
308.421	95.81
308.651	96.81
308.881	83.81
309.111	96.81
309.341	97.81
309.571	101.81
309.8	99.81
310.03	90.81
310.26	81.81
310.49	103.81
310.72	96.81
310.949	98.81
311.179	93.81
311.409	99.81
311.639	99.81
311.868	92.81
312.098	85.81
312.328	100.81
312.557	107.81
312.787	84.81
313.017	101.81
313.246	107.81
313.476	93.81
313.706	86.81
313.935	83.81
314.165	94.81
314.394	101.81
314.624	86.81
314.853	95.81
315.083	100.81
315.312	97.81
315.542	98.81
315.771	99.81
316.001	90.81
316.23	86.81
316.46	109.81
316.689	85.81
316.919	93.81
317.148	93.81
317.377	95.81
317.607	100.81
317.836	92.81
318.065	77.81
318.295	82.81
318.524	89.81
318.753	119.81
318.983	104.81
319.212	96.81
319.441	98.81
319.67	109.81
319.9	95.81
320.129	67.81
320.358	90.81
320.587	93.81
320.816	89.81
321.046	109.81
321.275	99.81
321.504	96.81
321.733	95.81
321.962	104.81
322.191	98.81
322.42	90.81
322.649	107.81
322.878	108.81
323.108	113.81
323.337	110.81
323.566	116.81
323.795	145.81
324.024	163.81
324.253	270.81
324.482	539.81
324.71	1061.81
324.939	1405.81
325.168	513.81
325.397	183.81
325.626	124.81
325.855	109.81
326.084	110.81
326.313	108.81
326.542	127.81
326.77	164.81
326.999	318.81
327.228	593.81
327.457	1015.81
327.686	825.81
327.914	264.81
328.143	181.81
328.372	166.81
328.6	119.81
328.829	95.81
329.058	113.81
329.287	107.81
329.515	114.81
329.744	109.81
329.972	146.81
330.201	162.81
330.43	212.81
330.658	142.81
330.887	151.81
331.115	122.81
331.344	106.81
331.572	111.81
331.801	96.81
332.03	101.81
332.258	88.81
332.486	105.81
332.715	89.81
332.943	97.81
333.172	89.81
333.4	97.81
333.629	115.81
333.857	118.81
334.085	125.81
334.314	171.81
334.542	249.81
334.771	228.81
334.999	121.81
335.227	101.81
335.455	104.81
335.684	84.81
335.912	104.81
336.14	95.81
336.369	91.81
336.597	106.81
336.825	90.81
337.053	95.81
337.281	97.81
337.51	99.81
337.738	91.81
337.966	89.81
338.194	97.81
338.422	109.81
338.65	100.81
338.878	103.81
339.106	93.81
339.334	108.81
339.562	102.81
339.79	85.81
340.018	82.81
340.246	94.81
340.474	82.81
340.702	87.81
340.93	94.81
341.158	87.81
341.386	99.81
341.614	101.81
341.842	88.81
342.07	65.81
342.298	93.81
342.526	80.81
342.754	93.81
342.981	99.81
343.209	86.81
343.437	89.81
343.665	96.81
343.893	96.81
344.12	84.81
344.348	91.81
344.576	91.81
344.804	101.81
345.031	101.81
345.259	101.81
345.487	96.81
345.714	102.81
345.942	96.81
346.17	112.81
346.397	88.81
346.625	94.81
346.853	92.81
347.08	97.81
347.308	107.81
347.535	91.81
347.763	100.81
347.99	101.81
348.218	87.81
348.445	103.81
348.673	101.81
348.9	100.81
349.128	103.81
349.355	93.81
349.583	87.81
349.81	97.81
350.037	94.81
350.265	106.81
350.492	85.81
350.72	89.81
350.947	104.81
351.174	110.81
351.402	96.81
351.629	95.81
351.856	113.81
352.083	106.81
352.311	102.81
352.538	115.81
352.765	105.81
352.992	114.81
353.22	102.81
353.447	103.81
353.674	108.81
353.901	101.81
354.128	96.81
354.355	103.81
354.583	85.81
354.81	105.81
355.037	96.81
355.264	112.81
355.491	107.81
355.718	99.81
355.945	126.81
356.172	94.81
356.399	93.81
356.626	102.81
356.853	105.81
357.08	87.81
357.307	103.81
357.534	101.81
357.761	101.81
357.988	106.81
358.215	99.81
358.441	99.81
358.668	101.81
358.895	91.81
359.122	90.81
359.349	108.81
359.576	90.81
359.802	93.81
360.029	111.81
360.256	105.81
360.483	91.81
360.709	96.81
360.936	94.81
361.163	101.81
361.39	92.81
361.616	103.81
361.843	101.81
362.07	96.81
362.296	94.81
362.523	89.81
362.749	97.81
362.976	92.81
363.203	108.81
363.429	84.81
363.656	87.81
363.882	82.81
364.109	98.81
364.335	104.81
364.562	77.81
364.788	82.81
365.015	90.81
365.241	88.81
365.468	100.81
365.694	108.81
365.92	94.81
366.147	91.81
366.373	82.81
366.599	90.81
366.826	92.81
367.052	88.81
367.278	92.81
367.505	92.81
367.731	95.81
367.957	82.81
368.184	89.81
368.41	95.81
368.636	108.81
368.862	103.81
369.089	102.81
369.315	96.81
369.541	79.81
369.767	86.81
369.993	87.81
370.219	93.81
370.445	88.81
370.672	76.81
370.898	95.81
371.124	80.81
371.35	91.81
371.576	82.81
371.802	93.81
372.028	83.81
372.254	83.81
372.48	91.81
372.706	86.81
372.932	82.81
373.158	99.81
373.384	91.81
373.61	91.81
373.835	92.81
374.061	95.81
374.287	103.81
374.513	94.81
374.739	80.81
374.965	95.81
375.191	97.81
375.416	93.81
375.642	97.81
375.868	89.81
376.094	93.81
376.319	93.81
376.545	90.81
376.771	92.81
376.997	94.81
377.222	106.81
377.448	84.81
377.674	87.81
377.899	91.81
378.125	96.81
378.35	81.81
378.576	90.81
378.802	105.81
379.027	108.81
379.253	104.81
379.478	96.81
379.704	90.81
379.929	110.81
380.155	109.81
380.38	100.81
380.606	108.81
380.831	104.81
381.057	100.81
381.282	95.81
381.507	90.81
381.733	102.81
381.958	112.81
382.184	103.81
382.409	115.81
382.634	133.81
382.86	112.81
383.085	115.81
383.31	110.81
383.535	110.81
383.761	106.81
383.986	107.81
384.211	105.81
384.436	123.81
384.662	119.81
384.887	128.81
385.112	141.81
385.337	137.81
385.562	121.81
385.787	121.81
386.013	118.81
386.238	129.81
386.463	123.81
386.688	125.81
386.913	119.81
387.138	139.81
387.363	120.81
387.588	99.81
387.813	100.81
388.038	129.81
388.263	147.81
388.488	137.81
388.713	105.81
388.938	100.81
389.163	77.81
389.387	102.81
389.612	84.81
389.837	87.81
390.062	77.81
390.287	93.81
390.512	94.81
390.736	93.81
390.961	90.81
391.186	82.81
391.411	86.81
391.636	93.81
391.86	78.81
392.085	88.81
392.31	82.81
392.534	85.81
392.759	97.81
392.984	111.81
393.208	101.81
393.433	137.81
393.658	106.81
393.882	94.81
394.107	88.81
394.331	93.81
394.556	94.81
394.78	102.81
395.005	83.81
395.229	83.81
395.454	82.81
395.678	86.81
395.903	78.81
396.127	84.81
396.352	83.81
396.576	93.81
396.801	96.81
397.025	112.81
397.249	90.81
397.474	82.81
397.698	91.81
397.922	92.81
398.147	84.81
398.371	85.81
398.595	95.81
398.82	88.81
399.044	91.81
399.268	84.81
399.492	72.81
399.717	92.81
399.941	91.81
400.165	87.81
400.389	94.81
400.613	99.81
400.837	91.81
401.062	90.81
401.286	100.81
401.51	88.81
401.734	90.81
401.958	114.81
402.182	109.81
402.406	125.81
402.63	110.81
402.854	104.81
403.078	95.81
403.302	87.81
403.526	76.81
403.75	79.81
403.974	106.81
404.198	79.81
404.422	80.81
404.645	89.81
404.869	89.81
405.093	89.81
405.317	80.81
405.541	87.81
405.765	87.81
405.988	93.81
406.212	153.81
406.436	186.81
406.66	127.81
406.883	105.81
407.107	107.81
407.331	90.81
407.555	105.81
407.778	102.81
408.002	95.81
408.226	77.81
408.449	90.81
408.673	90.81
408.896	90.81
409.12	76.81
409.344	97.81
409.567	83.81
409.791	95.81
410.014	112.81
410.238	99.81
410.461	81.81
410.685	92.81
410.908	104.81
411.132	112.81
411.355	104.81
411.578	96.81
411.802	83.81
412.025	106.81
412.249	85.81
412.472	109.81
412.695	93.81
412.919	85.81
413.142	81.81
413.365	92.81
413.589	101.81
413.812	99.81
414.035	103.81
414.258	91.81
414.482	95.81
414.705	93.81
414.928	96.81
415.151	86.81
415.374	114.81
415.597	96.81
415.821	88.81
416.044	104.81
416.267	94.81
416.49	96.81
416.713	82.81
416.936	89.81
417.159	90.81
417.382	93.81
417.605	95.81
417.828	96.81
418.051	88.81
418.274	95.81
418.497	81.81
418.72	94.81
418.943	88.81
419.166	95.81
419.389	104.81
419.611	99.81
419.834	101.81
420.057	88.81
420.28	90.81
420.503	88.81
420.726	92.81
420.948	106.81
421.171	89.81
421.394	99.81
421.617	103.81
421.839	86.81
422.062	91.81
422.285	102.81
422.507	101.81
422.73	104.81
422.953	91.81
423.175	85.81
423.398	89.81
423.621	85.81
423.843	93.81
424.066	96.81
424.288	80.81
424.511	83.81
424.733	78.81
424.956	110.81
425.178	100.81
425.401	83.81
425.623	94.81
425.846	89.81
426.068	84.81
426.291	100.81
426.513	85.81
426.735	82.81
426.958	106.81
427.18	95.81
427.402	147.81
427.625	132.81
427.847	123.81
428.069	108.81
428.292	92.81
428.514	84.81
428.736	85.81
428.958	84.81
429.181	95.81
429.403	87.81
429.625	79.81
429.847	104.81
430.069	87.81
430.292	96.81
430.514	74.81
430.736	104.81
430.958	87.81
431.18	90.81
431.402	88.81
431.624	93.81
431.846	78.81
432.068	87.81
432.29	80.81
432.512	79.81
432.734	102.81
432.956	87.81
433.178	85.81
433.4	91.81
433.622	93.81
433.844	91.81
434.066	95.81
434.287	76.81
434.509	94.81
434.731	88.81
434.953	96.81
435.175	83.81
435.397	92.81
435.618	96.81
435.84	103.81
436.062	114.81
436.284	98.81
436.505	93.81
436.727	106.81
436.949	92.81
437.17	82.81
437.392	85.81
437.614	97.81
437.835	112.81
438.057	121.81
438.278	93.81
438.5	103.81
438.721	96.81
438.943	91.81
439.165	81.81
439.386	100.81
439.608	87.81
439.829	88.81
440.05	109.81
440.272	109.81
440.493	104.81
440.715	80.81
440.936	79.81
441.158	89.81
441.379	74.81
441.6	99.81
441.822	108.81
442.043	102.81
442.264	104.81
442.486	104.81
442.707	81.81
442.928	85.81
443.149	117.81
443.371	107.81
443.592	100.81
443.813	103.81
444.034	103.81
444.255	77.81
444.476	100.81
444.698	85.81
444.919	88.81
445.14	142.81
445.361	119.81
445.582	101.81
445.803	120.81
446.024	124.81
446.245	119.81
446.466	89.81
446.687	80.81
446.908	88.81
447.129	87.81
447.35	83.81
447.571	84.81
447.792	78.81
448.013	108.81
448.234	108.81
448.455	97.81
448.675	104.81
448.896	107.81
449.117	115.81
449.338	105.81
449.559	115.81
449.779	110.81
450	89.81
450.221	78.81
450.442	91.81
450.662	92.81
450.883	99.81
451.104	98.81
451.324	114.81
451.545	97.81
451.766	89.81
451.986	77.81
452.207	91.81
452.428	90.81
452.648	105.81
452.869	114.81
453.089	109.81
453.31	106.81
453.53	75.81
453.751	87.81
453.971	100.81
454.192	106.81
454.412	92.81
454.633	88.81
454.853	82.81
455.073	97.81
455.294	79.81
455.514	107.81
455.734	104.81
455.955	93.81
456.175	75.81
456.395	79.81
456.616	77.81
456.836	83.81
457.056	80.81
457.276	90.81
457.497	76.81
457.717	80.81
457.937	91.81
458.157	82.81
458.377	95.81
458.598	104.81
458.818	131.81
459.038	139.81
459.258	108.81
459.478	102.81
459.698	93.81
459.918	88.81
460.138	95.81
460.358	77.81
460.578	88.81
460.798	80.81
461.018	90.81
461.238	75.81
461.458	75.81
461.678	100.81
461.898	90.81
462.118	90.81
462.338	92.81
462.558	92.81
462.777	101.81
462.997	81.81
463.217	89.81
463.437	89.81
463.657	82.81
463.876	77.81
464.096	86.81
464.316	92.81
464.536	88.81
464.755	92.81
464.975	103.81
465.195	141.81
465.414	125.81
465.634	101.81
465.854	96.81
466.073	96.81
466.293	91.81
466.512	80.81
466.732	87.81
466.951	95.81
467.171	84.81
467.391	91.81
467.61	97.81
467.829	100.81
468.049	135.81
468.268	135.81
468.488	92.81
468.707	94.81
468.927	103.81
469.146	79.81
469.365	84.81
469.585	94.81
469.804	91.81
470.023	87.81
470.243	100.81
470.462	86.81
470.681	92.81
470.901	76.81
471.12	90.81
471.339	84.81
471.558	93.81
471.777	103.81
471.997	109.81
472.216	215.81
472.435	307.81
472.654	137.81
472.873	100.81
473.092	102.81
473.311	82.81
473.53	91.81
473.749	93.81
473.968	91.81
474.187	77.81
474.406	81.81
474.625	80.81
474.844	89.81
475.063	78.81
475.282	89.81
475.501	79.81
475.72	89.81
475.939	91.81
476.158	85.81
476.377	86.81
476.596	98.81
476.814	88.81
477.033	95.81
477.252	100.81
477.471	97.81
477.69	93.81
477.908	76.81
478.127	98.81
478.346	106.81
478.564	85.81
478.783	103.81
479.002	91.81
479.22	94.81
479.439	108.81
479.658	107.81
479.876	95.81
480.095	88.81
480.313	80.81
480.532	104.81
480.751	111.81
480.969	197.81
481.188	515.81
481.406	313.81
481.624	120.81
481.843	85.81
482.061	91.81
482.28	75.81
482.498	76.81
482.717	89.81
482.935	96.81
483.153	95.81
483.372	82.81
483.59	96.81
483.808	98.81
484.027	92.81
484.245	91.81
484.463	90.81
484.681	98.81
484.9	79.81
485.118	109.81
485.336	91.81
485.554	75.81
485.772	99.81
485.99	105.81
486.209	108.81
486.427	109.81
486.645	122.81
486.863	123.81
487.081	113.81
487.299	98.81
487.517	103.81
487.735	95.81
487.953	107.81
488.171	99.81
488.389	93.81
488.607	101.81
488.825	98.81
489.043	82.81
489.261	94.81
489.479	100.81
489.696	83.81
489.914	77.81
490.132	89.81
490.35	92.81
490.568	82.81
490.786	93.81
491.003	105.81
491.221	90.81
491.439	96.81
491.657	99.81
491.874	92.81
492.092	90.81
492.31	97.81
492.527	94.81
492.745	83.81
492.963	98.81
493.18	90.81
493.398	90.81
493.615	103.81
493.833	108.81
494.05	95.81
494.268	83.81
494.485	91.81
494.703	84.81
494.92	89.81
495.138	71.81
495.355	96.81
495.573	100.81
495.79	93.81
496.008	95.81
496.225	91.81
496.442	89.81
496.66	99.81
496.877	100.81
497.094	99.81
497.312	90.81
497.529	81.81
497.746	85.81
497.963	78.81
498.181	98.81
498.398	90.81
498.615	108.81
498.832	101.81
499.049	94.81
499.267	92.81
499.484	99.81
499.701	94.81
499.918	108.81
500.135	93.81
500.352	86.81
500.569	105.81
500.786	86.81
501.003	95.81
501.22	90.81
501.437	89.81
501.654	103.81
501.871	104.81
502.088	95.81
502.305	95.81
502.522	94.81
502.739	95.81
502.956	85.81
503.172	83.81
503.389	82.81
503.606	101.81
503.823	101.81
504.04	99.81
504.256	78.81
504.473	80.81
504.69	90.81
504.907	93.81
505.123	81.81
505.34	89.81
505.557	107.81
505.773	98.81
505.99	92.81
506.207	94.81
506.423	95.81
506.64	88.81
506.856	108.81
507.073	101.81
507.289	86.81
507.506	91.81
507.722	98.81
507.939	92.81
508.155	90.81
508.372	92.81
508.588	79.81
508.805	93.81
509.021	87.81
509.238	98.81
509.454	82.81
509.67	102.81
509.887	113.81
510.103	120.81
510.319	188.81
510.536	656.81
510.752	2075.81
510.968	574.81
511.184	147.81
511.401	111.81
511.617	100.81
511.833	98.81
512.049	85.81
512.265	103.81
512.481	86.81
512.698	87.81
512.914	82.81
513.13	77.81
513.346	81.81
513.562	92.81
513.778	94.81
513.994	88.81
514.21	91.81
514.426	127.81
514.642	111.81
514.858	106.81
515.074	138.81
