Data from Circ_1996_H10_HRD10591_00063.txt Node
Date: Wed Jan 03 11:33:18 EST 2024
User: Yrep
Spectrometer: HR+D1059
Trigger mode: 1
Integration Time (sec): 1.000000E-1
Scans to average: 1
Electric dark correction enabled: true
Nonlinearity correction enabled: false
Boxcar width: 0
XAxis mode: Wavelengths
Number of Pixels in Spectrum: 2048
>>>>>Begin Spectral Data<<<<<
223.165	-35.56
223.4	-35.56
223.635	-35.56
223.869	-14.56
224.104	-18.56
224.338	-24.56
224.573	-12.56
224.808	-17.56
225.042	-11.56
225.277	15.44
225.511	-0.56
225.746	-0.56
225.98	7.44
226.215	23.44
226.449	22.44
226.683	15.44
226.918	22.44
227.152	29.44
227.387	28.44
227.621	38.44
227.856	38.44
228.09	35.44
228.324	43.44
228.559	70.44
228.793	56.44
229.027	54.44
229.262	61.44
229.496	65.44
229.73	72.44
229.964	84.44
230.199	73.44
230.433	77.44
230.667	58.44
230.901	83.44
231.136	78.44
231.37	83.44
231.604	78.44
231.838	67.44
232.072	76.44
232.306	82.44
232.541	80.44
232.775	90.44
233.009	81.44
233.243	82.44
233.477	83.44
233.711	91.44
233.945	65.44
234.179	75.44
234.413	77.44
234.647	74.44
234.881	68.44
235.115	80.44
235.349	75.44
235.583	95.44
235.817	85.44
236.051	81.44
236.285	58.44
236.519	72.44
236.753	88.44
236.987	76.44
237.221	74.44
237.455	87.44
237.689	71.44
237.922	73.44
238.156	78.44
238.39	72.44
238.624	66.44
238.858	82.44
239.091	75.44
239.325	72.44
239.559	78.44
239.793	92.44
240.027	88.44
240.26	68.44
240.494	77.44
240.728	86.44
240.961	66.44
241.195	80.44
241.429	82.44
241.662	81.44
241.896	63.44
242.13	63.44
242.363	66.44
242.597	69.44
242.83	88.44
243.064	88.44
243.298	79.44
243.531	66.44
243.765	71.44
243.998	76.44
244.232	77.44
244.465	80.44
244.699	70.44
244.932	83.44
245.166	65.44
245.399	84.44
245.633	75.44
245.866	68.44
246.099	86.44
246.333	83.44
246.566	70.44
246.8	74.44
247.033	78.44
247.266	93.44
247.5	72.44
247.733	72.44
247.966	78.44
248.2	86.44
248.433	66.44
248.666	93.44
248.899	77.44
249.133	81.44
249.366	94.44
249.599	103.44
249.832	85.44
250.066	85.44
250.299	72.44
250.532	65.44
250.765	86.44
250.998	75.44
251.231	78.44
251.465	88.44
251.698	71.44
251.931	78.44
252.164	83.44
252.397	83.44
252.63	84.44
252.863	89.44
253.096	61.44
253.329	75.44
253.562	75.44
253.795	81.44
254.028	73.44
254.261	76.44
254.494	70.44
254.727	81.44
254.96	87.44
255.193	75.44
255.426	74.44
255.659	74.44
255.892	83.44
256.124	78.44
256.357	80.44
256.59	84.44
256.823	86.44
257.056	83.44
257.289	78.44
257.521	74.44
257.754	78.44
257.987	72.44
258.22	89.44
258.452	74.44
258.685	85.44
258.918	76.44
259.151	82.44
259.383	80.44
259.616	76.44
259.849	83.44
260.081	74.44
260.314	94.44
260.547	90.44
260.779	92.44
261.012	74.44
261.244	84.44
261.477	85.44
261.71	80.44
261.942	114.44
262.175	100.44
262.407	91.44
262.64	77.44
262.872	82.44
263.105	89.44
263.337	81.44
263.57	83.44
263.802	86.44
264.035	82.44
264.267	76.44
264.499	78.44
264.732	84.44
264.964	90.44
265.197	84.44
265.429	83.44
265.661	84.44
265.894	76.44
266.126	80.44
266.358	86.44
266.591	92.44
266.823	84.44
267.055	71.44
267.287	83.44
267.52	96.44
267.752	94.44
267.984	73.44
268.216	76.44
268.448	83.44
268.681	81.44
268.913	71.44
269.145	74.44
269.377	89.44
269.609	83.44
269.841	95.44
270.073	89.44
270.306	82.44
270.538	78.44
270.77	76.44
271.002	84.44
271.234	84.44
271.466	79.44
271.698	83.44
271.93	83.44
272.162	92.44
272.394	94.44
272.626	83.44
272.858	74.44
273.09	86.44
273.322	88.44
273.553	89.44
273.785	85.44
274.017	92.44
274.249	102.44
274.481	90.44
274.713	77.44
274.945	87.44
275.176	85.44
275.408	80.44
275.64	87.44
275.872	97.44
276.104	92.44
276.335	66.44
276.567	92.44
276.799	99.44
277.031	100.44
277.262	107.44
277.494	84.44
277.726	98.44
277.957	84.44
278.189	97.44
278.421	83.44
278.652	74.44
278.884	78.44
279.115	80.44
279.347	84.44
279.579	87.44
279.81	80.44
280.042	82.44
280.273	87.44
280.505	91.44
280.736	77.44
280.968	85.44
281.199	88.44
281.431	92.44
281.662	91.44
281.894	102.44
282.125	102.44
282.356	99.44
282.588	142.44
282.819	114.44
283.051	79.44
283.282	79.44
283.513	81.44
283.745	103.44
283.976	85.44
284.207	96.44
284.439	88.44
284.67	79.44
284.901	86.44
285.132	77.44
285.364	77.44
285.595	92.44
285.826	84.44
286.057	90.44
286.288	77.44
286.52	76.44
286.751	82.44
286.982	88.44
287.213	80.44
287.444	86.44
287.675	107.44
287.906	89.44
288.138	90.44
288.369	88.44
288.6	81.44
288.831	94.44
289.062	88.44
289.293	96.44
289.524	97.44
289.755	89.44
289.986	82.44
290.217	87.44
290.448	90.44
290.679	90.44
290.91	85.44
291.141	100.44
291.371	86.44
291.602	97.44
291.833	77.44
292.064	73.44
292.295	96.44
292.526	74.44
292.757	81.44
292.987	84.44
293.218	107.44
293.449	88.44
293.68	80.44
293.91	77.44
294.141	101.44
294.372	83.44
294.603	95.44
294.833	96.44
295.064	81.44
295.295	84.44
295.525	99.44
295.756	94.44
295.987	112.44
296.217	121.44
296.448	111.44
296.679	100.44
296.909	79.44
297.14	76.44
297.37	103.44
297.601	79.44
297.831	94.44
298.062	96.44
298.292	97.44
298.523	74.44
298.753	88.44
298.984	93.44
299.214	84.44
299.445	88.44
299.675	86.44
299.905	94.44
300.136	76.44
300.366	93.44
300.597	88.44
300.827	90.44
301.057	86.44
301.288	103.44
301.518	83.44
301.748	87.44
301.979	86.44
302.209	97.44
302.439	95.44
302.669	100.44
302.9	79.44
303.13	101.44
303.36	90.44
303.59	99.44
303.82	86.44
304.051	93.44
304.281	84.44
304.511	87.44
304.741	87.44
304.971	94.44
305.201	84.44
305.431	89.44
305.661	101.44
305.891	88.44
306.121	91.44
306.352	96.44
306.582	107.44
306.812	95.44
307.042	92.44
307.272	96.44
307.502	86.44
307.731	96.44
307.961	93.44
308.191	76.44
308.421	86.44
308.651	93.44
308.881	82.44
309.111	88.44
309.341	88.44
309.571	95.44
309.8	96.44
310.03	103.44
310.26	90.44
310.49	90.44
310.72	94.44
310.949	111.44
311.179	86.44
311.409	78.44
311.639	88.44
311.868	93.44
312.098	93.44
312.328	87.44
312.557	86.44
312.787	116.44
313.017	96.44
313.246	80.44
313.476	84.44
313.706	88.44
313.935	87.44
314.165	93.44
314.394	109.44
314.624	110.44
314.853	92.44
315.083	93.44
315.312	82.44
315.542	82.44
315.771	96.44
316.001	94.44
316.23	88.44
316.46	86.44
316.689	78.44
316.919	95.44
317.148	81.44
317.377	82.44
317.607	88.44
317.836	90.44
318.065	109.44
318.295	90.44
318.524	91.44
318.753	109.44
318.983	100.44
319.212	87.44
319.441	112.44
319.67	101.44
319.9	92.44
320.129	97.44
320.358	78.44
320.587	82.44
320.816	91.44
321.046	91.44
321.275	100.44
321.504	96.44
321.733	92.44
321.962	81.44
322.191	92.44
322.42	83.44
322.649	98.44
322.878	108.44
323.108	102.44
323.337	110.44
323.566	124.44
323.795	124.44
324.024	181.44
324.253	290.44
324.482	574.44
324.71	1116.44
324.939	1454.44
325.168	570.44
325.397	190.44
325.626	126.44
325.855	125.44
326.084	124.44
326.313	115.44
326.542	141.44
326.77	198.44
326.999	310.44
327.228	604.44
327.457	1074.44
327.686	862.44
327.914	279.44
328.143	174.44
328.372	171.44
328.6	113.44
328.829	112.44
329.058	135.44
329.287	107.44
329.515	106.44
329.744	109.44
329.972	115.44
330.201	157.44
330.43	196.44
330.658	152.44
330.887	110.44
331.115	124.44
331.344	90.44
331.572	107.44
331.801	86.44
332.03	96.44
332.258	80.44
332.486	88.44
332.715	90.44
332.943	106.44
333.172	103.44
333.4	92.44
333.629	107.44
333.857	119.44
334.085	129.44
334.314	155.44
334.542	204.44
334.771	195.44
334.999	113.44
335.227	95.44
335.455	92.44
335.684	104.44
335.912	94.44
336.14	87.44
336.369	95.44
336.597	112.44
336.825	95.44
337.053	99.44
337.281	82.44
337.51	90.44
337.738	97.44
337.966	89.44
338.194	105.44
338.422	104.44
338.65	94.44
338.878	78.44
339.106	93.44
339.334	86.44
339.562	74.44
339.79	103.44
340.018	78.44
340.246	93.44
340.474	88.44
340.702	76.44
340.93	91.44
341.158	96.44
341.386	100.44
341.614	100.44
341.842	92.44
342.07	106.44
342.298	92.44
342.526	91.44
342.754	93.44
342.981	85.44
343.209	80.44
343.437	85.44
343.665	99.44
343.893	112.44
344.12	89.44
344.348	89.44
344.576	89.44
344.804	79.44
345.031	92.44
345.259	94.44
345.487	92.44
345.714	91.44
345.942	87.44
346.17	93.44
346.397	104.44
346.625	97.44
346.853	94.44
347.08	83.44
347.308	90.44
347.535	101.44
347.763	94.44
347.99	93.44
348.218	97.44
348.445	104.44
348.673	90.44
348.9	95.44
349.128	86.44
349.355	80.44
349.583	94.44
349.81	88.44
350.037	95.44
350.265	96.44
350.492	96.44
350.72	90.44
350.947	103.44
351.174	110.44
351.402	106.44
351.629	97.44
351.856	92.44
352.083	92.44
352.311	98.44
352.538	108.44
352.765	122.44
352.992	110.44
353.22	107.44
353.447	105.44
353.674	107.44
353.901	121.44
354.128	88.44
354.355	98.44
354.583	104.44
354.81	98.44
355.037	91.44
355.264	110.44
355.491	92.44
355.718	90.44
355.945	95.44
356.172	88.44
356.399	95.44
356.626	105.44
356.853	88.44
357.08	103.44
357.307	86.44
357.534	84.44
357.761	95.44
357.988	93.44
358.215	89.44
358.441	97.44
358.668	89.44
358.895	84.44
359.122	88.44
359.349	83.44
359.576	100.44
359.802	102.44
360.029	108.44
360.256	106.44
360.483	85.44
360.709	92.44
360.936	99.44
361.163	95.44
361.39	89.44
361.616	99.44
361.843	88.44
362.07	99.44
362.296	90.44
362.523	81.44
362.749	110.44
362.976	95.44
363.203	107.44
363.429	98.44
363.656	92.44
363.882	105.44
364.109	92.44
364.335	104.44
364.562	90.44
364.788	91.44
365.015	96.44
365.241	77.44
365.468	112.44
365.694	97.44
365.92	90.44
366.147	100.44
366.373	90.44
366.599	103.44
366.826	95.44
367.052	91.44
367.278	86.44
367.505	101.44
367.731	89.44
367.957	79.44
368.184	86.44
368.41	83.44
368.636	110.44
368.862	106.44
369.089	108.44
369.315	89.44
369.541	83.44
369.767	100.44
369.993	83.44
370.219	86.44
370.445	101.44
370.672	91.44
370.898	94.44
371.124	80.44
371.35	82.44
371.576	86.44
371.802	91.44
372.028	83.44
372.254	91.44
372.48	90.44
372.706	90.44
372.932	81.44
373.158	91.44
373.384	94.44
373.61	92.44
373.835	96.44
374.061	92.44
374.287	95.44
374.513	85.44
374.739	79.44
374.965	74.44
375.191	89.44
375.416	94.44
375.642	99.44
375.868	106.44
376.094	106.44
376.319	87.44
376.545	93.44
376.771	94.44
376.997	95.44
377.222	110.44
377.448	99.44
377.674	90.44
377.899	97.44
378.125	81.44
378.35	104.44
378.576	104.44
378.802	89.44
379.027	85.44
379.253	99.44
379.478	103.44
379.704	82.44
379.929	88.44
380.155	99.44
380.38	89.44
380.606	92.44
380.831	91.44
381.057	89.44
381.282	84.44
381.507	94.44
381.733	99.44
381.958	96.44
382.184	106.44
382.409	87.44
382.634	83.44
382.86	100.44
383.085	96.44
383.31	98.44
383.535	97.44
383.761	85.44
383.986	90.44
384.211	84.44
384.436	86.44
384.662	96.44
384.887	106.44
385.112	115.44
385.337	92.44
385.562	92.44
385.787	110.44
386.013	110.44
386.238	103.44
386.463	108.44
386.688	111.44
386.913	98.44
387.138	106.44
387.363	95.44
387.588	99.44
387.813	104.44
388.038	111.44
388.263	117.44
388.488	112.44
388.713	103.44
388.938	87.44
389.163	95.44
389.387	91.44
389.612	92.44
389.837	91.44
390.062	89.44
390.287	94.44
390.512	86.44
390.736	95.44
390.961	88.44
391.186	93.44
391.411	75.44
391.636	99.44
391.86	78.44
392.085	89.44
392.31	73.44
392.534	84.44
392.759	58.44
392.984	88.44
393.208	80.44
393.433	103.44
393.658	89.44
393.882	83.44
394.107	81.44
394.331	100.44
394.556	76.44
394.78	96.44
395.005	96.44
395.229	83.44
395.454	94.44
395.678	69.44
395.903	84.44
396.127	96.44
396.352	91.44
396.576	78.44
396.801	79.44
397.025	98.44
397.249	93.44
397.474	87.44
397.698	92.44
397.922	91.44
398.147	103.44
398.371	77.44
398.595	90.44
398.82	87.44
399.044	75.44
399.268	92.44
399.492	71.44
399.717	87.44
399.941	92.44
400.165	102.44
400.389	88.44
400.613	100.44
400.837	94.44
401.062	78.44
401.286	89.44
401.51	91.44
401.734	98.44
401.958	104.44
402.182	124.44
402.406	157.44
402.63	115.44
402.854	90.44
403.078	91.44
403.302	80.44
403.526	88.44
403.75	80.44
403.974	82.44
404.198	83.44
404.422	96.44
404.645	96.44
404.869	90.44
405.093	84.44
405.317	94.44
405.541	94.44
405.765	98.44
405.988	113.44
406.212	143.44
406.436	203.44
406.66	140.44
406.883	102.44
407.107	91.44
407.331	84.44
407.555	98.44
407.778	100.44
408.002	81.44
408.226	88.44
408.449	78.44
408.673	90.44
408.896	111.44
409.12	92.44
409.344	90.44
409.567	87.44
409.791	73.44
410.014	97.44
410.238	78.44
410.461	86.44
410.685	91.44
410.908	103.44
411.132	94.44
411.355	91.44
411.578	78.44
411.802	97.44
412.025	80.44
412.249	83.44
412.472	91.44
412.695	105.44
412.919	91.44
413.142	95.44
413.365	94.44
413.589	94.44
413.812	75.44
414.035	88.44
414.258	80.44
414.482	89.44
414.705	91.44
414.928	89.44
415.151	91.44
415.374	93.44
415.597	89.44
415.821	99.44
416.044	82.44
416.267	84.44
416.49	80.44
416.713	87.44
416.936	87.44
417.159	108.44
417.382	97.44
417.605	98.44
417.828	91.44
418.051	104.44
418.274	89.44
418.497	94.44
418.72	86.44
418.943	82.44
419.166	78.44
419.389	81.44
419.611	84.44
419.834	87.44
420.057	96.44
420.28	81.44
420.503	85.44
420.726	96.44
420.948	91.44
421.171	91.44
421.394	73.44
421.617	88.44
421.839	86.44
422.062	76.44
422.285	74.44
422.507	93.44
422.73	90.44
422.953	119.44
423.175	96.44
423.398	96.44
423.621	101.44
423.843	88.44
424.066	74.44
424.288	101.44
424.511	86.44
424.733	96.44
424.956	98.44
425.178	99.44
425.401	107.44
425.623	93.44
425.846	110.44
426.068	91.44
426.291	99.44
426.513	73.44
426.735	102.44
426.958	98.44
427.18	93.44
427.402	115.44
427.625	154.44
427.847	110.44
428.069	94.44
428.292	93.44
428.514	89.44
428.736	84.44
428.958	94.44
429.181	86.44
429.403	91.44
429.625	86.44
429.847	100.44
430.069	99.44
430.292	99.44
430.514	92.44
430.736	88.44
430.958	91.44
431.18	83.44
431.402	97.44
431.624	86.44
431.846	89.44
432.068	81.44
432.29	83.44
432.512	90.44
432.734	85.44
432.956	86.44
433.178	95.44
433.4	97.44
433.622	92.44
433.844	87.44
434.066	88.44
434.287	88.44
434.509	82.44
434.731	71.44
434.953	87.44
435.175	81.44
435.397	96.44
435.618	97.44
435.84	105.44
436.062	107.44
436.284	107.44
436.505	87.44
436.727	97.44
436.949	100.44
437.17	86.44
437.392	91.44
437.614	94.44
437.835	105.44
438.057	107.44
438.278	88.44
438.5	107.44
438.721	99.44
438.943	80.44
439.165	90.44
439.386	82.44
439.608	99.44
439.829	98.44
440.05	102.44
440.272	123.44
440.493	101.44
440.715	94.44
440.936	88.44
441.158	90.44
441.379	83.44
441.6	98.44
441.822	80.44
442.043	106.44
442.264	94.44
442.486	89.44
442.707	81.44
442.928	105.44
443.149	131.44
443.371	119.44
443.592	92.44
443.813	119.44
444.034	120.44
444.255	90.44
444.476	89.44
444.698	88.44
444.919	78.44
445.14	136.44
445.361	120.44
445.582	112.44
445.803	131.44
446.024	127.44
446.245	125.44
446.466	115.44
446.687	82.44
446.908	79.44
447.129	77.44
447.35	97.44
447.571	86.44
447.792	95.44
448.013	95.44
448.234	99.44
448.455	91.44
448.675	102.44
448.896	108.44
449.117	99.44
449.338	91.44
449.559	113.44
449.779	114.44
450	91.44
450.221	97.44
450.442	99.44
450.662	97.44
450.883	105.44
451.104	100.44
451.324	94.44
451.545	93.44
451.766	98.44
451.986	81.44
452.207	103.44
452.428	93.44
452.648	105.44
452.869	100.44
453.089	94.44
453.31	123.44
453.53	95.44
453.751	87.44
453.971	101.44
454.192	104.44
454.412	79.44
454.633	97.44
454.853	84.44
455.073	66.44
455.294	94.44
455.514	85.44
455.734	87.44
455.955	96.44
456.175	85.44
456.395	83.44
456.616	87.44
456.836	79.44
457.056	97.44
457.276	86.44
457.497	79.44
457.717	95.44
457.937	84.44
458.157	84.44
458.377	87.44
458.598	102.44
458.818	127.44
459.038	146.44
459.258	115.44
459.478	90.44
459.698	90.44
459.918	85.44
460.138	86.44
460.358	88.44
460.578	101.44
460.798	83.44
461.018	94.44
461.238	76.44
461.458	84.44
461.678	74.44
461.898	84.44
462.118	98.44
462.338	97.44
462.558	87.44
462.777	90.44
462.997	87.44
463.217	97.44
463.437	89.44
463.657	78.44
463.876	84.44
464.096	77.44
464.316	95.44
464.536	96.44
464.755	108.44
464.975	94.44
465.195	154.44
465.414	147.44
465.634	95.44
465.854	90.44
466.073	95.44
466.293	100.44
466.512	87.44
466.732	86.44
466.951	82.44
467.171	90.44
467.391	91.44
467.61	103.44
467.829	100.44
468.049	116.44
468.268	151.44
468.488	80.44
468.707	102.44
468.927	87.44
469.146	88.44
469.365	89.44
469.585	91.44
469.804	92.44
470.023	88.44
470.243	90.44
470.462	96.44
470.681	85.44
470.901	91.44
471.12	83.44
471.339	98.44
471.558	74.44
471.777	100.44
471.997	106.44
472.216	165.44
472.435	258.44
472.654	119.44
472.873	86.44
473.092	74.44
473.311	95.44
473.53	100.44
473.749	107.44
473.968	88.44
474.187	96.44
474.406	76.44
474.625	82.44
474.844	80.44
475.063	83.44
475.282	78.44
475.501	83.44
475.72	82.44
475.939	95.44
476.158	73.44
476.377	84.44
476.596	97.44
476.814	81.44
477.033	88.44
477.252	91.44
477.471	68.44
477.69	84.44
477.908	78.44
478.127	103.44
478.346	78.44
478.564	93.44
478.783	87.44
479.002	95.44
479.22	90.44
479.439	94.44
479.658	95.44
479.876	105.44
480.095	86.44
480.313	103.44
480.532	96.44
480.751	101.44
480.969	171.44
481.188	423.44
481.406	288.44
481.624	111.44
481.843	92.44
482.061	83.44
482.28	84.44
482.498	98.44
482.717	92.44
482.935	88.44
483.153	78.44
483.372	92.44
483.59	83.44
483.808	91.44
484.027	93.44
484.245	90.44
484.463	78.44
484.681	102.44
484.9	93.44
485.118	87.44
485.336	89.44
485.554	94.44
485.772	88.44
485.99	94.44
486.209	110.44
486.427	107.44
486.645	125.44
486.863	120.44
487.081	106.44
487.299	89.44
487.517	94.44
487.735	86.44
487.953	80.44
488.171	104.44
488.389	89.44
488.607	88.44
488.825	91.44
489.043	108.44
489.261	94.44
489.479	78.44
489.696	80.44
489.914	91.44
490.132	92.44
490.35	95.44
490.568	87.44
490.786	96.44
491.003	100.44
491.221	97.44
491.439	84.44
491.657	95.44
491.874	89.44
492.092	87.44
492.31	77.44
492.527	72.44
492.745	88.44
492.963	83.44
493.18	88.44
493.398	94.44
493.615	92.44
493.833	91.44
494.05	76.44
494.268	93.44
494.485	95.44
494.703	83.44
494.92	85.44
495.138	83.44
495.355	90.44
495.573	79.44
495.79	95.44
496.008	91.44
496.225	91.44
496.442	77.44
496.66	100.44
496.877	86.44
497.094	94.44
497.312	96.44
497.529	101.44
497.746	88.44
497.963	103.44
498.181	83.44
498.398	90.44
498.615	92.44
498.832	96.44
499.049	90.44
499.267	114.44
499.484	82.44
499.701	83.44
499.918	87.44
500.135	95.44
500.352	87.44
500.569	94.44
500.786	95.44
501.003	78.44
501.22	99.44
501.437	76.44
501.654	80.44
501.871	107.44
502.088	83.44
502.305	90.44
502.522	90.44
502.739	76.44
502.956	78.44
503.172	82.44
503.389	94.44
503.606	99.44
503.823	97.44
504.04	105.44
504.256	82.44
504.473	80.44
504.69	94.44
504.907	96.44
505.123	94.44
505.34	75.44
505.557	72.44
505.773	90.44
505.99	86.44
506.207	91.44
506.423	89.44
506.64	99.44
506.856	83.44
507.073	92.44
507.289	102.44
507.506	101.44
507.722	105.44
507.939	84.44
508.155	97.44
508.372	88.44
508.588	100.44
508.805	95.44
509.021	103.44
509.238	98.44
509.454	104.44
509.67	98.44
509.887	107.44
510.103	117.44
510.319	207.44
510.536	703.44
510.752	2342.44
510.968	641.44
511.184	148.44
511.401	105.44
511.617	95.44
511.833	102.44
512.049	102.44
512.265	97.44
512.481	98.44
512.698	97.44
512.914	82.44
513.13	87.44
513.346	95.44
513.562	79.44
513.778	115.44
513.994	103.44
514.21	111.44
514.426	120.44
514.642	126.44
514.858	117.44
515.074	157.44
515.29	401.44
515.506	1266.44
515.721	476.44
515.937	139.44
