Data from Circ_1996_H10_HRD10591_00038.txt Node
Date: Wed Jan 03 11:33:13 EST 2024
User: Yrep
Spectrometer: HR+D1059
Trigger mode: 1
Integration Time (sec): 1.000000E-1
Scans to average: 1
Electric dark correction enabled: true
Nonlinearity correction enabled: false
Boxcar width: 0
XAxis mode: Wavelengths
Number of Pixels in Spectrum: 2048
>>>>>Begin Spectral Data<<<<<
223.165	-8.81
223.4	-8.81
223.635	-8.81
223.869	-12.81
224.104	-7.81
224.338	-21.81
224.573	-17.81
224.808	-9.81
225.042	-7.81
225.277	-13.81
225.511	4.19
225.746	0.19
225.98	10.19
226.215	14.19
226.449	14.19
226.683	16.19
226.918	10.19
227.152	31.19
227.387	20.19
227.621	33.19
227.856	31.19
228.09	32.19
228.324	57.19
228.559	68.19
228.793	66.19
229.027	59.19
229.262	71.19
229.496	90.19
229.73	73.19
229.964	85.19
230.199	77.19
230.433	67.19
230.667	73.19
230.901	75.19
231.136	66.19
231.37	85.19
231.604	97.19
231.838	79.19
232.072	65.19
232.306	63.19
232.541	88.19
232.775	65.19
233.009	71.19
233.243	87.19
233.477	74.19
233.711	74.19
233.945	98.19
234.179	86.19
234.413	83.19
234.647	90.19
234.881	80.19
235.115	79.19
235.349	78.19
235.583	97.19
235.817	85.19
236.051	65.19
236.285	84.19
236.519	84.19
236.753	76.19
236.987	70.19
237.221	68.19
237.455	92.19
237.689	76.19
237.922	75.19
238.156	77.19
238.39	74.19
238.624	75.19
238.858	97.19
239.091	76.19
239.325	69.19
239.559	75.19
239.793	69.19
240.027	84.19
240.26	83.19
240.494	64.19
240.728	68.19
240.961	76.19
241.195	67.19
241.429	79.19
241.662	83.19
241.896	82.19
242.13	75.19
242.363	77.19
242.597	66.19
242.83	67.19
243.064	74.19
243.298	63.19
243.531	72.19
243.765	80.19
243.998	80.19
244.232	79.19
244.465	83.19
244.699	82.19
244.932	83.19
245.166	73.19
245.399	81.19
245.633	74.19
245.866	78.19
246.099	85.19
246.333	89.19
246.566	64.19
246.8	91.19
247.033	83.19
247.266	95.19
247.5	69.19
247.733	89.19
247.966	78.19
248.2	83.19
248.433	82.19
248.666	88.19
248.899	82.19
249.133	66.19
249.366	97.19
249.599	93.19
249.832	90.19
250.066	81.19
250.299	64.19
250.532	79.19
250.765	73.19
250.998	89.19
251.231	66.19
251.465	84.19
251.698	67.19
251.931	73.19
252.164	79.19
252.397	82.19
252.63	80.19
252.863	78.19
253.096	79.19
253.329	81.19
253.562	75.19
253.795	91.19
254.028	77.19
254.261	88.19
254.494	77.19
254.727	79.19
254.96	81.19
255.193	80.19
255.426	73.19
255.659	77.19
255.892	75.19
256.124	82.19
256.357	85.19
256.59	84.19
256.823	87.19
257.056	71.19
257.289	89.19
257.521	88.19
257.754	75.19
257.987	79.19
258.22	84.19
258.452	73.19
258.685	75.19
258.918	74.19
259.151	70.19
259.383	75.19
259.616	84.19
259.849	86.19
260.081	98.19
260.314	82.19
260.547	83.19
260.779	99.19
261.012	87.19
261.244	77.19
261.477	85.19
261.71	91.19
261.942	91.19
262.175	117.19
262.407	87.19
262.64	86.19
262.872	79.19
263.105	80.19
263.337	84.19
263.57	79.19
263.802	82.19
264.035	87.19
264.267	89.19
264.499	92.19
264.732	90.19
264.964	76.19
265.197	101.19
265.429	84.19
265.661	88.19
265.894	75.19
266.126	87.19
266.358	105.19
266.591	84.19
266.823	87.19
267.055	82.19
267.287	92.19
267.52	89.19
267.752	85.19
267.984	84.19
268.216	80.19
268.448	85.19
268.681	97.19
268.913	90.19
269.145	89.19
269.377	80.19
269.609	78.19
269.841	89.19
270.073	86.19
270.306	71.19
270.538	82.19
270.77	82.19
271.002	82.19
271.234	81.19
271.466	69.19
271.698	81.19
271.93	101.19
272.162	78.19
272.394	107.19
272.626	92.19
272.858	98.19
273.09	75.19
273.322	82.19
273.553	80.19
273.785	86.19
274.017	76.19
274.249	75.19
274.481	75.19
274.713	68.19
274.945	92.19
275.176	85.19
275.408	80.19
275.64	92.19
275.872	80.19
276.104	74.19
276.335	72.19
276.567	89.19
276.799	117.19
277.031	98.19
277.262	84.19
277.494	83.19
277.726	84.19
277.957	76.19
278.189	90.19
278.421	100.19
278.652	93.19
278.884	87.19
279.115	81.19
279.347	82.19
279.579	74.19
279.81	92.19
280.042	82.19
280.273	95.19
280.505	88.19
280.736	89.19
280.968	92.19
281.199	81.19
281.431	84.19
281.662	79.19
281.894	95.19
282.125	90.19
282.356	112.19
282.588	120.19
282.819	110.19
283.051	83.19
283.282	86.19
283.513	84.19
283.745	88.19
283.976	83.19
284.207	92.19
284.439	82.19
284.67	87.19
284.901	81.19
285.132	80.19
285.364	87.19
285.595	92.19
285.826	82.19
286.057	91.19
286.288	83.19
286.52	78.19
286.751	64.19
286.982	89.19
287.213	82.19
287.444	91.19
287.675	92.19
287.906	93.19
288.138	88.19
288.369	84.19
288.6	97.19
288.831	66.19
289.062	95.19
289.293	85.19
289.524	80.19
289.755	90.19
289.986	80.19
290.217	68.19
290.448	93.19
290.679	88.19
290.91	80.19
291.141	76.19
291.371	106.19
291.602	95.19
291.833	76.19
292.064	89.19
292.295	69.19
292.526	93.19
292.757	98.19
292.987	80.19
293.218	101.19
293.449	92.19
293.68	96.19
293.91	93.19
294.141	104.19
294.372	107.19
294.603	89.19
294.833	111.19
295.064	90.19
295.295	92.19
295.525	100.19
295.756	88.19
295.987	107.19
296.217	115.19
296.448	120.19
296.679	99.19
296.909	97.19
297.14	71.19
297.37	86.19
297.601	82.19
297.831	89.19
298.062	99.19
298.292	80.19
298.523	87.19
298.753	93.19
298.984	91.19
299.214	93.19
299.445	88.19
299.675	84.19
299.905	93.19
300.136	94.19
300.366	87.19
300.597	93.19
300.827	94.19
301.057	101.19
301.288	92.19
301.518	91.19
301.748	87.19
301.979	101.19
302.209	95.19
302.439	95.19
302.669	89.19
302.9	97.19
303.13	81.19
303.36	91.19
303.59	99.19
303.82	99.19
304.051	93.19
304.281	98.19
304.511	105.19
304.741	97.19
304.971	79.19
305.201	87.19
305.431	85.19
305.661	87.19
305.891	92.19
306.121	87.19
306.352	96.19
306.582	93.19
306.812	99.19
307.042	100.19
307.272	101.19
307.502	94.19
307.731	100.19
307.961	93.19
308.191	95.19
308.421	90.19
308.651	99.19
308.881	110.19
309.111	91.19
309.341	96.19
309.571	104.19
309.8	95.19
310.03	99.19
310.26	80.19
310.49	94.19
310.72	100.19
310.949	115.19
311.179	103.19
311.409	99.19
311.639	101.19
311.868	110.19
312.098	100.19
312.328	99.19
312.557	97.19
312.787	111.19
313.017	99.19
313.246	89.19
313.476	106.19
313.706	95.19
313.935	95.19
314.165	81.19
314.394	100.19
314.624	95.19
314.853	108.19
315.083	98.19
315.312	94.19
315.542	105.19
315.771	93.19
316.001	78.19
316.23	100.19
316.46	96.19
316.689	77.19
316.919	85.19
317.148	95.19
317.377	98.19
317.607	90.19
317.836	95.19
318.065	103.19
318.295	87.19
318.524	79.19
318.753	80.19
318.983	77.19
319.212	104.19
319.441	100.19
319.67	98.19
319.9	87.19
320.129	83.19
320.358	97.19
320.587	94.19
320.816	100.19
321.046	108.19
321.275	108.19
321.504	90.19
321.733	79.19
321.962	93.19
322.191	101.19
322.42	90.19
322.649	106.19
322.878	115.19
323.108	113.19
323.337	118.19
323.566	120.19
323.795	129.19
324.024	159.19
324.253	284.19
324.482	521.19
324.71	1053.19
324.939	1386.19
325.168	549.19
325.397	201.19
325.626	141.19
325.855	121.19
326.084	109.19
326.313	127.19
326.542	118.19
326.77	172.19
326.999	293.19
327.228	581.19
327.457	1007.19
327.686	819.19
327.914	275.19
328.143	160.19
328.372	147.19
328.6	115.19
328.829	121.19
329.058	116.19
329.287	115.19
329.515	105.19
329.744	104.19
329.972	121.19
330.201	160.19
330.43	174.19
330.658	116.19
330.887	147.19
331.115	106.19
331.344	111.19
331.572	88.19
331.801	88.19
332.03	91.19
332.258	93.19
332.486	90.19
332.715	93.19
332.943	93.19
333.172	111.19
333.4	95.19
333.629	88.19
333.857	120.19
334.085	107.19
334.314	139.19
334.542	208.19
334.771	187.19
334.999	109.19
335.227	98.19
335.455	105.19
335.684	103.19
335.912	89.19
336.14	104.19
336.369	91.19
336.597	103.19
336.825	92.19
337.053	90.19
337.281	93.19
337.51	93.19
337.738	83.19
337.966	87.19
338.194	85.19
338.422	96.19
338.65	100.19
338.878	87.19
339.106	83.19
339.334	99.19
339.562	89.19
339.79	88.19
340.018	80.19
340.246	90.19
340.474	88.19
340.702	100.19
340.93	88.19
341.158	76.19
341.386	97.19
341.614	101.19
341.842	68.19
342.07	75.19
342.298	98.19
342.526	106.19
342.754	82.19
342.981	88.19
343.209	83.19
343.437	87.19
343.665	87.19
343.893	84.19
344.12	90.19
344.348	96.19
344.576	86.19
344.804	81.19
345.031	109.19
345.259	100.19
345.487	95.19
345.714	90.19
345.942	81.19
346.17	97.19
346.397	108.19
346.625	89.19
346.853	98.19
347.08	84.19
347.308	92.19
347.535	101.19
347.763	99.19
347.99	92.19
348.218	111.19
348.445	112.19
348.673	86.19
348.9	97.19
349.128	102.19
349.355	90.19
349.583	99.19
349.81	96.19
350.037	109.19
350.265	99.19
350.492	103.19
350.72	104.19
350.947	97.19
351.174	112.19
351.402	104.19
351.629	101.19
351.856	109.19
352.083	94.19
352.311	102.19
352.538	120.19
352.765	122.19
352.992	108.19
353.22	119.19
353.447	99.19
353.674	97.19
353.901	113.19
354.128	96.19
354.355	93.19
354.583	108.19
354.81	98.19
355.037	107.19
355.264	98.19
355.491	99.19
355.718	88.19
355.945	97.19
356.172	84.19
356.399	107.19
356.626	98.19
356.853	92.19
357.08	96.19
357.307	88.19
357.534	98.19
357.761	72.19
357.988	95.19
358.215	97.19
358.441	88.19
358.668	97.19
358.895	93.19
359.122	83.19
359.349	91.19
359.576	99.19
359.802	86.19
360.029	101.19
360.256	91.19
360.483	82.19
360.709	89.19
360.936	100.19
361.163	84.19
361.39	98.19
361.616	83.19
361.843	84.19
362.07	89.19
362.296	90.19
362.523	91.19
362.749	80.19
362.976	95.19
363.203	90.19
363.429	93.19
363.656	83.19
363.882	91.19
364.109	81.19
364.335	101.19
364.562	100.19
364.788	98.19
365.015	99.19
365.241	88.19
365.468	106.19
365.694	87.19
365.92	94.19
366.147	92.19
366.373	81.19
366.599	107.19
366.826	72.19
367.052	78.19
367.278	97.19
367.505	71.19
367.731	86.19
367.957	89.19
368.184	88.19
368.41	105.19
368.636	109.19
368.862	115.19
369.089	92.19
369.315	97.19
369.541	102.19
369.767	90.19
369.993	91.19
370.219	93.19
370.445	92.19
370.672	90.19
370.898	95.19
371.124	107.19
371.35	89.19
371.576	84.19
371.802	76.19
372.028	79.19
372.254	101.19
372.48	83.19
372.706	83.19
372.932	91.19
373.158	85.19
373.384	93.19
373.61	89.19
373.835	87.19
374.061	102.19
374.287	92.19
374.513	92.19
374.739	87.19
374.965	88.19
375.191	89.19
375.416	90.19
375.642	88.19
375.868	72.19
376.094	86.19
376.319	89.19
376.545	81.19
376.771	96.19
376.997	93.19
377.222	92.19
377.448	80.19
377.674	89.19
377.899	97.19
378.125	104.19
378.35	88.19
378.576	88.19
378.802	107.19
379.027	89.19
379.253	79.19
379.478	104.19
379.704	99.19
379.929	100.19
380.155	99.19
380.38	99.19
380.606	102.19
380.831	90.19
381.057	95.19
381.282	106.19
381.507	90.19
381.733	105.19
381.958	88.19
382.184	100.19
382.409	95.19
382.634	108.19
382.86	99.19
383.085	105.19
383.31	93.19
383.535	91.19
383.761	106.19
383.986	100.19
384.211	109.19
384.436	108.19
384.662	107.19
384.887	101.19
385.112	109.19
385.337	97.19
385.562	97.19
385.787	107.19
386.013	114.19
386.238	112.19
386.463	109.19
386.688	111.19
386.913	107.19
387.138	111.19
387.363	94.19
387.588	98.19
387.813	86.19
388.038	110.19
388.263	113.19
388.488	108.19
388.713	92.19
388.938	83.19
389.163	90.19
389.387	92.19
389.612	94.19
389.837	106.19
390.062	92.19
390.287	76.19
390.512	94.19
390.736	101.19
390.961	106.19
391.186	91.19
391.411	92.19
391.636	84.19
391.86	86.19
392.085	80.19
392.31	92.19
392.534	91.19
392.759	103.19
392.984	90.19
393.208	102.19
393.433	103.19
393.658	98.19
393.882	85.19
394.107	88.19
394.331	86.19
394.556	91.19
394.78	85.19
395.005	91.19
395.229	95.19
395.454	85.19
395.678	92.19
395.903	85.19
396.127	68.19
396.352	89.19
396.576	84.19
396.801	97.19
397.025	85.19
397.249	81.19
397.474	75.19
397.698	88.19
397.922	77.19
398.147	97.19
398.371	79.19
398.595	92.19
398.82	81.19
399.044	75.19
399.268	87.19
399.492	89.19
399.717	97.19
399.941	95.19
400.165	91.19
400.389	94.19
400.613	82.19
400.837	76.19
401.062	91.19
401.286	97.19
401.51	82.19
401.734	90.19
401.958	95.19
402.182	116.19
402.406	136.19
402.63	111.19
402.854	105.19
403.078	81.19
403.302	87.19
403.526	95.19
403.75	76.19
403.974	81.19
404.198	94.19
404.422	104.19
404.645	83.19
404.869	97.19
405.093	91.19
405.317	76.19
405.541	95.19
405.765	93.19
405.988	117.19
406.212	159.19
406.436	198.19
406.66	134.19
406.883	107.19
407.107	90.19
407.331	88.19
407.555	104.19
407.778	76.19
408.002	87.19
408.226	99.19
408.449	90.19
408.673	90.19
408.896	92.19
409.12	94.19
409.344	95.19
409.567	84.19
409.791	98.19
410.014	106.19
410.238	95.19
410.461	86.19
410.685	90.19
410.908	104.19
411.132	98.19
411.355	92.19
411.578	96.19
411.802	87.19
412.025	107.19
412.249	89.19
412.472	95.19
412.695	100.19
412.919	87.19
413.142	96.19
413.365	88.19
413.589	91.19
413.812	91.19
414.035	91.19
414.258	88.19
414.482	83.19
414.705	90.19
414.928	100.19
415.151	95.19
415.374	92.19
415.597	79.19
415.821	101.19
416.044	90.19
416.267	78.19
416.49	93.19
416.713	91.19
416.936	86.19
417.159	107.19
417.382	97.19
417.605	97.19
417.828	94.19
418.051	84.19
418.274	80.19
418.497	90.19
418.72	78.19
418.943	81.19
419.166	81.19
419.389	82.19
419.611	98.19
419.834	94.19
420.057	80.19
420.28	82.19
420.503	77.19
420.726	91.19
420.948	88.19
421.171	96.19
421.394	82.19
421.617	91.19
421.839	92.19
422.062	103.19
422.285	76.19
422.507	90.19
422.73	105.19
422.953	96.19
423.175	84.19
423.398	96.19
423.621	81.19
423.843	75.19
424.066	83.19
424.288	90.19
424.511	101.19
424.733	78.19
424.956	104.19
425.178	95.19
425.401	113.19
425.623	92.19
425.846	97.19
426.068	99.19
426.291	96.19
426.513	86.19
426.735	92.19
426.958	88.19
427.18	98.19
427.402	114.19
427.625	120.19
427.847	127.19
428.069	110.19
428.292	79.19
428.514	86.19
428.736	84.19
428.958	95.19
429.181	76.19
429.403	88.19
429.625	90.19
429.847	88.19
430.069	87.19
430.292	92.19
430.514	87.19
430.736	88.19
430.958	96.19
431.18	83.19
431.402	87.19
431.624	80.19
431.846	87.19
432.068	98.19
432.29	85.19
432.512	86.19
432.734	75.19
432.956	82.19
433.178	99.19
433.4	93.19
433.622	80.19
433.844	101.19
434.066	92.19
434.287	84.19
434.509	79.19
434.731	96.19
434.953	77.19
435.175	84.19
435.397	83.19
435.618	92.19
435.84	96.19
436.062	91.19
436.284	106.19
436.505	107.19
436.727	91.19
436.949	91.19
437.17	81.19
437.392	86.19
437.614	83.19
437.835	84.19
438.057	105.19
438.278	88.19
438.5	81.19
438.721	95.19
438.943	82.19
439.165	84.19
439.386	92.19
439.608	108.19
439.829	101.19
440.05	109.19
440.272	109.19
440.493	91.19
440.715	92.19
440.936	80.19
441.158	84.19
441.379	100.19
441.6	96.19
441.822	85.19
442.043	92.19
442.264	92.19
442.486	83.19
442.707	95.19
442.928	110.19
443.149	116.19
443.371	118.19
443.592	89.19
443.813	99.19
444.034	105.19
444.255	92.19
444.476	75.19
444.698	95.19
444.919	61.19
445.14	125.19
445.361	105.19
445.582	97.19
445.803	100.19
446.024	108.19
446.245	112.19
446.466	106.19
446.687	82.19
446.908	87.19
447.129	90.19
447.35	89.19
447.571	86.19
447.792	79.19
448.013	96.19
448.234	100.19
448.455	82.19
448.675	104.19
448.896	99.19
449.117	100.19
449.338	95.19
449.559	100.19
449.779	109.19
450	84.19
450.221	95.19
450.442	77.19
450.662	90.19
450.883	88.19
451.104	123.19
451.324	97.19
451.545	70.19
451.766	83.19
451.986	95.19
452.207	94.19
452.428	83.19
452.648	86.19
452.869	113.19
453.089	101.19
453.31	103.19
453.53	97.19
453.751	87.19
453.971	91.19
454.192	91.19
454.412	96.19
454.633	87.19
454.853	86.19
455.073	89.19
455.294	88.19
455.514	96.19
455.734	77.19
455.955	85.19
456.175	79.19
456.395	87.19
456.616	79.19
456.836	79.19
457.056	69.19
457.276	89.19
457.497	79.19
457.717	83.19
457.937	87.19
458.157	83.19
458.377	81.19
458.598	90.19
458.818	114.19
459.038	128.19
459.258	101.19
459.478	92.19
459.698	96.19
459.918	86.19
460.138	93.19
460.358	96.19
460.578	76.19
460.798	78.19
461.018	82.19
461.238	76.19
461.458	82.19
461.678	101.19
461.898	85.19
462.118	78.19
462.338	97.19
462.558	75.19
462.777	81.19
462.997	91.19
463.217	79.19
463.437	85.19
463.657	66.19
463.876	84.19
464.096	88.19
464.316	96.19
464.536	97.19
464.755	96.19
464.975	94.19
465.195	145.19
465.414	120.19
465.634	90.19
465.854	99.19
466.073	82.19
466.293	94.19
466.512	98.19
466.732	89.19
466.951	88.19
467.171	83.19
467.391	96.19
467.61	91.19
467.829	107.19
468.049	122.19
468.268	132.19
468.488	83.19
468.707	77.19
468.927	79.19
469.146	75.19
469.365	79.19
469.585	98.19
469.804	81.19
470.023	95.19
470.243	99.19
470.462	79.19
470.681	96.19
470.901	97.19
471.12	90.19
471.339	78.19
471.558	79.19
471.777	101.19
471.997	99.19
472.216	157.19
472.435	221.19
472.654	117.19
472.873	90.19
473.092	95.19
473.311	87.19
473.53	88.19
473.749	94.19
473.968	97.19
474.187	110.19
474.406	105.19
474.625	87.19
474.844	91.19
475.063	80.19
475.282	82.19
475.501	74.19
475.72	98.19
475.939	88.19
476.158	72.19
476.377	84.19
476.596	73.19
476.814	93.19
477.033	106.19
477.252	92.19
477.471	81.19
477.69	100.19
477.908	95.19
478.127	81.19
478.346	98.19
478.564	96.19
478.783	114.19
479.002	78.19
479.22	91.19
479.439	97.19
479.658	92.19
479.876	85.19
480.095	96.19
480.313	93.19
480.532	105.19
480.751	108.19
480.969	171.19
481.188	354.19
481.406	245.19
481.624	112.19
481.843	92.19
482.061	85.19
482.28	89.19
482.498	92.19
482.717	89.19
482.935	82.19
483.153	77.19
483.372	81.19
483.59	88.19
483.808	85.19
484.027	81.19
484.245	91.19
484.463	76.19
484.681	88.19
484.9	96.19
485.118	95.19
485.336	100.19
485.554	105.19
485.772	91.19
485.99	93.19
486.209	99.19
486.427	100.19
486.645	109.19
486.863	110.19
487.081	108.19
487.299	92.19
487.517	94.19
487.735	107.19
487.953	99.19
488.171	89.19
488.389	109.19
488.607	77.19
488.825	101.19
489.043	88.19
489.261	94.19
489.479	84.19
489.696	101.19
489.914	76.19
490.132	84.19
490.35	92.19
490.568	85.19
490.786	91.19
491.003	86.19
491.221	97.19
491.439	91.19
491.657	84.19
491.874	91.19
492.092	87.19
492.31	82.19
492.527	91.19
492.745	76.19
492.963	84.19
493.18	95.19
493.398	97.19
493.615	98.19
493.833	92.19
494.05	74.19
494.268	77.19
494.485	79.19
494.703	70.19
494.92	93.19
495.138	94.19
495.355	95.19
495.573	89.19
495.79	106.19
496.008	84.19
496.225	83.19
496.442	80.19
496.66	105.19
496.877	95.19
497.094	104.19
497.312	100.19
497.529	90.19
497.746	101.19
497.963	99.19
498.181	90.19
498.398	92.19
498.615	123.19
498.832	105.19
499.049	90.19
499.267	101.19
499.484	82.19
499.701	77.19
499.918	83.19
500.135	92.19
500.352	97.19
500.569	88.19
500.786	93.19
501.003	88.19
501.22	97.19
501.437	82.19
501.654	97.19
501.871	95.19
502.088	97.19
502.305	93.19
502.522	95.19
502.739	101.19
502.956	83.19
503.172	83.19
503.389	87.19
503.606	97.19
503.823	79.19
504.04	87.19
504.256	98.19
504.473	96.19
504.69	87.19
504.907	104.19
505.123	99.19
505.34	94.19
505.557	88.19
505.773	88.19
505.99	92.19
506.207	80.19
506.423	90.19
506.64	86.19
506.856	81.19
507.073	96.19
507.289	105.19
507.506	99.19
507.722	99.19
507.939	91.19
508.155	99.19
508.372	90.19
508.588	99.19
508.805	100.19
509.021	98.19
509.238	98.19
509.454	106.19
509.67	95.19
509.887	119.19
510.103	120.19
510.319	192.19
510.536	676.19
510.752	2134.19
510.968	595.19
511.184	141.19
511.401	106.19
511.617	100.19
511.833	92.19
512.049	105.19
512.265	89.19
512.481	88.19
512.698	91.19
512.914	88.19
513.13	90.19
513.346	95.19
513.562	101.19
513.778	85.19
513.994	97.19
514.21	111.19
514.426	104.19
514.642	116.19
514.858	115.19
515.074	135.19
515.29	356.19
515.506	1150.19
515.721	434.19
515.937	143.19
