Data from Circ_1996_H10_HRD10591_00096.txt Node
Date: Wed Jan 03 11:33:25 EST 2024
User: Yrep
Spectrometer: HR+D1059
Trigger mode: 1
Integration Time (sec): 1.000000E-1
Scans to average: 1
Electric dark correction enabled: true
Nonlinearity correction enabled: false
Boxcar width: 0
XAxis mode: Wavelengths
Number of Pixels in Spectrum: 2048
>>>>>Begin Spectral Data<<<<<
223.165	-10.31
223.4	-10.31
223.635	-10.31
223.869	-23.31
224.104	-17.31
224.338	-9.31
224.573	-7.31
224.808	-19.31
225.042	-13.31
225.277	-7.31
225.511	-10.31
225.746	14.69
225.98	8.69
226.215	12.69
226.449	10.69
226.683	22.69
226.918	25.69
227.152	22.69
227.387	26.69
227.621	31.69
227.856	46.69
228.09	37.69
228.324	44.69
228.559	49.69
228.793	156.69
229.027	416.69
229.262	466.69
229.496	572.69
229.73	750.69
229.964	753.69
230.199	488.69
230.433	466.69
230.667	465.69
230.901	439.69
231.136	422.69
231.37	427.69
231.604	442.69
231.838	440.69
232.072	424.69
232.306	443.69
232.541	445.69
232.775	459.69
233.009	443.69
233.243	466.69
233.477	451.69
233.711	468.69
233.945	487.69
234.179	484.69
234.413	503.69
234.647	471.69
234.881	478.69
235.115	525.69
235.349	515.69
235.583	541.69
235.817	575.69
236.051	597.69
236.285	582.69
236.519	587.69
236.753	682.69
236.987	816.69
237.221	1217.69
237.455	1311.69
237.689	813.69
237.922	703.69
238.156	663.69
238.39	665.69
238.624	622.69
238.858	642.69
239.091	637.69
239.325	661.69
239.559	657.69
239.793	706.69
240.027	753.69
240.26	850.69
240.494	879.69
240.728	894.69
240.961	819.69
241.195	763.69
241.429	763.69
241.662	750.69
241.896	754.69
242.13	749.69
242.363	780.69
242.597	796.69
242.83	818.69
243.064	837.69
243.298	819.69
243.531	814.69
243.765	806.69
243.998	855.69
244.232	820.69
244.465	862.69
244.699	887.69
244.932	890.69
245.166	880.69
245.399	889.69
245.633	890.69
245.866	898.69
246.099	878.69
246.333	928.69
246.566	924.69
246.8	957.69
247.033	994.69
247.266	1028.69
247.5	1086.69
247.733	1124.69
247.966	1105.69
248.2	1106.69
248.433	1105.69
248.666	1166.69
248.899	1261.69
249.133	1349.69
249.366	1365.69
249.599	1296.69
249.832	1220.69
250.066	1273.69
250.299	1372.69
250.532	1584.69
250.765	1734.69
250.998	1735.69
251.231	1623.69
251.465	1436.69
251.698	1410.69
251.931	1372.69
252.164	1365.69
252.397	1363.69
252.63	1434.69
252.863	1494.69
253.096	1608.69
253.329	1637.69
253.562	1581.69
253.795	1552.69
254.028	1519.69
254.261	1564.69
254.494	1670.69
254.727	1980.69
254.96	2044.69
255.193	1851.69
255.426	1733.69
255.659	1777.69
255.892	2011.69
256.124	2258.69
256.357	2087.69
256.59	1853.69
256.823	1688.69
257.056	1664.69
257.289	1584.69
257.521	1612.69
257.754	1593.69
257.987	1553.69
258.22	1538.69
258.452	1550.69
258.685	1542.69
258.918	1587.69
259.151	1590.69
259.383	1673.69
259.616	1626.69
259.849	1707.69
260.081	1839.69
260.314	1949.69
260.547	1896.69
260.779	1745.69
261.012	1719.69
261.244	1677.69
261.477	1653.69
261.71	1654.69
261.942	1753.69
262.175	1778.69
262.407	1721.69
262.64	1605.69
262.872	1631.69
263.105	1653.69
263.337	1653.69
263.57	1664.69
263.802	1646.69
264.035	1629.69
264.267	1662.69
264.499	1661.69
264.732	1691.69
264.964	1653.69
265.197	1709.69
265.429	1751.69
265.661	1729.69
265.894	1676.69
266.126	1768.69
266.358	1768.69
266.591	1761.69
266.823	1830.69
267.055	1867.69
267.287	1854.69
267.52	1863.69
267.752	1813.69
267.984	1877.69
268.216	1852.69
268.448	1922.69
268.681	1909.69
268.913	2063.69
269.145	2227.69
269.377	2257.69
269.609	2172.69
269.841	2186.69
270.073	2249.69
270.306	2506.69
270.538	2565.69
270.77	2481.69
271.002	2342.69
271.234	2286.69
271.466	2470.69
271.698	2551.69
271.93	2576.69
272.162	2600.69
272.394	2475.69
272.626	2391.69
272.858	2258.69
273.09	2232.69
273.322	2208.69
273.553	2176.69
273.785	2210.69
274.017	2157.69
274.249	2223.69
274.481	2225.69
274.713	2237.69
274.945	2263.69
275.176	2268.69
275.408	2260.69
275.64	2262.69
275.872	2253.69
276.104	2280.69
276.335	2293.69
276.567	2385.69
276.799	2541.69
277.031	2730.69
277.262	2827.69
277.494	2683.69
277.726	2518.69
277.957	2477.69
278.189	2443.69
278.421	2407.69
278.652	2365.69
278.884	2362.69
279.115	2317.69
279.347	2393.69
279.579	2377.69
279.81	2469.69
280.042	2422.69
280.273	2517.69
280.505	2467.69
280.736	2440.69
280.968	2462.69
281.199	2459.69
281.431	2441.69
281.662	2504.69
281.894	2540.69
282.125	2591.69
282.356	2732.69
282.588	2876.69
282.819	2705.69
283.051	2613.69
283.282	2508.69
283.513	2556.69
283.745	2578.69
283.976	2611.69
284.207	2646.69
284.439	2616.69
284.67	2602.69
284.901	2593.69
285.132	2625.69
285.364	2628.69
285.595	2606.69
285.826	2637.69
286.057	2676.69
286.288	2668.69
286.52	2673.69
286.751	2706.69
286.982	2698.69
287.213	2694.69
287.444	2775.69
287.675	2821.69
287.906	2883.69
288.138	2921.69
288.369	2923.69
288.6	2954.69
288.831	2843.69
289.062	2889.69
289.293	2838.69
289.524	2824.69
289.755	2792.69
289.986	2811.69
290.217	2798.69
290.448	2842.69
290.679	2838.69
290.91	2822.69
291.141	2813.69
291.371	2820.69
291.602	2849.69
291.833	2800.69
292.064	2803.69
292.295	2853.69
292.526	2838.69
292.757	2838.69
292.987	2862.69
293.218	2850.69
293.449	2899.69
293.68	2905.69
293.91	2829.69
294.141	2878.69
294.372	2819.69
294.603	2891.69
294.833	2932.69
295.064	2915.69
295.295	2901.69
295.525	2872.69
295.756	3011.69
295.987	3045.69
296.217	3219.69
296.448	3163.69
296.679	3035.69
296.909	2956.69
297.14	2988.69
297.37	3019.69
297.601	3038.69
297.831	3036.69
298.062	3077.69
298.292	3113.69
298.523	3127.69
298.753	3122.69
298.984	3058.69
299.214	3125.69
299.445	3126.69
299.675	3157.69
299.905	3206.69
300.136	3184.69
300.366	3171.69
300.597	3167.69
300.827	3333.69
301.057	3369.69
301.288	3379.69
301.518	3352.69
301.748	3314.69
301.979	3475.69
302.209	3446.69
302.439	3374.69
302.669	3330.69
302.9	3332.69
303.13	3284.69
303.36	3384.69
303.59	3432.69
303.82	3397.69
304.051	3398.69
304.281	3406.69
304.511	3325.69
304.741	3310.69
304.971	3316.69
305.201	3289.69
305.431	3271.69
305.661	3278.69
305.891	3253.69
306.121	3281.69
306.352	3358.69
306.582	3386.69
306.812	3251.69
307.042	3321.69
307.272	3303.69
307.502	3321.69
307.731	3344.69
307.961	3303.69
308.191	3342.69
308.421	3244.69
308.651	3428.69
308.881	3357.69
309.111	3361.69
309.341	3374.69
309.571	3471.69
309.8	3492.69
310.03	3589.69
310.26	3592.69
310.49	3574.69
310.72	3691.69
310.949	3773.69
311.179	3734.69
311.409	3654.69
311.639	3641.69
311.868	3704.69
312.098	3692.69
312.328	3729.69
312.557	3840.69
312.787	3987.69
313.017	3846.69
313.246	3755.69
313.476	3737.69
313.706	3775.69
313.935	3856.69
314.165	3935.69
314.394	3968.69
314.624	3944.69
314.853	3843.69
315.083	3801.69
315.312	3734.69
315.542	3743.69
315.771	3687.69
316.001	3751.69
316.23	3743.69
316.46	3677.69
316.689	3742.69
316.919	3769.69
317.148	3827.69
317.377	3778.69
317.607	3738.69
317.836	3687.69
318.065	3644.69
318.295	3729.69
318.524	3698.69
318.753	3673.69
318.983	3670.69
319.212	3630.69
319.441	3738.69
319.67	3787.69
319.9	3728.69
320.129	3711.69
320.358	3793.69
320.587	3779.69
320.816	3821.69
321.046	3897.69
321.275	3859.69
321.504	3855.69
321.733	3848.69
321.962	3909.69
322.191	4041.69
322.42	4155.69
322.649	4164.69
322.878	4252.69
323.108	4385.69
323.337	4490.69
323.566	4699.69
323.795	5036.69
324.024	5489.69
324.253	7144.69
324.482	10681.69
324.71	15019.69
324.939	15615.69
325.168	12495.69
325.397	6382.69
325.626	5176.69
325.855	4925.69
326.084	4753.69
326.313	4820.69
326.542	4923.69
326.77	5607.69
326.999	6998.69
327.228	10098.69
327.457	14076.69
327.686	13406.69
327.914	7566.69
328.143	6291.69
328.372	6135.69
328.6	5653.69
328.829	5461.69
329.058	5708.69
329.287	5694.69
329.515	5377.69
329.744	5437.69
329.972	5817.69
330.201	6466.69
330.43	6933.69
330.658	6413.69
330.887	6249.69
331.115	5701.69
331.344	5230.69
331.572	5109.69
331.801	5213.69
332.03	5272.69
332.258	5157.69
332.486	5143.69
332.715	5350.69
332.943	5525.69
333.172	5663.69
333.4	5904.69
333.629	6189.69
333.857	6409.69
334.085	6850.69
334.314	7543.69
334.542	8321.69
334.771	7887.69
334.999	6348.69
335.227	5876.69
335.455	5488.69
335.684	5342.69
335.912	5253.69
336.14	5139.69
336.369	5113.69
336.597	5208.69
336.825	5069.69
337.053	4957.69
337.281	4902.69
337.51	4813.69
337.738	4820.69
337.966	4810.69
338.194	4795.69
338.422	4727.69
338.65	4650.69
338.878	4614.69
339.106	4575.69
339.334	4577.69
339.562	4546.69
339.79	4437.69
340.018	4428.69
340.246	4452.69
340.474	4511.69
340.702	4483.69
340.93	4449.69
341.158	4454.69
341.386	4448.69
341.614	4449.69
341.842	4375.69
342.07	4381.69
342.298	4390.69
342.526	4349.69
342.754	4293.69
342.981	4338.69
343.209	4427.69
343.437	4697.69
343.665	5001.69
343.893	5221.69
344.12	5202.69
344.348	4981.69
344.576	4826.69
344.804	4777.69
345.031	4686.69
345.259	4573.69
345.487	4501.69
345.714	4383.69
345.942	4282.69
346.17	4283.69
346.397	4207.69
346.625	4187.69
346.853	4192.69
347.08	4156.69
347.308	4240.69
347.535	4298.69
347.763	4294.69
347.99	4163.69
348.218	4293.69
348.445	4347.69
348.673	4278.69
348.9	4203.69
349.128	4098.69
349.355	4089.69
349.583	4083.69
349.81	4102.69
350.037	4132.69
350.265	4037.69
350.492	4040.69
350.72	4115.69
350.947	4117.69
351.174	4215.69
351.402	4271.69
351.629	4138.69
351.856	4163.69
352.083	4261.69
352.311	4336.69
352.538	4253.69
352.765	4262.69
352.992	4159.69
353.22	4102.69
353.447	4109.69
353.674	3989.69
353.901	4011.69
354.128	4005.69
354.355	4015.69
354.583	3993.69
354.81	3958.69
355.037	3949.69
355.264	4021.69
355.491	3993.69
355.718	3957.69
355.945	3957.69
356.172	3986.69
356.399	3970.69
356.626	4000.69
356.853	3943.69
357.08	3901.69
357.307	3998.69
357.534	3961.69
357.761	3978.69
357.988	4037.69
358.215	3995.69
358.441	4009.69
358.668	3989.69
358.895	4025.69
359.122	4054.69
359.349	4154.69
359.576	4303.69
359.802	4480.69
360.029	4697.69
360.256	4587.69
360.483	4426.69
360.709	4206.69
360.936	4189.69
361.163	4188.69
361.39	4226.69
361.616	4294.69
361.843	4214.69
362.07	4210.69
362.296	4230.69
362.523	4166.69
362.749	4185.69
362.976	4177.69
363.203	4080.69
363.429	4043.69
363.656	4145.69
363.882	4082.69
364.109	4021.69
364.335	4061.69
364.562	4050.69
364.788	4033.69
365.015	4073.69
365.241	4106.69
365.468	4169.69
365.694	4119.69
365.92	4062.69
366.147	4166.69
366.373	4123.69
366.599	4083.69
366.826	4057.69
367.052	4052.69
367.278	4092.69
367.505	4060.69
367.731	4161.69
367.957	4094.69
368.184	4123.69
368.41	4260.69
368.636	4282.69
368.862	4258.69
369.089	4230.69
369.315	4129.69
369.541	4201.69
369.767	4266.69
369.993	4240.69
370.219	4177.69
370.445	4220.69
370.672	4201.69
370.898	4324.69
371.124	4346.69
371.35	4348.69
371.576	4345.69
371.802	4293.69
372.028	4304.69
372.254	4369.69
372.48	4357.69
372.706	4455.69
372.932	4532.69
373.158	4479.69
373.384	4434.69
373.61	4369.69
373.835	4441.69
374.061	4389.69
374.287	4450.69
374.513	4566.69
374.739	4677.69
374.965	4875.69
375.191	4811.69
375.416	4657.69
375.642	4555.69
375.868	4521.69
376.094	4417.69
376.319	4423.69
376.545	4361.69
376.771	4375.69
376.997	4305.69
377.222	4367.69
377.448	4326.69
377.674	4361.69
377.899	4294.69
378.125	4277.69
378.35	4243.69
378.576	4274.69
378.802	4273.69
379.027	4317.69
379.253	4338.69
379.478	4204.69
379.704	4276.69
379.929	4272.69
380.155	4310.69
380.38	4380.69
380.606	4341.69
380.831	4338.69
381.057	4350.69
381.282	4297.69
381.507	4338.69
381.733	4385.69
381.958	4484.69
382.184	4525.69
382.409	4507.69
382.634	4603.69
382.86	4557.69
383.085	4597.69
383.31	4681.69
383.535	4747.69
383.761	4827.69
383.986	4947.69
384.211	4989.69
384.436	5094.69
384.662	5057.69
384.887	5242.69
385.112	5199.69
385.337	5259.69
385.562	5157.69
385.787	5175.69
386.013	5286.69
386.238	5412.69
386.463	5381.69
386.688	5293.69
386.913	5201.69
387.138	5201.69
387.363	5251.69
387.588	5099.69
387.813	5153.69
388.038	5201.69
388.263	5177.69
388.488	5306.69
388.713	5153.69
388.938	5155.69
389.163	5190.69
389.387	5249.69
389.612	5068.69
389.837	5084.69
390.062	5144.69
390.287	5097.69
390.512	5191.69
390.736	5185.69
390.961	5267.69
391.186	5301.69
391.411	5479.69
391.636	5681.69
391.86	5782.69
392.085	5898.69
392.31	5819.69
392.534	5604.69
392.759	5529.69
392.984	5477.69
393.208	5413.69
393.433	5402.69
393.658	5420.69
393.882	5452.69
394.107	5423.69
394.331	5556.69
394.556	5439.69
394.78	5570.69
395.005	5596.69
395.229	5588.69
395.454	5833.69
395.678	5871.69
395.903	5897.69
396.127	5849.69
396.352	5626.69
396.576	5576.69
396.801	5500.69
397.025	5575.69
397.249	5731.69
397.474	5861.69
397.698	5939.69
397.922	5980.69
398.147	6112.69
398.371	6174.69
398.595	6297.69
398.82	6679.69
399.044	7255.69
399.268	8049.69
399.492	9132.69
399.717	9797.69
399.941	9474.69
400.165	8783.69
400.389	8120.69
400.613	7320.69
400.837	6887.69
401.062	6772.69
401.286	6654.69
401.51	6662.69
401.734	6602.69
401.958	6777.69
402.182	6777.69
402.406	6958.69
402.63	7083.69
402.854	7117.69
403.078	7216.69
403.302	7367.69
403.526	7377.69
403.75	7515.69
403.974	7644.69
404.198	7546.69
404.422	7641.69
404.645	7671.69
404.869	7657.69
405.093	8077.69
405.317	8428.69
405.541	8269.69
405.765	7711.69
405.988	7453.69
406.212	7677.69
406.436	7772.69
406.66	7791.69
406.883	7888.69
407.107	8473.69
407.331	8844.69
407.555	9411.69
407.778	9075.69
408.002	8329.69
408.226	8027.69
408.449	7933.69
408.673	7641.69
408.896	7807.69
409.12	7919.69
409.344	7519.69
409.567	7217.69
409.791	7203.69
410.014	7117.69
410.238	7044.69
410.461	7180.69
410.685	7123.69
410.908	7222.69
411.132	7430.69
411.355	7421.69
411.578	7039.69
411.802	6962.69
412.025	7044.69
412.249	7348.69
412.472	7672.69
412.695	7845.69
412.919	7285.69
413.142	6951.69
413.365	6833.69
413.589	6756.69
413.812	6590.69
414.035	6455.69
414.258	6537.69
414.482	6551.69
414.705	6548.69
414.928	6488.69
415.151	6454.69
415.374	6555.69
415.597	6398.69
415.821	6324.69
416.044	6310.69
416.267	6358.69
416.49	6238.69
416.713	6256.69
416.936	6450.69
417.159	6414.69
417.382	6516.69
417.605	6446.69
417.828	6634.69
418.051	6677.69
418.274	6539.69
418.497	6493.69
418.72	6665.69
418.943	6593.69
419.166	7001.69
419.389	7395.69
419.611	7297.69
419.834	7045.69
420.057	7077.69
420.28	7010.69
420.503	6882.69
420.726	6779.69
420.948	6901.69
421.171	7260.69
421.394	7005.69
421.617	6676.69
421.839	6617.69
422.062	6750.69
422.285	6818.69
422.507	7430.69
422.73	7792.69
422.953	7284.69
423.175	6940.69
423.398	7018.69
423.621	6986.69
423.843	7261.69
424.066	7241.69
424.288	7040.69
424.511	7326.69
424.733	7639.69
424.956	8016.69
425.178	7686.69
425.401	7813.69
425.623	7657.69
425.846	6714.69
426.068	6681.69
426.291	6651.69
426.513	6460.69
426.735	6614.69
426.958	7064.69
427.18	7738.69
427.402	8801.69
427.625	9011.69
427.847	7984.69
428.069	7352.69
428.292	6572.69
428.514	6185.69
428.736	6051.69
428.958	6031.69
429.181	5860.69
429.403	5809.69
429.625	5935.69
429.847	6229.69
430.069	6696.69
430.292	6278.69
430.514	5813.69
430.736	5807.69
430.958	5746.69
431.18	5669.69
431.402	5722.69
431.624	5664.69
431.846	5734.69
432.068	5794.69
432.29	5934.69
432.512	5733.69
432.734	5809.69
432.956	5818.69
433.178	5857.69
433.4	5838.69
433.622	5754.69
433.844	5795.69
434.066	5837.69
434.287	5911.69
434.509	6180.69
434.731	6378.69
434.953	6588.69
435.175	6634.69
435.397	6665.69
435.618	6534.69
435.84	6854.69
436.062	7588.69
436.284	7563.69
436.505	6418.69
436.727	6106.69
436.949	5939.69
437.17	5897.69
437.392	5748.69
437.614	5949.69
437.835	6344.69
438.057	7187.69
438.278	7587.69
438.5	7558.69
438.721	8299.69
438.943	7283.69
439.165	6202.69
439.386	6097.69
439.608	6132.69
439.829	6292.69
440.05	6584.69
440.272	7061.69
440.493	6408.69
440.715	6130.69
440.936	6006.69
441.158	6177.69
441.379	6353.69
441.6	6549.69
441.822	6781.69
442.043	7135.69
442.264	7802.69
442.486	7569.69
442.707	6860.69
442.928	6689.69
443.149	6850.69
443.371	7026.69
443.592	7516.69
443.813	8404.69
444.034	8400.69
444.255	7421.69
444.476	7394.69
444.698	7540.69
444.919	7642.69
445.14	7409.69
445.361	7222.69
445.582	7385.69
445.803	7835.69
446.024	8433.69
446.245	8046.69
446.466	7221.69
446.687	6342.69
446.908	6123.69
447.129	5847.69
447.35	5653.69
447.571	5608.69
447.792	5541.69
448.013	5671.69
448.234	5830.69
448.455	6412.69
448.675	7463.69
448.896	7738.69
449.117	6476.69
449.338	6757.69
449.559	7895.69
449.779	8014.69
450	6220.69
450.221	5662.69
450.442	5564.69
450.662	5498.69
450.883	5601.69
451.104	5666.69
451.324	5445.69
451.545	5342.69
451.766	5189.69
451.986	5130.69
452.207	5048.69
452.428	5016.69
452.648	5121.69
452.869	5131.69
453.089	5154.69
453.31	5271.69
453.53	5139.69
453.751	5049.69
453.971	5041.69
454.192	5240.69
454.412	4955.69
454.633	4965.69
454.853	4925.69
455.073	4914.69
455.294	5265.69
455.514	5791.69
455.734	5237.69
455.955	4800.69
456.175	4762.69
456.395	4675.69
456.616	4615.69
456.836	4714.69
457.056	4657.69
457.276	4573.69
457.497	4769.69
457.717	4697.69
457.937	4826.69
458.157	4926.69
458.377	4999.69
458.598	5377.69
458.818	6044.69
459.038	6700.69
459.258	6635.69
459.478	5983.69
459.698	5872.69
459.918	5953.69
460.138	6196.69
460.358	6319.69
460.578	6429.69
460.798	6520.69
461.018	6486.69
461.238	6331.69
461.458	6344.69
461.678	6241.69
461.898	6516.69
462.118	6462.69
462.338	6839.69
462.558	6975.69
462.777	7271.69
462.997	7893.69
463.217	8326.69
463.437	8074.69
463.657	7462.69
463.876	7239.69
464.096	7295.69
464.316	7383.69
464.536	7340.69
464.755	7076.69
464.975	6998.69
465.195	7238.69
465.414	7219.69
465.634	6252.69
465.854	5945.69
466.073	5742.69
466.293	5539.69
466.512	5286.69
466.732	5271.69
466.951	5282.69
467.171	5315.69
467.391	5335.69
467.61	5453.69
467.829	5391.69
468.049	5547.69
468.268	5574.69
468.488	5247.69
468.707	5137.69
468.927	5065.69
469.146	5087.69
469.365	5132.69
469.585	5218.69
469.804	5430.69
470.023	5533.69
470.243	5450.69
470.462	5629.69
470.681	5716.69
470.901	5586.69
471.12	5459.69
471.339	5429.69
471.558	5446.69
471.777	5294.69
471.997	5365.69
472.216	5913.69
472.435	6827.69
472.654	5976.69
472.873	5463.69
473.092	5316.69
473.311	5178.69
473.53	5217.69
473.749	5284.69
473.968	5757.69
474.187	6556.69
474.406	6116.69
474.625	5299.69
474.844	5143.69
475.063	5089.69
475.282	5107.69
475.501	5133.69
475.72	5168.69
475.939	5199.69
476.158	5236.69
476.377	5242.69
476.596	5226.69
476.814	5483.69
477.033	5423.69
477.252	5498.69
477.471	5702.69
477.69	5691.69
477.908	5856.69
478.127	6007.69
478.346	6098.69
478.564	6211.69
478.783	6314.69
479.002	6361.69
479.22	6441.69
479.439	6521.69
479.658	6628.69
479.876	6770.69
480.095	6847.69
480.313	7347.69
480.532	7270.69
480.751	7228.69
480.969	7745.69
481.188	9701.69
481.406	9243.69
481.624	7402.69
481.843	6851.69
482.061	6590.69
482.28	6358.69
482.498	6268.69
482.717	6157.69
482.935	6130.69
483.153	6081.69
483.372	6082.69
483.59	5980.69
483.808	6077.69
484.027	6033.69
484.245	6134.69
484.463	6109.69
484.681	6276.69
484.9	6195.69
485.118	6273.69
485.336	6304.69
485.554	6348.69
485.772	6422.69
485.99	6398.69
486.209	6361.69
486.427	6441.69
486.645	6493.69
486.863	6578.69
487.081	6578.69
487.299	6444.69
487.517	6466.69
487.735	6436.69
487.953	6396.69
