Data from Circ_1996_H10_HRD10591_00019.txt Node
Date: Wed Jan 03 11:33:09 EST 2024
User: Yrep
Spectrometer: HR+D1059
Trigger mode: 1
Integration Time (sec): 1.000000E-1
Scans to average: 1
Electric dark correction enabled: true
Nonlinearity correction enabled: false
Boxcar width: 0
XAxis mode: Wavelengths
Number of Pixels in Spectrum: 2048
>>>>>Begin Spectral Data<<<<<
223.165	-27.31
223.4	-27.31
223.635	-27.31
223.869	-4.31
224.104	-5.31
224.338	-18.31
224.573	-20.31
224.808	-2.31
225.042	-9.31
225.277	6.69
225.511	7.69
225.746	-0.31
225.98	3.69
226.215	7.69
226.449	10.69
226.683	13.69
226.918	12.69
227.152	24.69
227.387	46.69
227.621	38.69
227.856	50.69
228.09	51.69
228.324	38.69
228.559	53.69
228.793	59.69
229.027	53.69
229.262	62.69
229.496	64.69
229.73	70.69
229.964	86.69
230.199	79.69
230.433	63.69
230.667	81.69
230.901	89.69
231.136	79.69
231.37	78.69
231.604	76.69
231.838	74.69
232.072	62.69
232.306	78.69
232.541	74.69
232.775	75.69
233.009	83.69
233.243	77.69
233.477	76.69
233.711	88.69
233.945	84.69
234.179	77.69
234.413	84.69
234.647	74.69
234.881	84.69
235.115	80.69
235.349	73.69
235.583	91.69
235.817	77.69
236.051	67.69
236.285	71.69
236.519	84.69
236.753	77.69
236.987	63.69
237.221	68.69
237.455	61.69
237.689	84.69
237.922	76.69
238.156	75.69
238.39	70.69
238.624	66.69
238.858	68.69
239.091	79.69
239.325	62.69
239.559	94.69
239.793	82.69
240.027	85.69
240.26	87.69
240.494	72.69
240.728	61.69
240.961	63.69
241.195	77.69
241.429	84.69
241.662	75.69
241.896	65.69
242.13	72.69
242.363	74.69
242.597	72.69
242.83	74.69
243.064	89.69
243.298	82.69
243.531	69.69
243.765	84.69
243.998	80.69
244.232	84.69
244.465	71.69
244.699	73.69
244.932	72.69
245.166	72.69
245.399	88.69
245.633	76.69
245.866	90.69
246.099	71.69
246.333	56.69
246.566	75.69
246.8	72.69
247.033	79.69
247.266	87.69
247.5	86.69
247.733	78.69
247.966	91.69
248.2	86.69
248.433	84.69
248.666	72.69
248.899	79.69
249.133	88.69
249.366	92.69
249.599	93.69
249.832	81.69
250.066	79.69
250.299	89.69
250.532	73.69
250.765	77.69
250.998	81.69
251.231	58.69
251.465	79.69
251.698	79.69
251.931	79.69
252.164	68.69
252.397	77.69
252.63	88.69
252.863	68.69
253.096	70.69
253.329	81.69
253.562	61.69
253.795	81.69
254.028	84.69
254.261	66.69
254.494	78.69
254.727	74.69
254.96	81.69
255.193	79.69
255.426	86.69
255.659	83.69
255.892	81.69
256.124	70.69
256.357	71.69
256.59	81.69
256.823	91.69
257.056	74.69
257.289	90.69
257.521	87.69
257.754	84.69
257.987	74.69
258.22	89.69
258.452	78.69
258.685	76.69
258.918	85.69
259.151	74.69
259.383	69.69
259.616	93.69
259.849	85.69
260.081	79.69
260.314	89.69
260.547	74.69
260.779	88.69
261.012	76.69
261.244	92.69
261.477	82.69
261.71	86.69
261.942	98.69
262.175	105.69
262.407	83.69
262.64	82.69
262.872	79.69
263.105	75.69
263.337	81.69
263.57	88.69
263.802	78.69
264.035	77.69
264.267	82.69
264.499	89.69
264.732	64.69
264.964	73.69
265.197	75.69
265.429	76.69
265.661	78.69
265.894	78.69
266.126	86.69
266.358	86.69
266.591	86.69
266.823	74.69
267.055	88.69
267.287	81.69
267.52	82.69
267.752	86.69
267.984	92.69
268.216	85.69
268.448	88.69
268.681	83.69
268.913	77.69
269.145	68.69
269.377	78.69
269.609	87.69
269.841	91.69
270.073	79.69
270.306	102.69
270.538	98.69
270.77	80.69
271.002	69.69
271.234	77.69
271.466	86.69
271.698	82.69
271.93	94.69
272.162	86.69
272.394	75.69
272.626	88.69
272.858	104.69
273.09	92.69
273.322	88.69
273.553	78.69
273.785	72.69
274.017	77.69
274.249	73.69
274.481	84.69
274.713	88.69
274.945	76.69
275.176	87.69
275.408	70.69
275.64	79.69
275.872	102.69
276.104	93.69
276.335	87.69
276.567	94.69
276.799	96.69
277.031	93.69
277.262	96.69
277.494	89.69
277.726	85.69
277.957	80.69
278.189	80.69
278.421	89.69
278.652	83.69
278.884	88.69
279.115	78.69
279.347	78.69
279.579	87.69
279.81	86.69
280.042	84.69
280.273	100.69
280.505	76.69
280.736	77.69
280.968	86.69
281.199	84.69
281.431	93.69
281.662	91.69
281.894	101.69
282.125	104.69
282.356	112.69
282.588	132.69
282.819	106.69
283.051	96.69
283.282	85.69
283.513	92.69
283.745	93.69
283.976	87.69
284.207	77.69
284.439	88.69
284.67	81.69
284.901	84.69
285.132	69.69
285.364	98.69
285.595	72.69
285.826	86.69
286.057	88.69
286.288	84.69
286.52	83.69
286.751	78.69
286.982	75.69
287.213	85.69
287.444	84.69
287.675	85.69
287.906	72.69
288.138	74.69
288.369	85.69
288.6	87.69
288.831	79.69
289.062	87.69
289.293	89.69
289.524	79.69
289.755	98.69
289.986	87.69
290.217	78.69
290.448	88.69
290.679	81.69
290.91	76.69
291.141	75.69
291.371	90.69
291.602	91.69
291.833	85.69
292.064	88.69
292.295	78.69
292.526	86.69
292.757	87.69
292.987	85.69
293.218	81.69
293.449	86.69
293.68	91.69
293.91	92.69
294.141	93.69
294.372	98.69
294.603	94.69
294.833	97.69
295.064	91.69
295.295	91.69
295.525	90.69
295.756	90.69
295.987	111.69
296.217	119.69
296.448	127.69
296.679	97.69
296.909	102.69
297.14	70.69
297.37	95.69
297.601	83.69
297.831	82.69
298.062	90.69
298.292	80.69
298.523	76.69
298.753	88.69
298.984	81.69
299.214	86.69
299.445	85.69
299.675	98.69
299.905	105.69
300.136	89.69
300.366	92.69
300.597	88.69
300.827	89.69
301.057	90.69
301.288	94.69
301.518	94.69
301.748	98.69
301.979	102.69
302.209	97.69
302.439	93.69
302.669	81.69
302.9	76.69
303.13	100.69
303.36	92.69
303.59	100.69
303.82	104.69
304.051	87.69
304.281	85.69
304.511	76.69
304.741	82.69
304.971	76.69
305.201	84.69
305.431	99.69
305.661	81.69
305.891	90.69
306.121	93.69
306.352	100.69
306.582	87.69
306.812	91.69
307.042	93.69
307.272	104.69
307.502	94.69
307.731	91.69
307.961	102.69
308.191	110.69
308.421	112.69
308.651	81.69
308.881	93.69
309.111	87.69
309.341	98.69
309.571	103.69
309.8	108.69
310.03	96.69
310.26	102.69
310.49	101.69
310.72	93.69
310.949	105.69
311.179	92.69
311.409	89.69
311.639	99.69
311.868	92.69
312.098	98.69
312.328	88.69
312.557	94.69
312.787	92.69
313.017	86.69
313.246	86.69
313.476	91.69
313.706	87.69
313.935	86.69
314.165	96.69
314.394	91.69
314.624	81.69
314.853	94.69
315.083	88.69
315.312	80.69
315.542	103.69
315.771	91.69
316.001	84.69
316.23	88.69
316.46	82.69
316.689	82.69
316.919	89.69
317.148	92.69
317.377	93.69
317.607	95.69
317.836	89.69
318.065	94.69
318.295	80.69
318.524	95.69
318.753	90.69
318.983	89.69
319.212	103.69
319.441	93.69
319.67	82.69
319.9	89.69
320.129	97.69
320.358	90.69
320.587	97.69
320.816	94.69
321.046	92.69
321.275	102.69
321.504	82.69
321.733	84.69
321.962	98.69
322.191	87.69
322.42	91.69
322.649	91.69
322.878	113.69
323.108	89.69
323.337	105.69
323.566	128.69
323.795	120.69
324.024	156.69
324.253	278.69
324.482	560.69
324.71	1111.69
324.939	1440.69
325.168	570.69
325.397	184.69
325.626	124.69
325.855	118.69
326.084	98.69
326.313	114.69
326.542	117.69
326.77	174.69
326.999	319.69
327.228	588.69
327.457	1050.69
327.686	877.69
327.914	262.69
328.143	180.69
328.372	132.69
328.6	127.69
328.829	108.69
329.058	132.69
329.287	119.69
329.515	112.69
329.744	111.69
329.972	111.69
330.201	145.69
330.43	176.69
330.658	130.69
330.887	126.69
331.115	113.69
331.344	92.69
331.572	96.69
331.801	82.69
332.03	79.69
332.258	88.69
332.486	102.69
332.715	88.69
332.943	79.69
333.172	103.69
333.4	91.69
333.629	107.69
333.857	106.69
334.085	112.69
334.314	142.69
334.542	198.69
334.771	180.69
334.999	110.69
335.227	102.69
335.455	98.69
335.684	96.69
335.912	89.69
336.14	102.69
336.369	104.69
336.597	96.69
336.825	98.69
337.053	97.69
337.281	86.69
337.51	86.69
337.738	81.69
337.966	91.69
338.194	90.69
338.422	84.69
338.65	93.69
338.878	104.69
339.106	86.69
339.334	100.69
339.562	94.69
339.79	84.69
340.018	98.69
340.246	87.69
340.474	90.69
340.702	82.69
340.93	81.69
341.158	87.69
341.386	99.69
341.614	88.69
341.842	93.69
342.07	81.69
342.298	80.69
342.526	85.69
342.754	85.69
342.981	97.69
343.209	90.69
343.437	93.69
343.665	101.69
343.893	97.69
344.12	95.69
344.348	95.69
344.576	76.69
344.804	97.69
345.031	100.69
345.259	81.69
345.487	89.69
345.714	90.69
345.942	94.69
346.17	88.69
346.397	92.69
346.625	91.69
346.853	97.69
347.08	97.69
347.308	95.69
347.535	89.69
347.763	102.69
347.99	81.69
348.218	101.69
348.445	92.69
348.673	97.69
348.9	88.69
349.128	97.69
349.355	94.69
349.583	81.69
349.81	93.69
350.037	102.69
350.265	94.69
350.492	101.69
350.72	95.69
350.947	104.69
351.174	95.69
351.402	93.69
351.629	88.69
351.856	109.69
352.083	89.69
352.311	96.69
352.538	115.69
352.765	95.69
352.992	96.69
353.22	106.69
353.447	92.69
353.674	101.69
353.901	102.69
354.128	78.69
354.355	88.69
354.583	78.69
354.81	94.69
355.037	104.69
355.264	91.69
355.491	97.69
355.718	104.69
355.945	90.69
356.172	89.69
356.399	97.69
356.626	92.69
356.853	100.69
357.08	83.69
357.307	79.69
357.534	84.69
357.761	86.69
357.988	91.69
358.215	97.69
358.441	105.69
358.668	96.69
358.895	91.69
359.122	78.69
359.349	90.69
359.576	81.69
359.802	95.69
360.029	92.69
360.256	110.69
360.483	84.69
360.709	90.69
360.936	87.69
361.163	84.69
361.39	88.69
361.616	89.69
361.843	91.69
362.07	103.69
362.296	90.69
362.523	88.69
362.749	89.69
362.976	98.69
363.203	89.69
363.429	89.69
363.656	103.69
363.882	89.69
364.109	90.69
364.335	92.69
364.562	95.69
364.788	95.69
365.015	92.69
365.241	104.69
365.468	86.69
365.694	94.69
365.92	98.69
366.147	94.69
366.373	89.69
366.599	94.69
366.826	95.69
367.052	87.69
367.278	101.69
367.505	85.69
367.731	78.69
367.957	87.69
368.184	78.69
368.41	89.69
368.636	97.69
368.862	112.69
369.089	93.69
369.315	99.69
369.541	90.69
369.767	93.69
369.993	93.69
370.219	81.69
370.445	72.69
370.672	87.69
370.898	91.69
371.124	81.69
371.35	76.69
371.576	92.69
371.802	80.69
372.028	77.69
372.254	80.69
372.48	77.69
372.706	81.69
372.932	64.69
373.158	89.69
373.384	95.69
373.61	92.69
373.835	86.69
374.061	77.69
374.287	89.69
374.513	84.69
374.739	98.69
374.965	96.69
375.191	92.69
375.416	97.69
375.642	97.69
375.868	90.69
376.094	88.69
376.319	90.69
376.545	97.69
376.771	84.69
376.997	86.69
377.222	74.69
377.448	100.69
377.674	77.69
377.899	87.69
378.125	100.69
378.35	95.69
378.576	89.69
378.802	94.69
379.027	95.69
379.253	96.69
379.478	100.69
379.704	97.69
379.929	100.69
380.155	97.69
380.38	105.69
380.606	88.69
380.831	89.69
381.057	99.69
381.282	91.69
381.507	88.69
381.733	102.69
381.958	98.69
382.184	101.69
382.409	95.69
382.634	118.69
382.86	100.69
383.085	93.69
383.31	104.69
383.535	105.69
383.761	104.69
383.986	97.69
384.211	104.69
384.436	121.69
384.662	100.69
384.887	109.69
385.112	119.69
385.337	108.69
385.562	116.69
385.787	116.69
386.013	111.69
386.238	118.69
386.463	118.69
386.688	116.69
386.913	107.69
387.138	118.69
387.363	113.69
387.588	115.69
387.813	107.69
388.038	105.69
388.263	118.69
388.488	126.69
388.713	90.69
388.938	97.69
389.163	76.69
389.387	84.69
389.612	90.69
389.837	84.69
390.062	87.69
390.287	90.69
390.512	88.69
390.736	77.69
390.961	79.69
391.186	89.69
391.411	92.69
391.636	88.69
391.86	104.69
392.085	92.69
392.31	81.69
392.534	84.69
392.759	91.69
392.984	89.69
393.208	98.69
393.433	120.69
393.658	98.69
393.882	68.69
394.107	81.69
394.331	87.69
394.556	96.69
394.78	93.69
395.005	84.69
395.229	59.69
395.454	89.69
395.678	65.69
395.903	80.69
396.127	97.69
396.352	89.69
396.576	83.69
396.801	103.69
397.025	91.69
397.249	87.69
397.474	90.69
397.698	79.69
397.922	96.69
398.147	82.69
398.371	87.69
398.595	86.69
398.82	86.69
399.044	80.69
399.268	84.69
399.492	95.69
399.717	82.69
399.941	95.69
400.165	80.69
400.389	101.69
400.613	94.69
400.837	76.69
401.062	85.69
401.286	90.69
401.51	80.69
401.734	86.69
401.958	98.69
402.182	112.69
402.406	123.69
402.63	117.69
402.854	82.69
403.078	87.69
403.302	103.69
403.526	84.69
403.75	89.69
403.974	81.69
404.198	85.69
404.422	78.69
404.645	85.69
404.869	87.69
405.093	82.69
405.317	85.69
405.541	98.69
405.765	81.69
405.988	109.69
406.212	156.69
406.436	217.69
406.66	134.69
406.883	87.69
407.107	81.69
407.331	77.69
407.555	89.69
407.778	82.69
408.002	79.69
408.226	82.69
408.449	76.69
408.673	84.69
408.896	95.69
409.12	94.69
409.344	95.69
409.567	97.69
409.791	86.69
410.014	88.69
410.238	86.69
410.461	81.69
410.685	87.69
410.908	97.69
411.132	99.69
411.355	97.69
411.578	101.69
411.802	80.69
412.025	88.69
412.249	87.69
412.472	89.69
412.695	103.69
412.919	77.69
413.142	101.69
413.365	89.69
413.589	93.69
413.812	93.69
414.035	88.69
414.258	80.69
414.482	91.69
414.705	84.69
414.928	87.69
415.151	87.69
415.374	95.69
415.597	86.69
415.821	81.69
416.044	84.69
416.267	94.69
416.49	98.69
416.713	88.69
416.936	82.69
417.159	86.69
417.382	70.69
417.605	78.69
417.828	96.69
418.051	83.69
418.274	89.69
418.497	90.69
418.72	89.69
418.943	82.69
419.166	92.69
419.389	89.69
419.611	84.69
419.834	96.69
420.057	82.69
420.28	77.69
420.503	95.69
420.726	84.69
420.948	84.69
421.171	85.69
421.394	88.69
421.617	78.69
421.839	94.69
422.062	95.69
422.285	95.69
422.507	112.69
422.73	107.69
422.953	96.69
423.175	87.69
423.398	95.69
423.621	85.69
423.843	75.69
424.066	66.69
424.288	92.69
424.511	95.69
424.733	94.69
424.956	95.69
425.178	96.69
425.401	96.69
425.623	91.69
425.846	84.69
426.068	86.69
426.291	83.69
426.513	76.69
426.735	73.69
426.958	86.69
427.18	88.69
427.402	126.69
427.625	146.69
427.847	120.69
428.069	116.69
428.292	89.69
428.514	81.69
428.736	66.69
428.958	80.69
429.181	78.69
429.403	83.69
429.625	82.69
429.847	81.69
430.069	82.69
430.292	75.69
430.514	77.69
430.736	76.69
430.958	79.69
431.18	76.69
431.402	80.69
431.624	92.69
431.846	87.69
432.068	87.69
432.29	96.69
432.512	89.69
432.734	90.69
432.956	91.69
433.178	97.69
433.4	94.69
433.622	91.69
433.844	84.69
434.066	87.69
434.287	85.69
434.509	86.69
434.731	93.69
434.953	90.69
435.175	86.69
435.397	89.69
435.618	82.69
435.84	79.69
436.062	97.69
436.284	91.69
436.505	95.69
436.727	79.69
436.949	102.69
437.17	92.69
437.392	92.69
437.614	98.69
437.835	92.69
438.057	107.69
438.278	106.69
438.5	109.69
438.721	104.69
438.943	106.69
439.165	78.69
439.386	79.69
439.608	88.69
439.829	89.69
440.05	101.69
440.272	123.69
440.493	85.69
440.715	95.69
440.936	81.69
441.158	80.69
441.379	92.69
441.6	88.69
441.822	74.69
442.043	85.69
442.264	84.69
442.486	94.69
442.707	89.69
442.928	83.69
443.149	121.69
443.371	121.69
443.592	92.69
443.813	93.69
444.034	96.69
444.255	94.69
444.476	96.69
444.698	80.69
444.919	97.69
445.14	124.69
445.361	111.69
445.582	92.69
445.803	110.69
446.024	116.69
446.245	104.69
446.466	94.69
446.687	92.69
446.908	96.69
447.129	101.69
447.35	83.69
447.571	87.69
447.792	87.69
448.013	91.69
448.234	112.69
448.455	97.69
448.675	89.69
448.896	95.69
449.117	91.69
449.338	86.69
449.559	113.69
449.779	121.69
450	90.69
450.221	62.69
450.442	78.69
450.662	82.69
450.883	94.69
451.104	98.69
451.324	85.69
451.545	105.69
451.766	89.69
451.986	80.69
452.207	88.69
452.428	75.69
452.648	89.69
452.869	97.69
453.089	114.69
453.31	97.69
453.53	92.69
453.751	83.69
453.971	90.69
454.192	117.69
454.412	94.69
454.633	87.69
454.853	91.69
455.073	79.69
455.294	102.69
455.514	91.69
455.734	92.69
455.955	83.69
456.175	80.69
456.395	83.69
456.616	88.69
456.836	83.69
457.056	86.69
457.276	82.69
457.497	79.69
457.717	86.69
457.937	100.69
458.157	83.69
458.377	80.69
458.598	103.69
458.818	109.69
459.038	134.69
459.258	100.69
459.478	76.69
459.698	79.69
459.918	79.69
460.138	86.69
460.358	96.69
460.578	83.69
460.798	80.69
461.018	80.69
461.238	85.69
461.458	78.69
461.678	73.69
461.898	96.69
462.118	61.69
462.338	82.69
462.558	72.69
462.777	88.69
462.997	94.69
463.217	84.69
463.437	90.69
463.657	74.69
463.876	88.69
464.096	100.69
464.316	106.69
464.536	72.69
464.755	82.69
464.975	81.69
465.195	138.69
465.414	148.69
465.634	84.69
465.854	89.69
466.073	100.69
466.293	88.69
466.512	82.69
466.732	83.69
466.951	102.69
467.171	83.69
467.391	94.69
467.61	93.69
467.829	80.69
468.049	106.69
468.268	121.69
468.488	86.69
468.707	92.69
468.927	84.69
469.146	70.69
469.365	86.69
469.585	86.69
469.804	91.69
470.023	81.69
470.243	84.69
470.462	94.69
470.681	98.69
470.901	95.69
471.12	87.69
471.339	85.69
471.558	79.69
471.777	92.69
471.997	93.69
472.216	141.69
472.435	206.69
472.654	105.69
472.873	85.69
473.092	87.69
473.311	73.69
473.53	77.69
473.749	79.69
473.968	90.69
474.187	110.69
474.406	80.69
474.625	76.69
474.844	81.69
475.063	72.69
475.282	86.69
475.501	90.69
475.72	88.69
475.939	87.69
476.158	91.69
476.377	84.69
476.596	89.69
476.814	84.69
477.033	87.69
477.252	87.69
477.471	87.69
477.69	93.69
477.908	86.69
478.127	109.69
478.346	85.69
478.564	80.69
478.783	94.69
479.002	79.69
479.22	81.69
479.439	104.69
479.658	99.69
479.876	90.69
480.095	81.69
480.313	95.69
480.532	96.69
480.751	98.69
480.969	153.69
481.188	366.69
481.406	224.69
481.624	102.69
481.843	97.69
482.061	81.69
482.28	97.69
482.498	81.69
482.717	74.69
482.935	96.69
483.153	94.69
483.372	92.69
483.59	93.69
483.808	101.69
484.027	85.69
484.245	84.69
484.463	91.69
484.681	98.69
484.9	79.69
485.118	91.69
485.336	83.69
485.554	90.69
485.772	97.69
485.99	97.69
486.209	110.69
486.427	111.69
486.645	108.69
486.863	113.69
487.081	95.69
487.299	98.69
487.517	106.69
487.735	83.69
487.953	88.69
488.171	98.69
488.389	81.69
488.607	88.69
488.825	86.69
489.043	92.69
489.261	86.69
489.479	92.69
489.696	89.69
489.914	84.69
490.132	74.69
490.35	77.69
490.568	80.69
490.786	85.69
491.003	98.69
491.221	83.69
491.439	76.69
491.657	89.69
491.874	84.69
492.092	83.69
492.31	78.69
492.527	90.69
492.745	80.69
492.963	83.69
493.18	102.69
493.398	95.69
493.615	93.69
493.833	86.69
494.05	82.69
494.268	99.69
494.485	88.69
494.703	85.69
494.92	88.69
495.138	97.69
495.355	78.69
495.573	78.69
495.79	88.69
496.008	92.69
496.225	94.69
496.442	82.69
496.66	84.69
496.877	93.69
497.094	91.69
497.312	90.69
497.529	86.69
497.746	82.69
497.963	85.69
498.181	99.69
498.398	89.69
498.615	105.69
498.832	89.69
499.049	84.69
499.267	80.69
499.484	91.69
499.701	80.69
499.918	79.69
500.135	104.69
500.352	82.69
500.569	85.69
500.786	81.69
501.003	96.69
501.22	92.69
501.437	79.69
501.654	88.69
501.871	101.69
502.088	94.69
502.305	94.69
502.522	87.69
502.739	89.69
502.956	96.69
503.172	90.69
503.389	87.69
503.606	89.69
503.823	98.69
504.04	78.69
504.256	88.69
504.473	77.69
504.69	69.69
504.907	82.69
505.123	82.69
505.34	86.69
505.557	94.69
505.773	91.69
505.99	76.69
506.207	95.69
506.423	92.69
506.64	72.69
506.856	94.69
507.073	81.69
507.289	75.69
507.506	93.69
507.722	98.69
507.939	111.69
508.155	90.69
508.372	89.69
508.588	87.69
508.805	86.69
509.021	86.69
509.238	77.69
509.454	101.69
509.67	102.69
509.887	108.69
510.103	112.69
510.319	203.69
510.536	682.69
510.752	2143.69
510.968	605.69
511.184	129.69
511.401	100.69
511.617	101.69
511.833	90.69
512.049	105.69
512.265	94.69
512.481	79.69
512.698	88.69
512.914	95.69
513.13	81.69
513.346	89.69
513.562	85.69
513.778	88.69
513.994	94.69
514.21	89.69
514.426	117.69
514.642	118.69
514.858	110.69
515.074	156.69
515.29	376.69
515.506	1205.69
515.721	457.69
515.937	140.69
516.153	97.69
516.369	87.69
516.585	93.69
516.801	96.69
