Data from Circ_1996_H10_HRD10591_00093.txt Node
Date: Wed Jan 03 11:33:24 EST 2024
User: Yrep
Spectrometer: HR+D1059
Trigger mode: 1
Integration Time (sec): 1.000000E-1
Scans to average: 1
Electric dark correction enabled: true
Nonlinearity correction enabled: false
Boxcar width: 0
XAxis mode: Wavelengths
Number of Pixels in Spectrum: 2048
>>>>>Begin Spectral Data<<<<<
223.165	-18.75
223.4	-18.75
223.635	-18.75
223.869	-13.75
224.104	-29.75
224.338	-15.75
224.573	-6.75
224.808	-9.75
225.042	-9.75
225.277	-6.75
225.511	-6.75
225.746	1.25
225.98	13.25
226.215	25.25
226.449	17.25
226.683	20.25
226.918	25.25
227.152	15.25
227.387	33.25
227.621	48.25
227.856	28.25
228.09	40.25
228.324	30.25
228.559	57.25
228.793	52.25
229.027	64.25
229.262	58.25
229.496	71.25
229.73	77.25
229.964	80.25
230.199	76.25
230.433	76.25
230.667	77.25
230.901	72.25
231.136	87.25
231.37	73.25
231.604	76.25
231.838	80.25
232.072	78.25
232.306	76.25
232.541	67.25
232.775	79.25
233.009	81.25
233.243	87.25
233.477	68.25
233.711	68.25
233.945	85.25
234.179	77.25
234.413	86.25
234.647	72.25
234.881	65.25
235.115	76.25
235.349	66.25
235.583	80.25
235.817	72.25
236.051	75.25
236.285	81.25
236.519	84.25
236.753	78.25
236.987	68.25
237.221	70.25
237.455	71.25
237.689	79.25
237.922	77.25
238.156	79.25
238.39	78.25
238.624	78.25
238.858	86.25
239.091	66.25
239.325	74.25
239.559	81.25
239.793	77.25
240.027	74.25
240.26	90.25
240.494	85.25
240.728	82.25
240.961	76.25
241.195	72.25
241.429	87.25
241.662	79.25
241.896	76.25
242.13	71.25
242.363	67.25
242.597	57.25
242.83	71.25
243.064	69.25
243.298	71.25
243.531	56.25
243.765	86.25
243.998	74.25
244.232	78.25
244.465	98.25
244.699	97.25
244.932	78.25
245.166	74.25
245.399	87.25
245.633	78.25
245.866	84.25
246.099	76.25
246.333	85.25
246.566	65.25
246.8	71.25
247.033	82.25
247.266	72.25
247.5	76.25
247.733	68.25
247.966	72.25
248.2	80.25
248.433	76.25
248.666	84.25
248.899	79.25
249.133	64.25
249.366	74.25
249.599	97.25
249.832	62.25
250.066	88.25
250.299	78.25
250.532	76.25
250.765	80.25
250.998	75.25
251.231	74.25
251.465	81.25
251.698	73.25
251.931	82.25
252.164	88.25
252.397	69.25
252.63	85.25
252.863	71.25
253.096	84.25
253.329	73.25
253.562	72.25
253.795	80.25
254.028	85.25
254.261	86.25
254.494	70.25
254.727	83.25
254.96	79.25
255.193	73.25
255.426	74.25
255.659	89.25
255.892	86.25
256.124	82.25
256.357	80.25
256.59	89.25
256.823	81.25
257.056	91.25
257.289	82.25
257.521	85.25
257.754	89.25
257.987	72.25
258.22	78.25
258.452	80.25
258.685	84.25
258.918	87.25
259.151	78.25
259.383	80.25
259.616	80.25
259.849	84.25
260.081	82.25
260.314	88.25
260.547	90.25
260.779	91.25
261.012	68.25
261.244	82.25
261.477	83.25
261.71	85.25
261.942	103.25
262.175	114.25
262.407	84.25
262.64	80.25
262.872	77.25
263.105	83.25
263.337	86.25
263.57	83.25
263.802	75.25
264.035	84.25
264.267	80.25
264.499	76.25
264.732	79.25
264.964	81.25
265.197	84.25
265.429	74.25
265.661	73.25
265.894	80.25
266.126	81.25
266.358	81.25
266.591	78.25
266.823	81.25
267.055	89.25
267.287	92.25
267.52	92.25
267.752	76.25
267.984	92.25
268.216	79.25
268.448	74.25
268.681	77.25
268.913	86.25
269.145	72.25
269.377	79.25
269.609	78.25
269.841	87.25
270.073	75.25
270.306	78.25
270.538	85.25
270.77	85.25
271.002	85.25
271.234	81.25
271.466	87.25
271.698	89.25
271.93	88.25
272.162	96.25
272.394	77.25
272.626	93.25
272.858	73.25
273.09	97.25
273.322	74.25
273.553	80.25
273.785	77.25
274.017	84.25
274.249	90.25
274.481	91.25
274.713	97.25
274.945	77.25
275.176	89.25
275.408	80.25
275.64	76.25
275.872	71.25
276.104	87.25
276.335	84.25
276.567	92.25
276.799	91.25
277.031	92.25
277.262	88.25
277.494	94.25
277.726	75.25
277.957	90.25
278.189	88.25
278.421	74.25
278.652	81.25
278.884	84.25
279.115	90.25
279.347	72.25
279.579	78.25
279.81	101.25
280.042	87.25
280.273	104.25
280.505	72.25
280.736	82.25
280.968	81.25
281.199	86.25
281.431	97.25
281.662	90.25
281.894	93.25
282.125	84.25
282.356	113.25
282.588	137.25
282.819	106.25
283.051	84.25
283.282	79.25
283.513	91.25
283.745	84.25
283.976	87.25
284.207	92.25
284.439	80.25
284.67	88.25
284.901	93.25
285.132	82.25
285.364	80.25
285.595	89.25
285.826	86.25
286.057	80.25
286.288	78.25
286.52	82.25
286.751	96.25
286.982	97.25
287.213	93.25
287.444	93.25
287.675	83.25
287.906	85.25
288.138	87.25
288.369	85.25
288.6	89.25
288.831	76.25
289.062	84.25
289.293	86.25
289.524	94.25
289.755	86.25
289.986	68.25
290.217	82.25
290.448	69.25
290.679	87.25
290.91	80.25
291.141	76.25
291.371	95.25
291.602	91.25
291.833	95.25
292.064	87.25
292.295	85.25
292.526	92.25
292.757	96.25
292.987	85.25
293.218	100.25
293.449	80.25
293.68	92.25
293.91	80.25
294.141	85.25
294.372	100.25
294.603	89.25
294.833	98.25
295.064	80.25
295.295	88.25
295.525	87.25
295.756	105.25
295.987	115.25
296.217	127.25
296.448	122.25
296.679	101.25
296.909	93.25
297.14	94.25
297.37	92.25
297.601	100.25
297.831	94.25
298.062	81.25
298.292	76.25
298.523	72.25
298.753	92.25
298.984	100.25
299.214	91.25
299.445	82.25
299.675	87.25
299.905	102.25
300.136	93.25
300.366	89.25
300.597	73.25
300.827	97.25
301.057	90.25
301.288	105.25
301.518	87.25
301.748	82.25
301.979	89.25
302.209	81.25
302.439	87.25
302.669	72.25
302.9	68.25
303.13	97.25
303.36	94.25
303.59	114.25
303.82	114.25
304.051	92.25
304.281	92.25
304.511	96.25
304.741	79.25
304.971	82.25
305.201	103.25
305.431	92.25
305.661	81.25
305.891	93.25
306.121	87.25
306.352	95.25
306.582	87.25
306.812	99.25
307.042	87.25
307.272	96.25
307.502	84.25
307.731	100.25
307.961	96.25
308.191	85.25
308.421	88.25
308.651	89.25
308.881	95.25
309.111	77.25
309.341	97.25
309.571	92.25
309.8	91.25
310.03	89.25
310.26	96.25
310.49	98.25
310.72	106.25
310.949	94.25
311.179	100.25
311.409	92.25
311.639	91.25
311.868	89.25
312.098	96.25
312.328	100.25
312.557	120.25
312.787	100.25
313.017	100.25
313.246	101.25
313.476	85.25
313.706	100.25
313.935	98.25
314.165	94.25
314.394	109.25
314.624	105.25
314.853	90.25
315.083	113.25
315.312	82.25
315.542	78.25
315.771	89.25
316.001	71.25
316.23	86.25
316.46	78.25
316.689	85.25
316.919	93.25
317.148	85.25
317.377	101.25
317.607	92.25
317.836	72.25
318.065	76.25
318.295	88.25
318.524	89.25
318.753	84.25
318.983	98.25
319.212	113.25
319.441	94.25
319.67	94.25
319.9	101.25
320.129	90.25
320.358	97.25
320.587	84.25
320.816	91.25
321.046	85.25
321.275	100.25
321.504	86.25
321.733	86.25
321.962	101.25
322.191	101.25
322.42	93.25
322.649	113.25
322.878	96.25
323.108	110.25
323.337	115.25
323.566	121.25
323.795	137.25
324.024	169.25
324.253	274.25
324.482	584.25
324.71	1160.25
324.939	1535.25
325.168	607.25
325.397	199.25
325.626	140.25
325.855	111.25
326.084	110.25
326.313	114.25
326.542	139.25
326.77	184.25
326.999	341.25
327.228	618.25
327.457	1119.25
327.686	904.25
327.914	295.25
328.143	184.25
328.372	172.25
328.6	139.25
328.829	112.25
329.058	119.25
329.287	112.25
329.515	102.25
329.744	104.25
329.972	106.25
330.201	172.25
330.43	206.25
330.658	166.25
330.887	145.25
331.115	104.25
331.344	100.25
331.572	92.25
331.801	104.25
332.03	106.25
332.258	90.25
332.486	92.25
332.715	92.25
332.943	100.25
333.172	99.25
333.4	94.25
333.629	102.25
333.857	111.25
334.085	141.25
334.314	153.25
334.542	248.25
334.771	221.25
334.999	137.25
335.227	90.25
335.455	94.25
335.684	106.25
335.912	88.25
336.14	88.25
336.369	92.25
336.597	105.25
336.825	97.25
337.053	72.25
337.281	87.25
337.51	94.25
337.738	95.25
337.966	89.25
338.194	82.25
338.422	92.25
338.65	90.25
338.878	81.25
339.106	86.25
339.334	85.25
339.562	88.25
339.79	98.25
340.018	100.25
340.246	88.25
340.474	95.25
340.702	82.25
340.93	95.25
341.158	96.25
341.386	106.25
341.614	88.25
341.842	90.25
342.07	102.25
342.298	97.25
342.526	95.25
342.754	95.25
342.981	60.25
343.209	93.25
343.437	96.25
343.665	77.25
343.893	71.25
344.12	77.25
344.348	90.25
344.576	98.25
344.804	88.25
345.031	93.25
345.259	88.25
345.487	84.25
345.714	96.25
345.942	85.25
346.17	101.25
346.397	103.25
346.625	89.25
346.853	87.25
347.08	74.25
347.308	102.25
347.535	90.25
347.763	90.25
347.99	79.25
348.218	88.25
348.445	89.25
348.673	98.25
348.9	86.25
349.128	99.25
349.355	85.25
349.583	87.25
349.81	91.25
350.037	91.25
350.265	98.25
350.492	94.25
350.72	96.25
350.947	91.25
351.174	95.25
351.402	104.25
351.629	112.25
351.856	95.25
352.083	104.25
352.311	101.25
352.538	101.25
352.765	123.25
352.992	120.25
353.22	102.25
353.447	105.25
353.674	104.25
353.901	82.25
354.128	87.25
354.355	93.25
354.583	106.25
354.81	106.25
355.037	90.25
355.264	105.25
355.491	100.25
355.718	89.25
355.945	95.25
356.172	99.25
356.399	89.25
356.626	96.25
356.853	97.25
357.08	81.25
357.307	92.25
357.534	94.25
357.761	76.25
357.988	86.25
358.215	89.25
358.441	96.25
358.668	85.25
358.895	98.25
359.122	81.25
359.349	95.25
359.576	100.25
359.802	89.25
360.029	101.25
360.256	108.25
360.483	91.25
360.709	64.25
360.936	86.25
361.163	83.25
361.39	86.25
361.616	82.25
361.843	89.25
362.07	90.25
362.296	92.25
362.523	93.25
362.749	93.25
362.976	99.25
363.203	87.25
363.429	87.25
363.656	90.25
363.882	80.25
364.109	92.25
364.335	96.25
364.562	90.25
364.788	85.25
365.015	87.25
365.241	108.25
365.468	100.25
365.694	96.25
365.92	98.25
366.147	84.25
366.373	92.25
366.599	93.25
366.826	78.25
367.052	74.25
367.278	90.25
367.505	86.25
367.731	89.25
367.957	86.25
368.184	91.25
368.41	104.25
368.636	94.25
368.862	109.25
369.089	119.25
369.315	91.25
369.541	82.25
369.767	102.25
369.993	98.25
370.219	96.25
370.445	94.25
370.672	84.25
370.898	91.25
371.124	88.25
371.35	96.25
371.576	80.25
371.802	79.25
372.028	77.25
372.254	81.25
372.48	87.25
372.706	88.25
372.932	95.25
373.158	82.25
373.384	101.25
373.61	76.25
373.835	90.25
374.061	109.25
374.287	98.25
374.513	87.25
374.739	92.25
374.965	87.25
375.191	85.25
375.416	90.25
375.642	84.25
375.868	84.25
376.094	72.25
376.319	89.25
376.545	81.25
376.771	94.25
376.997	85.25
377.222	88.25
377.448	112.25
377.674	92.25
377.899	92.25
378.125	86.25
378.35	85.25
378.576	76.25
378.802	88.25
379.027	95.25
379.253	84.25
379.478	88.25
379.704	87.25
379.929	88.25
380.155	94.25
380.38	104.25
380.606	95.25
380.831	109.25
381.057	111.25
381.282	94.25
381.507	88.25
381.733	85.25
381.958	94.25
382.184	102.25
382.409	97.25
382.634	97.25
382.86	107.25
383.085	104.25
383.31	103.25
383.535	89.25
383.761	102.25
383.986	109.25
384.211	98.25
384.436	90.25
384.662	96.25
384.887	91.25
385.112	96.25
385.337	105.25
385.562	91.25
385.787	101.25
386.013	109.25
386.238	105.25
386.463	107.25
386.688	93.25
386.913	98.25
387.138	108.25
387.363	89.25
387.588	98.25
387.813	100.25
388.038	103.25
388.263	93.25
388.488	105.25
388.713	89.25
388.938	86.25
389.163	92.25
389.387	95.25
389.612	84.25
389.837	102.25
390.062	95.25
390.287	78.25
390.512	95.25
390.736	72.25
390.961	96.25
391.186	105.25
391.411	82.25
391.636	92.25
391.86	88.25
392.085	80.25
392.31	80.25
392.534	85.25
392.759	86.25
392.984	80.25
393.208	82.25
393.433	93.25
393.658	88.25
393.882	82.25
394.107	82.25
394.331	64.25
394.556	91.25
394.78	84.25
395.005	82.25
395.229	89.25
395.454	76.25
395.678	86.25
395.903	87.25
396.127	92.25
396.352	80.25
396.576	87.25
396.801	86.25
397.025	90.25
397.249	90.25
397.474	90.25
397.698	84.25
397.922	80.25
398.147	84.25
398.371	80.25
398.595	96.25
398.82	91.25
399.044	89.25
399.268	87.25
399.492	76.25
399.717	84.25
399.941	88.25
400.165	85.25
400.389	78.25
400.613	79.25
400.837	90.25
401.062	86.25
401.286	87.25
401.51	90.25
401.734	88.25
401.958	84.25
402.182	112.25
402.406	143.25
402.63	104.25
402.854	88.25
403.078	81.25
403.302	81.25
403.526	94.25
403.75	86.25
403.974	88.25
404.198	89.25
404.422	75.25
404.645	74.25
404.869	86.25
405.093	97.25
405.317	109.25
405.541	79.25
405.765	85.25
405.988	98.25
406.212	164.25
406.436	216.25
406.66	122.25
406.883	101.25
407.107	69.25
407.331	92.25
407.555	93.25
407.778	78.25
408.002	81.25
408.226	98.25
408.449	79.25
408.673	78.25
408.896	83.25
409.12	92.25
409.344	85.25
409.567	88.25
409.791	105.25
410.014	91.25
410.238	116.25
410.461	104.25
410.685	93.25
410.908	92.25
411.132	99.25
411.355	97.25
411.578	83.25
411.802	70.25
412.025	88.25
412.249	97.25
412.472	92.25
412.695	91.25
412.919	88.25
413.142	86.25
413.365	80.25
413.589	91.25
413.812	97.25
414.035	87.25
414.258	79.25
414.482	82.25
414.705	85.25
414.928	89.25
415.151	87.25
415.374	94.25
415.597	72.25
415.821	78.25
416.044	101.25
416.267	86.25
416.49	93.25
416.713	70.25
416.936	71.25
417.159	98.25
417.382	86.25
417.605	87.25
417.828	92.25
418.051	81.25
418.274	89.25
418.497	85.25
418.72	87.25
418.943	84.25
419.166	95.25
419.389	77.25
419.611	88.25
419.834	88.25
420.057	81.25
420.28	91.25
420.503	84.25
420.726	75.25
420.948	91.25
421.171	104.25
421.394	84.25
421.617	80.25
421.839	92.25
422.062	80.25
422.285	88.25
422.507	92.25
422.73	82.25
422.953	94.25
423.175	92.25
423.398	96.25
423.621	98.25
423.843	84.25
424.066	72.25
424.288	80.25
424.511	83.25
424.733	117.25
424.956	86.25
425.178	76.25
425.401	103.25
425.623	90.25
425.846	91.25
426.068	84.25
426.291	87.25
426.513	98.25
426.735	79.25
426.958	90.25
427.18	95.25
427.402	118.25
427.625	144.25
427.847	117.25
428.069	100.25
428.292	103.25
428.514	88.25
428.736	77.25
428.958	81.25
429.181	82.25
429.403	91.25
429.625	79.25
429.847	86.25
430.069	91.25
430.292	92.25
430.514	82.25
430.736	81.25
430.958	83.25
431.18	87.25
431.402	80.25
431.624	74.25
431.846	96.25
432.068	83.25
432.29	76.25
432.512	78.25
432.734	72.25
432.956	81.25
433.178	100.25
433.4	89.25
433.622	91.25
433.844	92.25
434.066	89.25
434.287	100.25
434.509	82.25
434.731	89.25
434.953	85.25
435.175	91.25
435.397	97.25
435.618	94.25
435.84	84.25
436.062	107.25
436.284	92.25
436.505	95.25
436.727	87.25
436.949	77.25
437.17	89.25
437.392	76.25
437.614	80.25
437.835	86.25
438.057	96.25
438.278	91.25
438.5	98.25
438.721	114.25
438.943	77.25
439.165	83.25
439.386	84.25
439.608	69.25
439.829	94.25
440.05	107.25
440.272	120.25
440.493	103.25
440.715	106.25
440.936	74.25
441.158	83.25
441.379	91.25
441.6	84.25
441.822	104.25
442.043	110.25
442.264	110.25
442.486	100.25
442.707	93.25
442.928	89.25
443.149	111.25
443.371	124.25
443.592	99.25
443.813	101.25
444.034	98.25
444.255	92.25
444.476	88.25
444.698	86.25
444.919	100.25
445.14	112.25
445.361	106.25
445.582	108.25
445.803	129.25
446.024	110.25
446.245	117.25
446.466	96.25
446.687	94.25
446.908	81.25
447.129	94.25
447.35	84.25
447.571	88.25
447.792	79.25
448.013	88.25
448.234	101.25
448.455	90.25
448.675	110.25
448.896	110.25
449.117	95.25
449.338	107.25
449.559	121.25
449.779	108.25
450	84.25
450.221	79.25
450.442	81.25
450.662	89.25
450.883	92.25
451.104	96.25
451.324	74.25
451.545	79.25
451.766	67.25
451.986	68.25
452.207	94.25
452.428	69.25
452.648	93.25
452.869	117.25
453.089	100.25
453.31	112.25
453.53	93.25
453.751	85.25
453.971	109.25
454.192	101.25
454.412	85.25
454.633	72.25
454.853	80.25
455.073	84.25
455.294	90.25
455.514	89.25
455.734	78.25
455.955	70.25
456.175	81.25
456.395	86.25
456.616	78.25
456.836	79.25
457.056	72.25
457.276	82.25
457.497	81.25
457.717	80.25
457.937	80.25
458.157	73.25
458.377	96.25
458.598	97.25
458.818	140.25
459.038	148.25
459.258	116.25
459.478	85.25
459.698	74.25
459.918	90.25
460.138	85.25
460.358	89.25
460.578	90.25
460.798	100.25
461.018	93.25
461.238	86.25
461.458	85.25
461.678	89.25
461.898	89.25
462.118	82.25
462.338	95.25
462.558	73.25
462.777	86.25
462.997	78.25
463.217	78.25
463.437	88.25
463.657	86.25
463.876	90.25
464.096	85.25
464.316	84.25
464.536	87.25
464.755	94.25
464.975	116.25
465.195	135.25
465.414	143.25
465.634	97.25
465.854	87.25
466.073	86.25
466.293	92.25
466.512	91.25
466.732	79.25
466.951	92.25
467.171	83.25
467.391	90.25
467.61	95.25
467.829	102.25
468.049	126.25
468.268	160.25
468.488	95.25
468.707	84.25
468.927	79.25
469.146	90.25
469.365	90.25
469.585	91.25
469.804	95.25
470.023	83.25
470.243	87.25
470.462	95.25
470.681	104.25
470.901	93.25
471.12	81.25
471.339	94.25
471.558	93.25
471.777	89.25
471.997	97.25
472.216	197.25
472.435	298.25
472.654	132.25
472.873	101.25
473.092	93.25
473.311	85.25
473.53	76.25
473.749	88.25
473.968	89.25
474.187	103.25
474.406	78.25
474.625	89.25
474.844	84.25
475.063	93.25
475.282	89.25
475.501	78.25
475.72	82.25
475.939	74.25
476.158	90.25
476.377	103.25
476.596	85.25
476.814	83.25
477.033	98.25
477.252	86.25
477.471	93.25
477.69	91.25
477.908	75.25
478.127	87.25
478.346	85.25
478.564	81.25
478.783	89.25
479.002	90.25
479.22	78.25
479.439	102.25
479.658	83.25
479.876	111.25
480.095	90.25
480.313	85.25
480.532	92.25
480.751	96.25
480.969	206.25
481.188	516.25
481.406	320.25
481.624	112.25
481.843	89.25
482.061	93.25
482.28	88.25
482.498	85.25
482.717	93.25
482.935	80.25
483.153	96.25
483.372	86.25
483.59	99.25
483.808	89.25
484.027	100.25
484.245	85.25
484.463	93.25
484.681	98.25
484.9	93.25
485.118	97.25
485.336	90.25
485.554	94.25
485.772	97.25
485.99	106.25
486.209	107.25
486.427	97.25
486.645	98.25
486.863	116.25
487.081	97.25
487.299	93.25
487.517	89.25
487.735	105.25
487.953	98.25
488.171	93.25
488.389	94.25
488.607	96.25
488.825	91.25
489.043	80.25
489.261	89.25
489.479	91.25
489.696	87.25
489.914	82.25
490.132	82.25
490.35	95.25
490.568	83.25
490.786	71.25
491.003	86.25
491.221	93.25
491.439	98.25
491.657	98.25
491.874	84.25
492.092	88.25
492.31	96.25
492.527	96.25
492.745	87.25
492.963	86.25
493.18	89.25
493.398	94.25
493.615	96.25
493.833	84.25
494.05	88.25
494.268	102.25
494.485	88.25
494.703	79.25
494.92	76.25
495.138	80.25
495.355	88.25
495.573	87.25
495.79	81.25
496.008	88.25
496.225	90.25
496.442	78.25
496.66	101.25
496.877	82.25
497.094	96.25
497.312	82.25
497.529	99.25
497.746	87.25
497.963	104.25
498.181	98.25
498.398	88.25
498.615	97.25
498.832	94.25
499.049	77.25
499.267	84.25
499.484	86.25
499.701	81.25
499.918	93.25
500.135	87.25
500.352	96.25
500.569	84.25
500.786	87.25
501.003	85.25
501.22	85.25
501.437	97.25
501.654	95.25
501.871	92.25
502.088	82.25
502.305	95.25
502.522	84.25
502.739	99.25
502.956	87.25
503.172	85.25
503.389	90.25
503.606	88.25
503.823	75.25
504.04	88.25
504.256	89.25
504.473	90.25
504.69	92.25
504.907	77.25
505.123	81.25
505.34	92.25
505.557	91.25
505.773	81.25
505.99	93.25
506.207	75.25
506.423	80.25
506.64	89.25
506.856	89.25
507.073	79.25
507.289	97.25
507.506	89.25
507.722	105.25
507.939	98.25
508.155	94.25
508.372	98.25
508.588	86.25
508.805	96.25
509.021	88.25
509.238	97.25
509.454	93.25
509.67	87.25
509.887	104.25
510.103	121.25
510.319	219.25
510.536	731.25
510.752	2486.25
510.968	697.25
511.184	161.25
511.401	113.25
511.617	97.25
511.833	88.25
512.049	90.25
512.265	91.25
512.481	77.25
512.698	94.25
512.914	75.25
513.13	78.25
513.346	80.25
513.562	99.25
513.778	94.25
513.994	88.25
514.21	102.25
514.426	104.25
514.642	137.25
514.858	106.25
515.074	151.25
515.29	412.25
515.506	1386.25
515.721	502.25
515.937	140.25
516.153	109.25
516.369	93.25
516.585	87.25
