Data from Circ_1996_H10_HRD10591_00064.txt Node
Date: Wed Jan 03 11:33:18 EST 2024
User: Yrep
Spectrometer: HR+D1059
Trigger mode: 1
Integration Time (sec): 1.000000E-1
Scans to average: 1
Electric dark correction enabled: true
Nonlinearity correction enabled: false
Boxcar width: 0
XAxis mode: Wavelengths
Number of Pixels in Spectrum: 2048
>>>>>Begin Spectral Data<<<<<
223.165	-31.31
223.4	-31.31
223.635	-31.31
223.869	-11.31
224.104	-22.31
224.338	-9.31
224.573	0.69
224.808	-6.31
225.042	-7.31
225.277	-5.31
225.511	4.69
225.746	-0.31
225.98	-2.31
226.215	20.69
226.449	16.69
226.683	15.69
226.918	14.69
227.152	22.69
227.387	39.69
227.621	44.69
227.856	30.69
228.09	42.69
228.324	47.69
228.559	53.69
228.793	161.69
229.027	403.69
229.262	463.69
229.496	532.69
229.73	666.69
229.964	669.69
230.199	478.69
230.433	460.69
230.667	447.69
230.901	424.69
231.136	435.69
231.37	451.69
231.604	415.69
231.838	435.69
232.072	432.69
232.306	431.69
232.541	453.69
232.775	458.69
233.009	470.69
233.243	458.69
233.477	470.69
233.711	467.69
233.945	454.69
234.179	474.69
234.413	493.69
234.647	488.69
234.881	496.69
235.115	505.69
235.349	540.69
235.583	528.69
235.817	571.69
236.051	578.69
236.285	566.69
236.519	580.69
236.753	633.69
236.987	796.69
237.221	1186.69
237.455	1262.69
237.689	796.69
237.922	676.69
238.156	673.69
238.39	639.69
238.624	618.69
238.858	604.69
239.091	624.69
239.325	646.69
239.559	649.69
239.793	694.69
240.027	707.69
240.26	803.69
240.494	876.69
240.728	847.69
240.961	829.69
241.195	756.69
241.429	755.69
241.662	725.69
241.896	727.69
242.13	753.69
242.363	752.69
242.597	764.69
242.83	811.69
243.064	778.69
243.298	807.69
243.531	801.69
243.765	815.69
243.998	840.69
244.232	855.69
244.465	846.69
244.699	846.69
244.932	890.69
245.166	859.69
245.399	881.69
245.633	880.69
245.866	884.69
246.099	880.69
246.333	904.69
246.566	933.69
246.8	955.69
247.033	971.69
247.266	1020.69
247.5	1046.69
247.733	1109.69
247.966	1109.69
248.2	1070.69
248.433	1084.69
248.666	1147.69
248.899	1228.69
249.133	1330.69
249.366	1322.69
249.599	1232.69
249.832	1162.69
250.066	1205.69
250.299	1352.69
250.532	1494.69
250.765	1589.69
250.998	1668.69
251.231	1540.69
251.465	1417.69
251.698	1384.69
251.931	1332.69
252.164	1286.69
252.397	1341.69
252.63	1367.69
252.863	1474.69
253.096	1540.69
253.329	1578.69
253.562	1529.69
253.795	1479.69
254.028	1466.69
254.261	1510.69
254.494	1646.69
254.727	1893.69
254.96	1971.69
255.193	1823.69
255.426	1705.69
255.659	1705.69
255.892	1847.69
256.124	2099.69
256.357	1973.69
256.59	1785.69
256.823	1619.69
257.056	1604.69
257.289	1543.69
257.521	1560.69
257.754	1550.69
257.987	1510.69
258.22	1517.69
258.452	1532.69
258.685	1515.69
258.918	1542.69
259.151	1568.69
259.383	1605.69
259.616	1608.69
259.849	1658.69
260.081	1742.69
260.314	1882.69
260.547	1848.69
260.779	1759.69
261.012	1676.69
261.244	1644.69
261.477	1595.69
261.71	1654.69
261.942	1663.69
262.175	1733.69
262.407	1681.69
262.64	1579.69
262.872	1585.69
263.105	1592.69
263.337	1595.69
263.57	1606.69
263.802	1645.69
264.035	1628.69
264.267	1661.69
264.499	1635.69
264.732	1619.69
264.964	1680.69
265.197	1669.69
265.429	1655.69
265.661	1704.69
265.894	1697.69
266.126	1713.69
266.358	1722.69
266.591	1747.69
266.823	1808.69
267.055	1813.69
267.287	1816.69
267.52	1790.69
267.752	1779.69
267.984	1809.69
268.216	1814.69
268.448	1866.69
268.681	1941.69
268.913	1996.69
269.145	2170.69
269.377	2151.69
269.609	2144.69
269.841	2083.69
270.073	2212.69
270.306	2387.69
270.538	2515.69
270.77	2429.69
271.002	2286.69
271.234	2284.69
271.466	2383.69
271.698	2470.69
271.93	2502.69
272.162	2478.69
272.394	2440.69
272.626	2334.69
272.858	2215.69
273.09	2148.69
273.322	2146.69
273.553	2154.69
273.785	2160.69
274.017	2183.69
274.249	2169.69
274.481	2174.69
274.713	2204.69
274.945	2258.69
275.176	2178.69
275.408	2198.69
275.64	2200.69
275.872	2194.69
276.104	2270.69
276.335	2273.69
276.567	2350.69
276.799	2444.69
277.031	2645.69
277.262	2744.69
277.494	2594.69
277.726	2511.69
277.957	2418.69
278.189	2421.69
278.421	2358.69
278.652	2308.69
278.884	2299.69
279.115	2339.69
279.347	2348.69
279.579	2355.69
279.81	2426.69
280.042	2409.69
280.273	2457.69
280.505	2409.69
280.736	2411.69
280.968	2395.69
281.199	2399.69
281.431	2448.69
281.662	2448.69
281.894	2423.69
282.125	2491.69
282.356	2649.69
282.588	2739.69
282.819	2628.69
283.051	2479.69
283.282	2522.69
283.513	2544.69
283.745	2575.69
283.976	2596.69
284.207	2607.69
284.439	2589.69
284.67	2546.69
284.901	2642.69
285.132	2567.69
285.364	2598.69
285.595	2614.69
285.826	2611.69
286.057	2620.69
286.288	2633.69
286.52	2646.69
286.751	2676.69
286.982	2660.69
287.213	2674.69
287.444	2723.69
287.675	2802.69
287.906	2800.69
288.138	2863.69
288.369	2852.69
288.6	2882.69
288.831	2798.69
289.062	2780.69
289.293	2800.69
289.524	2788.69
289.755	2751.69
289.986	2766.69
290.217	2802.69
290.448	2836.69
290.679	2820.69
290.91	2813.69
291.141	2756.69
291.371	2800.69
291.602	2790.69
291.833	2795.69
292.064	2801.69
292.295	2772.69
292.526	2795.69
292.757	2806.69
292.987	2803.69
293.218	2803.69
293.449	2850.69
293.68	2866.69
293.91	2791.69
294.141	2766.69
294.372	2778.69
294.603	2826.69
294.833	2855.69
295.064	2827.69
295.295	2865.69
295.525	2885.69
295.756	2893.69
295.987	3016.69
296.217	3126.69
296.448	3112.69
296.679	2915.69
296.909	2931.69
297.14	2860.69
297.37	2989.69
297.601	3036.69
297.831	3006.69
298.062	3016.69
298.292	3090.69
298.523	3088.69
298.753	3058.69
298.984	3051.69
299.214	3112.69
299.445	3086.69
299.675	3107.69
299.905	3124.69
300.136	3084.69
300.366	3092.69
300.597	3212.69
300.827	3244.69
301.057	3337.69
301.288	3337.69
301.518	3279.69
301.748	3252.69
301.979	3361.69
302.209	3346.69
302.439	3339.69
302.669	3301.69
302.9	3261.69
303.13	3263.69
303.36	3303.69
303.59	3317.69
303.82	3383.69
304.051	3331.69
304.281	3287.69
304.511	3209.69
304.741	3235.69
304.971	3256.69
305.201	3219.69
305.431	3304.69
305.661	3247.69
305.891	3274.69
306.121	3223.69
306.352	3248.69
306.582	3299.69
306.812	3200.69
307.042	3221.69
307.272	3236.69
307.502	3276.69
307.731	3240.69
307.961	3277.69
308.191	3273.69
308.421	3265.69
308.651	3310.69
308.881	3244.69
309.111	3325.69
309.341	3282.69
309.571	3431.69
309.8	3437.69
310.03	3484.69
310.26	3461.69
310.49	3534.69
310.72	3587.69
310.949	3651.69
311.179	3630.69
311.409	3594.69
311.639	3604.69
311.868	3542.69
312.098	3560.69
312.328	3698.69
312.557	3819.69
312.787	3796.69
313.017	3813.69
313.246	3756.69
313.476	3591.69
313.706	3663.69
313.935	3756.69
314.165	3782.69
314.394	3871.69
314.624	3831.69
314.853	3788.69
315.083	3742.69
315.312	3706.69
315.542	3693.69
315.771	3666.69
316.001	3665.69
316.23	3610.69
316.46	3587.69
316.689	3698.69
316.919	3679.69
317.148	3741.69
317.377	3709.69
317.607	3656.69
317.836	3645.69
318.065	3648.69
318.295	3552.69
318.524	3602.69
318.753	3598.69
318.983	3628.69
319.212	3638.69
319.441	3759.69
319.67	3736.69
319.9	3643.69
320.129	3685.69
320.358	3644.69
320.587	3679.69
320.816	3738.69
321.046	3806.69
321.275	3792.69
321.504	3733.69
321.733	3788.69
321.962	3892.69
322.191	3971.69
322.42	3990.69
322.649	4114.69
322.878	4128.69
323.108	4162.69
323.337	4412.69
323.566	4549.69
323.795	4714.69
324.024	5191.69
324.253	6655.69
324.482	9533.69
324.71	14058.69
324.939	15616.69
325.168	10514.69
325.397	6056.69
325.626	5053.69
325.855	4772.69
326.084	4706.69
326.313	4655.69
326.542	4729.69
326.77	5330.69
326.999	6447.69
327.228	9077.69
327.457	13037.69
327.686	12165.69
327.914	6963.69
328.143	5838.69
328.372	5665.69
328.6	5295.69
328.829	5143.69
329.058	5315.69
329.287	5258.69
329.515	5124.69
329.744	5150.69
329.972	5467.69
330.201	5920.69
330.43	6168.69
330.658	5907.69
330.887	5773.69
331.115	5332.69
331.344	5000.69
331.572	4894.69
331.801	5002.69
332.03	5036.69
332.258	5036.69
332.486	5053.69
332.715	5250.69
332.943	5356.69
333.172	5551.69
333.4	5682.69
333.629	6004.69
333.857	6260.69
334.085	6581.69
334.314	6983.69
334.542	7566.69
334.771	7176.69
334.999	6070.69
335.227	5609.69
335.455	5431.69
335.684	5241.69
335.912	5104.69
336.14	5022.69
336.369	5022.69
336.597	5054.69
336.825	4983.69
337.053	4931.69
337.281	4760.69
337.51	4756.69
337.738	4689.69
337.966	4701.69
338.194	4677.69
338.422	4584.69
338.65	4523.69
338.878	4523.69
339.106	4436.69
339.334	4522.69
339.562	4402.69
339.79	4350.69
340.018	4350.69
340.246	4352.69
340.474	4338.69
340.702	4365.69
340.93	4376.69
341.158	4358.69
341.386	4324.69
341.614	4326.69
341.842	4279.69
342.07	4226.69
342.298	4257.69
342.526	4275.69
342.754	4263.69
342.981	4245.69
343.209	4367.69
343.437	4676.69
343.665	4884.69
343.893	5258.69
344.12	5156.69
344.348	4905.69
344.576	4706.69
344.804	4642.69
345.031	4579.69
345.259	4521.69
345.487	4341.69
345.714	4281.69
345.942	4227.69
346.17	4168.69
346.397	4170.69
346.625	4198.69
346.853	4147.69
347.08	4144.69
347.308	4150.69
347.535	4257.69
347.763	4258.69
347.99	4188.69
348.218	4200.69
348.445	4216.69
348.673	4219.69
348.9	4111.69
349.128	4031.69
349.355	4014.69
349.583	4040.69
349.81	4065.69
350.037	3974.69
350.265	4043.69
350.492	4034.69
350.72	4035.69
350.947	4025.69
351.174	4112.69
351.402	4155.69
351.629	4074.69
351.856	4078.69
352.083	4108.69
352.311	4189.69
352.538	4138.69
352.765	4098.69
352.992	4025.69
353.22	4052.69
353.447	4061.69
353.674	3927.69
353.901	3923.69
354.128	3900.69
354.355	3906.69
354.583	3909.69
354.81	3916.69
355.037	3872.69
355.264	3930.69
355.491	3950.69
355.718	3999.69
355.945	3856.69
356.172	3970.69
356.399	3960.69
356.626	3929.69
356.853	3954.69
357.08	3881.69
357.307	3908.69
357.534	3957.69
357.761	3968.69
357.988	3913.69
358.215	3959.69
358.441	3934.69
358.668	3963.69
358.895	3971.69
359.122	4042.69
359.349	4158.69
359.576	4230.69
359.802	4355.69
360.029	4448.69
360.256	4490.69
360.483	4265.69
360.709	4155.69
360.936	4095.69
361.163	4144.69
361.39	4197.69
361.616	4098.69
361.843	4106.69
362.07	4120.69
362.296	4114.69
362.523	4132.69
362.749	4066.69
362.976	4072.69
363.203	4009.69
363.429	3950.69
363.656	4031.69
363.882	3953.69
364.109	3985.69
364.335	3997.69
364.562	4025.69
364.788	3963.69
365.015	4001.69
365.241	3968.69
365.468	4114.69
365.694	4114.69
365.92	4056.69
366.147	4014.69
366.373	4015.69
366.599	3952.69
366.826	3976.69
367.052	3994.69
367.278	3980.69
367.505	4035.69
367.731	4016.69
367.957	3950.69
368.184	4012.69
368.41	4156.69
368.636	4190.69
368.862	4200.69
369.089	4178.69
369.315	4063.69
369.541	4081.69
369.767	4144.69
369.993	4200.69
370.219	4091.69
370.445	4138.69
370.672	4228.69
370.898	4220.69
371.124	4203.69
371.35	4315.69
371.576	4270.69
371.802	4212.69
372.028	4265.69
372.254	4287.69
372.48	4368.69
372.706	4419.69
372.932	4432.69
373.158	4394.69
373.384	4362.69
373.61	4253.69
373.835	4292.69
374.061	4381.69
374.287	4365.69
374.513	4445.69
374.739	4635.69
374.965	4682.69
375.191	4736.69
375.416	4632.69
375.642	4510.69
375.868	4428.69
376.094	4413.69
376.319	4341.69
376.545	4347.69
376.771	4401.69
376.997	4256.69
377.222	4360.69
377.448	4287.69
377.674	4303.69
377.899	4240.69
378.125	4236.69
378.35	4277.69
378.576	4229.69
378.802	4187.69
379.027	4197.69
379.253	4256.69
379.478	4197.69
379.704	4306.69
379.929	4262.69
380.155	4292.69
380.38	4265.69
380.606	4248.69
380.831	4213.69
381.057	4295.69
381.282	4311.69
381.507	4338.69
381.733	4361.69
381.958	4342.69
382.184	4473.69
382.409	4525.69
382.634	4535.69
382.86	4546.69
383.085	4614.69
383.31	4694.69
383.535	4709.69
383.761	4805.69
383.986	4835.69
384.211	4950.69
384.436	4978.69
384.662	5090.69
384.887	5170.69
385.112	5076.69
385.337	5181.69
385.562	5278.69
385.787	5266.69
386.013	5234.69
386.238	5316.69
386.463	5251.69
386.688	5278.69
386.913	5117.69
387.138	5137.69
387.363	5222.69
387.588	5080.69
387.813	5138.69
388.038	5092.69
388.263	5144.69
388.488	5174.69
388.713	5161.69
388.938	5147.69
389.163	5110.69
389.387	5091.69
389.612	5020.69
389.837	5046.69
390.062	4967.69
390.287	5081.69
390.512	5088.69
390.736	5098.69
390.961	5254.69
391.186	5315.69
391.411	5395.69
391.636	5612.69
391.86	5760.69
392.085	5878.69
392.31	5736.69
392.534	5601.69
392.759	5519.69
392.984	5422.69
393.208	5318.69
393.433	5405.69
393.658	5363.69
393.882	5414.69
394.107	5406.69
394.331	5452.69
394.556	5461.69
394.78	5464.69
395.005	5466.69
395.229	5520.69
395.454	5789.69
395.678	5874.69
395.903	5811.69
396.127	5841.69
396.352	5582.69
396.576	5483.69
396.801	5444.69
397.025	5598.69
397.249	5728.69
397.474	5883.69
397.698	5750.69
397.922	5934.69
398.147	6018.69
398.371	6152.69
398.595	6276.69
398.82	6631.69
399.044	7218.69
399.268	7968.69
399.492	9137.69
399.717	9794.69
399.941	9436.69
400.165	8707.69
400.389	8009.69
400.613	7249.69
400.837	6854.69
401.062	6698.69
401.286	6594.69
401.51	6487.69
401.734	6513.69
401.958	6653.69
402.182	6753.69
402.406	6818.69
402.63	6972.69
402.854	7047.69
403.078	7154.69
403.302	7277.69
403.526	7388.69
403.75	7431.69
403.974	7551.69
404.198	7541.69
404.422	7583.69
404.645	7530.69
404.869	7608.69
405.093	7919.69
405.317	8137.69
405.541	8134.69
405.765	7562.69
405.988	7435.69
406.212	7506.69
406.436	7649.69
406.66	7706.69
406.883	7691.69
407.107	8373.69
407.331	8892.69
407.555	9254.69
407.778	8951.69
408.002	8216.69
408.226	7908.69
408.449	7796.69
408.673	7576.69
408.896	7718.69
409.12	7762.69
409.344	7524.69
409.567	7172.69
409.791	7140.69
410.014	7073.69
410.238	6959.69
410.461	7005.69
410.685	7037.69
410.908	7160.69
411.132	7348.69
411.355	7386.69
411.578	6950.69
411.802	6765.69
412.025	6852.69
412.249	7142.69
412.472	7428.69
412.695	7699.69
412.919	7110.69
413.142	6834.69
413.365	6696.69
413.589	6635.69
413.812	6515.69
414.035	6337.69
414.258	6428.69
414.482	6541.69
414.705	6550.69
414.928	6537.69
415.151	6459.69
415.374	6414.69
415.597	6342.69
415.821	6268.69
416.044	6249.69
416.267	6306.69
416.49	6174.69
416.713	6215.69
416.936	6362.69
417.159	6333.69
417.382	6443.69
417.605	6415.69
417.828	6591.69
418.051	6663.69
418.274	6466.69
418.497	6514.69
418.72	6583.69
418.943	6572.69
419.166	6953.69
419.389	7446.69
419.611	7147.69
419.834	6934.69
420.057	6982.69
420.28	7028.69
420.503	6751.69
420.726	6688.69
420.948	6717.69
421.171	6947.69
421.394	6962.69
421.617	6559.69
421.839	6596.69
422.062	6600.69
422.285	6723.69
422.507	7272.69
422.73	7739.69
422.953	7212.69
423.175	6952.69
423.398	6954.69
423.621	6952.69
423.843	7138.69
424.066	7135.69
424.288	6989.69
424.511	7230.69
424.733	7600.69
424.956	7878.69
425.178	7549.69
425.401	7640.69
425.623	7551.69
425.846	6589.69
426.068	6550.69
426.291	6417.69
426.513	6371.69
426.735	6559.69
426.958	6925.69
427.18	7496.69
427.402	8388.69
427.625	8586.69
427.847	7577.69
428.069	7087.69
428.292	6438.69
428.514	6098.69
428.736	5992.69
428.958	6006.69
429.181	5758.69
429.403	5726.69
429.625	5823.69
429.847	6171.69
430.069	6552.69
430.292	6166.69
430.514	5740.69
430.736	5738.69
430.958	5695.69
431.18	5598.69
431.402	5610.69
431.624	5636.69
431.846	5688.69
432.068	5662.69
432.29	5777.69
432.512	5669.69
432.734	5812.69
432.956	5765.69
433.178	5782.69
433.4	5758.69
433.622	5779.69
433.844	5721.69
434.066	5768.69
434.287	5818.69
434.509	6088.69
434.731	6276.69
434.953	6455.69
435.175	6529.69
435.397	6530.69
435.618	6378.69
435.84	6805.69
436.062	7460.69
436.284	7346.69
436.505	6367.69
436.727	6062.69
436.949	5838.69
437.17	5769.69
437.392	5730.69
437.614	5864.69
437.835	6137.69
438.057	7036.69
438.278	7456.69
438.5	7402.69
438.721	8059.69
438.943	7206.69
439.165	6182.69
439.386	6023.69
439.608	6059.69
439.829	6255.69
440.05	6452.69
440.272	6763.69
440.493	6234.69
440.715	6038.69
440.936	5983.69
441.158	6087.69
441.379	6165.69
441.6	6525.69
441.822	6657.69
442.043	7086.69
442.264	7690.69
442.486	7409.69
442.707	6764.69
442.928	6586.69
443.149	6821.69
443.371	6952.69
443.592	7440.69
443.813	8166.69
444.034	8209.69
444.255	7300.69
444.476	7248.69
444.698	7587.69
444.919	7481.69
445.14	7382.69
445.361	7088.69
445.582	7205.69
445.803	7646.69
446.024	8122.69
446.245	7720.69
446.466	7056.69
446.687	6248.69
446.908	5999.69
447.129	5691.69
447.35	5602.69
447.571	5511.69
447.792	5484.69
448.013	5571.69
448.234	5676.69
448.455	6314.69
448.675	7224.69
448.896	7562.69
449.117	6388.69
449.338	6570.69
449.559	7702.69
449.779	7720.69
450	6150.69
450.221	5511.69
450.442	5335.69
450.662	5335.69
450.883	5453.69
451.104	5497.69
451.324	5358.69
451.545	5199.69
451.766	5174.69
451.986	5064.69
452.207	5026.69
452.428	5028.69
452.648	5068.69
452.869	5025.69
453.089	5055.69
453.31	5118.69
453.53	5051.69
453.751	4936.69
453.971	5009.69
454.192	5086.69
454.412	4902.69
454.633	4835.69
454.853	4862.69
455.073	4857.69
455.294	5199.69
455.514	5596.69
455.734	5135.69
455.955	4730.69
456.175	4649.69
456.395	4672.69
456.616	4619.69
456.836	4644.69
457.056	4644.69
457.276	4523.69
457.497	4686.69
457.717	4654.69
457.937	4762.69
458.157	4773.69
458.377	4873.69
458.598	5186.69
458.818	5846.69
459.038	6412.69
459.258	6391.69
459.478	5863.69
459.698	5775.69
459.918	5925.69
460.138	6050.69
460.358	6277.69
460.578	6361.69
460.798	6409.69
461.018	6454.69
461.238	6261.69
461.458	6306.69
461.678	6223.69
461.898	6440.69
462.118	6363.69
462.338	6742.69
462.558	7044.69
462.777	7185.69
462.997	7854.69
463.217	8315.69
463.437	7974.69
463.657	7484.69
463.876	7190.69
464.096	7147.69
464.316	7218.69
464.536	7263.69
464.755	6976.69
464.975	6903.69
465.195	6914.69
465.414	6822.69
465.634	6150.69
465.854	5838.69
466.073	5637.69
466.293	5449.69
466.512	5289.69
466.732	5201.69
466.951	5247.69
467.171	5200.69
467.391	5300.69
467.61	5279.69
467.829	5332.69
468.049	5409.69
468.268	5412.69
468.488	5123.69
468.707	5067.69
468.927	5063.69
469.146	5024.69
469.365	5060.69
469.585	5104.69
469.804	5220.69
470.023	5391.69
470.243	5398.69
470.462	5481.69
470.681	5624.69
470.901	5501.69
471.12	5380.69
471.339	5352.69
471.558	5363.69
471.777	5221.69
471.997	5241.69
472.216	5596.69
472.435	6253.69
472.654	5640.69
472.873	5288.69
473.092	5158.69
473.311	5133.69
473.53	5087.69
473.749	5180.69
473.968	5501.69
474.187	6402.69
474.406	5941.69
474.625	5242.69
474.844	5090.69
475.063	5021.69
475.282	5039.69
475.501	5135.69
475.72	5142.69
475.939	5136.69
476.158	5194.69
476.377	5243.69
476.596	5254.69
476.814	5408.69
477.033	5436.69
477.252	5449.69
477.471	5577.69
477.69	5743.69
477.908	5791.69
478.127	5994.69
478.346	6018.69
478.564	6104.69
478.783	6200.69
479.002	6402.69
479.22	6410.69
479.439	6399.69
479.658	6484.69
479.876	6594.69
480.095	6855.69
480.313	7130.69
480.532	7128.69
480.751	7101.69
480.969	7388.69
481.188	8784.69
481.406	8399.69
481.624	7099.69
481.843	6554.69
482.061	6460.69
482.28	6232.69
482.498	6196.69
482.717	6040.69
482.935	6064.69
483.153	5954.69
483.372	5936.69
483.59	5923.69
483.808	5946.69
484.027	5911.69
484.245	5991.69
484.463	5958.69
484.681	6124.69
484.9	6051.69
485.118	6074.69
485.336	6161.69
485.554	6254.69
485.772	6320.69
485.99	6249.69
486.209	6311.69
486.427	6321.69
486.645	6357.69
486.863	6453.69
487.081	6425.69
487.299	6321.69
487.517	6345.69
487.735	6284.69
487.953	6245.69
