Data from Circ_1996_H10_HRD10591_00027.txt Node
Date: Wed Jan 03 11:33:11 EST 2024
User: Yrep
Spectrometer: HR+D1059
Trigger mode: 1
Integration Time (sec): 1.000000E-1
Scans to average: 1
Electric dark correction enabled: true
Nonlinearity correction enabled: false
Boxcar width: 0
XAxis mode: Wavelengths
Number of Pixels in Spectrum: 2048
>>>>>Begin Spectral Data<<<<<
223.165	-24.31
223.4	-24.31
223.635	-24.31
223.869	-18.31
224.104	-23.31
224.338	-6.31
224.573	-2.31
224.808	-12.31
225.042	-4.31
225.277	-18.31
225.511	-11.31
225.746	-3.31
225.98	13.69
226.215	21.69
226.449	15.69
226.683	25.69
226.918	20.69
227.152	26.69
227.387	27.69
227.621	45.69
227.856	54.69
228.09	63.69
228.324	51.69
228.559	45.69
228.793	62.69
229.027	65.69
229.262	63.69
229.496	81.69
229.73	82.69
229.964	73.69
230.199	75.69
230.433	72.69
230.667	70.69
230.901	72.69
231.136	72.69
231.37	77.69
231.604	92.69
231.838	83.69
232.072	90.69
232.306	77.69
232.541	69.69
232.775	93.69
233.009	75.69
233.243	78.69
233.477	80.69
233.711	80.69
233.945	79.69
234.179	76.69
234.413	84.69
234.647	68.69
234.881	71.69
235.115	75.69
235.349	90.69
235.583	83.69
235.817	77.69
236.051	83.69
236.285	74.69
236.519	60.69
236.753	79.69
236.987	83.69
237.221	83.69
237.455	86.69
237.689	68.69
237.922	77.69
238.156	86.69
238.39	81.69
238.624	68.69
238.858	86.69
239.091	60.69
239.325	78.69
239.559	90.69
239.793	91.69
240.027	88.69
240.26	75.69
240.494	85.69
240.728	71.69
240.961	86.69
241.195	84.69
241.429	74.69
241.662	60.69
241.896	81.69
242.13	85.69
242.363	79.69
242.597	82.69
242.83	80.69
243.064	77.69
243.298	91.69
243.531	75.69
243.765	73.69
243.998	86.69
244.232	88.69
244.465	82.69
244.699	79.69
244.932	75.69
245.166	82.69
245.399	104.69
245.633	74.69
245.866	75.69
246.099	90.69
246.333	81.69
246.566	67.69
246.8	83.69
247.033	99.69
247.266	86.69
247.5	88.69
247.733	72.69
247.966	89.69
248.2	88.69
248.433	79.69
248.666	85.69
248.899	89.69
249.133	85.69
249.366	90.69
249.599	96.69
249.832	85.69
250.066	94.69
250.299	75.69
250.532	67.69
250.765	79.69
250.998	82.69
251.231	92.69
251.465	75.69
251.698	82.69
251.931	86.69
252.164	78.69
252.397	79.69
252.63	79.69
252.863	91.69
253.096	81.69
253.329	82.69
253.562	88.69
253.795	78.69
254.028	84.69
254.261	74.69
254.494	76.69
254.727	83.69
254.96	82.69
255.193	81.69
255.426	78.69
255.659	79.69
255.892	72.69
256.124	64.69
256.357	75.69
256.59	84.69
256.823	91.69
257.056	84.69
257.289	93.69
257.521	89.69
257.754	68.69
257.987	70.69
258.22	88.69
258.452	86.69
258.685	79.69
258.918	82.69
259.151	88.69
259.383	93.69
259.616	74.69
259.849	88.69
260.081	88.69
260.314	91.69
260.547	70.69
260.779	94.69
261.012	78.69
261.244	86.69
261.477	83.69
261.71	89.69
261.942	111.69
262.175	100.69
262.407	75.69
262.64	93.69
262.872	81.69
263.105	73.69
263.337	87.69
263.57	78.69
263.802	102.69
264.035	81.69
264.267	75.69
264.499	74.69
264.732	89.69
264.964	81.69
265.197	81.69
265.429	86.69
265.661	82.69
265.894	87.69
266.126	91.69
266.358	93.69
266.591	74.69
266.823	95.69
267.055	77.69
267.287	77.69
267.52	87.69
267.752	74.69
267.984	89.69
268.216	74.69
268.448	95.69
268.681	78.69
268.913	100.69
269.145	95.69
269.377	83.69
269.609	90.69
269.841	83.69
270.073	88.69
270.306	81.69
270.538	84.69
270.77	86.69
271.002	93.69
271.234	88.69
271.466	83.69
271.698	92.69
271.93	88.69
272.162	91.69
272.394	83.69
272.626	83.69
272.858	74.69
273.09	82.69
273.322	80.69
273.553	88.69
273.785	105.69
274.017	68.69
274.249	90.69
274.481	86.69
274.713	76.69
274.945	85.69
275.176	87.69
275.408	82.69
275.64	82.69
275.872	83.69
276.104	79.69
276.335	94.69
276.567	93.69
276.799	95.69
277.031	98.69
277.262	98.69
277.494	81.69
277.726	95.69
277.957	90.69
278.189	95.69
278.421	91.69
278.652	84.69
278.884	86.69
279.115	93.69
279.347	79.69
279.579	86.69
279.81	86.69
280.042	97.69
280.273	97.69
280.505	78.69
280.736	88.69
280.968	82.69
281.199	94.69
281.431	86.69
281.662	77.69
281.894	96.69
282.125	99.69
282.356	99.69
282.588	138.69
282.819	109.69
283.051	86.69
283.282	80.69
283.513	90.69
283.745	94.69
283.976	91.69
284.207	91.69
284.439	87.69
284.67	88.69
284.901	91.69
285.132	91.69
285.364	98.69
285.595	78.69
285.826	77.69
286.057	83.69
286.288	84.69
286.52	87.69
286.751	72.69
286.982	88.69
287.213	78.69
287.444	82.69
287.675	90.69
287.906	92.69
288.138	92.69
288.369	88.69
288.6	93.69
288.831	94.69
289.062	100.69
289.293	94.69
289.524	87.69
289.755	90.69
289.986	84.69
290.217	74.69
290.448	91.69
290.679	79.69
290.91	90.69
291.141	83.69
291.371	77.69
291.602	106.69
291.833	78.69
292.064	86.69
292.295	86.69
292.526	98.69
292.757	88.69
292.987	84.69
293.218	84.69
293.449	98.69
293.68	86.69
293.91	92.69
294.141	89.69
294.372	91.69
294.603	81.69
294.833	88.69
295.064	88.69
295.295	95.69
295.525	73.69
295.756	92.69
295.987	115.69
296.217	152.69
296.448	104.69
296.679	94.69
296.909	92.69
297.14	106.69
297.37	87.69
297.601	82.69
297.831	90.69
298.062	90.69
298.292	103.69
298.523	75.69
298.753	85.69
298.984	83.69
299.214	95.69
299.445	92.69
299.675	94.69
299.905	109.69
300.136	82.69
300.366	75.69
300.597	82.69
300.827	86.69
301.057	114.69
301.288	109.69
301.518	100.69
301.748	95.69
301.979	102.69
302.209	98.69
302.439	96.69
302.669	99.69
302.9	94.69
303.13	88.69
303.36	84.69
303.59	106.69
303.82	101.69
304.051	80.69
304.281	91.69
304.511	100.69
304.741	79.69
304.971	79.69
305.201	89.69
305.431	82.69
305.661	92.69
305.891	94.69
306.121	86.69
306.352	93.69
306.582	95.69
306.812	90.69
307.042	90.69
307.272	80.69
307.502	109.69
307.731	99.69
307.961	93.69
308.191	92.69
308.421	91.69
308.651	99.69
308.881	76.69
309.111	94.69
309.341	104.69
309.571	114.69
309.8	92.69
310.03	81.69
310.26	79.69
310.49	100.69
310.72	92.69
310.949	109.69
311.179	93.69
311.409	86.69
311.639	84.69
311.868	104.69
312.098	88.69
312.328	88.69
312.557	91.69
312.787	93.69
313.017	92.69
313.246	102.69
313.476	93.69
313.706	105.69
313.935	84.69
314.165	99.69
314.394	86.69
314.624	113.69
314.853	97.69
315.083	88.69
315.312	89.69
315.542	88.69
315.771	80.69
316.001	93.69
316.23	87.69
316.46	90.69
316.689	78.69
316.919	83.69
317.148	106.69
317.377	104.69
317.607	104.69
317.836	86.69
318.065	92.69
318.295	83.69
318.524	98.69
318.753	90.69
318.983	101.69
319.212	104.69
319.441	105.69
319.67	94.69
319.9	91.69
320.129	100.69
320.358	97.69
320.587	110.69
320.816	105.69
321.046	101.69
321.275	97.69
321.504	95.69
321.733	105.69
321.962	89.69
322.191	99.69
322.42	87.69
322.649	91.69
322.878	105.69
323.108	110.69
323.337	116.69
323.566	120.69
323.795	142.69
324.024	183.69
324.253	310.69
324.482	617.69
324.71	1218.69
324.939	1558.69
325.168	586.69
325.397	203.69
325.626	139.69
325.855	119.69
326.084	114.69
326.313	120.69
326.542	146.69
326.77	181.69
326.999	352.69
327.228	654.69
327.457	1170.69
327.686	938.69
327.914	280.69
328.143	180.69
328.372	164.69
328.6	113.69
328.829	126.69
329.058	118.69
329.287	128.69
329.515	89.69
329.744	105.69
329.972	117.69
330.201	156.69
330.43	181.69
330.658	121.69
330.887	123.69
331.115	124.69
331.344	103.69
331.572	103.69
331.801	103.69
332.03	93.69
332.258	96.69
332.486	103.69
332.715	86.69
332.943	89.69
333.172	90.69
333.4	91.69
333.629	90.69
333.857	110.69
334.085	115.69
334.314	154.69
334.542	216.69
334.771	200.69
334.999	111.69
335.227	94.69
335.455	105.69
335.684	104.69
335.912	102.69
336.14	103.69
336.369	90.69
336.597	109.69
336.825	100.69
337.053	92.69
337.281	104.69
337.51	95.69
337.738	92.69
337.966	94.69
338.194	100.69
338.422	110.69
338.65	96.69
338.878	95.69
339.106	93.69
339.334	95.69
339.562	95.69
339.79	94.69
340.018	89.69
340.246	98.69
340.474	85.69
340.702	88.69
340.93	91.69
341.158	89.69
341.386	95.69
341.614	95.69
341.842	107.69
342.07	104.69
342.298	95.69
342.526	77.69
342.754	97.69
342.981	97.69
343.209	94.69
343.437	85.69
343.665	97.69
343.893	91.69
344.12	90.69
344.348	94.69
344.576	106.69
344.804	98.69
345.031	89.69
345.259	102.69
345.487	97.69
345.714	82.69
345.942	99.69
346.17	87.69
346.397	96.69
346.625	106.69
346.853	101.69
347.08	90.69
347.308	106.69
347.535	108.69
347.763	104.69
347.99	99.69
348.218	91.69
348.445	94.69
348.673	90.69
348.9	92.69
349.128	92.69
349.355	87.69
349.583	87.69
349.81	114.69
350.037	80.69
350.265	92.69
350.492	91.69
350.72	91.69
350.947	95.69
351.174	120.69
351.402	102.69
351.629	103.69
351.856	95.69
352.083	112.69
352.311	110.69
352.538	103.69
352.765	111.69
352.992	117.69
353.22	110.69
353.447	106.69
353.674	108.69
353.901	95.69
354.128	79.69
354.355	111.69
354.583	97.69
354.81	91.69
355.037	105.69
355.264	84.69
355.491	99.69
355.718	91.69
355.945	95.69
356.172	109.69
356.399	92.69
356.626	99.69
356.853	109.69
357.08	102.69
357.307	90.69
357.534	90.69
357.761	96.69
357.988	101.69
358.215	94.69
358.441	92.69
358.668	106.69
358.895	91.69
359.122	82.69
359.349	88.69
359.576	89.69
359.802	83.69
360.029	91.69
360.256	107.69
360.483	112.69
360.709	91.69
360.936	93.69
361.163	76.69
361.39	80.69
361.616	104.69
361.843	98.69
362.07	99.69
362.296	100.69
362.523	93.69
362.749	96.69
362.976	92.69
363.203	100.69
363.429	82.69
363.656	83.69
363.882	96.69
364.109	84.69
364.335	89.69
364.562	87.69
364.788	92.69
365.015	94.69
365.241	88.69
365.468	103.69
365.694	98.69
365.92	86.69
366.147	91.69
366.373	95.69
366.599	90.69
366.826	83.69
367.052	86.69
367.278	97.69
367.505	94.69
367.731	94.69
367.957	100.69
368.184	77.69
368.41	80.69
368.636	100.69
368.862	101.69
369.089	107.69
369.315	94.69
369.541	97.69
369.767	89.69
369.993	89.69
370.219	98.69
370.445	85.69
370.672	86.69
370.898	84.69
371.124	89.69
371.35	97.69
371.576	88.69
371.802	76.69
372.028	87.69
372.254	79.69
372.48	96.69
372.706	100.69
372.932	84.69
373.158	96.69
373.384	91.69
373.61	82.69
373.835	82.69
374.061	79.69
374.287	96.69
374.513	76.69
374.739	91.69
374.965	86.69
375.191	86.69
375.416	99.69
375.642	101.69
375.868	98.69
376.094	83.69
376.319	87.69
376.545	102.69
376.771	99.69
376.997	102.69
377.222	97.69
377.448	93.69
377.674	86.69
377.899	88.69
378.125	93.69
378.35	98.69
378.576	89.69
378.802	89.69
379.027	99.69
379.253	104.69
379.478	91.69
379.704	95.69
379.929	82.69
380.155	100.69
380.38	83.69
380.606	99.69
380.831	85.69
381.057	103.69
381.282	90.69
381.507	89.69
381.733	88.69
381.958	97.69
382.184	86.69
382.409	116.69
382.634	109.69
382.86	88.69
383.085	116.69
383.31	105.69
383.535	97.69
383.761	97.69
383.986	111.69
384.211	97.69
384.436	107.69
384.662	104.69
384.887	103.69
385.112	113.69
385.337	110.69
385.562	119.69
385.787	119.69
386.013	108.69
386.238	115.69
386.463	95.69
386.688	111.69
386.913	103.69
387.138	111.69
387.363	98.69
387.588	94.69
387.813	103.69
388.038	111.69
388.263	115.69
388.488	121.69
388.713	96.69
388.938	97.69
389.163	100.69
389.387	98.69
389.612	100.69
389.837	100.69
390.062	99.69
390.287	93.69
390.512	81.69
390.736	87.69
390.961	94.69
391.186	79.69
391.411	88.69
391.636	102.69
391.86	82.69
392.085	101.69
392.31	90.69
392.534	106.69
392.759	96.69
392.984	97.69
393.208	92.69
393.433	100.69
393.658	101.69
393.882	85.69
394.107	100.69
394.331	85.69
394.556	95.69
394.78	89.69
395.005	83.69
395.229	93.69
395.454	94.69
395.678	90.69
395.903	96.69
396.127	87.69
396.352	104.69
396.576	98.69
396.801	107.69
397.025	99.69
397.249	83.69
397.474	87.69
397.698	80.69
397.922	94.69
398.147	83.69
398.371	74.69
398.595	82.69
398.82	93.69
399.044	79.69
399.268	76.69
399.492	94.69
399.717	89.69
399.941	94.69
400.165	86.69
400.389	80.69
400.613	82.69
400.837	95.69
401.062	82.69
401.286	91.69
401.51	97.69
401.734	93.69
401.958	112.69
402.182	127.69
402.406	158.69
402.63	118.69
402.854	106.69
403.078	100.69
403.302	78.69
403.526	88.69
403.75	89.69
403.974	84.69
404.198	83.69
404.422	94.69
404.645	86.69
404.869	98.69
405.093	83.69
405.317	87.69
405.541	82.69
405.765	95.69
405.988	105.69
406.212	166.69
406.436	204.69
406.66	131.69
406.883	85.69
407.107	76.69
407.331	79.69
407.555	107.69
407.778	104.69
408.002	84.69
408.226	99.69
408.449	81.69
408.673	91.69
408.896	91.69
409.12	99.69
409.344	86.69
409.567	90.69
409.791	75.69
410.014	95.69
410.238	90.69
410.461	96.69
410.685	99.69
410.908	91.69
411.132	103.69
411.355	113.69
411.578	96.69
411.802	98.69
412.025	88.69
412.249	97.69
412.472	88.69
412.695	91.69
412.919	88.69
413.142	78.69
413.365	83.69
413.589	90.69
413.812	71.69
414.035	85.69
414.258	89.69
414.482	90.69
414.705	86.69
414.928	90.69
415.151	84.69
415.374	83.69
415.597	85.69
415.821	80.69
416.044	94.69
416.267	88.69
416.49	98.69
416.713	93.69
416.936	99.69
417.159	89.69
417.382	86.69
417.605	87.69
417.828	84.69
418.051	100.69
418.274	89.69
418.497	88.69
418.72	83.69
418.943	91.69
419.166	90.69
419.389	95.69
419.611	92.69
419.834	95.69
420.057	89.69
420.28	64.69
420.503	109.69
420.726	98.69
420.948	83.69
421.171	82.69
421.394	80.69
421.617	77.69
421.839	84.69
422.062	87.69
422.285	98.69
422.507	103.69
422.73	97.69
422.953	108.69
423.175	93.69
423.398	85.69
423.621	104.69
423.843	85.69
424.066	78.69
424.288	79.69
424.511	96.69
424.733	95.69
424.956	106.69
425.178	99.69
425.401	95.69
425.623	72.69
425.846	105.69
426.068	86.69
426.291	90.69
426.513	98.69
426.735	103.69
426.958	84.69
427.18	92.69
427.402	119.69
427.625	155.69
427.847	121.69
428.069	104.69
428.292	87.69
428.514	78.69
428.736	79.69
428.958	84.69
429.181	81.69
429.403	78.69
429.625	72.69
429.847	92.69
430.069	103.69
430.292	89.69
430.514	86.69
430.736	91.69
430.958	90.69
431.18	75.69
431.402	97.69
431.624	76.69
431.846	87.69
432.068	80.69
432.29	81.69
432.512	76.69
432.734	83.69
432.956	87.69
433.178	80.69
433.4	90.69
433.622	81.69
433.844	88.69
434.066	79.69
434.287	78.69
434.509	86.69
434.731	88.69
434.953	82.69
435.175	96.69
435.397	93.69
435.618	95.69
435.84	77.69
436.062	106.69
436.284	106.69
436.505	99.69
436.727	84.69
436.949	80.69
437.17	92.69
437.392	82.69
437.614	83.69
437.835	92.69
438.057	112.69
438.278	93.69
438.5	100.69
438.721	101.69
438.943	100.69
439.165	91.69
439.386	89.69
439.608	100.69
439.829	99.69
440.05	126.69
440.272	127.69
440.493	93.69
440.715	83.69
440.936	93.69
441.158	80.69
441.379	88.69
441.6	92.69
441.822	93.69
442.043	88.69
442.264	90.69
442.486	96.69
442.707	100.69
442.928	105.69
443.149	123.69
443.371	127.69
443.592	107.69
443.813	100.69
444.034	91.69
444.255	103.69
444.476	90.69
444.698	80.69
444.919	92.69
445.14	132.69
445.361	110.69
445.582	114.69
445.803	116.69
446.024	113.69
446.245	120.69
446.466	99.69
446.687	96.69
446.908	88.69
447.129	86.69
447.35	72.69
447.571	85.69
447.792	96.69
448.013	82.69
448.234	100.69
448.455	95.69
448.675	99.69
448.896	83.69
449.117	85.69
449.338	93.69
449.559	106.69
449.779	113.69
450	94.69
450.221	77.69
450.442	76.69
450.662	99.69
450.883	104.69
451.104	105.69
451.324	88.69
451.545	88.69
451.766	100.69
451.986	89.69
452.207	81.69
452.428	85.69
452.648	94.69
452.869	107.69
453.089	110.69
453.31	101.69
453.53	86.69
453.751	79.69
453.971	94.69
454.192	98.69
454.412	82.69
454.633	90.69
454.853	75.69
455.073	78.69
455.294	75.69
455.514	96.69
455.734	82.69
455.955	81.69
456.175	81.69
456.395	80.69
456.616	93.69
456.836	88.69
457.056	92.69
457.276	77.69
457.497	86.69
457.717	90.69
457.937	67.69
458.157	94.69
458.377	71.69
458.598	91.69
458.818	136.69
459.038	131.69
459.258	103.69
459.478	77.69
459.698	79.69
459.918	84.69
460.138	73.69
460.358	79.69
460.578	80.69
460.798	76.69
461.018	96.69
461.238	87.69
461.458	74.69
461.678	97.69
461.898	94.69
462.118	84.69
462.338	72.69
462.558	84.69
462.777	91.69
462.997	86.69
463.217	89.69
463.437	88.69
463.657	99.69
463.876	90.69
464.096	100.69
464.316	93.69
464.536	95.69
464.755	85.69
464.975	120.69
465.195	158.69
465.414	148.69
465.634	100.69
465.854	87.69
466.073	82.69
466.293	78.69
466.512	66.69
466.732	100.69
466.951	97.69
467.171	99.69
467.391	100.69
467.61	119.69
467.829	106.69
468.049	114.69
468.268	120.69
468.488	100.69
468.707	77.69
468.927	89.69
469.146	92.69
469.365	106.69
469.585	98.69
469.804	108.69
470.023	87.69
470.243	91.69
470.462	98.69
470.681	97.69
470.901	91.69
471.12	102.69
471.339	105.69
471.558	82.69
471.777	88.69
471.997	103.69
472.216	157.69
472.435	237.69
472.654	115.69
472.873	97.69
473.092	91.69
473.311	73.69
473.53	83.69
473.749	84.69
473.968	94.69
474.187	94.69
474.406	99.69
474.625	75.69
474.844	82.69
475.063	84.69
475.282	83.69
475.501	87.69
475.72	87.69
475.939	87.69
476.158	97.69
476.377	95.69
476.596	79.69
476.814	87.69
477.033	80.69
477.252	90.69
477.471	85.69
477.69	72.69
477.908	85.69
478.127	89.69
478.346	107.69
478.564	110.69
478.783	96.69
479.002	92.69
479.22	106.69
479.439	110.69
479.658	109.69
479.876	92.69
480.095	83.69
480.313	96.69
480.532	87.69
480.751	93.69
480.969	170.69
481.188	390.69
481.406	242.69
481.624	95.69
481.843	89.69
482.061	106.69
482.28	90.69
482.498	88.69
482.717	82.69
482.935	87.69
483.153	75.69
483.372	87.69
483.59	85.69
483.808	86.69
484.027	78.69
484.245	102.69
484.463	92.69
484.681	90.69
484.9	86.69
485.118	94.69
485.336	102.69
485.554	94.69
485.772	95.69
485.99	97.69
486.209	100.69
486.427	108.69
486.645	112.69
486.863	116.69
487.081	105.69
487.299	91.69
487.517	97.69
487.735	94.69
487.953	84.69
488.171	82.69
488.389	89.69
488.607	88.69
488.825	87.69
489.043	87.69
489.261	95.69
489.479	83.69
489.696	88.69
489.914	103.69
490.132	75.69
490.35	91.69
490.568	78.69
490.786	83.69
491.003	101.69
491.221	91.69
491.439	92.69
491.657	82.69
491.874	93.69
492.092	82.69
492.31	100.69
492.527	90.69
492.745	83.69
492.963	95.69
493.18	102.69
493.398	96.69
493.615	110.69
493.833	80.69
494.05	80.69
494.268	91.69
494.485	82.69
494.703	88.69
494.92	81.69
495.138	104.69
495.355	95.69
495.573	95.69
495.79	89.69
496.008	86.69
496.225	92.69
496.442	86.69
496.66	86.69
496.877	100.69
497.094	88.69
497.312	104.69
497.529	91.69
497.746	88.69
497.963	91.69
498.181	92.69
498.398	94.69
498.615	111.69
498.832	97.69
499.049	98.69
499.267	90.69
499.484	94.69
499.701	101.69
499.918	97.69
500.135	97.69
500.352	87.69
500.569	89.69
500.786	100.69
501.003	106.69
501.22	107.69
501.437	79.69
501.654	88.69
501.871	99.69
502.088	90.69
502.305	91.69
502.522	98.69
502.739	89.69
502.956	75.69
503.172	88.69
503.389	99.69
503.606	103.69
503.823	103.69
504.04	90.69
504.256	86.69
504.473	79.69
504.69	97.69
504.907	81.69
505.123	77.69
505.34	91.69
505.557	87.69
505.773	81.69
505.99	94.69
506.207	96.69
506.423	96.69
506.64	79.69
506.856	89.69
507.073	83.69
507.289	89.69
507.506	96.69
507.722	112.69
507.939	114.69
508.155	93.69
508.372	77.69
508.588	84.69
508.805	90.69
509.021	91.69
509.238	98.69
509.454	86.69
509.67	92.69
509.887	110.69
510.103	129.69
510.319	207.69
510.536	731.69
510.752	2385.69
510.968	644.69
511.184	156.69
511.401	121.69
511.617	100.69
511.833	93.69
512.049	90.69
512.265	90.69
512.481	88.69
512.698	106.69
512.914	99.69
513.13	95.69
513.346	93.69
513.562	93.69
513.778	98.69
513.994	91.69
514.21	93.69
514.426	113.69
514.642	121.69
514.858	107.69
515.074	150.69
515.29	404.69
515.506	1322.69
515.721	468.69
