Data from Circ_1996_H10_HRD10591_00040.txt Node
Date: Wed Jan 03 11:33:14 EST 2024
User: Yrep
Spectrometer: HR+D1059
Trigger mode: 1
Integration Time (sec): 1.000000E-1
Scans to average: 1
Electric dark correction enabled: true
Nonlinearity correction enabled: false
Boxcar width: 0
XAxis mode: Wavelengths
Number of Pixels in Spectrum: 2048
>>>>>Begin Spectral Data<<<<<
223.165	-28.94
223.4	-28.94
223.635	-28.94
223.869	-17.94
224.104	-16.94
224.338	-13.94
224.573	-11.94
224.808	-11.94
225.042	-1.94
225.277	-0.94
225.511	-23.94
225.746	-8.94
225.98	5.06
226.215	19.06
226.449	26.06
226.683	11.06
226.918	29.06
227.152	47.06
227.387	32.06
227.621	37.06
227.856	33.06
228.09	44.06
228.324	36.06
228.559	58.06
228.793	70.06
229.027	59.06
229.262	58.06
229.496	66.06
229.73	86.06
229.964	75.06
230.199	77.06
230.433	68.06
230.667	66.06
230.901	78.06
231.136	77.06
231.37	86.06
231.604	82.06
231.838	66.06
232.072	89.06
232.306	78.06
232.541	78.06
232.775	79.06
233.009	87.06
233.243	73.06
233.477	77.06
233.711	78.06
233.945	82.06
234.179	76.06
234.413	65.06
234.647	87.06
234.881	77.06
235.115	58.06
235.349	73.06
235.583	74.06
235.817	80.06
236.051	81.06
236.285	65.06
236.519	78.06
236.753	71.06
236.987	86.06
237.221	92.06
237.455	75.06
237.689	77.06
237.922	74.06
238.156	67.06
238.39	82.06
238.624	69.06
238.858	75.06
239.091	81.06
239.325	85.06
239.559	87.06
239.793	84.06
240.027	82.06
240.26	75.06
240.494	72.06
240.728	79.06
240.961	68.06
241.195	82.06
241.429	72.06
241.662	71.06
241.896	79.06
242.13	80.06
242.363	68.06
242.597	75.06
242.83	77.06
243.064	70.06
243.298	65.06
243.531	62.06
243.765	82.06
243.998	79.06
244.232	74.06
244.465	77.06
244.699	80.06
244.932	64.06
245.166	81.06
245.399	74.06
245.633	79.06
245.866	82.06
246.099	87.06
246.333	73.06
246.566	65.06
246.8	84.06
247.033	82.06
247.266	85.06
247.5	84.06
247.733	61.06
247.966	71.06
248.2	80.06
248.433	73.06
248.666	83.06
248.899	89.06
249.133	80.06
249.366	91.06
249.599	80.06
249.832	82.06
250.066	87.06
250.299	81.06
250.532	77.06
250.765	76.06
250.998	70.06
251.231	105.06
251.465	81.06
251.698	74.06
251.931	78.06
252.164	83.06
252.397	85.06
252.63	77.06
252.863	78.06
253.096	63.06
253.329	76.06
253.562	75.06
253.795	72.06
254.028	82.06
254.261	70.06
254.494	67.06
254.727	85.06
254.96	83.06
255.193	77.06
255.426	87.06
255.659	82.06
255.892	81.06
256.124	79.06
256.357	81.06
256.59	86.06
256.823	82.06
257.056	77.06
257.289	90.06
257.521	84.06
257.754	94.06
257.987	75.06
258.22	92.06
258.452	82.06
258.685	85.06
258.918	77.06
259.151	80.06
259.383	66.06
259.616	69.06
259.849	93.06
260.081	75.06
260.314	83.06
260.547	84.06
260.779	87.06
261.012	81.06
261.244	81.06
261.477	83.06
261.71	89.06
261.942	114.06
262.175	116.06
262.407	93.06
262.64	80.06
262.872	85.06
263.105	78.06
263.337	78.06
263.57	84.06
263.802	101.06
264.035	76.06
264.267	80.06
264.499	82.06
264.732	96.06
264.964	78.06
265.197	94.06
265.429	88.06
265.661	77.06
265.894	73.06
266.126	77.06
266.358	76.06
266.591	89.06
266.823	80.06
267.055	68.06
267.287	95.06
267.52	80.06
267.752	82.06
267.984	79.06
268.216	82.06
268.448	69.06
268.681	79.06
268.913	95.06
269.145	78.06
269.377	82.06
269.609	97.06
269.841	87.06
270.073	87.06
270.306	81.06
270.538	82.06
270.77	80.06
271.002	85.06
271.234	72.06
271.466	81.06
271.698	82.06
271.93	80.06
272.162	93.06
272.394	87.06
272.626	89.06
272.858	81.06
273.09	70.06
273.322	83.06
273.553	83.06
273.785	83.06
274.017	76.06
274.249	78.06
274.481	85.06
274.713	57.06
274.945	76.06
275.176	85.06
275.408	95.06
275.64	83.06
275.872	94.06
276.104	88.06
276.335	90.06
276.567	98.06
276.799	108.06
277.031	106.06
277.262	94.06
277.494	86.06
277.726	91.06
277.957	81.06
278.189	106.06
278.421	86.06
278.652	90.06
278.884	83.06
279.115	80.06
279.347	73.06
279.579	93.06
279.81	79.06
280.042	93.06
280.273	86.06
280.505	94.06
280.736	89.06
280.968	79.06
281.199	90.06
281.431	85.06
281.662	86.06
281.894	88.06
282.125	93.06
282.356	103.06
282.588	133.06
282.819	114.06
283.051	100.06
283.282	82.06
283.513	101.06
283.745	89.06
283.976	94.06
284.207	81.06
284.439	84.06
284.67	105.06
284.901	71.06
285.132	82.06
285.364	93.06
285.595	77.06
285.826	93.06
286.057	85.06
286.288	91.06
286.52	80.06
286.751	75.06
286.982	89.06
287.213	89.06
287.444	92.06
287.675	86.06
287.906	79.06
288.138	90.06
288.369	87.06
288.6	90.06
288.831	61.06
289.062	105.06
289.293	85.06
289.524	79.06
289.755	96.06
289.986	89.06
290.217	74.06
290.448	83.06
290.679	89.06
290.91	86.06
291.141	83.06
291.371	93.06
291.602	88.06
291.833	83.06
292.064	89.06
292.295	78.06
292.526	90.06
292.757	100.06
292.987	89.06
293.218	81.06
293.449	93.06
293.68	86.06
293.91	100.06
294.141	99.06
294.372	81.06
294.603	81.06
294.833	99.06
295.064	75.06
295.295	106.06
295.525	102.06
295.756	103.06
295.987	113.06
296.217	125.06
296.448	112.06
296.679	97.06
296.909	96.06
297.14	86.06
297.37	76.06
297.601	75.06
297.831	83.06
298.062	92.06
298.292	88.06
298.523	86.06
298.753	78.06
298.984	76.06
299.214	83.06
299.445	93.06
299.675	81.06
299.905	88.06
300.136	97.06
300.366	112.06
300.597	102.06
300.827	83.06
301.057	98.06
301.288	99.06
301.518	69.06
301.748	90.06
301.979	97.06
302.209	87.06
302.439	87.06
302.669	86.06
302.9	79.06
303.13	80.06
303.36	84.06
303.59	106.06
303.82	105.06
304.051	85.06
304.281	75.06
304.511	79.06
304.741	95.06
304.971	100.06
305.201	80.06
305.431	92.06
305.661	83.06
305.891	73.06
306.121	96.06
306.352	94.06
306.582	93.06
306.812	92.06
307.042	89.06
307.272	100.06
307.502	103.06
307.731	100.06
307.961	93.06
308.191	96.06
308.421	84.06
308.651	88.06
308.881	88.06
309.111	95.06
309.341	90.06
309.571	102.06
309.8	99.06
310.03	84.06
310.26	93.06
310.49	91.06
310.72	83.06
310.949	105.06
311.179	98.06
311.409	83.06
311.639	81.06
311.868	93.06
312.098	94.06
312.328	103.06
312.557	92.06
312.787	81.06
313.017	96.06
313.246	87.06
313.476	80.06
313.706	74.06
313.935	95.06
314.165	74.06
314.394	98.06
314.624	94.06
314.853	106.06
315.083	93.06
315.312	95.06
315.542	89.06
315.771	90.06
316.001	92.06
316.23	93.06
316.46	96.06
316.689	99.06
316.919	89.06
317.148	89.06
317.377	109.06
317.607	82.06
317.836	89.06
318.065	86.06
318.295	76.06
318.524	91.06
318.753	97.06
318.983	83.06
319.212	93.06
319.441	104.06
319.67	96.06
319.9	86.06
320.129	96.06
320.358	96.06
320.587	85.06
320.816	105.06
321.046	86.06
321.275	95.06
321.504	83.06
321.733	92.06
321.962	95.06
322.191	98.06
322.42	98.06
322.649	105.06
322.878	105.06
323.108	105.06
323.337	100.06
323.566	119.06
323.795	133.06
324.024	160.06
324.253	302.06
324.482	603.06
324.71	1147.06
324.939	1482.06
325.168	594.06
325.397	200.06
325.626	117.06
325.855	115.06
326.084	104.06
326.313	114.06
326.542	130.06
326.77	183.06
326.999	338.06
327.228	612.06
327.457	1065.06
327.686	886.06
327.914	292.06
328.143	183.06
328.372	151.06
328.6	123.06
328.829	116.06
329.058	120.06
329.287	123.06
329.515	105.06
329.744	105.06
329.972	127.06
330.201	151.06
330.43	156.06
330.658	133.06
330.887	145.06
331.115	103.06
331.344	102.06
331.572	93.06
331.801	100.06
332.03	96.06
332.258	100.06
332.486	93.06
332.715	91.06
332.943	101.06
333.172	105.06
333.4	90.06
333.629	111.06
333.857	115.06
334.085	128.06
334.314	126.06
334.542	193.06
334.771	186.06
334.999	114.06
335.227	95.06
335.455	87.06
335.684	90.06
335.912	91.06
336.14	94.06
336.369	82.06
336.597	97.06
336.825	88.06
337.053	96.06
337.281	73.06
337.51	91.06
337.738	85.06
337.966	99.06
338.194	95.06
338.422	94.06
338.65	93.06
338.878	72.06
339.106	99.06
339.334	95.06
339.562	92.06
339.79	86.06
340.018	81.06
340.246	97.06
340.474	101.06
340.702	76.06
340.93	79.06
341.158	96.06
341.386	82.06
341.614	92.06
341.842	87.06
342.07	95.06
342.298	97.06
342.526	68.06
342.754	90.06
342.981	97.06
343.209	94.06
343.437	83.06
343.665	80.06
343.893	85.06
344.12	104.06
344.348	87.06
344.576	82.06
344.804	95.06
345.031	96.06
345.259	93.06
345.487	91.06
345.714	95.06
345.942	94.06
346.17	83.06
346.397	96.06
346.625	81.06
346.853	95.06
347.08	87.06
347.308	87.06
347.535	94.06
347.763	107.06
347.99	90.06
348.218	99.06
348.445	98.06
348.673	105.06
348.9	79.06
349.128	78.06
349.355	90.06
349.583	96.06
349.81	87.06
350.037	97.06
350.265	93.06
350.492	84.06
350.72	92.06
350.947	98.06
351.174	99.06
351.402	110.06
351.629	94.06
351.856	89.06
352.083	109.06
352.311	101.06
352.538	106.06
352.765	103.06
352.992	98.06
353.22	113.06
353.447	115.06
353.674	103.06
353.901	89.06
354.128	89.06
354.355	93.06
354.583	80.06
354.81	96.06
355.037	92.06
355.264	97.06
355.491	100.06
355.718	87.06
355.945	92.06
356.172	88.06
356.399	100.06
356.626	101.06
356.853	81.06
357.08	97.06
357.307	83.06
357.534	105.06
357.761	91.06
357.988	86.06
358.215	100.06
358.441	90.06
358.668	99.06
358.895	93.06
359.122	85.06
359.349	77.06
359.576	103.06
359.802	96.06
360.029	99.06
360.256	113.06
360.483	95.06
360.709	87.06
360.936	102.06
361.163	103.06
361.39	91.06
361.616	92.06
361.843	87.06
362.07	87.06
362.296	95.06
362.523	86.06
362.749	86.06
362.976	88.06
363.203	87.06
363.429	86.06
363.656	87.06
363.882	83.06
364.109	77.06
364.335	104.06
364.562	91.06
364.788	85.06
365.015	94.06
365.241	112.06
365.468	93.06
365.694	93.06
365.92	86.06
366.147	89.06
366.373	91.06
366.599	89.06
366.826	80.06
367.052	84.06
367.278	79.06
367.505	81.06
367.731	87.06
367.957	78.06
368.184	96.06
368.41	100.06
368.636	109.06
368.862	102.06
369.089	94.06
369.315	76.06
369.541	77.06
369.767	89.06
369.993	90.06
370.219	82.06
370.445	88.06
370.672	96.06
370.898	92.06
371.124	84.06
371.35	77.06
371.576	85.06
371.802	76.06
372.028	83.06
372.254	89.06
372.48	82.06
372.706	90.06
372.932	82.06
373.158	93.06
373.384	91.06
373.61	77.06
373.835	94.06
374.061	91.06
374.287	85.06
374.513	92.06
374.739	90.06
374.965	75.06
375.191	75.06
375.416	85.06
375.642	79.06
375.868	83.06
376.094	85.06
376.319	77.06
376.545	86.06
376.771	85.06
376.997	88.06
377.222	98.06
377.448	87.06
377.674	89.06
377.899	76.06
378.125	104.06
378.35	92.06
378.576	71.06
378.802	82.06
379.027	94.06
379.253	91.06
379.478	102.06
379.704	91.06
379.929	95.06
380.155	93.06
380.38	88.06
380.606	84.06
380.831	98.06
381.057	82.06
381.282	91.06
381.507	102.06
381.733	97.06
381.958	97.06
382.184	86.06
382.409	81.06
382.634	88.06
382.86	95.06
383.085	97.06
383.31	106.06
383.535	103.06
383.761	92.06
383.986	91.06
384.211	89.06
384.436	96.06
384.662	87.06
384.887	90.06
385.112	101.06
385.337	111.06
385.562	113.06
385.787	105.06
386.013	107.06
386.238	118.06
386.463	98.06
386.688	103.06
386.913	98.06
387.138	119.06
387.363	97.06
387.588	98.06
387.813	109.06
388.038	105.06
388.263	112.06
388.488	117.06
388.713	101.06
388.938	82.06
389.163	98.06
389.387	97.06
389.612	107.06
389.837	79.06
390.062	103.06
390.287	89.06
390.512	89.06
390.736	92.06
390.961	78.06
391.186	92.06
391.411	98.06
391.636	90.06
391.86	94.06
392.085	80.06
392.31	87.06
392.534	81.06
392.759	88.06
392.984	83.06
393.208	85.06
393.433	97.06
393.658	93.06
393.882	93.06
394.107	81.06
394.331	79.06
394.556	78.06
394.78	79.06
395.005	84.06
395.229	93.06
395.454	80.06
395.678	88.06
395.903	78.06
396.127	99.06
396.352	93.06
396.576	88.06
396.801	92.06
397.025	89.06
397.249	94.06
397.474	89.06
397.698	73.06
397.922	92.06
398.147	85.06
398.371	66.06
398.595	69.06
398.82	79.06
399.044	75.06
399.268	77.06
399.492	73.06
399.717	79.06
399.941	81.06
400.165	91.06
400.389	97.06
400.613	90.06
400.837	99.06
401.062	96.06
401.286	90.06
401.51	83.06
401.734	89.06
401.958	101.06
402.182	110.06
402.406	127.06
402.63	113.06
402.854	92.06
403.078	94.06
403.302	94.06
403.526	95.06
403.75	94.06
403.974	78.06
404.198	104.06
404.422	95.06
404.645	83.06
404.869	86.06
405.093	93.06
405.317	95.06
405.541	104.06
405.765	92.06
405.988	120.06
406.212	155.06
406.436	198.06
406.66	137.06
406.883	94.06
407.107	79.06
407.331	88.06
407.555	104.06
407.778	90.06
408.002	90.06
408.226	69.06
408.449	95.06
408.673	92.06
408.896	76.06
409.12	95.06
409.344	88.06
409.567	94.06
409.791	76.06
410.014	81.06
410.238	88.06
410.461	86.06
410.685	95.06
410.908	98.06
411.132	96.06
411.355	93.06
411.578	109.06
411.802	84.06
412.025	85.06
412.249	85.06
412.472	90.06
412.695	96.06
412.919	84.06
413.142	82.06
413.365	81.06
413.589	83.06
413.812	89.06
414.035	74.06
414.258	82.06
414.482	89.06
414.705	77.06
414.928	85.06
415.151	96.06
415.374	88.06
415.597	79.06
415.821	77.06
416.044	94.06
416.267	91.06
416.49	89.06
416.713	96.06
416.936	79.06
417.159	93.06
417.382	85.06
417.605	85.06
417.828	90.06
418.051	85.06
418.274	81.06
418.497	86.06
418.72	73.06
418.943	72.06
419.166	88.06
419.389	84.06
419.611	88.06
419.834	87.06
420.057	87.06
420.28	85.06
420.503	90.06
420.726	80.06
420.948	77.06
421.171	89.06
421.394	96.06
421.617	94.06
421.839	86.06
422.062	93.06
422.285	96.06
422.507	89.06
422.73	94.06
422.953	95.06
423.175	95.06
423.398	99.06
423.621	88.06
423.843	89.06
424.066	82.06
424.288	79.06
424.511	90.06
424.733	82.06
424.956	93.06
425.178	91.06
425.401	81.06
425.623	88.06
425.846	90.06
426.068	91.06
426.291	87.06
426.513	97.06
426.735	73.06
426.958	82.06
427.18	98.06
427.402	119.06
427.625	128.06
427.847	120.06
428.069	102.06
428.292	81.06
428.514	80.06
428.736	75.06
428.958	77.06
429.181	96.06
429.403	78.06
429.625	76.06
429.847	78.06
430.069	98.06
430.292	88.06
430.514	94.06
430.736	91.06
430.958	93.06
431.18	73.06
431.402	73.06
431.624	90.06
431.846	83.06
432.068	89.06
432.29	99.06
432.512	86.06
432.734	94.06
432.956	94.06
433.178	83.06
433.4	89.06
433.622	76.06
433.844	69.06
434.066	100.06
434.287	78.06
434.509	93.06
434.731	98.06
434.953	84.06
435.175	89.06
435.397	78.06
435.618	78.06
435.84	93.06
436.062	97.06
436.284	95.06
436.505	96.06
436.727	97.06
436.949	91.06
437.17	91.06
437.392	87.06
437.614	107.06
437.835	106.06
438.057	133.06
438.278	107.06
438.5	93.06
438.721	108.06
438.943	100.06
439.165	84.06
439.386	87.06
439.608	90.06
439.829	96.06
440.05	106.06
440.272	142.06
440.493	95.06
440.715	80.06
440.936	91.06
441.158	91.06
441.379	94.06
441.6	88.06
441.822	89.06
442.043	94.06
442.264	91.06
442.486	90.06
442.707	90.06
442.928	108.06
443.149	106.06
443.371	115.06
443.592	100.06
443.813	94.06
444.034	93.06
444.255	95.06
444.476	83.06
444.698	96.06
444.919	94.06
445.14	134.06
445.361	134.06
445.582	111.06
445.803	122.06
446.024	105.06
446.245	117.06
446.466	98.06
446.687	79.06
446.908	93.06
447.129	77.06
447.35	88.06
447.571	98.06
447.792	79.06
448.013	95.06
448.234	109.06
448.455	94.06
448.675	93.06
448.896	97.06
449.117	90.06
449.338	112.06
449.559	126.06
449.779	125.06
450	81.06
450.221	88.06
450.442	82.06
450.662	102.06
450.883	98.06
451.104	101.06
451.324	101.06
451.545	88.06
451.766	85.06
451.986	84.06
452.207	99.06
452.428	95.06
452.648	87.06
452.869	106.06
453.089	108.06
453.31	102.06
453.53	89.06
453.751	98.06
453.971	110.06
454.192	103.06
454.412	84.06
454.633	85.06
454.853	94.06
455.073	85.06
455.294	69.06
455.514	92.06
455.734	83.06
455.955	81.06
456.175	81.06
456.395	86.06
456.616	85.06
456.836	75.06
457.056	96.06
457.276	73.06
457.497	85.06
457.717	89.06
457.937	73.06
458.157	89.06
458.377	86.06
458.598	110.06
458.818	113.06
459.038	150.06
459.258	112.06
459.478	96.06
459.698	81.06
459.918	94.06
460.138	85.06
460.358	90.06
460.578	78.06
460.798	82.06
461.018	83.06
461.238	96.06
461.458	90.06
461.678	79.06
461.898	73.06
462.118	75.06
462.338	82.06
462.558	87.06
462.777	81.06
462.997	101.06
463.217	88.06
463.437	93.06
463.657	82.06
463.876	102.06
464.096	83.06
464.316	92.06
464.536	90.06
464.755	90.06
464.975	99.06
465.195	158.06
465.414	139.06
465.634	94.06
465.854	79.06
466.073	79.06
466.293	69.06
466.512	82.06
466.732	79.06
466.951	88.06
467.171	95.06
467.391	95.06
467.61	92.06
467.829	92.06
468.049	107.06
468.268	130.06
468.488	98.06
468.707	83.06
468.927	80.06
469.146	85.06
469.365	92.06
469.585	91.06
469.804	91.06
470.023	77.06
470.243	78.06
470.462	93.06
470.681	121.06
470.901	97.06
471.12	94.06
471.339	98.06
471.558	90.06
471.777	89.06
471.997	97.06
472.216	144.06
472.435	232.06
472.654	108.06
472.873	92.06
473.092	100.06
473.311	80.06
473.53	81.06
473.749	96.06
473.968	94.06
474.187	88.06
474.406	62.06
474.625	88.06
474.844	89.06
475.063	89.06
475.282	94.06
475.501	77.06
475.72	89.06
475.939	79.06
476.158	92.06
476.377	84.06
476.596	90.06
476.814	106.06
477.033	95.06
477.252	87.06
477.471	91.06
477.69	96.06
477.908	70.06
478.127	92.06
478.346	91.06
478.564	80.06
478.783	89.06
479.002	82.06
479.22	90.06
479.439	93.06
479.658	94.06
479.876	90.06
480.095	99.06
480.313	84.06
480.532	87.06
480.751	86.06
480.969	150.06
481.188	354.06
481.406	246.06
481.624	105.06
481.843	82.06
482.061	101.06
482.28	90.06
482.498	95.06
482.717	82.06
482.935	98.06
483.153	85.06
483.372	87.06
483.59	97.06
483.808	78.06
484.027	90.06
484.245	95.06
484.463	87.06
484.681	99.06
484.9	82.06
485.118	94.06
485.336	88.06
485.554	94.06
485.772	104.06
485.99	103.06
486.209	118.06
486.427	104.06
486.645	106.06
486.863	105.06
487.081	102.06
487.299	103.06
487.517	101.06
487.735	92.06
487.953	91.06
488.171	102.06
488.389	97.06
488.607	87.06
488.825	94.06
489.043	77.06
489.261	80.06
489.479	83.06
489.696	86.06
489.914	87.06
490.132	93.06
490.35	89.06
490.568	90.06
490.786	93.06
491.003	85.06
491.221	95.06
491.439	92.06
491.657	81.06
491.874	89.06
492.092	107.06
492.31	109.06
492.527	87.06
492.745	84.06
492.963	92.06
493.18	99.06
493.398	102.06
493.615	93.06
493.833	101.06
494.05	90.06
494.268	94.06
494.485	89.06
494.703	96.06
494.92	100.06
495.138	85.06
495.355	81.06
495.573	93.06
495.79	84.06
496.008	104.06
496.225	95.06
496.442	90.06
496.66	100.06
496.877	96.06
497.094	84.06
497.312	85.06
497.529	88.06
497.746	83.06
497.963	79.06
498.181	100.06
498.398	91.06
498.615	95.06
498.832	96.06
499.049	109.06
499.267	85.06
499.484	97.06
499.701	102.06
499.918	79.06
500.135	89.06
500.352	90.06
500.569	87.06
500.786	96.06
501.003	75.06
501.22	89.06
501.437	99.06
501.654	79.06
501.871	86.06
502.088	87.06
502.305	83.06
502.522	96.06
502.739	87.06
502.956	95.06
503.172	93.06
503.389	110.06
503.606	105.06
503.823	98.06
504.04	102.06
504.256	75.06
504.473	75.06
504.69	94.06
504.907	102.06
505.123	102.06
505.34	69.06
505.557	79.06
505.773	98.06
505.99	97.06
506.207	95.06
506.423	84.06
506.64	92.06
506.856	89.06
507.073	101.06
507.289	94.06
507.506	80.06
507.722	96.06
507.939	102.06
508.155	75.06
508.372	93.06
508.588	93.06
508.805	87.06
509.021	91.06
509.238	103.06
509.454	105.06
509.67	112.06
509.887	103.06
510.103	126.06
510.319	205.06
510.536	744.06
510.752	2455.06
510.968	669.06
511.184	145.06
511.401	110.06
511.617	105.06
511.833	111.06
512.049	89.06
512.265	102.06
512.481	98.06
512.698	103.06
512.914	98.06
513.13	91.06
513.346	102.06
513.562	113.06
513.778	95.06
513.994	88.06
514.21	98.06
514.426	100.06
514.642	124.06
514.858	118.06
515.074	150.06
515.29	403.06
515.506	1343.06
515.721	488.06
515.937	153.06
516.153	93.06
516.369	95.06
