Data from Circ_1996_H10_HRD10591_00052.txt Node
Date: Wed Jan 03 11:33:16 EST 2024
User: Yrep
Spectrometer: HR+D1059
Trigger mode: 1
Integration Time (sec): 1.000000E-1
Scans to average: 1
Electric dark correction enabled: true
Nonlinearity correction enabled: false
Boxcar width: 0
XAxis mode: Wavelengths
Number of Pixels in Spectrum: 2048
>>>>>Begin Spectral Data<<<<<
223.165	-17.62
223.4	-17.62
223.635	-17.62
223.869	-36.62
224.104	-6.62
224.338	-7.62
224.573	-13.62
224.808	-12.62
225.042	-8.62
225.277	-12.62
225.511	8.38
225.746	4.38
225.98	5.38
226.215	9.38
226.449	9.38
226.683	24.38
226.918	25.38
227.152	29.38
227.387	26.38
227.621	54.38
227.856	36.38
228.09	56.38
228.324	44.38
228.559	44.38
228.793	60.38
229.027	68.38
229.262	56.38
229.496	80.38
229.73	87.38
229.964	78.38
230.199	75.38
230.433	78.38
230.667	73.38
230.901	75.38
231.136	83.38
231.37	89.38
231.604	67.38
231.838	84.38
232.072	80.38
232.306	88.38
232.541	80.38
232.775	63.38
233.009	79.38
233.243	85.38
233.477	88.38
233.711	72.38
233.945	80.38
234.179	86.38
234.413	80.38
234.647	80.38
234.881	85.38
235.115	72.38
235.349	93.38
235.583	76.38
235.817	79.38
236.051	66.38
236.285	81.38
236.519	80.38
236.753	83.38
236.987	73.38
237.221	93.38
237.455	99.38
237.689	71.38
237.922	78.38
238.156	66.38
238.39	85.38
238.624	81.38
238.858	92.38
239.091	80.38
239.325	68.38
239.559	83.38
239.793	77.38
240.027	77.38
240.26	84.38
240.494	69.38
240.728	73.38
240.961	66.38
241.195	80.38
241.429	65.38
241.662	80.38
241.896	82.38
242.13	84.38
242.363	90.38
242.597	73.38
242.83	64.38
243.064	63.38
243.298	73.38
243.531	82.38
243.765	69.38
243.998	81.38
244.232	88.38
244.465	81.38
244.699	89.38
244.932	80.38
245.166	86.38
245.399	82.38
245.633	82.38
245.866	62.38
246.099	84.38
246.333	83.38
246.566	64.38
246.8	79.38
247.033	73.38
247.266	67.38
247.5	83.38
247.733	79.38
247.966	67.38
248.2	79.38
248.433	57.38
248.666	71.38
248.899	75.38
249.133	84.38
249.366	85.38
249.599	73.38
249.832	76.38
250.066	69.38
250.299	81.38
250.532	85.38
250.765	77.38
250.998	87.38
251.231	76.38
251.465	89.38
251.698	84.38
251.931	73.38
252.164	74.38
252.397	81.38
252.63	66.38
252.863	84.38
253.096	76.38
253.329	66.38
253.562	79.38
253.795	79.38
254.028	86.38
254.261	85.38
254.494	99.38
254.727	90.38
254.96	79.38
255.193	91.38
255.426	80.38
255.659	76.38
255.892	83.38
256.124	75.38
256.357	78.38
256.59	82.38
256.823	77.38
257.056	86.38
257.289	81.38
257.521	83.38
257.754	82.38
257.987	84.38
258.22	91.38
258.452	83.38
258.685	75.38
258.918	75.38
259.151	88.38
259.383	87.38
259.616	71.38
259.849	84.38
260.081	83.38
260.314	76.38
260.547	77.38
260.779	76.38
261.012	95.38
261.244	80.38
261.477	88.38
261.71	81.38
261.942	107.38
262.175	104.38
262.407	98.38
262.64	92.38
262.872	99.38
263.105	87.38
263.337	94.38
263.57	89.38
263.802	99.38
264.035	78.38
264.267	79.38
264.499	90.38
264.732	82.38
264.964	83.38
265.197	92.38
265.429	88.38
265.661	71.38
265.894	107.38
266.126	81.38
266.358	83.38
266.591	69.38
266.823	85.38
267.055	83.38
267.287	83.38
267.52	76.38
267.752	82.38
267.984	83.38
268.216	83.38
268.448	91.38
268.681	75.38
268.913	77.38
269.145	76.38
269.377	92.38
269.609	90.38
269.841	87.38
270.073	90.38
270.306	73.38
270.538	83.38
270.77	77.38
271.002	78.38
271.234	72.38
271.466	83.38
271.698	79.38
271.93	81.38
272.162	80.38
272.394	66.38
272.626	83.38
272.858	81.38
273.09	91.38
273.322	75.38
273.553	79.38
273.785	90.38
274.017	72.38
274.249	84.38
274.481	76.38
274.713	80.38
274.945	89.38
275.176	94.38
275.408	89.38
275.64	84.38
275.872	84.38
276.104	76.38
276.335	97.38
276.567	103.38
276.799	103.38
277.031	96.38
277.262	96.38
277.494	98.38
277.726	80.38
277.957	87.38
278.189	96.38
278.421	88.38
278.652	85.38
278.884	88.38
279.115	76.38
279.347	88.38
279.579	84.38
279.81	87.38
280.042	82.38
280.273	95.38
280.505	96.38
280.736	92.38
280.968	85.38
281.199	82.38
281.431	77.38
281.662	73.38
281.894	77.38
282.125	103.38
282.356	102.38
282.588	139.38
282.819	114.38
283.051	96.38
283.282	84.38
283.513	87.38
283.745	88.38
283.976	80.38
284.207	78.38
284.439	80.38
284.67	102.38
284.901	96.38
285.132	89.38
285.364	88.38
285.595	78.38
285.826	78.38
286.057	75.38
286.288	78.38
286.52	90.38
286.751	84.38
286.982	85.38
287.213	92.38
287.444	105.38
287.675	84.38
287.906	91.38
288.138	96.38
288.369	86.38
288.6	85.38
288.831	90.38
289.062	90.38
289.293	98.38
289.524	85.38
289.755	82.38
289.986	86.38
290.217	95.38
290.448	86.38
290.679	91.38
290.91	88.38
291.141	86.38
291.371	103.38
291.602	92.38
291.833	83.38
292.064	106.38
292.295	87.38
292.526	90.38
292.757	86.38
292.987	96.38
293.218	89.38
293.449	94.38
293.68	105.38
293.91	85.38
294.141	89.38
294.372	77.38
294.603	92.38
294.833	92.38
295.064	91.38
295.295	85.38
295.525	87.38
295.756	106.38
295.987	105.38
296.217	124.38
296.448	118.38
296.679	94.38
296.909	93.38
297.14	88.38
297.37	77.38
297.601	77.38
297.831	90.38
298.062	93.38
298.292	88.38
298.523	84.38
298.753	79.38
298.984	96.38
299.214	96.38
299.445	91.38
299.675	99.38
299.905	96.38
300.136	81.38
300.366	100.38
300.597	98.38
300.827	104.38
301.057	120.38
301.288	99.38
301.518	79.38
301.748	101.38
301.979	113.38
302.209	96.38
302.439	83.38
302.669	97.38
302.9	99.38
303.13	88.38
303.36	97.38
303.59	106.38
303.82	109.38
304.051	100.38
304.281	97.38
304.511	100.38
304.741	87.38
304.971	108.38
305.201	95.38
305.431	75.38
305.661	100.38
305.891	87.38
306.121	100.38
306.352	103.38
306.582	108.38
306.812	98.38
307.042	91.38
307.272	83.38
307.502	106.38
307.731	113.38
307.961	110.38
308.191	97.38
308.421	77.38
308.651	82.38
308.881	102.38
309.111	99.38
309.341	102.38
309.571	106.38
309.8	72.38
310.03	94.38
310.26	99.38
310.49	97.38
310.72	83.38
310.949	99.38
311.179	91.38
311.409	97.38
311.639	88.38
311.868	92.38
312.098	95.38
312.328	97.38
312.557	104.38
312.787	111.38
313.017	103.38
313.246	82.38
313.476	91.38
313.706	94.38
313.935	84.38
314.165	78.38
314.394	97.38
314.624	89.38
314.853	100.38
315.083	92.38
315.312	98.38
315.542	87.38
315.771	88.38
316.001	76.38
316.23	91.38
316.46	103.38
316.689	104.38
316.919	96.38
317.148	95.38
317.377	101.38
317.607	89.38
317.836	88.38
318.065	83.38
318.295	74.38
318.524	79.38
318.753	100.38
318.983	88.38
319.212	112.38
319.441	96.38
319.67	114.38
319.9	87.38
320.129	86.38
320.358	100.38
320.587	102.38
320.816	111.38
321.046	100.38
321.275	100.38
321.504	96.38
321.733	103.38
321.962	91.38
322.191	96.38
322.42	91.38
322.649	115.38
322.878	106.38
323.108	97.38
323.337	104.38
323.566	105.38
323.795	143.38
324.024	172.38
324.253	281.38
324.482	555.38
324.71	1114.38
324.939	1467.38
325.168	564.38
325.397	196.38
325.626	136.38
325.855	125.38
326.084	104.38
326.313	115.38
326.542	119.38
326.77	173.38
326.999	322.38
327.228	615.38
327.457	1093.38
327.686	885.38
327.914	292.38
328.143	174.38
328.372	151.38
328.6	117.38
328.829	110.38
329.058	118.38
329.287	120.38
329.515	110.38
329.744	120.38
329.972	122.38
330.201	150.38
330.43	194.38
330.658	128.38
330.887	129.38
331.115	105.38
331.344	90.38
331.572	95.38
331.801	98.38
332.03	94.38
332.258	96.38
332.486	89.38
332.715	79.38
332.943	85.38
333.172	96.38
333.4	115.38
333.629	103.38
333.857	116.38
334.085	127.38
334.314	143.38
334.542	221.38
334.771	196.38
334.999	105.38
335.227	99.38
335.455	95.38
335.684	96.38
335.912	92.38
336.14	96.38
336.369	116.38
336.597	98.38
336.825	100.38
337.053	93.38
337.281	104.38
337.51	89.38
337.738	84.38
337.966	99.38
338.194	88.38
338.422	95.38
338.65	103.38
338.878	96.38
339.106	99.38
339.334	86.38
339.562	85.38
339.79	103.38
340.018	81.38
340.246	86.38
340.474	92.38
340.702	92.38
340.93	105.38
341.158	98.38
341.386	104.38
341.614	87.38
341.842	94.38
342.07	81.38
342.298	90.38
342.526	76.38
342.754	102.38
342.981	99.38
343.209	76.38
343.437	83.38
343.665	78.38
343.893	86.38
344.12	95.38
344.348	97.38
344.576	85.38
344.804	90.38
345.031	99.38
345.259	92.38
345.487	94.38
345.714	102.38
345.942	92.38
346.17	84.38
346.397	95.38
346.625	96.38
346.853	97.38
347.08	97.38
347.308	98.38
347.535	91.38
347.763	112.38
347.99	100.38
348.218	91.38
348.445	88.38
348.673	98.38
348.9	104.38
349.128	99.38
349.355	98.38
349.583	79.38
349.81	92.38
350.037	93.38
350.265	91.38
350.492	79.38
350.72	83.38
350.947	105.38
351.174	115.38
351.402	118.38
351.629	97.38
351.856	81.38
352.083	99.38
352.311	99.38
352.538	117.38
352.765	106.38
352.992	127.38
353.22	103.38
353.447	106.38
353.674	107.38
353.901	85.38
354.128	98.38
354.355	106.38
354.583	93.38
354.81	93.38
355.037	93.38
355.264	92.38
355.491	96.38
355.718	97.38
355.945	88.38
356.172	99.38
356.399	107.38
356.626	80.38
356.853	93.38
357.08	92.38
357.307	92.38
357.534	95.38
357.761	99.38
357.988	97.38
358.215	120.38
358.441	95.38
358.668	91.38
358.895	82.38
359.122	87.38
359.349	76.38
359.576	96.38
359.802	101.38
360.029	96.38
360.256	100.38
360.483	99.38
360.709	81.38
360.936	73.38
361.163	100.38
361.39	84.38
361.616	92.38
361.843	97.38
362.07	89.38
362.296	103.38
362.523	88.38
362.749	111.38
362.976	87.38
363.203	95.38
363.429	92.38
363.656	92.38
363.882	85.38
364.109	89.38
364.335	101.38
364.562	86.38
364.788	99.38
365.015	95.38
365.241	96.38
365.468	120.38
365.694	91.38
365.92	94.38
366.147	79.38
366.373	78.38
366.599	89.38
366.826	76.38
367.052	87.38
367.278	91.38
367.505	90.38
367.731	103.38
367.957	87.38
368.184	88.38
368.41	98.38
368.636	102.38
368.862	119.38
369.089	115.38
369.315	92.38
369.541	82.38
369.767	93.38
369.993	89.38
370.219	88.38
370.445	96.38
370.672	84.38
370.898	91.38
371.124	97.38
371.35	91.38
371.576	92.38
371.802	82.38
372.028	90.38
372.254	92.38
372.48	95.38
372.706	90.38
372.932	95.38
373.158	87.38
373.384	97.38
373.61	92.38
373.835	91.38
374.061	75.38
374.287	75.38
374.513	94.38
374.739	91.38
374.965	99.38
375.191	82.38
375.416	93.38
375.642	89.38
375.868	91.38
376.094	85.38
376.319	78.38
376.545	101.38
376.771	87.38
376.997	71.38
377.222	103.38
377.448	93.38
377.674	100.38
377.899	89.38
378.125	85.38
378.35	88.38
378.576	102.38
378.802	88.38
379.027	118.38
379.253	85.38
379.478	86.38
379.704	92.38
379.929	94.38
380.155	99.38
380.38	107.38
380.606	82.38
380.831	87.38
381.057	99.38
381.282	103.38
381.507	107.38
381.733	100.38
381.958	106.38
382.184	99.38
382.409	96.38
382.634	102.38
382.86	85.38
383.085	105.38
383.31	102.38
383.535	94.38
383.761	114.38
383.986	99.38
384.211	94.38
384.436	105.38
384.662	101.38
384.887	111.38
385.112	106.38
385.337	92.38
385.562	104.38
385.787	105.38
386.013	111.38
386.238	110.38
386.463	98.38
386.688	108.38
386.913	114.38
387.138	111.38
387.363	118.38
387.588	107.38
387.813	97.38
388.038	105.38
388.263	106.38
388.488	110.38
388.713	104.38
388.938	91.38
389.163	94.38
389.387	93.38
389.612	90.38
389.837	71.38
390.062	93.38
390.287	91.38
390.512	89.38
390.736	89.38
390.961	99.38
391.186	102.38
391.411	106.38
391.636	86.38
391.86	102.38
392.085	89.38
392.31	76.38
392.534	92.38
392.759	88.38
392.984	87.38
393.208	91.38
393.433	91.38
393.658	108.38
393.882	79.38
394.107	82.38
394.331	91.38
394.556	81.38
394.78	80.38
395.005	90.38
395.229	79.38
395.454	77.38
395.678	89.38
395.903	81.38
396.127	82.38
396.352	104.38
396.576	82.38
396.801	105.38
397.025	89.38
397.249	82.38
397.474	98.38
397.698	79.38
397.922	91.38
398.147	81.38
398.371	80.38
398.595	104.38
398.82	85.38
399.044	95.38
399.268	83.38
399.492	95.38
399.717	97.38
399.941	79.38
400.165	103.38
400.389	101.38
400.613	98.38
400.837	84.38
401.062	81.38
401.286	89.38
401.51	81.38
401.734	94.38
401.958	94.38
402.182	114.38
402.406	145.38
402.63	121.38
402.854	95.38
403.078	80.38
403.302	74.38
403.526	82.38
403.75	84.38
403.974	90.38
404.198	90.38
404.422	92.38
404.645	82.38
404.869	97.38
405.093	94.38
405.317	94.38
405.541	95.38
405.765	106.38
405.988	110.38
406.212	154.38
406.436	204.38
406.66	135.38
406.883	98.38
407.107	76.38
407.331	84.38
407.555	100.38
407.778	105.38
408.002	91.38
408.226	84.38
408.449	80.38
408.673	101.38
408.896	99.38
409.12	96.38
409.344	87.38
409.567	111.38
409.791	103.38
410.014	105.38
410.238	74.38
410.461	93.38
410.685	100.38
410.908	74.38
411.132	111.38
411.355	91.38
411.578	101.38
411.802	93.38
412.025	97.38
412.249	80.38
412.472	85.38
412.695	96.38
412.919	94.38
413.142	81.38
413.365	97.38
413.589	83.38
413.812	99.38
414.035	103.38
414.258	93.38
414.482	87.38
414.705	98.38
414.928	89.38
415.151	92.38
415.374	98.38
415.597	94.38
415.821	93.38
416.044	94.38
416.267	82.38
416.49	98.38
416.713	103.38
416.936	86.38
417.159	99.38
417.382	108.38
417.605	82.38
417.828	101.38
418.051	97.38
418.274	100.38
418.497	72.38
418.72	85.38
418.943	74.38
419.166	77.38
419.389	76.38
419.611	107.38
419.834	101.38
420.057	95.38
420.28	78.38
420.503	88.38
420.726	89.38
420.948	82.38
421.171	91.38
421.394	78.38
421.617	96.38
421.839	92.38
422.062	94.38
422.285	92.38
422.507	84.38
422.73	97.38
422.953	96.38
423.175	88.38
423.398	77.38
423.621	85.38
423.843	82.38
424.066	85.38
424.288	91.38
424.511	93.38
424.733	110.38
424.956	88.38
425.178	94.38
425.401	92.38
425.623	105.38
425.846	94.38
426.068	81.38
426.291	100.38
426.513	79.38
426.735	81.38
426.958	86.38
427.18	106.38
427.402	120.38
427.625	152.38
427.847	124.38
428.069	101.38
428.292	99.38
428.514	96.38
428.736	72.38
428.958	88.38
429.181	85.38
429.403	83.38
429.625	80.38
429.847	83.38
430.069	84.38
430.292	99.38
430.514	82.38
430.736	91.38
430.958	87.38
431.18	88.38
431.402	99.38
431.624	83.38
431.846	101.38
432.068	80.38
432.29	89.38
432.512	89.38
432.734	78.38
432.956	79.38
433.178	101.38
433.4	102.38
433.622	83.38
433.844	78.38
434.066	84.38
434.287	88.38
434.509	107.38
434.731	84.38
434.953	99.38
435.175	84.38
435.397	88.38
435.618	118.38
435.84	93.38
436.062	101.38
436.284	95.38
436.505	92.38
436.727	84.38
436.949	82.38
437.17	96.38
437.392	80.38
437.614	88.38
437.835	98.38
438.057	101.38
438.278	114.38
438.5	97.38
438.721	111.38
438.943	114.38
439.165	83.38
439.386	83.38
439.608	102.38
439.829	103.38
440.05	99.38
440.272	119.38
440.493	99.38
440.715	87.38
440.936	90.38
441.158	73.38
441.379	80.38
441.6	86.38
441.822	99.38
442.043	95.38
442.264	91.38
442.486	80.38
442.707	111.38
442.928	79.38
443.149	111.38
443.371	122.38
443.592	103.38
443.813	99.38
444.034	96.38
444.255	92.38
444.476	84.38
444.698	83.38
444.919	91.38
445.14	106.38
445.361	120.38
445.582	106.38
445.803	125.38
446.024	118.38
446.245	100.38
446.466	87.38
446.687	81.38
446.908	106.38
447.129	96.38
447.35	88.38
447.571	96.38
447.792	88.38
448.013	101.38
448.234	99.38
448.455	87.38
448.675	95.38
448.896	96.38
449.117	108.38
449.338	101.38
449.559	104.38
449.779	122.38
450	69.38
450.221	71.38
450.442	81.38
450.662	88.38
450.883	93.38
451.104	131.38
451.324	96.38
451.545	95.38
451.766	91.38
451.986	84.38
452.207	101.38
452.428	91.38
452.648	107.38
452.869	114.38
453.089	102.38
453.31	113.38
453.53	89.38
453.751	91.38
453.971	84.38
454.192	101.38
454.412	76.38
454.633	91.38
454.853	84.38
455.073	91.38
455.294	80.38
455.514	109.38
455.734	98.38
455.955	93.38
456.175	92.38
456.395	92.38
456.616	85.38
456.836	74.38
457.056	86.38
457.276	82.38
457.497	98.38
457.717	92.38
457.937	86.38
458.157	83.38
458.377	98.38
458.598	99.38
458.818	126.38
459.038	154.38
459.258	106.38
459.478	81.38
459.698	86.38
459.918	88.38
460.138	80.38
460.358	89.38
460.578	82.38
460.798	87.38
461.018	95.38
461.238	85.38
461.458	92.38
461.678	89.38
461.898	92.38
462.118	90.38
462.338	94.38
462.558	91.38
462.777	91.38
462.997	84.38
463.217	95.38
463.437	88.38
463.657	91.38
463.876	88.38
464.096	96.38
464.316	100.38
464.536	86.38
464.755	92.38
464.975	97.38
465.195	141.38
465.414	142.38
465.634	92.38
465.854	82.38
466.073	82.38
466.293	83.38
466.512	85.38
466.732	98.38
466.951	95.38
467.171	89.38
467.391	88.38
467.61	90.38
467.829	109.38
468.049	118.38
468.268	116.38
468.488	96.38
468.707	93.38
468.927	87.38
469.146	74.38
469.365	89.38
469.585	89.38
469.804	79.38
470.023	92.38
470.243	90.38
470.462	95.38
470.681	102.38
470.901	104.38
471.12	84.38
471.339	81.38
471.558	81.38
471.777	87.38
471.997	108.38
472.216	178.38
472.435	248.38
472.654	124.38
472.873	88.38
473.092	89.38
473.311	88.38
473.53	73.38
473.749	88.38
473.968	91.38
474.187	91.38
474.406	100.38
474.625	93.38
474.844	82.38
475.063	85.38
475.282	97.38
475.501	97.38
475.72	91.38
475.939	84.38
476.158	76.38
476.377	92.38
476.596	85.38
476.814	78.38
477.033	80.38
477.252	97.38
477.471	87.38
477.69	78.38
477.908	98.38
478.127	83.38
478.346	82.38
478.564	96.38
478.783	97.38
479.002	106.38
479.22	87.38
479.439	91.38
479.658	97.38
479.876	89.38
480.095	96.38
480.313	102.38
480.532	95.38
480.751	101.38
480.969	169.38
481.188	411.38
481.406	265.38
481.624	100.38
481.843	97.38
482.061	106.38
482.28	80.38
482.498	81.38
482.717	76.38
482.935	93.38
483.153	101.38
483.372	81.38
483.59	86.38
483.808	88.38
484.027	93.38
484.245	104.38
484.463	99.38
484.681	94.38
484.9	78.38
485.118	106.38
485.336	104.38
485.554	93.38
485.772	95.38
485.99	94.38
486.209	101.38
486.427	105.38
486.645	107.38
486.863	108.38
487.081	106.38
487.299	92.38
487.517	87.38
487.735	98.38
487.953	91.38
488.171	97.38
488.389	98.38
488.607	91.38
488.825	75.38
489.043	92.38
489.261	100.38
489.479	89.38
489.696	87.38
489.914	91.38
490.132	99.38
490.35	77.38
490.568	80.38
490.786	86.38
491.003	81.38
491.221	80.38
491.439	96.38
491.657	95.38
491.874	93.38
492.092	91.38
492.31	105.38
492.527	75.38
492.745	95.38
492.963	88.38
493.18	93.38
493.398	94.38
493.615	107.38
493.833	93.38
494.05	87.38
494.268	88.38
494.485	92.38
494.703	94.38
494.92	84.38
495.138	91.38
495.355	96.38
495.573	82.38
495.79	75.38
496.008	84.38
496.225	77.38
496.442	92.38
496.66	91.38
496.877	94.38
497.094	99.38
497.312	76.38
497.529	76.38
497.746	92.38
497.963	89.38
498.181	83.38
498.398	93.38
498.615	96.38
498.832	106.38
499.049	85.38
499.267	91.38
499.484	87.38
499.701	93.38
499.918	83.38
500.135	82.38
500.352	89.38
500.569	92.38
500.786	81.38
501.003	92.38
501.22	89.38
501.437	92.38
501.654	85.38
501.871	99.38
502.088	98.38
502.305	105.38
502.522	95.38
502.739	90.38
502.956	90.38
503.172	96.38
503.389	108.38
503.606	106.38
503.823	82.38
504.04	88.38
504.256	85.38
504.473	88.38
504.69	83.38
504.907	85.38
505.123	76.38
505.34	84.38
505.557	92.38
505.773	92.38
505.99	90.38
506.207	93.38
506.423	76.38
506.64	83.38
506.856	79.38
507.073	83.38
507.289	98.38
507.506	98.38
507.722	104.38
507.939	107.38
508.155	105.38
508.372	91.38
508.588	82.38
508.805	111.38
509.021	96.38
509.238	91.38
509.454	112.38
509.67	90.38
509.887	108.38
510.103	122.38
510.319	199.38
510.536	699.38
510.752	2234.38
510.968	658.38
511.184	148.38
511.401	93.38
511.617	106.38
511.833	93.38
512.049	100.38
512.265	92.38
512.481	85.38
512.698	98.38
512.914	93.38
513.13	96.38
513.346	88.38
513.562	86.38
513.778	91.38
513.994	108.38
514.21	106.38
514.426	112.38
514.642	116.38
514.858	112.38
515.074	147.38
515.29	370.38
515.506	1257.38
515.721	481.38
