Data from Circ_1996_H10_HRD10591_00057.txt Node
Date: Wed Jan 03 11:33:17 EST 2024
User: Yrep
Spectrometer: HR+D1059
Trigger mode: 1
Integration Time (sec): 1.000000E-1
Scans to average: 1
Electric dark correction enabled: true
Nonlinearity correction enabled: false
Boxcar width: 0
XAxis mode: Wavelengths
Number of Pixels in Spectrum: 2048
>>>>>Begin Spectral Data<<<<<
223.165	-22.19
223.4	-22.19
223.635	-22.19
223.869	-11.19
224.104	-27.19
224.338	-22.19
224.573	-22.19
224.808	-7.19
225.042	-4.19
225.277	-17.19
225.511	4.81
225.746	14.81
225.98	-4.19
226.215	27.81
226.449	3.81
226.683	24.81
226.918	33.81
227.152	27.81
227.387	44.81
227.621	48.81
227.856	36.81
228.09	46.81
228.324	40.81
228.559	51.81
228.793	69.81
229.027	72.81
229.262	47.81
229.496	79.81
229.73	71.81
229.964	66.81
230.199	71.81
230.433	84.81
230.667	76.81
230.901	83.81
231.136	69.81
231.37	68.81
231.604	82.81
231.838	75.81
232.072	84.81
232.306	81.81
232.541	72.81
232.775	81.81
233.009	94.81
233.243	82.81
233.477	77.81
233.711	86.81
233.945	71.81
234.179	87.81
234.413	87.81
234.647	96.81
234.881	104.81
235.115	83.81
235.349	93.81
235.583	85.81
235.817	86.81
236.051	81.81
236.285	74.81
236.519	87.81
236.753	80.81
236.987	71.81
237.221	95.81
237.455	76.81
237.689	78.81
237.922	83.81
238.156	87.81
238.39	87.81
238.624	71.81
238.858	76.81
239.091	80.81
239.325	76.81
239.559	71.81
239.793	88.81
240.027	83.81
240.26	79.81
240.494	83.81
240.728	72.81
240.961	75.81
241.195	81.81
241.429	80.81
241.662	79.81
241.896	83.81
242.13	73.81
242.363	64.81
242.597	80.81
242.83	83.81
243.064	74.81
243.298	81.81
243.531	81.81
243.765	67.81
243.998	78.81
244.232	73.81
244.465	86.81
244.699	76.81
244.932	76.81
245.166	93.81
245.399	81.81
245.633	67.81
245.866	84.81
246.099	73.81
246.333	93.81
246.566	87.81
246.8	86.81
247.033	76.81
247.266	71.81
247.5	91.81
247.733	73.81
247.966	80.81
248.2	85.81
248.433	97.81
248.666	75.81
248.899	93.81
249.133	85.81
249.366	96.81
249.599	85.81
249.832	73.81
250.066	80.81
250.299	79.81
250.532	66.81
250.765	81.81
250.998	77.81
251.231	97.81
251.465	68.81
251.698	82.81
251.931	77.81
252.164	83.81
252.397	87.81
252.63	87.81
252.863	72.81
253.096	92.81
253.329	66.81
253.562	79.81
253.795	76.81
254.028	89.81
254.261	80.81
254.494	82.81
254.727	79.81
254.96	80.81
255.193	80.81
255.426	89.81
255.659	64.81
255.892	73.81
256.124	90.81
256.357	77.81
256.59	83.81
256.823	98.81
257.056	94.81
257.289	68.81
257.521	80.81
257.754	82.81
257.987	68.81
258.22	83.81
258.452	82.81
258.685	81.81
258.918	84.81
259.151	84.81
259.383	84.81
259.616	80.81
259.849	76.81
260.081	79.81
260.314	80.81
260.547	76.81
260.779	84.81
261.012	76.81
261.244	86.81
261.477	85.81
261.71	89.81
261.942	124.81
262.175	100.81
262.407	80.81
262.64	74.81
262.872	92.81
263.105	87.81
263.337	86.81
263.57	88.81
263.802	82.81
264.035	83.81
264.267	74.81
264.499	67.81
264.732	77.81
264.964	74.81
265.197	82.81
265.429	73.81
265.661	94.81
265.894	82.81
266.126	94.81
266.358	81.81
266.591	106.81
266.823	76.81
267.055	82.81
267.287	89.81
267.52	80.81
267.752	84.81
267.984	92.81
268.216	81.81
268.448	91.81
268.681	81.81
268.913	83.81
269.145	110.81
269.377	92.81
269.609	83.81
269.841	88.81
270.073	85.81
270.306	90.81
270.538	91.81
270.77	74.81
271.002	76.81
271.234	86.81
271.466	87.81
271.698	89.81
271.93	94.81
272.162	83.81
272.394	82.81
272.626	79.81
272.858	87.81
273.09	84.81
273.322	83.81
273.553	88.81
273.785	95.81
274.017	76.81
274.249	88.81
274.481	92.81
274.713	74.81
274.945	94.81
275.176	82.81
275.408	89.81
275.64	97.81
275.872	88.81
276.104	90.81
276.335	93.81
276.567	89.81
276.799	111.81
277.031	99.81
277.262	96.81
277.494	92.81
277.726	78.81
277.957	85.81
278.189	85.81
278.421	85.81
278.652	90.81
278.884	80.81
279.115	85.81
279.347	100.81
279.579	78.81
279.81	88.81
280.042	83.81
280.273	94.81
280.505	81.81
280.736	92.81
280.968	94.81
281.199	79.81
281.431	80.81
281.662	91.81
281.894	93.81
282.125	101.81
282.356	112.81
282.588	135.81
282.819	124.81
283.051	98.81
283.282	86.81
283.513	92.81
283.745	90.81
283.976	66.81
284.207	81.81
284.439	91.81
284.67	79.81
284.901	90.81
285.132	77.81
285.364	88.81
285.595	92.81
285.826	80.81
286.057	107.81
286.288	90.81
286.52	70.81
286.751	97.81
286.982	78.81
287.213	90.81
287.444	81.81
287.675	85.81
287.906	88.81
288.138	80.81
288.369	90.81
288.6	73.81
288.831	79.81
289.062	76.81
289.293	77.81
289.524	84.81
289.755	96.81
289.986	87.81
290.217	78.81
290.448	87.81
290.679	68.81
290.91	99.81
291.141	91.81
291.371	93.81
291.602	84.81
291.833	87.81
292.064	83.81
292.295	83.81
292.526	81.81
292.757	101.81
292.987	80.81
293.218	73.81
293.449	79.81
293.68	97.81
293.91	97.81
294.141	98.81
294.372	83.81
294.603	105.81
294.833	88.81
295.064	85.81
295.295	96.81
295.525	88.81
295.756	108.81
295.987	111.81
296.217	141.81
296.448	119.81
296.679	82.81
296.909	80.81
297.14	83.81
297.37	87.81
297.601	89.81
297.831	98.81
298.062	92.81
298.292	89.81
298.523	93.81
298.753	99.81
298.984	84.81
299.214	79.81
299.445	86.81
299.675	96.81
299.905	82.81
300.136	78.81
300.366	81.81
300.597	85.81
300.827	79.81
301.057	97.81
301.288	105.81
301.518	90.81
301.748	87.81
301.979	97.81
302.209	83.81
302.439	91.81
302.669	93.81
302.9	83.81
303.13	98.81
303.36	86.81
303.59	93.81
303.82	92.81
304.051	91.81
304.281	86.81
304.511	88.81
304.741	94.81
304.971	91.81
305.201	89.81
305.431	92.81
305.661	82.81
305.891	97.81
306.121	83.81
306.352	111.81
306.582	107.81
306.812	87.81
307.042	90.81
307.272	93.81
307.502	107.81
307.731	110.81
307.961	106.81
308.191	100.81
308.421	90.81
308.651	84.81
308.881	92.81
309.111	93.81
309.341	85.81
309.571	101.81
309.8	82.81
310.03	89.81
310.26	94.81
310.49	99.81
310.72	108.81
310.949	114.81
311.179	99.81
311.409	95.81
311.639	83.81
311.868	79.81
312.098	84.81
312.328	91.81
312.557	90.81
312.787	101.81
313.017	116.81
313.246	106.81
313.476	90.81
313.706	89.81
313.935	102.81
314.165	99.81
314.394	103.81
314.624	101.81
314.853	99.81
315.083	99.81
315.312	90.81
315.542	79.81
315.771	94.81
316.001	88.81
316.23	89.81
316.46	80.81
316.689	88.81
316.919	96.81
317.148	108.81
317.377	91.81
317.607	99.81
317.836	81.81
318.065	69.81
318.295	75.81
318.524	95.81
318.753	77.81
318.983	91.81
319.212	104.81
319.441	90.81
319.67	101.81
319.9	98.81
320.129	78.81
320.358	103.81
320.587	85.81
320.816	94.81
321.046	86.81
321.275	84.81
321.504	81.81
321.733	95.81
321.962	94.81
322.191	101.81
322.42	94.81
322.649	113.81
322.878	125.81
323.108	116.81
323.337	98.81
323.566	121.81
323.795	142.81
324.024	175.81
324.253	280.81
324.482	595.81
324.71	1155.81
324.939	1481.81
325.168	557.81
325.397	202.81
325.626	129.81
325.855	118.81
326.084	128.81
326.313	107.81
326.542	120.81
326.77	169.81
326.999	325.81
327.228	598.81
327.457	1085.81
327.686	881.81
327.914	293.81
328.143	193.81
328.372	161.81
328.6	133.81
328.829	107.81
329.058	127.81
329.287	127.81
329.515	107.81
329.744	116.81
329.972	120.81
330.201	143.81
330.43	165.81
330.658	139.81
330.887	131.81
331.115	130.81
331.344	114.81
331.572	112.81
331.801	95.81
332.03	116.81
332.258	91.81
332.486	89.81
332.715	98.81
332.943	89.81
333.172	99.81
333.4	87.81
333.629	107.81
333.857	120.81
334.085	130.81
334.314	160.81
334.542	208.81
334.771	193.81
334.999	120.81
335.227	99.81
335.455	79.81
335.684	106.81
335.912	99.81
336.14	106.81
336.369	91.81
336.597	108.81
336.825	97.81
337.053	93.81
337.281	98.81
337.51	98.81
337.738	97.81
337.966	82.81
338.194	85.81
338.422	88.81
338.65	83.81
338.878	89.81
339.106	85.81
339.334	103.81
339.562	88.81
339.79	98.81
340.018	89.81
340.246	87.81
340.474	94.81
340.702	77.81
340.93	94.81
341.158	99.81
341.386	95.81
341.614	92.81
341.842	82.81
342.07	83.81
342.298	84.81
342.526	92.81
342.754	75.81
342.981	93.81
343.209	87.81
343.437	96.81
343.665	99.81
343.893	95.81
344.12	101.81
344.348	90.81
344.576	93.81
344.804	80.81
345.031	93.81
345.259	98.81
345.487	98.81
345.714	109.81
345.942	84.81
346.17	89.81
346.397	98.81
346.625	81.81
346.853	99.81
347.08	92.81
347.308	102.81
347.535	102.81
347.763	104.81
347.99	95.81
348.218	88.81
348.445	103.81
348.673	105.81
348.9	93.81
349.128	107.81
349.355	96.81
349.583	96.81
349.81	92.81
350.037	92.81
350.265	80.81
350.492	97.81
350.72	93.81
350.947	101.81
351.174	107.81
351.402	113.81
351.629	104.81
351.856	105.81
352.083	91.81
352.311	99.81
352.538	95.81
352.765	104.81
352.992	105.81
353.22	110.81
353.447	108.81
353.674	93.81
353.901	92.81
354.128	98.81
354.355	95.81
354.583	106.81
354.81	87.81
355.037	105.81
355.264	92.81
355.491	99.81
355.718	92.81
355.945	87.81
356.172	82.81
356.399	93.81
356.626	100.81
356.853	89.81
357.08	89.81
357.307	91.81
357.534	89.81
357.761	85.81
357.988	104.81
358.215	89.81
358.441	100.81
358.668	96.81
358.895	96.81
359.122	75.81
359.349	89.81
359.576	98.81
359.802	86.81
360.029	90.81
360.256	103.81
360.483	98.81
360.709	77.81
360.936	85.81
361.163	105.81
361.39	86.81
361.616	105.81
361.843	93.81
362.07	91.81
362.296	96.81
362.523	96.81
362.749	101.81
362.976	111.81
363.203	99.81
363.429	98.81
363.656	90.81
363.882	97.81
364.109	96.81
364.335	92.81
364.562	97.81
364.788	94.81
365.015	92.81
365.241	98.81
365.468	107.81
365.694	110.81
365.92	93.81
366.147	97.81
366.373	82.81
366.599	87.81
366.826	94.81
367.052	91.81
367.278	91.81
367.505	96.81
367.731	98.81
367.957	93.81
368.184	82.81
368.41	92.81
368.636	113.81
368.862	115.81
369.089	106.81
369.315	95.81
369.541	76.81
369.767	92.81
369.993	91.81
370.219	101.81
370.445	91.81
370.672	95.81
370.898	90.81
371.124	85.81
371.35	101.81
371.576	93.81
371.802	82.81
372.028	93.81
372.254	92.81
372.48	81.81
372.706	91.81
372.932	100.81
373.158	95.81
373.384	88.81
373.61	94.81
373.835	92.81
374.061	71.81
374.287	110.81
374.513	107.81
374.739	96.81
374.965	99.81
375.191	85.81
375.416	98.81
375.642	89.81
375.868	84.81
376.094	87.81
376.319	96.81
376.545	94.81
376.771	83.81
376.997	99.81
377.222	84.81
377.448	108.81
377.674	99.81
377.899	80.81
378.125	90.81
378.35	96.81
378.576	99.81
378.802	81.81
379.027	91.81
379.253	99.81
379.478	73.81
379.704	93.81
379.929	90.81
380.155	98.81
380.38	77.81
380.606	93.81
380.831	82.81
381.057	103.81
381.282	90.81
381.507	95.81
381.733	101.81
381.958	92.81
382.184	98.81
382.409	99.81
382.634	107.81
382.86	92.81
383.085	92.81
383.31	101.81
383.535	108.81
383.761	91.81
383.986	111.81
384.211	105.81
384.436	96.81
384.662	97.81
384.887	83.81
385.112	99.81
385.337	107.81
385.562	80.81
385.787	99.81
386.013	118.81
386.238	117.81
386.463	107.81
386.688	114.81
386.913	108.81
387.138	100.81
387.363	95.81
387.588	103.81
387.813	99.81
388.038	103.81
388.263	102.81
388.488	94.81
388.713	98.81
388.938	89.81
389.163	95.81
389.387	89.81
389.612	97.81
389.837	92.81
390.062	103.81
390.287	85.81
390.512	98.81
390.736	96.81
390.961	87.81
391.186	87.81
391.411	97.81
391.636	101.81
391.86	105.81
392.085	87.81
392.31	95.81
392.534	107.81
392.759	87.81
392.984	80.81
393.208	87.81
393.433	104.81
393.658	90.81
393.882	89.81
394.107	88.81
394.331	78.81
394.556	95.81
394.78	91.81
395.005	90.81
395.229	84.81
395.454	77.81
395.678	77.81
395.903	92.81
396.127	83.81
396.352	87.81
396.576	96.81
396.801	95.81
397.025	94.81
397.249	76.81
397.474	83.81
397.698	95.81
397.922	76.81
398.147	96.81
398.371	90.81
398.595	79.81
398.82	99.81
399.044	82.81
399.268	87.81
399.492	97.81
399.717	92.81
399.941	92.81
400.165	97.81
400.389	79.81
400.613	91.81
400.837	93.81
401.062	87.81
401.286	86.81
401.51	78.81
401.734	77.81
401.958	101.81
402.182	123.81
402.406	141.81
402.63	92.81
402.854	98.81
403.078	81.81
403.302	91.81
403.526	101.81
403.75	80.81
403.974	85.81
404.198	88.81
404.422	95.81
404.645	82.81
404.869	79.81
405.093	91.81
405.317	88.81
405.541	100.81
405.765	95.81
405.988	96.81
406.212	151.81
406.436	216.81
406.66	126.81
406.883	101.81
407.107	88.81
407.331	79.81
407.555	101.81
407.778	93.81
408.002	92.81
408.226	87.81
408.449	83.81
408.673	81.81
408.896	87.81
409.12	96.81
409.344	80.81
409.567	82.81
409.791	96.81
410.014	90.81
410.238	102.81
410.461	98.81
410.685	79.81
410.908	91.81
411.132	97.81
411.355	95.81
411.578	86.81
411.802	93.81
412.025	96.81
412.249	83.81
412.472	95.81
412.695	89.81
412.919	77.81
413.142	88.81
413.365	96.81
413.589	100.81
413.812	100.81
414.035	90.81
414.258	87.81
414.482	98.81
414.705	87.81
414.928	85.81
415.151	89.81
415.374	90.81
415.597	85.81
415.821	84.81
416.044	95.81
416.267	91.81
416.49	97.81
416.713	95.81
416.936	92.81
417.159	84.81
417.382	85.81
417.605	88.81
417.828	91.81
418.051	91.81
418.274	98.81
418.497	95.81
418.72	93.81
418.943	83.81
419.166	93.81
419.389	91.81
419.611	89.81
419.834	94.81
420.057	90.81
420.28	86.81
420.503	97.81
420.726	88.81
420.948	83.81
421.171	96.81
421.394	71.81
421.617	78.81
421.839	101.81
422.062	89.81
422.285	84.81
422.507	107.81
422.73	97.81
422.953	101.81
423.175	75.81
423.398	76.81
423.621	76.81
423.843	90.81
424.066	84.81
424.288	97.81
424.511	67.81
424.733	96.81
424.956	106.81
425.178	91.81
425.401	94.81
425.623	98.81
425.846	96.81
426.068	82.81
426.291	79.81
426.513	82.81
426.735	84.81
426.958	94.81
427.18	97.81
427.402	107.81
427.625	139.81
427.847	116.81
428.069	112.81
428.292	90.81
428.514	73.81
428.736	87.81
428.958	86.81
429.181	89.81
429.403	81.81
429.625	77.81
429.847	77.81
430.069	104.81
430.292	84.81
430.514	69.81
430.736	89.81
430.958	85.81
431.18	97.81
431.402	84.81
431.624	94.81
431.846	97.81
432.068	77.81
432.29	98.81
432.512	80.81
432.734	90.81
432.956	98.81
433.178	96.81
433.4	87.81
433.622	90.81
433.844	91.81
434.066	106.81
434.287	80.81
434.509	80.81
434.731	94.81
434.953	83.81
435.175	85.81
435.397	81.81
435.618	76.81
435.84	95.81
436.062	106.81
436.284	95.81
436.505	90.81
436.727	91.81
436.949	91.81
437.17	87.81
437.392	87.81
437.614	91.81
437.835	121.81
438.057	108.81
438.278	99.81
438.5	98.81
438.721	99.81
438.943	84.81
439.165	81.81
439.386	89.81
439.608	92.81
439.829	82.81
440.05	113.81
440.272	122.81
440.493	83.81
440.715	73.81
440.936	83.81
441.158	85.81
441.379	91.81
441.6	94.81
441.822	80.81
442.043	93.81
442.264	105.81
442.486	93.81
442.707	90.81
442.928	98.81
443.149	117.81
443.371	115.81
443.592	108.81
443.813	99.81
444.034	95.81
444.255	98.81
444.476	86.81
444.698	80.81
444.919	83.81
445.14	119.81
445.361	114.81
445.582	102.81
445.803	119.81
446.024	116.81
446.245	106.81
446.466	95.81
446.687	92.81
446.908	84.81
447.129	89.81
447.35	81.81
447.571	91.81
447.792	90.81
448.013	86.81
448.234	96.81
448.455	106.81
448.675	119.81
448.896	101.81
449.117	101.81
449.338	100.81
449.559	104.81
449.779	114.81
450	86.81
450.221	83.81
450.442	75.81
450.662	87.81
450.883	108.81
451.104	109.81
451.324	105.81
451.545	89.81
451.766	80.81
451.986	98.81
452.207	96.81
452.428	93.81
452.648	108.81
452.869	102.81
453.089	102.81
453.31	116.81
453.53	96.81
453.751	85.81
453.971	98.81
454.192	107.81
454.412	93.81
454.633	91.81
454.853	89.81
455.073	98.81
455.294	85.81
455.514	93.81
455.734	81.81
455.955	82.81
456.175	87.81
456.395	84.81
456.616	67.81
456.836	80.81
457.056	97.81
457.276	85.81
457.497	86.81
457.717	77.81
457.937	76.81
458.157	85.81
458.377	108.81
458.598	110.81
458.818	138.81
459.038	153.81
459.258	92.81
459.478	87.81
459.698	93.81
459.918	92.81
460.138	89.81
460.358	96.81
460.578	98.81
460.798	93.81
461.018	89.81
461.238	88.81
461.458	88.81
461.678	90.81
461.898	75.81
462.118	83.81
462.338	83.81
462.558	89.81
462.777	95.81
462.997	105.81
463.217	82.81
463.437	73.81
463.657	85.81
463.876	81.81
464.096	93.81
464.316	86.81
464.536	77.81
464.755	90.81
464.975	101.81
465.195	131.81
465.414	123.81
465.634	107.81
465.854	79.81
466.073	89.81
466.293	79.81
466.512	81.81
466.732	81.81
466.951	97.81
467.171	90.81
467.391	90.81
467.61	109.81
467.829	117.81
468.049	111.81
468.268	136.81
468.488	99.81
468.707	71.81
468.927	87.81
469.146	88.81
469.365	81.81
469.585	102.81
469.804	95.81
470.023	98.81
470.243	89.81
470.462	97.81
470.681	83.81
470.901	89.81
471.12	86.81
471.339	74.81
471.558	85.81
471.777	80.81
471.997	107.81
472.216	191.81
472.435	270.81
472.654	123.81
472.873	85.81
473.092	84.81
473.311	81.81
473.53	92.81
473.749	96.81
473.968	93.81
474.187	80.81
474.406	85.81
474.625	77.81
474.844	82.81
475.063	79.81
475.282	100.81
475.501	85.81
475.72	91.81
475.939	102.81
476.158	98.81
476.377	73.81
476.596	82.81
476.814	85.81
477.033	92.81
477.252	91.81
477.471	85.81
477.69	81.81
477.908	94.81
478.127	93.81
478.346	91.81
478.564	89.81
478.783	100.81
479.002	83.81
479.22	95.81
479.439	88.81
479.658	82.81
479.876	87.81
480.095	93.81
480.313	100.81
480.532	100.81
480.751	96.81
480.969	169.81
481.188	421.81
481.406	262.81
481.624	123.81
481.843	90.81
482.061	82.81
482.28	93.81
482.498	95.81
482.717	82.81
482.935	79.81
483.153	77.81
483.372	83.81
483.59	96.81
483.808	89.81
484.027	87.81
484.245	87.81
484.463	87.81
484.681	96.81
484.9	89.81
485.118	76.81
485.336	83.81
485.554	115.81
485.772	76.81
485.99	112.81
486.209	106.81
486.427	109.81
486.645	106.81
486.863	93.81
487.081	103.81
487.299	93.81
487.517	85.81
487.735	91.81
487.953	101.81
488.171	94.81
488.389	87.81
488.607	83.81
488.825	99.81
489.043	86.81
489.261	87.81
489.479	90.81
489.696	89.81
489.914	88.81
490.132	84.81
490.35	94.81
490.568	97.81
490.786	100.81
491.003	100.81
491.221	90.81
491.439	84.81
491.657	101.81
491.874	99.81
492.092	79.81
492.31	97.81
492.527	81.81
492.745	94.81
492.963	79.81
493.18	83.81
493.398	100.81
493.615	90.81
493.833	92.81
494.05	88.81
494.268	93.81
494.485	92.81
494.703	103.81
494.92	98.81
495.138	86.81
495.355	101.81
495.573	75.81
495.79	84.81
496.008	96.81
496.225	86.81
496.442	92.81
496.66	92.81
496.877	103.81
497.094	101.81
497.312	85.81
497.529	85.81
497.746	84.81
497.963	85.81
498.181	92.81
498.398	91.81
498.615	109.81
498.832	102.81
499.049	95.81
499.267	81.81
499.484	81.81
499.701	79.81
499.918	88.81
500.135	77.81
500.352	98.81
500.569	101.81
500.786	99.81
501.003	90.81
501.22	81.81
501.437	90.81
501.654	97.81
501.871	92.81
502.088	95.81
502.305	81.81
502.522	93.81
502.739	87.81
502.956	92.81
503.172	89.81
503.389	100.81
503.606	115.81
503.823	97.81
504.04	101.81
504.256	86.81
504.473	90.81
504.69	84.81
504.907	101.81
505.123	87.81
505.34	87.81
505.557	95.81
505.773	81.81
505.99	84.81
506.207	95.81
506.423	80.81
506.64	87.81
506.856	99.81
507.073	98.81
507.289	95.81
507.506	97.81
507.722	100.81
507.939	95.81
508.155	92.81
508.372	87.81
508.588	75.81
508.805	88.81
509.021	100.81
509.238	96.81
509.454	97.81
509.67	105.81
509.887	111.81
510.103	119.81
510.319	195.81
510.536	742.81
510.752	2401.81
510.968	669.81
511.184	157.81
511.401	104.81
511.617	85.81
511.833	89.81
512.049	87.81
512.265	93.81
512.481	88.81
512.698	87.81
512.914	93.81
513.13	87.81
513.346	99.81
513.562	104.81
513.778	90.81
513.994	86.81
514.21	117.81
514.426	115.81
514.642	136.81
514.858	115.81
515.074	147.81
515.29	389.81
515.506	1304.81
515.721	477.81
515.937	142.81
516.153	106.81
