Data from Circ_1996_H10_HRD10591_00061.txt Node
Date: Wed Jan 03 11:33:18 EST 2024
User: Yrep
Spectrometer: HR+D1059
Trigger mode: 1
Integration Time (sec): 1.000000E-1
Scans to average: 1
Electric dark correction enabled: true
Nonlinearity correction enabled: false
Boxcar width: 0
XAxis mode: Wavelengths
Number of Pixels in Spectrum: 2048
>>>>>Begin Spectral Data<<<<<
223.165	-18.75
223.4	-18.75
223.635	-18.75
223.869	-17.75
224.104	-11.75
224.338	-10.75
224.573	-16.75
224.808	-13.75
225.042	-7.75
225.277	-9.75
225.511	-12.75
225.746	-6.75
225.98	-0.75
226.215	14.25
226.449	27.25
226.683	11.25
226.918	36.25
227.152	38.25
227.387	44.25
227.621	47.25
227.856	44.25
228.09	48.25
228.324	58.25
228.559	70.25
228.793	59.25
229.027	62.25
229.262	76.25
229.496	74.25
229.73	73.25
229.964	82.25
230.199	75.25
230.433	62.25
230.667	86.25
230.901	92.25
231.136	89.25
231.37	86.25
231.604	88.25
231.838	79.25
232.072	76.25
232.306	73.25
232.541	80.25
232.775	83.25
233.009	81.25
233.243	86.25
233.477	89.25
233.711	82.25
233.945	87.25
234.179	68.25
234.413	87.25
234.647	85.25
234.881	76.25
235.115	85.25
235.349	73.25
235.583	92.25
235.817	77.25
236.051	90.25
236.285	71.25
236.519	81.25
236.753	83.25
236.987	84.25
237.221	77.25
237.455	85.25
237.689	87.25
237.922	71.25
238.156	85.25
238.39	66.25
238.624	70.25
238.858	85.25
239.091	85.25
239.325	92.25
239.559	84.25
239.793	75.25
240.027	89.25
240.26	82.25
240.494	78.25
240.728	85.25
240.961	88.25
241.195	91.25
241.429	92.25
241.662	79.25
241.896	76.25
242.13	90.25
242.363	76.25
242.597	81.25
242.83	69.25
243.064	80.25
243.298	77.25
243.531	63.25
243.765	74.25
243.998	82.25
244.232	83.25
244.465	75.25
244.699	80.25
244.932	78.25
245.166	88.25
245.399	79.25
245.633	78.25
245.866	65.25
246.099	57.25
246.333	75.25
246.566	88.25
246.8	73.25
247.033	85.25
247.266	78.25
247.5	81.25
247.733	78.25
247.966	76.25
248.2	81.25
248.433	97.25
248.666	83.25
248.899	87.25
249.133	90.25
249.366	106.25
249.599	93.25
249.832	89.25
250.066	85.25
250.299	73.25
250.532	78.25
250.765	85.25
250.998	88.25
251.231	88.25
251.465	76.25
251.698	71.25
251.931	84.25
252.164	83.25
252.397	76.25
252.63	81.25
252.863	87.25
253.096	85.25
253.329	85.25
253.562	84.25
253.795	92.25
254.028	86.25
254.261	92.25
254.494	80.25
254.727	91.25
254.96	83.25
255.193	80.25
255.426	89.25
255.659	84.25
255.892	91.25
256.124	73.25
256.357	73.25
256.59	83.25
256.823	93.25
257.056	93.25
257.289	96.25
257.521	97.25
257.754	92.25
257.987	82.25
258.22	88.25
258.452	83.25
258.685	76.25
258.918	87.25
259.151	93.25
259.383	105.25
259.616	80.25
259.849	86.25
260.081	89.25
260.314	83.25
260.547	82.25
260.779	92.25
261.012	83.25
261.244	90.25
261.477	86.25
261.71	97.25
261.942	127.25
262.175	115.25
262.407	85.25
262.64	87.25
262.872	89.25
263.105	86.25
263.337	100.25
263.57	94.25
263.802	71.25
264.035	92.25
264.267	79.25
264.499	77.25
264.732	83.25
264.964	77.25
265.197	98.25
265.429	98.25
265.661	86.25
265.894	81.25
266.126	72.25
266.358	90.25
266.591	90.25
266.823	98.25
267.055	94.25
267.287	81.25
267.52	77.25
267.752	91.25
267.984	93.25
268.216	95.25
268.448	80.25
268.681	81.25
268.913	98.25
269.145	82.25
269.377	95.25
269.609	84.25
269.841	98.25
270.073	89.25
270.306	84.25
270.538	86.25
270.77	75.25
271.002	88.25
271.234	95.25
271.466	94.25
271.698	73.25
271.93	83.25
272.162	81.25
272.394	75.25
272.626	89.25
272.858	87.25
273.09	78.25
273.322	106.25
273.553	104.25
273.785	80.25
274.017	95.25
274.249	88.25
274.481	81.25
274.713	94.25
274.945	95.25
275.176	93.25
275.408	94.25
275.64	93.25
275.872	90.25
276.104	102.25
276.335	87.25
276.567	103.25
276.799	87.25
277.031	105.25
277.262	97.25
277.494	69.25
277.726	102.25
277.957	85.25
278.189	95.25
278.421	84.25
278.652	79.25
278.884	93.25
279.115	81.25
279.347	99.25
279.579	85.25
279.81	84.25
280.042	82.25
280.273	94.25
280.505	96.25
280.736	88.25
280.968	88.25
281.199	76.25
281.431	87.25
281.662	82.25
281.894	98.25
282.125	106.25
282.356	115.25
282.588	144.25
282.819	109.25
283.051	89.25
283.282	82.25
283.513	91.25
283.745	95.25
283.976	86.25
284.207	83.25
284.439	99.25
284.67	84.25
284.901	92.25
285.132	86.25
285.364	87.25
285.595	102.25
285.826	82.25
286.057	96.25
286.288	98.25
286.52	96.25
286.751	91.25
286.982	83.25
287.213	82.25
287.444	101.25
287.675	93.25
287.906	101.25
288.138	89.25
288.369	95.25
288.6	93.25
288.831	85.25
289.062	86.25
289.293	85.25
289.524	95.25
289.755	92.25
289.986	90.25
290.217	101.25
290.448	100.25
290.679	81.25
290.91	102.25
291.141	91.25
291.371	114.25
291.602	79.25
291.833	81.25
292.064	96.25
292.295	106.25
292.526	90.25
292.757	100.25
292.987	105.25
293.218	92.25
293.449	83.25
293.68	97.25
293.91	94.25
294.141	77.25
294.372	102.25
294.603	86.25
294.833	93.25
295.064	84.25
295.295	83.25
295.525	104.25
295.756	99.25
295.987	113.25
296.217	149.25
296.448	137.25
296.679	101.25
296.909	99.25
297.14	101.25
297.37	90.25
297.601	96.25
297.831	78.25
298.062	82.25
298.292	99.25
298.523	94.25
298.753	93.25
298.984	90.25
299.214	90.25
299.445	101.25
299.675	104.25
299.905	87.25
300.136	91.25
300.366	79.25
300.597	84.25
300.827	106.25
301.057	87.25
301.288	112.25
301.518	95.25
301.748	84.25
301.979	91.25
302.209	91.25
302.439	95.25
302.669	74.25
302.9	89.25
303.13	87.25
303.36	94.25
303.59	107.25
303.82	114.25
304.051	96.25
304.281	88.25
304.511	93.25
304.741	91.25
304.971	105.25
305.201	91.25
305.431	104.25
305.661	85.25
305.891	102.25
306.121	97.25
306.352	102.25
306.582	107.25
306.812	83.25
307.042	101.25
307.272	104.25
307.502	105.25
307.731	97.25
307.961	83.25
308.191	91.25
308.421	89.25
308.651	97.25
308.881	113.25
309.111	90.25
309.341	85.25
309.571	106.25
309.8	93.25
310.03	104.25
310.26	95.25
310.49	111.25
310.72	90.25
310.949	97.25
311.179	104.25
311.409	99.25
311.639	93.25
311.868	99.25
312.098	103.25
312.328	94.25
312.557	112.25
312.787	111.25
313.017	117.25
313.246	102.25
313.476	101.25
313.706	113.25
313.935	97.25
314.165	94.25
314.394	114.25
314.624	107.25
314.853	89.25
315.083	88.25
315.312	88.25
315.542	88.25
315.771	107.25
316.001	86.25
316.23	98.25
316.46	83.25
316.689	92.25
316.919	81.25
317.148	96.25
317.377	88.25
317.607	106.25
317.836	87.25
318.065	96.25
318.295	99.25
318.524	94.25
318.753	95.25
318.983	84.25
319.212	93.25
319.441	111.25
319.67	107.25
319.9	95.25
320.129	85.25
320.358	110.25
320.587	97.25
320.816	85.25
321.046	91.25
321.275	103.25
321.504	83.25
321.733	111.25
321.962	96.25
322.191	86.25
322.42	96.25
322.649	116.25
322.878	117.25
323.108	95.25
323.337	122.25
323.566	135.25
323.795	126.25
324.024	167.25
324.253	286.25
324.482	612.25
324.71	1198.25
324.939	1564.25
325.168	626.25
325.397	205.25
325.626	120.25
325.855	126.25
326.084	117.25
326.313	118.25
326.542	128.25
326.77	188.25
326.999	331.25
327.228	653.25
327.457	1149.25
327.686	914.25
327.914	289.25
328.143	191.25
328.372	168.25
328.6	146.25
328.829	118.25
329.058	115.25
329.287	124.25
329.515	120.25
329.744	111.25
329.972	121.25
330.201	168.25
330.43	192.25
330.658	143.25
330.887	133.25
331.115	108.25
331.344	105.25
331.572	105.25
331.801	98.25
332.03	92.25
332.258	90.25
332.486	98.25
332.715	107.25
332.943	95.25
333.172	99.25
333.4	99.25
333.629	113.25
333.857	122.25
334.085	134.25
334.314	169.25
334.542	231.25
334.771	212.25
334.999	119.25
335.227	107.25
335.455	113.25
335.684	85.25
335.912	100.25
336.14	112.25
336.369	105.25
336.597	96.25
336.825	103.25
337.053	109.25
337.281	100.25
337.51	105.25
337.738	97.25
337.966	83.25
338.194	108.25
338.422	97.25
338.65	78.25
338.878	112.25
339.106	100.25
339.334	89.25
339.562	98.25
339.79	92.25
340.018	103.25
340.246	110.25
340.474	94.25
340.702	87.25
340.93	77.25
341.158	89.25
341.386	92.25
341.614	88.25
341.842	91.25
342.07	99.25
342.298	96.25
342.526	66.25
342.754	87.25
342.981	84.25
343.209	86.25
343.437	101.25
343.665	96.25
343.893	109.25
344.12	103.25
344.348	102.25
344.576	92.25
344.804	108.25
345.031	90.25
345.259	96.25
345.487	87.25
345.714	93.25
345.942	109.25
346.17	105.25
346.397	89.25
346.625	97.25
346.853	98.25
347.08	87.25
347.308	96.25
347.535	97.25
347.763	95.25
347.99	112.25
348.218	104.25
348.445	87.25
348.673	78.25
348.9	100.25
349.128	97.25
349.355	94.25
349.583	92.25
349.81	94.25
350.037	95.25
350.265	89.25
350.492	89.25
350.72	108.25
350.947	106.25
351.174	101.25
351.402	99.25
351.629	95.25
351.856	118.25
352.083	95.25
352.311	107.25
352.538	102.25
352.765	99.25
352.992	95.25
353.22	107.25
353.447	96.25
353.674	98.25
353.901	92.25
354.128	97.25
354.355	86.25
354.583	97.25
354.81	103.25
355.037	100.25
355.264	92.25
355.491	85.25
355.718	86.25
355.945	99.25
356.172	103.25
356.399	94.25
356.626	100.25
356.853	84.25
357.08	91.25
357.307	98.25
357.534	93.25
357.761	97.25
357.988	96.25
358.215	98.25
358.441	70.25
358.668	99.25
358.895	90.25
359.122	98.25
359.349	99.25
359.576	92.25
359.802	102.25
360.029	106.25
360.256	118.25
360.483	99.25
360.709	94.25
360.936	81.25
361.163	87.25
361.39	84.25
361.616	102.25
361.843	109.25
362.07	92.25
362.296	98.25
362.523	93.25
362.749	101.25
362.976	85.25
363.203	100.25
363.429	96.25
363.656	92.25
363.882	95.25
364.109	85.25
364.335	85.25
364.562	85.25
364.788	102.25
365.015	93.25
365.241	87.25
365.468	110.25
365.694	118.25
365.92	93.25
366.147	100.25
366.373	84.25
366.599	87.25
366.826	81.25
367.052	85.25
367.278	97.25
367.505	93.25
367.731	89.25
367.957	91.25
368.184	88.25
368.41	105.25
368.636	101.25
368.862	128.25
369.089	112.25
369.315	101.25
369.541	96.25
369.767	92.25
369.993	95.25
370.219	100.25
370.445	93.25
370.672	91.25
370.898	93.25
371.124	87.25
371.35	85.25
371.576	75.25
371.802	85.25
372.028	87.25
372.254	82.25
372.48	100.25
372.706	93.25
372.932	88.25
373.158	82.25
373.384	99.25
373.61	94.25
373.835	96.25
374.061	94.25
374.287	86.25
374.513	99.25
374.739	95.25
374.965	79.25
375.191	93.25
375.416	89.25
375.642	98.25
375.868	97.25
376.094	83.25
376.319	102.25
376.545	97.25
376.771	97.25
376.997	77.25
377.222	94.25
377.448	93.25
377.674	88.25
377.899	87.25
378.125	109.25
378.35	97.25
378.576	105.25
378.802	97.25
379.027	85.25
379.253	102.25
379.478	95.25
379.704	110.25
379.929	93.25
380.155	91.25
380.38	94.25
380.606	89.25
380.831	96.25
381.057	91.25
381.282	97.25
381.507	105.25
381.733	93.25
381.958	97.25
382.184	121.25
382.409	95.25
382.634	108.25
382.86	109.25
383.085	100.25
383.31	106.25
383.535	111.25
383.761	122.25
383.986	97.25
384.211	108.25
384.436	99.25
384.662	97.25
384.887	92.25
385.112	105.25
385.337	108.25
385.562	107.25
385.787	104.25
386.013	121.25
386.238	113.25
386.463	99.25
386.688	119.25
386.913	102.25
387.138	106.25
387.363	111.25
387.588	106.25
387.813	108.25
388.038	123.25
388.263	117.25
388.488	110.25
388.713	97.25
388.938	100.25
389.163	99.25
389.387	111.25
389.612	107.25
389.837	96.25
390.062	100.25
390.287	97.25
390.512	95.25
390.736	93.25
390.961	87.25
391.186	91.25
391.411	98.25
391.636	91.25
391.86	94.25
392.085	93.25
392.31	91.25
392.534	100.25
392.759	93.25
392.984	70.25
393.208	81.25
393.433	105.25
393.658	104.25
393.882	94.25
394.107	77.25
394.331	90.25
394.556	85.25
394.78	94.25
395.005	101.25
395.229	104.25
395.454	79.25
395.678	87.25
395.903	88.25
396.127	97.25
396.352	87.25
396.576	91.25
396.801	95.25
397.025	94.25
397.249	79.25
397.474	92.25
397.698	89.25
397.922	90.25
398.147	83.25
398.371	95.25
398.595	82.25
398.82	92.25
399.044	89.25
399.268	102.25
399.492	89.25
399.717	98.25
399.941	90.25
400.165	86.25
400.389	92.25
400.613	81.25
400.837	90.25
401.062	95.25
401.286	93.25
401.51	102.25
401.734	101.25
401.958	94.25
402.182	121.25
402.406	155.25
402.63	119.25
402.854	84.25
403.078	77.25
403.302	78.25
403.526	99.25
403.75	99.25
403.974	81.25
404.198	83.25
404.422	114.25
404.645	98.25
404.869	95.25
405.093	99.25
405.317	102.25
405.541	94.25
405.765	95.25
405.988	123.25
406.212	161.25
406.436	196.25
406.66	139.25
406.883	103.25
407.107	100.25
407.331	95.25
407.555	93.25
407.778	97.25
408.002	85.25
408.226	91.25
408.449	83.25
408.673	88.25
408.896	83.25
409.12	91.25
409.344	95.25
409.567	86.25
409.791	88.25
410.014	113.25
410.238	90.25
410.461	87.25
410.685	93.25
410.908	98.25
411.132	110.25
411.355	87.25
411.578	80.25
411.802	101.25
412.025	103.25
412.249	86.25
412.472	96.25
412.695	86.25
412.919	97.25
413.142	90.25
413.365	86.25
413.589	93.25
413.812	82.25
414.035	94.25
414.258	84.25
414.482	94.25
414.705	99.25
414.928	95.25
415.151	90.25
415.374	93.25
415.597	103.25
415.821	71.25
416.044	94.25
416.267	83.25
416.49	85.25
416.713	90.25
416.936	97.25
417.159	97.25
417.382	102.25
417.605	91.25
417.828	95.25
418.051	84.25
418.274	94.25
418.497	74.25
418.72	89.25
418.943	81.25
419.166	93.25
419.389	93.25
419.611	94.25
419.834	88.25
420.057	102.25
420.28	90.25
420.503	103.25
420.726	86.25
420.948	98.25
421.171	99.25
421.394	91.25
421.617	78.25
421.839	93.25
422.062	98.25
422.285	97.25
422.507	99.25
422.73	107.25
422.953	99.25
423.175	90.25
423.398	79.25
423.621	101.25
423.843	97.25
424.066	67.25
424.288	97.25
424.511	79.25
424.733	101.25
424.956	91.25
425.178	98.25
425.401	93.25
425.623	89.25
425.846	93.25
426.068	93.25
426.291	87.25
426.513	78.25
426.735	83.25
426.958	87.25
427.18	90.25
427.402	119.25
427.625	155.25
427.847	139.25
428.069	104.25
428.292	91.25
428.514	72.25
428.736	90.25
428.958	93.25
429.181	87.25
429.403	68.25
429.625	98.25
429.847	85.25
430.069	97.25
430.292	89.25
430.514	76.25
430.736	98.25
430.958	102.25
431.18	83.25
431.402	86.25
431.624	99.25
431.846	93.25
432.068	84.25
432.29	90.25
432.512	100.25
432.734	92.25
432.956	81.25
433.178	103.25
433.4	92.25
433.622	85.25
433.844	85.25
434.066	95.25
434.287	94.25
434.509	93.25
434.731	89.25
434.953	102.25
435.175	94.25
435.397	97.25
435.618	98.25
435.84	101.25
436.062	110.25
436.284	107.25
436.505	99.25
436.727	98.25
436.949	94.25
437.17	107.25
437.392	77.25
437.614	92.25
437.835	113.25
438.057	107.25
438.278	94.25
438.5	98.25
438.721	106.25
438.943	100.25
439.165	99.25
439.386	99.25
439.608	86.25
439.829	91.25
440.05	117.25
440.272	126.25
440.493	93.25
440.715	97.25
440.936	95.25
441.158	81.25
441.379	81.25
441.6	76.25
441.822	93.25
442.043	102.25
442.264	98.25
442.486	87.25
442.707	89.25
442.928	102.25
443.149	133.25
443.371	126.25
443.592	108.25
443.813	100.25
444.034	87.25
444.255	94.25
444.476	96.25
444.698	96.25
444.919	96.25
445.14	137.25
445.361	111.25
445.582	90.25
445.803	126.25
446.024	113.25
446.245	125.25
446.466	106.25
446.687	85.25
446.908	91.25
447.129	86.25
447.35	81.25
447.571	103.25
447.792	93.25
448.013	101.25
448.234	110.25
448.455	97.25
448.675	103.25
448.896	112.25
449.117	99.25
449.338	101.25
449.559	101.25
449.779	116.25
450	95.25
450.221	93.25
450.442	81.25
450.662	82.25
450.883	99.25
451.104	110.25
451.324	102.25
451.545	102.25
451.766	94.25
451.986	94.25
452.207	92.25
452.428	92.25
452.648	110.25
452.869	112.25
453.089	117.25
453.31	108.25
453.53	106.25
453.751	95.25
453.971	108.25
454.192	99.25
454.412	77.25
454.633	92.25
454.853	91.25
455.073	91.25
455.294	93.25
455.514	106.25
455.734	96.25
455.955	86.25
456.175	99.25
456.395	85.25
456.616	98.25
456.836	94.25
457.056	90.25
457.276	80.25
457.497	89.25
457.717	83.25
457.937	86.25
458.157	95.25
458.377	77.25
458.598	100.25
458.818	119.25
459.038	145.25
459.258	121.25
459.478	114.25
459.698	96.25
459.918	84.25
460.138	82.25
460.358	77.25
460.578	91.25
460.798	92.25
461.018	95.25
461.238	84.25
461.458	83.25
461.678	92.25
461.898	89.25
462.118	84.25
462.338	75.25
462.558	98.25
462.777	92.25
462.997	78.25
463.217	97.25
463.437	103.25
463.657	84.25
463.876	90.25
464.096	101.25
464.316	98.25
464.536	89.25
464.755	91.25
464.975	102.25
465.195	173.25
465.414	151.25
465.634	93.25
465.854	87.25
466.073	93.25
466.293	84.25
466.512	80.25
466.732	92.25
466.951	85.25
467.171	86.25
467.391	103.25
467.61	106.25
467.829	104.25
468.049	127.25
468.268	141.25
468.488	84.25
468.707	83.25
468.927	83.25
469.146	87.25
469.365	99.25
469.585	75.25
469.804	88.25
470.023	97.25
470.243	75.25
470.462	103.25
470.681	113.25
470.901	86.25
471.12	98.25
471.339	84.25
471.558	90.25
471.777	86.25
471.997	102.25
472.216	185.25
472.435	275.25
472.654	126.25
472.873	93.25
473.092	94.25
473.311	95.25
473.53	74.25
473.749	87.25
473.968	86.25
474.187	88.25
474.406	91.25
474.625	87.25
474.844	80.25
475.063	92.25
475.282	97.25
475.501	92.25
475.72	69.25
475.939	83.25
476.158	83.25
476.377	90.25
476.596	87.25
476.814	94.25
477.033	95.25
477.252	82.25
477.471	88.25
477.69	77.25
477.908	96.25
478.127	96.25
478.346	97.25
478.564	86.25
478.783	84.25
479.002	85.25
479.22	98.25
479.439	92.25
479.658	108.25
479.876	104.25
480.095	112.25
480.313	98.25
480.532	99.25
480.751	97.25
480.969	188.25
481.188	463.25
481.406	285.25
481.624	108.25
481.843	99.25
482.061	92.25
482.28	91.25
482.498	82.25
482.717	91.25
482.935	97.25
483.153	89.25
483.372	80.25
483.59	83.25
483.808	102.25
484.027	95.25
484.245	95.25
484.463	77.25
484.681	107.25
484.9	96.25
485.118	88.25
485.336	107.25
485.554	92.25
485.772	108.25
485.99	113.25
486.209	107.25
486.427	102.25
486.645	95.25
486.863	109.25
487.081	98.25
487.299	92.25
487.517	87.25
487.735	92.25
487.953	101.25
488.171	83.25
488.389	82.25
488.607	107.25
488.825	97.25
489.043	100.25
489.261	89.25
489.479	77.25
489.696	113.25
489.914	93.25
490.132	97.25
490.35	93.25
490.568	86.25
490.786	88.25
491.003	81.25
491.221	91.25
491.439	88.25
491.657	80.25
491.874	86.25
492.092	91.25
492.31	100.25
492.527	95.25
492.745	103.25
492.963	91.25
493.18	93.25
493.398	99.25
493.615	84.25
493.833	97.25
494.05	83.25
494.268	91.25
494.485	88.25
494.703	92.25
494.92	93.25
495.138	100.25
495.355	75.25
495.573	84.25
495.79	87.25
496.008	94.25
496.225	77.25
496.442	98.25
496.66	94.25
496.877	84.25
497.094	93.25
497.312	83.25
497.529	83.25
497.746	101.25
497.963	95.25
498.181	93.25
498.398	105.25
498.615	109.25
498.832	95.25
499.049	83.25
499.267	87.25
499.484	84.25
499.701	91.25
499.918	87.25
500.135	90.25
500.352	78.25
500.569	87.25
500.786	93.25
501.003	91.25
501.22	91.25
501.437	70.25
501.654	100.25
501.871	98.25
502.088	83.25
502.305	80.25
502.522	87.25
502.739	111.25
502.956	94.25
503.172	96.25
503.389	91.25
503.606	94.25
503.823	100.25
504.04	102.25
504.256	85.25
504.473	95.25
504.69	83.25
504.907	85.25
505.123	100.25
505.34	107.25
505.557	87.25
505.773	100.25
505.99	101.25
506.207	95.25
506.423	91.25
506.64	99.25
506.856	96.25
507.073	115.25
507.289	97.25
507.506	98.25
507.722	111.25
507.939	98.25
508.155	101.25
508.372	90.25
508.588	84.25
508.805	102.25
509.021	94.25
509.238	102.25
509.454	95.25
509.67	114.25
509.887	120.25
510.103	131.25
510.319	232.25
510.536	762.25
510.752	2466.25
510.968	665.25
511.184	165.25
511.401	101.25
511.617	98.25
511.833	93.25
512.049	84.25
512.265	93.25
512.481	89.25
512.698	94.25
512.914	103.25
513.13	95.25
513.346	90.25
513.562	95.25
513.778	96.25
513.994	99.25
514.21	97.25
514.426	115.25
514.642	138.25
514.858	113.25
515.074	151.25
