Data from Circ_1996_H10_HRD10591_00030.txt Node
Date: Wed Jan 03 11:33:12 EST 2024
User: Yrep
Spectrometer: HR+D1059
Trigger mode: 1
Integration Time (sec): 1.000000E-1
Scans to average: 1
Electric dark correction enabled: true
Nonlinearity correction enabled: false
Boxcar width: 0
XAxis mode: Wavelengths
Number of Pixels in Spectrum: 2048
>>>>>Begin Spectral Data<<<<<
223.165	-23.25
223.4	-23.25
223.635	-23.25
223.869	-32.25
224.104	-17.25
224.338	-29.25
224.573	-21.25
224.808	-3.25
225.042	-3.25
225.277	3.75
225.511	4.75
225.746	7.75
225.98	14.75
226.215	14.75
226.449	9.75
226.683	28.75
226.918	21.75
227.152	23.75
227.387	31.75
227.621	54.75
227.856	31.75
228.09	31.75
228.324	68.75
228.559	54.75
228.793	47.75
229.027	67.75
229.262	56.75
229.496	73.75
229.73	72.75
229.964	84.75
230.199	80.75
230.433	79.75
230.667	87.75
230.901	83.75
231.136	61.75
231.37	81.75
231.604	78.75
231.838	83.75
232.072	72.75
232.306	71.75
232.541	88.75
232.775	78.75
233.009	74.75
233.243	70.75
233.477	79.75
233.711	86.75
233.945	69.75
234.179	77.75
234.413	71.75
234.647	67.75
234.881	59.75
235.115	79.75
235.349	78.75
235.583	59.75
235.817	76.75
236.051	59.75
236.285	76.75
236.519	71.75
236.753	77.75
236.987	69.75
237.221	74.75
237.455	87.75
237.689	98.75
237.922	95.75
238.156	80.75
238.39	75.75
238.624	73.75
238.858	81.75
239.091	70.75
239.325	92.75
239.559	87.75
239.793	72.75
240.027	77.75
240.26	66.75
240.494	74.75
240.728	69.75
240.961	84.75
241.195	70.75
241.429	70.75
241.662	58.75
241.896	72.75
242.13	81.75
242.363	73.75
242.597	78.75
242.83	60.75
243.064	62.75
243.298	75.75
243.531	70.75
243.765	83.75
243.998	74.75
244.232	88.75
244.465	87.75
244.699	71.75
244.932	74.75
245.166	69.75
245.399	69.75
245.633	78.75
245.866	66.75
246.099	89.75
246.333	95.75
246.566	74.75
246.8	75.75
247.033	77.75
247.266	83.75
247.5	81.75
247.733	78.75
247.966	80.75
248.2	66.75
248.433	93.75
248.666	83.75
248.899	71.75
249.133	93.75
249.366	76.75
249.599	100.75
249.832	92.75
250.066	79.75
250.299	76.75
250.532	72.75
250.765	68.75
250.998	76.75
251.231	80.75
251.465	60.75
251.698	85.75
251.931	74.75
252.164	66.75
252.397	61.75
252.63	82.75
252.863	75.75
253.096	59.75
253.329	86.75
253.562	78.75
253.795	77.75
254.028	71.75
254.261	65.75
254.494	73.75
254.727	82.75
254.96	85.75
255.193	67.75
255.426	70.75
255.659	76.75
255.892	77.75
256.124	91.75
256.357	70.75
256.59	76.75
256.823	87.75
257.056	72.75
257.289	77.75
257.521	82.75
257.754	83.75
257.987	81.75
258.22	80.75
258.452	80.75
258.685	83.75
258.918	82.75
259.151	81.75
259.383	80.75
259.616	88.75
259.849	85.75
260.081	62.75
260.314	74.75
260.547	67.75
260.779	84.75
261.012	88.75
261.244	86.75
261.477	97.75
261.71	93.75
261.942	103.75
262.175	101.75
262.407	87.75
262.64	97.75
262.872	78.75
263.105	82.75
263.337	88.75
263.57	71.75
263.802	83.75
264.035	74.75
264.267	91.75
264.499	77.75
264.732	72.75
264.964	77.75
265.197	84.75
265.429	72.75
265.661	67.75
265.894	93.75
266.126	86.75
266.358	80.75
266.591	86.75
266.823	81.75
267.055	70.75
267.287	90.75
267.52	78.75
267.752	75.75
267.984	83.75
268.216	86.75
268.448	91.75
268.681	68.75
268.913	87.75
269.145	71.75
269.377	74.75
269.609	85.75
269.841	95.75
270.073	80.75
270.306	72.75
270.538	84.75
270.77	76.75
271.002	83.75
271.234	78.75
271.466	74.75
271.698	70.75
271.93	89.75
272.162	70.75
272.394	84.75
272.626	80.75
272.858	80.75
273.09	85.75
273.322	74.75
273.553	94.75
273.785	77.75
274.017	59.75
274.249	74.75
274.481	84.75
274.713	87.75
274.945	87.75
275.176	75.75
275.408	81.75
275.64	79.75
275.872	71.75
276.104	74.75
276.335	78.75
276.567	98.75
276.799	100.75
277.031	99.75
277.262	100.75
277.494	93.75
277.726	73.75
277.957	87.75
278.189	66.75
278.421	71.75
278.652	88.75
278.884	93.75
279.115	76.75
279.347	99.75
279.579	94.75
279.81	76.75
280.042	94.75
280.273	83.75
280.505	91.75
280.736	86.75
280.968	88.75
281.199	85.75
281.431	75.75
281.662	69.75
281.894	81.75
282.125	90.75
282.356	124.75
282.588	124.75
282.819	115.75
283.051	90.75
283.282	82.75
283.513	93.75
283.745	75.75
283.976	82.75
284.207	77.75
284.439	78.75
284.67	81.75
284.901	72.75
285.132	80.75
285.364	83.75
285.595	76.75
285.826	78.75
286.057	87.75
286.288	94.75
286.52	84.75
286.751	78.75
286.982	95.75
287.213	87.75
287.444	85.75
287.675	77.75
287.906	83.75
288.138	70.75
288.369	85.75
288.6	85.75
288.831	91.75
289.062	91.75
289.293	69.75
289.524	83.75
289.755	73.75
289.986	78.75
290.217	76.75
290.448	84.75
290.679	79.75
290.91	77.75
291.141	80.75
291.371	84.75
291.602	82.75
291.833	77.75
292.064	85.75
292.295	83.75
292.526	80.75
292.757	80.75
292.987	84.75
293.218	91.75
293.449	93.75
293.68	75.75
293.91	89.75
294.141	96.75
294.372	84.75
294.603	86.75
294.833	78.75
295.064	86.75
295.295	74.75
295.525	79.75
295.756	100.75
295.987	121.75
296.217	133.75
296.448	130.75
296.679	91.75
296.909	86.75
297.14	78.75
297.37	83.75
297.601	71.75
297.831	70.75
298.062	71.75
298.292	82.75
298.523	88.75
298.753	90.75
298.984	79.75
299.214	84.75
299.445	98.75
299.675	84.75
299.905	93.75
300.136	96.75
300.366	88.75
300.597	77.75
300.827	91.75
301.057	95.75
301.288	90.75
301.518	101.75
301.748	82.75
301.979	104.75
302.209	90.75
302.439	93.75
302.669	70.75
302.9	80.75
303.13	92.75
303.36	92.75
303.59	93.75
303.82	98.75
304.051	86.75
304.281	72.75
304.511	73.75
304.741	92.75
304.971	69.75
305.201	102.75
305.431	82.75
305.661	73.75
305.891	71.75
306.121	86.75
306.352	89.75
306.582	103.75
306.812	104.75
307.042	88.75
307.272	95.75
307.502	86.75
307.731	95.75
307.961	95.75
308.191	76.75
308.421	96.75
308.651	88.75
308.881	78.75
309.111	104.75
309.341	82.75
309.571	88.75
309.8	87.75
310.03	86.75
310.26	108.75
310.49	88.75
310.72	95.75
310.949	102.75
311.179	92.75
311.409	93.75
311.639	92.75
311.868	99.75
312.098	84.75
312.328	84.75
312.557	104.75
312.787	96.75
313.017	100.75
313.246	78.75
313.476	81.75
313.706	78.75
313.935	92.75
314.165	89.75
314.394	94.75
314.624	83.75
314.853	92.75
315.083	72.75
315.312	99.75
315.542	98.75
315.771	79.75
316.001	93.75
316.23	86.75
316.46	69.75
316.689	78.75
316.919	97.75
317.148	76.75
317.377	86.75
317.607	79.75
317.836	78.75
318.065	92.75
318.295	78.75
318.524	79.75
318.753	91.75
318.983	74.75
319.212	94.75
319.441	98.75
319.67	95.75
319.9	87.75
320.129	92.75
320.358	96.75
320.587	79.75
320.816	91.75
321.046	90.75
321.275	85.75
321.504	98.75
321.733	85.75
321.962	88.75
322.191	98.75
322.42	85.75
322.649	86.75
322.878	93.75
323.108	94.75
323.337	99.75
323.566	110.75
323.795	118.75
324.024	160.75
324.253	309.75
324.482	603.75
324.71	1227.75
324.939	1589.75
325.168	614.75
325.397	180.75
325.626	134.75
325.855	111.75
326.084	108.75
326.313	112.75
326.542	127.75
326.77	191.75
326.999	335.75
327.228	626.75
327.457	1135.75
327.686	940.75
327.914	303.75
328.143	180.75
328.372	162.75
328.6	115.75
328.829	112.75
329.058	110.75
329.287	119.75
329.515	112.75
329.744	106.75
329.972	114.75
330.201	140.75
330.43	182.75
330.658	139.75
330.887	127.75
331.115	131.75
331.344	92.75
331.572	104.75
331.801	102.75
332.03	106.75
332.258	91.75
332.486	89.75
332.715	99.75
332.943	84.75
333.172	86.75
333.4	99.75
333.629	100.75
333.857	110.75
334.085	135.75
334.314	140.75
334.542	187.75
334.771	194.75
334.999	117.75
335.227	88.75
335.455	90.75
335.684	93.75
335.912	95.75
336.14	95.75
336.369	96.75
336.597	92.75
336.825	106.75
337.053	99.75
337.281	82.75
337.51	69.75
337.738	84.75
337.966	83.75
338.194	95.75
338.422	74.75
338.65	87.75
338.878	102.75
339.106	90.75
339.334	96.75
339.562	79.75
339.79	83.75
340.018	74.75
340.246	76.75
340.474	91.75
340.702	92.75
340.93	86.75
341.158	84.75
341.386	89.75
341.614	104.75
341.842	94.75
342.07	102.75
342.298	94.75
342.526	83.75
342.754	83.75
342.981	77.75
343.209	90.75
343.437	90.75
343.665	68.75
343.893	102.75
344.12	77.75
344.348	77.75
344.576	83.75
344.804	88.75
345.031	91.75
345.259	69.75
345.487	76.75
345.714	91.75
345.942	103.75
346.17	92.75
346.397	89.75
346.625	70.75
346.853	87.75
347.08	84.75
347.308	85.75
347.535	96.75
347.763	92.75
347.99	83.75
348.218	99.75
348.445	91.75
348.673	101.75
348.9	90.75
349.128	87.75
349.355	77.75
349.583	78.75
349.81	82.75
350.037	72.75
350.265	91.75
350.492	98.75
350.72	101.75
350.947	92.75
351.174	109.75
351.402	106.75
351.629	92.75
351.856	85.75
352.083	95.75
352.311	88.75
352.538	111.75
352.765	109.75
352.992	116.75
353.22	103.75
353.447	108.75
353.674	97.75
353.901	88.75
354.128	91.75
354.355	95.75
354.583	86.75
354.81	95.75
355.037	91.75
355.264	87.75
355.491	94.75
355.718	87.75
355.945	87.75
356.172	84.75
356.399	84.75
356.626	90.75
356.853	75.75
357.08	85.75
357.307	89.75
357.534	90.75
357.761	85.75
357.988	94.75
358.215	87.75
358.441	109.75
358.668	86.75
358.895	97.75
359.122	89.75
359.349	88.75
359.576	90.75
359.802	83.75
360.029	99.75
360.256	79.75
360.483	88.75
360.709	75.75
360.936	83.75
361.163	75.75
361.39	102.75
361.616	90.75
361.843	78.75
362.07	86.75
362.296	92.75
362.523	93.75
362.749	83.75
362.976	77.75
363.203	86.75
363.429	69.75
363.656	95.75
363.882	107.75
364.109	83.75
364.335	85.75
364.562	87.75
364.788	88.75
365.015	83.75
365.241	104.75
365.468	92.75
365.694	96.75
365.92	78.75
366.147	88.75
366.373	79.75
366.599	88.75
366.826	93.75
367.052	100.75
367.278	93.75
367.505	79.75
367.731	76.75
367.957	79.75
368.184	83.75
368.41	86.75
368.636	104.75
368.862	114.75
369.089	73.75
369.315	88.75
369.541	86.75
369.767	91.75
369.993	83.75
370.219	84.75
370.445	86.75
370.672	100.75
370.898	85.75
371.124	91.75
371.35	94.75
371.576	96.75
371.802	70.75
372.028	75.75
372.254	77.75
372.48	63.75
372.706	85.75
372.932	83.75
373.158	75.75
373.384	90.75
373.61	83.75
373.835	85.75
374.061	81.75
374.287	86.75
374.513	91.75
374.739	85.75
374.965	92.75
375.191	92.75
375.416	89.75
375.642	92.75
375.868	77.75
376.094	81.75
376.319	94.75
376.545	76.75
376.771	94.75
376.997	92.75
377.222	83.75
377.448	71.75
377.674	70.75
377.899	92.75
378.125	98.75
378.35	75.75
378.576	84.75
378.802	98.75
379.027	79.75
379.253	89.75
379.478	80.75
379.704	79.75
379.929	89.75
380.155	81.75
380.38	84.75
380.606	101.75
380.831	90.75
381.057	100.75
381.282	87.75
381.507	85.75
381.733	86.75
381.958	89.75
382.184	95.75
382.409	96.75
382.634	95.75
382.86	117.75
383.085	87.75
383.31	110.75
383.535	88.75
383.761	87.75
383.986	89.75
384.211	92.75
384.436	98.75
384.662	101.75
384.887	115.75
385.112	114.75
385.337	117.75
385.562	111.75
385.787	96.75
386.013	123.75
386.238	111.75
386.463	104.75
386.688	112.75
386.913	86.75
387.138	96.75
387.363	98.75
387.588	98.75
387.813	110.75
388.038	97.75
388.263	117.75
388.488	112.75
388.713	94.75
388.938	85.75
389.163	86.75
389.387	87.75
389.612	84.75
389.837	94.75
390.062	86.75
390.287	77.75
390.512	77.75
390.736	94.75
390.961	85.75
391.186	88.75
391.411	84.75
391.636	87.75
391.86	95.75
392.085	79.75
392.31	79.75
392.534	73.75
392.759	88.75
392.984	86.75
393.208	104.75
393.433	112.75
393.658	89.75
393.882	84.75
394.107	72.75
394.331	79.75
394.556	87.75
394.78	85.75
395.005	79.75
395.229	88.75
395.454	85.75
395.678	64.75
395.903	84.75
396.127	75.75
396.352	87.75
396.576	85.75
396.801	92.75
397.025	102.75
397.249	104.75
397.474	91.75
397.698	75.75
397.922	76.75
398.147	87.75
398.371	83.75
398.595	87.75
398.82	78.75
399.044	82.75
399.268	85.75
399.492	80.75
399.717	78.75
399.941	75.75
400.165	93.75
400.389	76.75
400.613	83.75
400.837	93.75
401.062	90.75
401.286	91.75
401.51	82.75
401.734	81.75
401.958	96.75
402.182	114.75
402.406	154.75
402.63	117.75
402.854	88.75
403.078	76.75
403.302	86.75
403.526	84.75
403.75	82.75
403.974	101.75
404.198	88.75
404.422	96.75
404.645	86.75
404.869	97.75
405.093	75.75
405.317	91.75
405.541	102.75
405.765	96.75
405.988	107.75
406.212	164.75
406.436	216.75
406.66	128.75
406.883	102.75
407.107	88.75
407.331	79.75
407.555	90.75
407.778	87.75
408.002	78.75
408.226	83.75
408.449	95.75
408.673	84.75
408.896	91.75
409.12	83.75
409.344	74.75
409.567	79.75
409.791	92.75
410.014	82.75
410.238	71.75
410.461	84.75
410.685	93.75
410.908	76.75
411.132	98.75
411.355	96.75
411.578	79.75
411.802	90.75
412.025	88.75
412.249	91.75
412.472	91.75
412.695	84.75
412.919	79.75
413.142	89.75
413.365	87.75
413.589	66.75
413.812	85.75
414.035	80.75
414.258	83.75
414.482	81.75
414.705	93.75
414.928	69.75
415.151	92.75
415.374	83.75
415.597	79.75
415.821	81.75
416.044	80.75
416.267	88.75
416.49	91.75
416.713	82.75
416.936	78.75
417.159	75.75
417.382	85.75
417.605	90.75
417.828	90.75
418.051	80.75
418.274	80.75
418.497	88.75
418.72	71.75
418.943	95.75
419.166	84.75
419.389	79.75
419.611	89.75
419.834	91.75
420.057	90.75
420.28	90.75
420.503	93.75
420.726	75.75
420.948	77.75
421.171	84.75
421.394	94.75
421.617	75.75
421.839	82.75
422.062	84.75
422.285	99.75
422.507	102.75
422.73	108.75
422.953	94.75
423.175	76.75
423.398	89.75
423.621	88.75
423.843	87.75
424.066	81.75
424.288	85.75
424.511	78.75
424.733	82.75
424.956	73.75
425.178	81.75
425.401	87.75
425.623	91.75
425.846	88.75
426.068	87.75
426.291	92.75
426.513	87.75
426.735	79.75
426.958	79.75
427.18	98.75
427.402	123.75
427.625	165.75
427.847	124.75
428.069	104.75
428.292	90.75
428.514	88.75
428.736	73.75
428.958	76.75
429.181	76.75
429.403	79.75
429.625	78.75
429.847	88.75
430.069	99.75
430.292	82.75
430.514	82.75
430.736	85.75
430.958	83.75
431.18	74.75
431.402	80.75
431.624	78.75
431.846	76.75
432.068	92.75
432.29	82.75
432.512	83.75
432.734	76.75
432.956	90.75
433.178	99.75
433.4	85.75
433.622	95.75
433.844	82.75
434.066	84.75
434.287	77.75
434.509	85.75
434.731	84.75
434.953	66.75
435.175	85.75
435.397	98.75
435.618	72.75
435.84	86.75
436.062	90.75
436.284	92.75
436.505	99.75
436.727	86.75
436.949	82.75
437.17	84.75
437.392	91.75
437.614	86.75
437.835	94.75
438.057	118.75
438.278	105.75
438.5	89.75
438.721	112.75
438.943	93.75
439.165	77.75
439.386	79.75
439.608	98.75
439.829	98.75
440.05	106.75
440.272	118.75
440.493	91.75
440.715	62.75
440.936	83.75
441.158	87.75
441.379	92.75
441.6	96.75
441.822	86.75
442.043	96.75
442.264	97.75
442.486	91.75
442.707	97.75
442.928	83.75
443.149	103.75
443.371	107.75
443.592	115.75
443.813	100.75
444.034	94.75
444.255	91.75
444.476	83.75
444.698	78.75
444.919	85.75
445.14	114.75
445.361	112.75
445.582	93.75
445.803	114.75
446.024	103.75
446.245	123.75
446.466	88.75
446.687	90.75
446.908	87.75
447.129	86.75
447.35	89.75
447.571	87.75
447.792	85.75
448.013	97.75
448.234	86.75
448.455	82.75
448.675	96.75
448.896	105.75
449.117	92.75
449.338	97.75
449.559	104.75
449.779	120.75
450	96.75
450.221	88.75
450.442	76.75
450.662	86.75
450.883	99.75
451.104	102.75
451.324	89.75
451.545	73.75
451.766	80.75
451.986	82.75
452.207	77.75
452.428	74.75
452.648	105.75
452.869	104.75
453.089	111.75
453.31	110.75
453.53	78.75
453.751	89.75
453.971	96.75
454.192	92.75
454.412	88.75
454.633	82.75
454.853	74.75
455.073	83.75
455.294	97.75
455.514	94.75
455.734	86.75
455.955	74.75
456.175	75.75
456.395	85.75
456.616	86.75
456.836	78.75
457.056	84.75
457.276	71.75
457.497	75.75
457.717	66.75
457.937	83.75
458.157	91.75
458.377	68.75
458.598	92.75
458.818	126.75
459.038	142.75
459.258	107.75
459.478	85.75
459.698	86.75
459.918	100.75
460.138	85.75
460.358	79.75
460.578	76.75
460.798	86.75
461.018	70.75
461.238	75.75
461.458	83.75
461.678	83.75
461.898	83.75
462.118	74.75
462.338	75.75
462.558	79.75
462.777	76.75
462.997	78.75
463.217	67.75
463.437	103.75
463.657	83.75
463.876	85.75
464.096	94.75
464.316	88.75
464.536	106.75
464.755	94.75
464.975	106.75
465.195	154.75
465.414	130.75
465.634	80.75
465.854	83.75
466.073	90.75
466.293	78.75
466.512	83.75
466.732	82.75
466.951	74.75
467.171	74.75
467.391	86.75
467.61	99.75
467.829	91.75
468.049	122.75
468.268	117.75
468.488	97.75
468.707	96.75
468.927	71.75
469.146	99.75
469.365	77.75
469.585	81.75
469.804	98.75
470.023	93.75
470.243	86.75
470.462	95.75
470.681	95.75
470.901	98.75
471.12	79.75
471.339	79.75
471.558	88.75
471.777	98.75
471.997	103.75
472.216	163.75
472.435	223.75
472.654	112.75
472.873	93.75
473.092	94.75
473.311	82.75
473.53	78.75
473.749	74.75
473.968	82.75
474.187	103.75
474.406	95.75
474.625	83.75
474.844	88.75
475.063	75.75
475.282	73.75
475.501	89.75
475.72	87.75
475.939	87.75
476.158	94.75
476.377	90.75
476.596	92.75
476.814	95.75
477.033	86.75
477.252	71.75
477.471	87.75
477.69	81.75
477.908	106.75
478.127	83.75
478.346	93.75
478.564	83.75
478.783	91.75
479.002	105.75
479.22	96.75
479.439	91.75
479.658	101.75
479.876	96.75
480.095	84.75
480.313	73.75
480.532	85.75
480.751	95.75
480.969	162.75
481.188	370.75
481.406	238.75
481.624	94.75
481.843	90.75
482.061	92.75
482.28	91.75
482.498	96.75
482.717	82.75
482.935	82.75
483.153	75.75
483.372	77.75
483.59	85.75
483.808	94.75
484.027	90.75
484.245	94.75
484.463	88.75
484.681	96.75
484.9	111.75
485.118	101.75
485.336	95.75
485.554	89.75
485.772	96.75
485.99	90.75
486.209	91.75
486.427	106.75
486.645	104.75
486.863	103.75
487.081	95.75
487.299	79.75
487.517	100.75
487.735	94.75
487.953	77.75
488.171	95.75
488.389	85.75
488.607	92.75
488.825	86.75
489.043	89.75
489.261	84.75
489.479	104.75
489.696	86.75
489.914	89.75
490.132	90.75
490.35	75.75
490.568	89.75
490.786	88.75
491.003	75.75
491.221	68.75
491.439	76.75
491.657	74.75
491.874	84.75
492.092	101.75
492.31	97.75
492.527	82.75
492.745	81.75
492.963	83.75
493.18	89.75
493.398	78.75
493.615	88.75
493.833	104.75
494.05	96.75
494.268	83.75
494.485	77.75
494.703	82.75
494.92	80.75
495.138	87.75
495.355	89.75
495.573	72.75
495.79	72.75
496.008	86.75
496.225	71.75
496.442	89.75
496.66	91.75
496.877	85.75
497.094	71.75
497.312	83.75
497.529	92.75
497.746	85.75
497.963	82.75
498.181	83.75
498.398	103.75
498.615	105.75
498.832	110.75
499.049	89.75
499.267	93.75
499.484	95.75
499.701	93.75
499.918	88.75
500.135	86.75
500.352	89.75
500.569	94.75
500.786	91.75
501.003	88.75
501.22	95.75
501.437	86.75
501.654	87.75
501.871	100.75
502.088	92.75
502.305	89.75
502.522	85.75
502.739	83.75
502.956	87.75
503.172	75.75
503.389	80.75
503.606	91.75
503.823	83.75
504.04	101.75
504.256	84.75
504.473	89.75
504.69	97.75
504.907	83.75
505.123	85.75
505.34	82.75
505.557	84.75
505.773	86.75
505.99	92.75
506.207	86.75
506.423	83.75
506.64	94.75
506.856	87.75
507.073	74.75
507.289	103.75
507.506	96.75
507.722	111.75
507.939	93.75
508.155	90.75
508.372	89.75
508.588	92.75
508.805	89.75
509.021	99.75
509.238	104.75
509.454	91.75
509.67	94.75
509.887	120.75
510.103	131.75
510.319	217.75
510.536	782.75
510.752	2543.75
510.968	698.75
511.184	158.75
511.401	102.75
511.617	91.75
511.833	98.75
512.049	88.75
512.265	88.75
512.481	103.75
512.698	100.75
512.914	85.75
513.13	86.75
513.346	92.75
513.562	87.75
513.778	95.75
513.994	92.75
514.21	91.75
514.426	108.75
514.642	116.75
514.858	119.75
515.074	153.75
515.29	426.75
515.506	1452.75
515.721	526.75
515.937	154.75
516.153	102.75
516.369	85.75
516.585	92.75
516.801	94.75
517.016	78.75
517.232	84.75
