Data from Circ_1996_H10_HRD10591_00043.txt Node
Date: Wed Jan 03 11:33:14 EST 2024
User: Yrep
Spectrometer: HR+D1059
Trigger mode: 1
Integration Time (sec): 1.000000E-1
Scans to average: 1
Electric dark correction enabled: true
Nonlinearity correction enabled: false
Boxcar width: 0
XAxis mode: Wavelengths
Number of Pixels in Spectrum: 2048
>>>>>Begin Spectral Data<<<<<
223.165	-21.44
223.4	-21.44
223.635	-21.44
223.869	-17.44
224.104	-23.44
224.338	-5.44
224.573	-6.44
224.808	-15.44
225.042	-9.44
225.277	-8.44
225.511	8.56
225.746	8.56
225.98	-1.44
226.215	14.56
226.449	13.56
226.683	22.56
226.918	20.56
227.152	20.56
227.387	23.56
227.621	31.56
227.856	50.56
228.09	34.56
228.324	53.56
228.559	54.56
228.793	66.56
229.027	67.56
229.262	75.56
229.496	81.56
229.73	88.56
229.964	75.56
230.199	88.56
230.433	71.56
230.667	69.56
230.901	102.56
231.136	79.56
231.37	81.56
231.604	77.56
231.838	85.56
232.072	77.56
232.306	78.56
232.541	77.56
232.775	79.56
233.009	91.56
233.243	98.56
233.477	77.56
233.711	82.56
233.945	87.56
234.179	73.56
234.413	90.56
234.647	97.56
234.881	81.56
235.115	87.56
235.349	87.56
235.583	68.56
235.817	80.56
236.051	67.56
236.285	79.56
236.519	72.56
236.753	97.56
236.987	75.56
237.221	76.56
237.455	89.56
237.689	74.56
237.922	84.56
238.156	75.56
238.39	74.56
238.624	89.56
238.858	83.56
239.091	86.56
239.325	87.56
239.559	76.56
239.793	78.56
240.027	92.56
240.26	76.56
240.494	70.56
240.728	78.56
240.961	84.56
241.195	69.56
241.429	79.56
241.662	86.56
241.896	78.56
242.13	67.56
242.363	75.56
242.597	75.56
242.83	91.56
243.064	85.56
243.298	87.56
243.531	63.56
243.765	73.56
243.998	80.56
244.232	79.56
244.465	84.56
244.699	91.56
244.932	79.56
245.166	89.56
245.399	71.56
245.633	81.56
245.866	93.56
246.099	75.56
246.333	81.56
246.566	79.56
246.8	68.56
247.033	86.56
247.266	77.56
247.5	87.56
247.733	98.56
247.966	103.56
248.2	86.56
248.433	89.56
248.666	79.56
248.899	84.56
249.133	79.56
249.366	95.56
249.599	89.56
249.832	98.56
250.066	94.56
250.299	93.56
250.532	82.56
250.765	81.56
250.998	82.56
251.231	82.56
251.465	77.56
251.698	74.56
251.931	94.56
252.164	89.56
252.397	91.56
252.63	84.56
252.863	81.56
253.096	80.56
253.329	90.56
253.562	84.56
253.795	93.56
254.028	74.56
254.261	75.56
254.494	78.56
254.727	99.56
254.96	70.56
255.193	69.56
255.426	69.56
255.659	74.56
255.892	75.56
256.124	87.56
256.357	80.56
256.59	77.56
256.823	84.56
257.056	83.56
257.289	95.56
257.521	89.56
257.754	87.56
257.987	66.56
258.22	94.56
258.452	64.56
258.685	86.56
258.918	78.56
259.151	86.56
259.383	93.56
259.616	92.56
259.849	82.56
260.081	77.56
260.314	83.56
260.547	92.56
260.779	86.56
261.012	93.56
261.244	97.56
261.477	89.56
261.71	97.56
261.942	119.56
262.175	116.56
262.407	99.56
262.64	84.56
262.872	97.56
263.105	82.56
263.337	83.56
263.57	88.56
263.802	86.56
264.035	94.56
264.267	82.56
264.499	88.56
264.732	84.56
264.964	90.56
265.197	82.56
265.429	84.56
265.661	103.56
265.894	76.56
266.126	87.56
266.358	91.56
266.591	93.56
266.823	88.56
267.055	90.56
267.287	88.56
267.52	84.56
267.752	81.56
267.984	75.56
268.216	91.56
268.448	82.56
268.681	80.56
268.913	84.56
269.145	77.56
269.377	100.56
269.609	94.56
269.841	90.56
270.073	73.56
270.306	79.56
270.538	101.56
270.77	92.56
271.002	95.56
271.234	86.56
271.466	105.56
271.698	97.56
271.93	82.56
272.162	93.56
272.394	79.56
272.626	100.56
272.858	92.56
273.09	81.56
273.322	95.56
273.553	66.56
273.785	89.56
274.017	91.56
274.249	87.56
274.481	81.56
274.713	80.56
274.945	90.56
275.176	96.56
275.408	91.56
275.64	86.56
275.872	89.56
276.104	82.56
276.335	97.56
276.567	111.56
276.799	117.56
277.031	107.56
277.262	100.56
277.494	107.56
277.726	85.56
277.957	94.56
278.189	71.56
278.421	93.56
278.652	64.56
278.884	73.56
279.115	99.56
279.347	95.56
279.579	92.56
279.81	114.56
280.042	95.56
280.273	101.56
280.505	78.56
280.736	92.56
280.968	91.56
281.199	97.56
281.431	93.56
281.662	87.56
281.894	95.56
282.125	102.56
282.356	124.56
282.588	142.56
282.819	107.56
283.051	91.56
283.282	83.56
283.513	96.56
283.745	62.56
283.976	79.56
284.207	76.56
284.439	78.56
284.67	94.56
284.901	102.56
285.132	82.56
285.364	92.56
285.595	102.56
285.826	86.56
286.057	98.56
286.288	90.56
286.52	94.56
286.751	88.56
286.982	92.56
287.213	76.56
287.444	100.56
287.675	86.56
287.906	100.56
288.138	94.56
288.369	100.56
288.6	99.56
288.831	89.56
289.062	101.56
289.293	96.56
289.524	90.56
289.755	99.56
289.986	97.56
290.217	82.56
290.448	87.56
290.679	97.56
290.91	94.56
291.141	81.56
291.371	90.56
291.602	86.56
291.833	87.56
292.064	106.56
292.295	102.56
292.526	93.56
292.757	86.56
292.987	76.56
293.218	86.56
293.449	89.56
293.68	94.56
293.91	86.56
294.141	98.56
294.372	101.56
294.603	81.56
294.833	97.56
295.064	83.56
295.295	95.56
295.525	98.56
295.756	106.56
295.987	124.56
296.217	143.56
296.448	136.56
296.679	103.56
296.909	89.56
297.14	98.56
297.37	87.56
297.601	87.56
297.831	85.56
298.062	96.56
298.292	88.56
298.523	81.56
298.753	79.56
298.984	97.56
299.214	90.56
299.445	87.56
299.675	95.56
299.905	112.56
300.136	93.56
300.366	89.56
300.597	90.56
300.827	98.56
301.057	98.56
301.288	109.56
301.518	106.56
301.748	101.56
301.979	82.56
302.209	98.56
302.439	84.56
302.669	84.56
302.9	103.56
303.13	101.56
303.36	99.56
303.59	90.56
303.82	104.56
304.051	100.56
304.281	92.56
304.511	91.56
304.741	82.56
304.971	75.56
305.201	84.56
305.431	109.56
305.661	82.56
305.891	90.56
306.121	94.56
306.352	99.56
306.582	98.56
306.812	98.56
307.042	99.56
307.272	97.56
307.502	99.56
307.731	89.56
307.961	103.56
308.191	96.56
308.421	99.56
308.651	108.56
308.881	89.56
309.111	86.56
309.341	72.56
309.571	104.56
309.8	92.56
310.03	106.56
310.26	93.56
310.49	88.56
310.72	108.56
310.949	101.56
311.179	99.56
311.409	80.56
311.639	91.56
311.868	95.56
312.098	91.56
312.328	94.56
312.557	101.56
312.787	103.56
313.017	102.56
313.246	108.56
313.476	109.56
313.706	88.56
313.935	83.56
314.165	91.56
314.394	99.56
314.624	99.56
314.853	101.56
315.083	98.56
315.312	93.56
315.542	108.56
315.771	105.56
316.001	88.56
316.23	103.56
316.46	88.56
316.689	89.56
316.919	101.56
317.148	94.56
317.377	93.56
317.607	87.56
317.836	91.56
318.065	95.56
318.295	87.56
318.524	97.56
318.753	106.56
318.983	97.56
319.212	111.56
319.441	106.56
319.67	100.56
319.9	79.56
320.129	88.56
320.358	89.56
320.587	89.56
320.816	93.56
321.046	81.56
321.275	98.56
321.504	112.56
321.733	106.56
321.962	103.56
322.191	96.56
322.42	97.56
322.649	118.56
322.878	110.56
323.108	119.56
323.337	122.56
323.566	124.56
323.795	129.56
324.024	174.56
324.253	325.56
324.482	629.56
324.71	1305.56
324.939	1712.56
325.168	657.56
325.397	221.56
325.626	125.56
325.855	117.56
326.084	139.56
326.313	136.56
326.542	141.56
326.77	186.56
326.999	347.56
327.228	666.56
327.457	1234.56
327.686	977.56
327.914	304.56
328.143	216.56
328.372	176.56
328.6	133.56
328.829	122.56
329.058	124.56
329.287	119.56
329.515	121.56
329.744	111.56
329.972	124.56
330.201	169.56
330.43	183.56
330.658	149.56
330.887	151.56
331.115	133.56
331.344	103.56
331.572	107.56
331.801	102.56
332.03	101.56
332.258	80.56
332.486	84.56
332.715	84.56
332.943	112.56
333.172	91.56
333.4	107.56
333.629	117.56
333.857	116.56
334.085	122.56
334.314	176.56
334.542	223.56
334.771	190.56
334.999	111.56
335.227	102.56
335.455	100.56
335.684	105.56
335.912	100.56
336.14	94.56
336.369	98.56
336.597	97.56
336.825	86.56
337.053	96.56
337.281	87.56
337.51	90.56
337.738	93.56
337.966	97.56
338.194	99.56
338.422	106.56
338.65	84.56
338.878	90.56
339.106	94.56
339.334	99.56
339.562	100.56
339.79	87.56
340.018	99.56
340.246	86.56
340.474	93.56
340.702	81.56
340.93	90.56
341.158	89.56
341.386	100.56
341.614	94.56
341.842	108.56
342.07	91.56
342.298	94.56
342.526	96.56
342.754	91.56
342.981	85.56
343.209	93.56
343.437	110.56
343.665	84.56
343.893	87.56
344.12	77.56
344.348	85.56
344.576	73.56
344.804	106.56
345.031	107.56
345.259	89.56
345.487	97.56
345.714	99.56
345.942	93.56
346.17	92.56
346.397	103.56
346.625	105.56
346.853	83.56
347.08	97.56
347.308	97.56
347.535	103.56
347.763	109.56
347.99	85.56
348.218	100.56
348.445	111.56
348.673	97.56
348.9	95.56
349.128	98.56
349.355	77.56
349.583	101.56
349.81	96.56
350.037	95.56
350.265	100.56
350.492	118.56
350.72	93.56
350.947	92.56
351.174	122.56
351.402	99.56
351.629	101.56
351.856	105.56
352.083	90.56
352.311	105.56
352.538	110.56
352.765	105.56
352.992	110.56
353.22	125.56
353.447	111.56
353.674	93.56
353.901	96.56
354.128	89.56
354.355	96.56
354.583	96.56
354.81	106.56
355.037	95.56
355.264	87.56
355.491	92.56
355.718	98.56
355.945	96.56
356.172	101.56
356.399	74.56
356.626	91.56
356.853	96.56
357.08	93.56
357.307	86.56
357.534	89.56
357.761	89.56
357.988	92.56
358.215	94.56
358.441	85.56
358.668	96.56
358.895	93.56
359.122	77.56
359.349	79.56
359.576	85.56
359.802	108.56
360.029	111.56
360.256	122.56
360.483	93.56
360.709	79.56
360.936	86.56
361.163	83.56
361.39	97.56
361.616	95.56
361.843	96.56
362.07	95.56
362.296	105.56
362.523	104.56
362.749	108.56
362.976	106.56
363.203	81.56
363.429	70.56
363.656	105.56
363.882	100.56
364.109	80.56
364.335	96.56
364.562	96.56
364.788	91.56
365.015	100.56
365.241	98.56
365.468	117.56
365.694	114.56
365.92	98.56
366.147	91.56
366.373	91.56
366.599	97.56
366.826	78.56
367.052	95.56
367.278	91.56
367.505	91.56
367.731	102.56
367.957	99.56
368.184	88.56
368.41	90.56
368.636	97.56
368.862	124.56
369.089	102.56
369.315	104.56
369.541	108.56
369.767	109.56
369.993	90.56
370.219	93.56
370.445	90.56
370.672	85.56
370.898	96.56
371.124	85.56
371.35	97.56
371.576	82.56
371.802	91.56
372.028	83.56
372.254	85.56
372.48	94.56
372.706	84.56
372.932	92.56
373.158	92.56
373.384	87.56
373.61	95.56
373.835	87.56
374.061	94.56
374.287	97.56
374.513	90.56
374.739	80.56
374.965	102.56
375.191	107.56
375.416	102.56
375.642	100.56
375.868	87.56
376.094	80.56
376.319	97.56
376.545	97.56
376.771	98.56
376.997	77.56
377.222	99.56
377.448	92.56
377.674	89.56
377.899	107.56
378.125	79.56
378.35	85.56
378.576	96.56
378.802	107.56
379.027	107.56
379.253	92.56
379.478	92.56
379.704	74.56
379.929	93.56
380.155	105.56
380.38	86.56
380.606	84.56
380.831	94.56
381.057	94.56
381.282	106.56
381.507	103.56
381.733	99.56
381.958	91.56
382.184	103.56
382.409	97.56
382.634	106.56
382.86	103.56
383.085	108.56
383.31	99.56
383.535	108.56
383.761	119.56
383.986	99.56
384.211	96.56
384.436	109.56
384.662	94.56
384.887	122.56
385.112	105.56
385.337	109.56
385.562	108.56
385.787	114.56
386.013	93.56
386.238	105.56
386.463	117.56
386.688	111.56
386.913	93.56
387.138	111.56
387.363	115.56
387.588	86.56
387.813	96.56
388.038	115.56
388.263	126.56
388.488	99.56
388.713	102.56
388.938	95.56
389.163	91.56
389.387	95.56
389.612	93.56
389.837	80.56
390.062	92.56
390.287	92.56
390.512	94.56
390.736	105.56
390.961	89.56
391.186	84.56
391.411	96.56
391.636	90.56
391.86	94.56
392.085	77.56
392.31	102.56
392.534	96.56
392.759	101.56
392.984	101.56
393.208	93.56
393.433	103.56
393.658	102.56
393.882	88.56
394.107	88.56
394.331	89.56
394.556	93.56
394.78	87.56
395.005	87.56
395.229	84.56
395.454	94.56
395.678	68.56
395.903	102.56
396.127	83.56
396.352	98.56
396.576	92.56
396.801	92.56
397.025	100.56
397.249	102.56
397.474	91.56
397.698	82.56
397.922	86.56
398.147	88.56
398.371	92.56
398.595	85.56
398.82	94.56
399.044	79.56
399.268	82.56
399.492	101.56
399.717	86.56
399.941	100.56
400.165	103.56
400.389	96.56
400.613	90.56
400.837	96.56
401.062	97.56
401.286	88.56
401.51	96.56
401.734	89.56
401.958	98.56
402.182	126.56
402.406	151.56
402.63	125.56
402.854	103.56
403.078	95.56
403.302	97.56
403.526	88.56
403.75	92.56
403.974	81.56
404.198	91.56
404.422	79.56
404.645	78.56
404.869	91.56
405.093	97.56
405.317	97.56
405.541	109.56
405.765	108.56
405.988	115.56
406.212	177.56
406.436	234.56
406.66	157.56
406.883	101.56
407.107	106.56
407.331	94.56
407.555	103.56
407.778	100.56
408.002	86.56
408.226	82.56
408.449	87.56
408.673	86.56
408.896	77.56
409.12	92.56
409.344	96.56
409.567	96.56
409.791	84.56
410.014	91.56
410.238	86.56
410.461	113.56
410.685	96.56
410.908	107.56
411.132	92.56
411.355	86.56
411.578	94.56
411.802	83.56
412.025	101.56
412.249	93.56
412.472	89.56
412.695	106.56
412.919	104.56
413.142	92.56
413.365	110.56
413.589	106.56
413.812	91.56
414.035	83.56
414.258	83.56
414.482	91.56
414.705	95.56
414.928	97.56
415.151	93.56
415.374	96.56
415.597	90.56
415.821	97.56
416.044	97.56
416.267	91.56
416.49	85.56
416.713	85.56
416.936	97.56
417.159	83.56
417.382	86.56
417.605	99.56
417.828	97.56
418.051	97.56
418.274	96.56
418.497	97.56
418.72	81.56
418.943	97.56
419.166	93.56
419.389	95.56
419.611	86.56
419.834	90.56
420.057	92.56
420.28	84.56
420.503	86.56
420.726	92.56
420.948	102.56
421.171	103.56
421.394	86.56
421.617	100.56
421.839	92.56
422.062	99.56
422.285	94.56
422.507	103.56
422.73	104.56
422.953	105.56
423.175	84.56
423.398	71.56
423.621	85.56
423.843	96.56
424.066	83.56
424.288	90.56
424.511	103.56
424.733	91.56
424.956	96.56
425.178	100.56
425.401	93.56
425.623	93.56
425.846	86.56
426.068	84.56
426.291	97.56
426.513	94.56
426.735	86.56
426.958	86.56
427.18	103.56
427.402	128.56
427.625	161.56
427.847	125.56
428.069	126.56
428.292	86.56
428.514	100.56
428.736	74.56
428.958	89.56
429.181	91.56
429.403	91.56
429.625	88.56
429.847	103.56
430.069	100.56
430.292	96.56
430.514	92.56
430.736	90.56
430.958	83.56
431.18	91.56
431.402	95.56
431.624	99.56
431.846	93.56
432.068	95.56
432.29	94.56
432.512	92.56
432.734	86.56
432.956	89.56
433.178	89.56
433.4	91.56
433.622	101.56
433.844	90.56
434.066	109.56
434.287	79.56
434.509	97.56
434.731	92.56
434.953	87.56
435.175	85.56
435.397	85.56
435.618	90.56
435.84	97.56
436.062	114.56
436.284	109.56
436.505	105.56
436.727	108.56
436.949	81.56
437.17	91.56
437.392	85.56
437.614	104.56
437.835	97.56
438.057	109.56
438.278	116.56
438.5	99.56
438.721	106.56
438.943	99.56
439.165	105.56
439.386	90.56
439.608	88.56
439.829	94.56
440.05	110.56
440.272	123.56
440.493	93.56
440.715	94.56
440.936	85.56
441.158	88.56
441.379	83.56
441.6	96.56
441.822	101.56
442.043	94.56
442.264	88.56
442.486	100.56
442.707	103.56
442.928	113.56
443.149	117.56
443.371	125.56
443.592	100.56
443.813	110.56
444.034	117.56
444.255	97.56
444.476	77.56
444.698	101.56
444.919	88.56
445.14	144.56
445.361	124.56
445.582	110.56
445.803	122.56
446.024	125.56
446.245	124.56
446.466	97.56
446.687	98.56
446.908	76.56
447.129	100.56
447.35	87.56
447.571	102.56
447.792	98.56
448.013	102.56
448.234	130.56
448.455	97.56
448.675	112.56
448.896	115.56
449.117	102.56
449.338	111.56
449.559	127.56
449.779	121.56
450	89.56
450.221	71.56
450.442	70.56
450.662	92.56
450.883	98.56
451.104	111.56
451.324	85.56
451.545	97.56
451.766	90.56
451.986	85.56
452.207	82.56
452.428	78.56
452.648	87.56
452.869	110.56
453.089	93.56
453.31	127.56
453.53	93.56
453.751	95.56
453.971	106.56
454.192	108.56
454.412	98.56
454.633	86.56
454.853	89.56
455.073	83.56
455.294	89.56
455.514	107.56
455.734	80.56
455.955	84.56
456.175	79.56
456.395	79.56
456.616	103.56
456.836	96.56
457.056	95.56
457.276	81.56
457.497	88.56
457.717	89.56
457.937	77.56
458.157	88.56
458.377	103.56
458.598	106.56
458.818	151.56
459.038	165.56
459.258	106.56
459.478	95.56
459.698	97.56
459.918	91.56
460.138	93.56
460.358	76.56
460.578	98.56
460.798	87.56
461.018	95.56
461.238	104.56
461.458	97.56
461.678	81.56
461.898	94.56
462.118	87.56
462.338	89.56
462.558	99.56
462.777	92.56
462.997	96.56
463.217	97.56
463.437	94.56
463.657	87.56
463.876	101.56
464.096	95.56
464.316	96.56
464.536	100.56
464.755	101.56
464.975	93.56
465.195	154.56
465.414	169.56
465.634	84.56
465.854	77.56
466.073	79.56
466.293	89.56
466.512	92.56
466.732	90.56
466.951	89.56
467.171	98.56
467.391	89.56
467.61	98.56
467.829	87.56
468.049	110.56
468.268	139.56
468.488	103.56
468.707	93.56
468.927	87.56
469.146	91.56
469.365	91.56
469.585	90.56
469.804	90.56
470.023	108.56
470.243	95.56
470.462	104.56
470.681	108.56
470.901	93.56
471.12	97.56
471.339	96.56
471.558	82.56
471.777	83.56
471.997	111.56
472.216	162.56
472.435	259.56
472.654	117.56
472.873	89.56
473.092	89.56
473.311	95.56
473.53	89.56
473.749	97.56
473.968	90.56
474.187	105.56
474.406	88.56
474.625	86.56
474.844	97.56
475.063	93.56
475.282	77.56
475.501	91.56
475.72	91.56
475.939	90.56
476.158	89.56
476.377	99.56
476.596	94.56
476.814	95.56
477.033	99.56
477.252	98.56
477.471	86.56
477.69	87.56
477.908	77.56
478.127	90.56
478.346	93.56
478.564	93.56
478.783	95.56
479.002	90.56
479.22	96.56
479.439	109.56
479.658	109.56
479.876	109.56
480.095	102.56
480.313	104.56
480.532	83.56
480.751	98.56
480.969	156.56
481.188	403.56
481.406	261.56
481.624	114.56
481.843	84.56
482.061	100.56
482.28	85.56
482.498	90.56
482.717	94.56
482.935	84.56
483.153	90.56
483.372	86.56
483.59	101.56
483.808	97.56
484.027	92.56
484.245	92.56
484.463	102.56
484.681	99.56
484.9	93.56
485.118	98.56
485.336	97.56
485.554	104.56
485.772	122.56
485.99	113.56
486.209	127.56
486.427	112.56
486.645	116.56
486.863	112.56
487.081	98.56
487.299	105.56
487.517	99.56
487.735	93.56
487.953	93.56
488.171	90.56
488.389	91.56
488.607	99.56
488.825	93.56
489.043	100.56
489.261	91.56
489.479	83.56
489.696	103.56
489.914	91.56
490.132	89.56
490.35	90.56
490.568	85.56
490.786	86.56
491.003	94.56
491.221	88.56
491.439	86.56
491.657	87.56
491.874	102.56
492.092	87.56
492.31	80.56
492.527	83.56
492.745	88.56
492.963	102.56
493.18	111.56
493.398	94.56
493.615	110.56
493.833	98.56
494.05	97.56
494.268	86.56
494.485	97.56
494.703	87.56
494.92	89.56
495.138	91.56
495.355	94.56
495.573	101.56
495.79	91.56
496.008	93.56
496.225	98.56
496.442	88.56
496.66	97.56
496.877	86.56
497.094	83.56
497.312	85.56
497.529	93.56
497.746	95.56
497.963	94.56
498.181	92.56
498.398	84.56
498.615	109.56
498.832	100.56
499.049	91.56
499.267	89.56
499.484	98.56
499.701	100.56
499.918	91.56
500.135	101.56
500.352	79.56
500.569	78.56
500.786	83.56
501.003	88.56
501.22	95.56
501.437	103.56
501.654	104.56
501.871	102.56
502.088	90.56
502.305	85.56
502.522	80.56
502.739	82.56
502.956	94.56
503.172	92.56
503.389	114.56
503.606	103.56
503.823	86.56
504.04	99.56
504.256	85.56
504.473	93.56
504.69	89.56
504.907	89.56
505.123	90.56
505.34	99.56
505.557	86.56
505.773	90.56
505.99	81.56
506.207	96.56
506.423	91.56
506.64	83.56
506.856	81.56
507.073	90.56
507.289	82.56
507.506	92.56
507.722	113.56
507.939	106.56
508.155	95.56
508.372	85.56
508.588	93.56
508.805	118.56
509.021	90.56
509.238	107.56
509.454	103.56
509.67	106.56
509.887	110.56
510.103	131.56
510.319	220.56
510.536	812.56
510.752	2729.56
510.968	728.56
511.184	165.56
511.401	105.56
511.617	103.56
511.833	86.56
512.049	102.56
512.265	100.56
512.481	100.56
512.698	93.56
512.914	85.56
513.13	85.56
513.346	84.56
513.562	96.56
513.778	102.56
513.994	103.56
514.21	119.56
514.426	114.56
514.642	154.56
514.858	128.56
