Data from Circ_1996_H10_HRD10591_00079.txt Node
Date: Wed Jan 03 11:33:21 EST 2024
User: Yrep
Spectrometer: HR+D1059
Trigger mode: 1
Integration Time (sec): 1.000000E-1
Scans to average: 1
Electric dark correction enabled: true
Nonlinearity correction enabled: false
Boxcar width: 0
XAxis mode: Wavelengths
Number of Pixels in Spectrum: 2048
>>>>>Begin Spectral Data<<<<<
223.165	-18.38
223.4	-18.38
223.635	-18.38
223.869	-22.38
224.104	-31.38
224.338	-19.38
224.573	-15.38
224.808	-12.38
225.042	-14.38
225.277	-9.38
225.511	6.62
225.746	12.62
225.98	11.62
226.215	20.62
226.449	8.62
226.683	20.62
226.918	35.62
227.152	26.62
227.387	36.62
227.621	37.62
227.856	42.62
228.09	34.62
228.324	44.62
228.559	59.62
228.793	60.62
229.027	59.62
229.262	65.62
229.496	64.62
229.73	87.62
229.964	91.62
230.199	76.62
230.433	75.62
230.667	80.62
230.901	76.62
231.136	79.62
231.37	70.62
231.604	64.62
231.838	70.62
232.072	72.62
232.306	76.62
232.541	83.62
232.775	64.62
233.009	76.62
233.243	88.62
233.477	82.62
233.711	73.62
233.945	86.62
234.179	77.62
234.413	84.62
234.647	84.62
234.881	94.62
235.115	82.62
235.349	76.62
235.583	77.62
235.817	86.62
236.051	81.62
236.285	90.62
236.519	73.62
236.753	84.62
236.987	83.62
237.221	78.62
237.455	61.62
237.689	90.62
237.922	84.62
238.156	72.62
238.39	87.62
238.624	64.62
238.858	67.62
239.091	87.62
239.325	76.62
239.559	81.62
239.793	72.62
240.027	98.62
240.26	75.62
240.494	84.62
240.728	89.62
240.961	91.62
241.195	84.62
241.429	76.62
241.662	73.62
241.896	72.62
242.13	73.62
242.363	73.62
242.597	82.62
242.83	65.62
243.064	81.62
243.298	74.62
243.531	75.62
243.765	75.62
243.998	61.62
244.232	84.62
244.465	67.62
244.699	76.62
244.932	73.62
245.166	67.62
245.399	83.62
245.633	74.62
245.866	87.62
246.099	71.62
246.333	83.62
246.566	82.62
246.8	88.62
247.033	86.62
247.266	76.62
247.5	62.62
247.733	71.62
247.966	77.62
248.2	78.62
248.433	85.62
248.666	85.62
248.899	84.62
249.133	80.62
249.366	94.62
249.599	97.62
249.832	93.62
250.066	98.62
250.299	81.62
250.532	78.62
250.765	78.62
250.998	80.62
251.231	84.62
251.465	81.62
251.698	71.62
251.931	90.62
252.164	75.62
252.397	74.62
252.63	92.62
252.863	89.62
253.096	79.62
253.329	77.62
253.562	76.62
253.795	86.62
254.028	83.62
254.261	72.62
254.494	70.62
254.727	73.62
254.96	87.62
255.193	91.62
255.426	74.62
255.659	75.62
255.892	85.62
256.124	88.62
256.357	78.62
256.59	80.62
256.823	71.62
257.056	80.62
257.289	79.62
257.521	86.62
257.754	86.62
257.987	95.62
258.22	89.62
258.452	73.62
258.685	79.62
258.918	79.62
259.151	81.62
259.383	83.62
259.616	74.62
259.849	72.62
260.081	75.62
260.314	79.62
260.547	89.62
260.779	83.62
261.012	70.62
261.244	78.62
261.477	93.62
261.71	95.62
261.942	113.62
262.175	115.62
262.407	93.62
262.64	83.62
262.872	85.62
263.105	83.62
263.337	91.62
263.57	87.62
263.802	93.62
264.035	75.62
264.267	77.62
264.499	75.62
264.732	92.62
264.964	70.62
265.197	81.62
265.429	79.62
265.661	89.62
265.894	88.62
266.126	88.62
266.358	78.62
266.591	84.62
266.823	83.62
267.055	70.62
267.287	76.62
267.52	90.62
267.752	94.62
267.984	78.62
268.216	86.62
268.448	88.62
268.681	94.62
268.913	72.62
269.145	78.62
269.377	81.62
269.609	81.62
269.841	90.62
270.073	86.62
270.306	79.62
270.538	84.62
270.77	89.62
271.002	83.62
271.234	80.62
271.466	82.62
271.698	87.62
271.93	94.62
272.162	80.62
272.394	90.62
272.626	99.62
272.858	76.62
273.09	93.62
273.322	79.62
273.553	86.62
273.785	87.62
274.017	77.62
274.249	76.62
274.481	87.62
274.713	84.62
274.945	76.62
275.176	91.62
275.408	102.62
275.64	86.62
275.872	95.62
276.104	82.62
276.335	83.62
276.567	99.62
276.799	107.62
277.031	94.62
277.262	84.62
277.494	108.62
277.726	94.62
277.957	93.62
278.189	89.62
278.421	86.62
278.652	85.62
278.884	71.62
279.115	83.62
279.347	94.62
279.579	86.62
279.81	90.62
280.042	93.62
280.273	88.62
280.505	80.62
280.736	87.62
280.968	96.62
281.199	86.62
281.431	83.62
281.662	97.62
281.894	96.62
282.125	96.62
282.356	117.62
282.588	131.62
282.819	128.62
283.051	94.62
283.282	96.62
283.513	98.62
283.745	80.62
283.976	95.62
284.207	83.62
284.439	76.62
284.67	74.62
284.901	82.62
285.132	79.62
285.364	76.62
285.595	92.62
285.826	85.62
286.057	90.62
286.288	93.62
286.52	92.62
286.751	100.62
286.982	79.62
287.213	92.62
287.444	101.62
287.675	87.62
287.906	81.62
288.138	97.62
288.369	85.62
288.6	87.62
288.831	79.62
289.062	91.62
289.293	107.62
289.524	94.62
289.755	89.62
289.986	87.62
290.217	88.62
290.448	97.62
290.679	87.62
290.91	88.62
291.141	87.62
291.371	91.62
291.602	93.62
291.833	86.62
292.064	80.62
292.295	88.62
292.526	82.62
292.757	92.62
292.987	79.62
293.218	90.62
293.449	93.62
293.68	97.62
293.91	77.62
294.141	98.62
294.372	99.62
294.603	100.62
294.833	97.62
295.064	91.62
295.295	83.62
295.525	82.62
295.756	95.62
295.987	129.62
296.217	161.62
296.448	131.62
296.679	91.62
296.909	88.62
297.14	96.62
297.37	86.62
297.601	83.62
297.831	99.62
298.062	101.62
298.292	78.62
298.523	92.62
298.753	87.62
298.984	100.62
299.214	91.62
299.445	92.62
299.675	95.62
299.905	107.62
300.136	89.62
300.366	102.62
300.597	77.62
300.827	87.62
301.057	92.62
301.288	88.62
301.518	109.62
301.748	87.62
301.979	90.62
302.209	95.62
302.439	85.62
302.669	85.62
302.9	89.62
303.13	104.62
303.36	103.62
303.59	108.62
303.82	105.62
304.051	106.62
304.281	86.62
304.511	79.62
304.741	96.62
304.971	89.62
305.201	97.62
305.431	83.62
305.661	87.62
305.891	83.62
306.121	99.62
306.352	118.62
306.582	102.62
306.812	92.62
307.042	99.62
307.272	93.62
307.502	95.62
307.731	113.62
307.961	90.62
308.191	89.62
308.421	87.62
308.651	97.62
308.881	92.62
309.111	78.62
309.341	94.62
309.571	89.62
309.8	92.62
310.03	100.62
310.26	100.62
310.49	88.62
310.72	89.62
310.949	99.62
311.179	104.62
311.409	92.62
311.639	111.62
311.868	97.62
312.098	95.62
312.328	84.62
312.557	99.62
312.787	99.62
313.017	103.62
313.246	103.62
313.476	87.62
313.706	83.62
313.935	103.62
314.165	103.62
314.394	101.62
314.624	86.62
314.853	105.62
315.083	86.62
315.312	95.62
315.542	88.62
315.771	91.62
316.001	86.62
316.23	96.62
316.46	81.62
316.689	97.62
316.919	99.62
317.148	92.62
317.377	96.62
317.607	90.62
317.836	84.62
318.065	96.62
318.295	100.62
318.524	83.62
318.753	89.62
318.983	98.62
319.212	114.62
319.441	107.62
319.67	107.62
319.9	90.62
320.129	82.62
320.358	96.62
320.587	97.62
320.816	111.62
321.046	109.62
321.275	107.62
321.504	86.62
321.733	82.62
321.962	93.62
322.191	98.62
322.42	108.62
322.649	103.62
322.878	96.62
323.108	111.62
323.337	111.62
323.566	112.62
323.795	138.62
324.024	172.62
324.253	323.62
324.482	671.62
324.71	1368.62
324.939	1736.62
325.168	695.62
325.397	223.62
325.626	130.62
325.855	140.62
326.084	116.62
326.313	118.62
326.542	143.62
326.77	200.62
326.999	368.62
327.228	705.62
327.457	1256.62
327.686	1013.62
327.914	326.62
328.143	205.62
328.372	190.62
328.6	150.62
328.829	115.62
329.058	125.62
329.287	126.62
329.515	110.62
329.744	120.62
329.972	138.62
330.201	185.62
330.43	204.62
330.658	160.62
330.887	152.62
331.115	125.62
331.344	106.62
331.572	107.62
331.801	103.62
332.03	100.62
332.258	101.62
332.486	94.62
332.715	88.62
332.943	94.62
333.172	104.62
333.4	99.62
333.629	106.62
333.857	124.62
334.085	127.62
334.314	188.62
334.542	249.62
334.771	232.62
334.999	124.62
335.227	88.62
335.455	108.62
335.684	101.62
335.912	99.62
336.14	102.62
336.369	102.62
336.597	98.62
336.825	108.62
337.053	90.62
337.281	90.62
337.51	91.62
337.738	88.62
337.966	106.62
338.194	100.62
338.422	98.62
338.65	112.62
338.878	90.62
339.106	89.62
339.334	92.62
339.562	99.62
339.79	90.62
340.018	89.62
340.246	75.62
340.474	99.62
340.702	85.62
340.93	87.62
341.158	90.62
341.386	85.62
341.614	89.62
341.842	102.62
342.07	103.62
342.298	98.62
342.526	98.62
342.754	103.62
342.981	84.62
343.209	100.62
343.437	107.62
343.665	93.62
343.893	90.62
344.12	87.62
344.348	80.62
344.576	83.62
344.804	110.62
345.031	98.62
345.259	97.62
345.487	96.62
345.714	102.62
345.942	88.62
346.17	87.62
346.397	83.62
346.625	106.62
346.853	87.62
347.08	79.62
347.308	103.62
347.535	104.62
347.763	108.62
347.99	95.62
348.218	99.62
348.445	106.62
348.673	92.62
348.9	90.62
349.128	96.62
349.355	97.62
349.583	94.62
349.81	87.62
350.037	92.62
350.265	104.62
350.492	89.62
350.72	96.62
350.947	99.62
351.174	96.62
351.402	115.62
351.629	112.62
351.856	95.62
352.083	106.62
352.311	123.62
352.538	106.62
352.765	119.62
352.992	114.62
353.22	125.62
353.447	109.62
353.674	112.62
353.901	97.62
354.128	99.62
354.355	95.62
354.583	100.62
354.81	98.62
355.037	92.62
355.264	96.62
355.491	91.62
355.718	82.62
355.945	97.62
356.172	108.62
356.399	98.62
356.626	104.62
356.853	98.62
357.08	98.62
357.307	92.62
357.534	97.62
357.761	94.62
357.988	86.62
358.215	99.62
358.441	95.62
358.668	89.62
358.895	97.62
359.122	98.62
359.349	91.62
359.576	89.62
359.802	96.62
360.029	105.62
360.256	123.62
360.483	95.62
360.709	90.62
360.936	82.62
361.163	92.62
361.39	100.62
361.616	92.62
361.843	103.62
362.07	102.62
362.296	95.62
362.523	98.62
362.749	94.62
362.976	92.62
363.203	107.62
363.429	90.62
363.656	76.62
363.882	78.62
364.109	82.62
364.335	83.62
364.562	80.62
364.788	104.62
365.015	98.62
365.241	107.62
365.468	103.62
365.694	107.62
365.92	99.62
366.147	80.62
366.373	86.62
366.599	93.62
366.826	94.62
367.052	88.62
367.278	81.62
367.505	80.62
367.731	92.62
367.957	85.62
368.184	87.62
368.41	94.62
368.636	114.62
368.862	112.62
369.089	102.62
369.315	98.62
369.541	88.62
369.767	99.62
369.993	84.62
370.219	94.62
370.445	98.62
370.672	85.62
370.898	87.62
371.124	94.62
371.35	91.62
371.576	82.62
371.802	86.62
372.028	76.62
372.254	88.62
372.48	76.62
372.706	90.62
372.932	87.62
373.158	82.62
373.384	92.62
373.61	97.62
373.835	82.62
374.061	92.62
374.287	91.62
374.513	95.62
374.739	96.62
374.965	85.62
375.191	95.62
375.416	97.62
375.642	107.62
375.868	103.62
376.094	99.62
376.319	83.62
376.545	94.62
376.771	90.62
376.997	101.62
377.222	86.62
377.448	87.62
377.674	92.62
377.899	97.62
378.125	95.62
378.35	85.62
378.576	88.62
378.802	99.62
379.027	93.62
379.253	94.62
379.478	92.62
379.704	93.62
379.929	88.62
380.155	95.62
380.38	91.62
380.606	86.62
380.831	91.62
381.057	104.62
381.282	97.62
381.507	90.62
381.733	97.62
381.958	101.62
382.184	106.62
382.409	104.62
382.634	110.62
382.86	90.62
383.085	91.62
383.31	108.62
383.535	113.62
383.761	103.62
383.986	99.62
384.211	93.62
384.436	101.62
384.662	84.62
384.887	100.62
385.112	108.62
385.337	94.62
385.562	104.62
385.787	109.62
386.013	118.62
386.238	109.62
386.463	97.62
386.688	108.62
386.913	108.62
387.138	109.62
387.363	101.62
387.588	101.62
387.813	101.62
388.038	114.62
388.263	108.62
388.488	105.62
388.713	92.62
388.938	108.62
389.163	93.62
389.387	105.62
389.612	84.62
389.837	101.62
390.062	96.62
390.287	85.62
390.512	97.62
390.736	100.62
390.961	98.62
391.186	90.62
391.411	104.62
391.636	98.62
391.86	80.62
392.085	73.62
392.31	92.62
392.534	82.62
392.759	106.62
392.984	96.62
393.208	106.62
393.433	106.62
393.658	88.62
393.882	91.62
394.107	102.62
394.331	80.62
394.556	85.62
394.78	86.62
395.005	82.62
395.229	74.62
395.454	87.62
395.678	85.62
395.903	88.62
396.127	83.62
396.352	91.62
396.576	89.62
396.801	88.62
397.025	97.62
397.249	88.62
397.474	102.62
397.698	90.62
397.922	80.62
398.147	87.62
398.371	99.62
398.595	89.62
398.82	89.62
399.044	86.62
399.268	82.62
399.492	100.62
399.717	86.62
399.941	93.62
400.165	91.62
400.389	90.62
400.613	79.62
400.837	92.62
401.062	86.62
401.286	91.62
401.51	78.62
401.734	79.62
401.958	93.62
402.182	122.62
402.406	171.62
402.63	120.62
402.854	88.62
403.078	90.62
403.302	86.62
403.526	86.62
403.75	107.62
403.974	79.62
404.198	86.62
404.422	95.62
404.645	79.62
404.869	94.62
405.093	79.62
405.317	104.62
405.541	99.62
405.765	94.62
405.988	115.62
406.212	182.62
406.436	243.62
406.66	153.62
406.883	104.62
407.107	113.62
407.331	96.62
407.555	93.62
407.778	103.62
408.002	86.62
408.226	93.62
408.449	95.62
408.673	79.62
408.896	107.62
409.12	99.62
409.344	97.62
409.567	91.62
409.791	80.62
410.014	97.62
410.238	81.62
410.461	95.62
410.685	95.62
410.908	100.62
411.132	107.62
411.355	90.62
411.578	79.62
411.802	86.62
412.025	95.62
412.249	89.62
412.472	86.62
412.695	98.62
412.919	91.62
413.142	84.62
413.365	83.62
413.589	94.62
413.812	87.62
414.035	96.62
414.258	91.62
414.482	102.62
414.705	88.62
414.928	98.62
415.151	94.62
415.374	102.62
415.597	85.62
415.821	83.62
416.044	89.62
416.267	88.62
416.49	86.62
416.713	88.62
416.936	84.62
417.159	79.62
417.382	97.62
417.605	89.62
417.828	102.62
418.051	92.62
418.274	101.62
418.497	99.62
418.72	96.62
418.943	96.62
419.166	88.62
419.389	81.62
419.611	80.62
419.834	88.62
420.057	101.62
420.28	88.62
420.503	92.62
420.726	109.62
420.948	100.62
421.171	91.62
421.394	86.62
421.617	89.62
421.839	97.62
422.062	100.62
422.285	92.62
422.507	94.62
422.73	95.62
422.953	98.62
423.175	89.62
423.398	89.62
423.621	89.62
423.843	91.62
424.066	88.62
424.288	100.62
424.511	91.62
424.733	99.62
424.956	106.62
425.178	92.62
425.401	92.62
425.623	103.62
425.846	100.62
426.068	96.62
426.291	99.62
426.513	75.62
426.735	74.62
426.958	99.62
427.18	93.62
427.402	113.62
427.625	171.62
427.847	137.62
428.069	106.62
428.292	93.62
428.514	86.62
428.736	92.62
428.958	88.62
429.181	87.62
429.403	93.62
429.625	80.62
429.847	106.62
430.069	107.62
430.292	110.62
430.514	81.62
430.736	91.62
430.958	94.62
431.18	80.62
431.402	76.62
431.624	73.62
431.846	86.62
432.068	89.62
432.29	77.62
432.512	99.62
432.734	83.62
432.956	79.62
433.178	80.62
433.4	96.62
433.622	84.62
433.844	88.62
434.066	91.62
434.287	95.62
434.509	89.62
434.731	75.62
434.953	88.62
435.175	76.62
435.397	88.62
435.618	93.62
435.84	103.62
436.062	119.62
436.284	110.62
436.505	99.62
436.727	88.62
436.949	89.62
437.17	78.62
437.392	90.62
437.614	88.62
437.835	99.62
438.057	97.62
438.278	101.62
438.5	89.62
438.721	105.62
438.943	91.62
439.165	106.62
439.386	96.62
439.608	91.62
439.829	105.62
440.05	106.62
440.272	129.62
440.493	85.62
440.715	90.62
440.936	94.62
441.158	79.62
441.379	87.62
441.6	86.62
441.822	100.62
442.043	93.62
442.264	97.62
442.486	86.62
442.707	86.62
442.928	100.62
443.149	123.62
443.371	129.62
443.592	113.62
443.813	111.62
444.034	92.62
444.255	95.62
444.476	89.62
444.698	89.62
444.919	94.62
445.14	122.62
445.361	114.62
445.582	97.62
445.803	136.62
446.024	123.62
446.245	124.62
446.466	100.62
446.687	96.62
446.908	81.62
447.129	95.62
447.35	86.62
447.571	78.62
447.792	104.62
448.013	99.62
448.234	102.62
448.455	91.62
448.675	105.62
448.896	108.62
449.117	107.62
449.338	92.62
449.559	127.62
449.779	111.62
450	97.62
450.221	89.62
450.442	99.62
450.662	106.62
450.883	103.62
451.104	124.62
451.324	104.62
451.545	97.62
451.766	83.62
451.986	91.62
452.207	86.62
452.428	110.62
452.648	108.62
452.869	116.62
453.089	121.62
453.31	116.62
453.53	100.62
453.751	87.62
453.971	108.62
454.192	107.62
454.412	96.62
454.633	91.62
454.853	96.62
455.073	88.62
455.294	90.62
455.514	95.62
455.734	106.62
455.955	95.62
456.175	75.62
456.395	76.62
456.616	97.62
456.836	71.62
457.056	89.62
457.276	89.62
457.497	96.62
457.717	66.62
457.937	95.62
458.157	93.62
458.377	88.62
458.598	106.62
458.818	140.62
459.038	160.62
459.258	112.62
459.478	93.62
459.698	88.62
459.918	84.62
460.138	90.62
460.358	87.62
460.578	99.62
460.798	88.62
461.018	93.62
461.238	84.62
461.458	79.62
461.678	82.62
461.898	82.62
462.118	96.62
462.338	92.62
462.558	88.62
462.777	82.62
462.997	94.62
463.217	87.62
463.437	84.62
463.657	92.62
463.876	96.62
464.096	83.62
464.316	80.62
464.536	99.62
464.755	90.62
464.975	94.62
465.195	160.62
465.414	162.62
465.634	93.62
465.854	96.62
466.073	90.62
466.293	82.62
466.512	81.62
466.732	78.62
466.951	93.62
467.171	79.62
467.391	98.62
467.61	99.62
467.829	115.62
468.049	135.62
468.268	154.62
468.488	103.62
468.707	99.62
468.927	84.62
469.146	88.62
469.365	92.62
469.585	92.62
469.804	98.62
470.023	95.62
470.243	96.62
470.462	96.62
470.681	100.62
470.901	95.62
471.12	97.62
471.339	84.62
471.558	86.62
471.777	89.62
471.997	105.62
472.216	213.62
472.435	313.62
472.654	117.62
472.873	89.62
473.092	88.62
473.311	91.62
473.53	72.62
473.749	86.62
473.968	92.62
474.187	112.62
474.406	102.62
474.625	88.62
474.844	75.62
475.063	80.62
475.282	87.62
475.501	86.62
475.72	86.62
475.939	83.62
476.158	86.62
476.377	85.62
476.596	90.62
476.814	98.62
477.033	88.62
477.252	91.62
477.471	85.62
477.69	89.62
477.908	78.62
478.127	93.62
478.346	96.62
478.564	89.62
478.783	96.62
479.002	92.62
479.22	94.62
479.439	92.62
479.658	111.62
479.876	98.62
480.095	94.62
480.313	83.62
480.532	99.62
480.751	106.62
480.969	193.62
481.188	546.62
481.406	312.62
481.624	114.62
481.843	95.62
482.061	91.62
482.28	86.62
482.498	87.62
482.717	89.62
482.935	84.62
483.153	95.62
483.372	86.62
483.59	83.62
483.808	94.62
484.027	94.62
484.245	94.62
484.463	90.62
484.681	106.62
484.9	95.62
485.118	94.62
485.336	99.62
485.554	96.62
485.772	97.62
485.99	94.62
486.209	119.62
486.427	109.62
486.645	111.62
486.863	107.62
487.081	84.62
487.299	83.62
487.517	95.62
487.735	91.62
487.953	95.62
488.171	88.62
488.389	99.62
488.607	100.62
488.825	95.62
489.043	90.62
489.261	90.62
489.479	79.62
489.696	88.62
489.914	93.62
490.132	90.62
490.35	92.62
490.568	96.62
490.786	82.62
491.003	95.62
491.221	90.62
491.439	84.62
491.657	106.62
491.874	94.62
492.092	87.62
492.31	87.62
492.527	81.62
492.745	100.62
492.963	107.62
493.18	89.62
493.398	90.62
493.615	89.62
493.833	97.62
494.05	86.62
494.268	85.62
494.485	88.62
494.703	89.62
494.92	86.62
495.138	88.62
495.355	76.62
495.573	98.62
495.79	95.62
496.008	98.62
496.225	74.62
496.442	82.62
496.66	87.62
496.877	87.62
497.094	74.62
497.312	82.62
497.529	81.62
497.746	75.62
497.963	86.62
498.181	98.62
498.398	99.62
498.615	106.62
498.832	108.62
499.049	93.62
499.267	91.62
499.484	92.62
499.701	101.62
499.918	82.62
500.135	89.62
500.352	86.62
500.569	91.62
500.786	89.62
501.003	90.62
501.22	104.62
501.437	91.62
501.654	104.62
501.871	105.62
502.088	83.62
502.305	88.62
502.522	75.62
502.739	102.62
502.956	74.62
503.172	96.62
503.389	96.62
503.606	99.62
503.823	94.62
504.04	78.62
504.256	88.62
504.473	80.62
504.69	91.62
504.907	93.62
505.123	101.62
505.34	86.62
505.557	94.62
505.773	81.62
505.99	88.62
506.207	88.62
506.423	84.62
506.64	76.62
506.856	85.62
507.073	88.62
507.289	86.62
507.506	102.62
507.722	117.62
507.939	108.62
508.155	85.62
508.372	95.62
508.588	94.62
508.805	98.62
509.021	89.62
509.238	90.62
509.454	91.62
509.67	109.62
509.887	106.62
510.103	129.62
510.319	225.62
510.536	847.62
510.752	2837.62
510.968	768.62
511.184	156.62
511.401	113.62
511.617	105.62
511.833	78.62
512.049	73.62
512.265	82.62
512.481	87.62
512.698	83.62
512.914	87.62
513.13	101.62
513.346	108.62
513.562	76.62
513.778	91.62
513.994	106.62
514.21	95.62
514.426	126.62
514.642	144.62
514.858	124.62
515.074	176.62
515.29	502.62
515.506	1646.62
