Data from Circ_1996_H10_HRD10591_00087.txt Node
Date: Wed Jan 03 11:33:23 EST 2024
User: Yrep
Spectrometer: HR+D1059
Trigger mode: 1
Integration Time (sec): 1.000000E-1
Scans to average: 1
Electric dark correction enabled: true
Nonlinearity correction enabled: false
Boxcar width: 0
XAxis mode: Wavelengths
Number of Pixels in Spectrum: 2048
>>>>>Begin Spectral Data<<<<<
223.165	-24.5
223.4	-24.5
223.635	-24.5
223.869	-16.5
224.104	-7.5
224.338	-5.5
224.573	-10.5
224.808	-8.5
225.042	-0.5
225.277	-7.5
225.511	2.5
225.746	10.5
225.98	-2.5
226.215	-5.5
226.449	7.5
226.683	17.5
226.918	15.5
227.152	35.5
227.387	27.5
227.621	46.5
227.856	36.5
228.09	67.5
228.324	55.5
228.559	54.5
228.793	56.5
229.027	63.5
229.262	70.5
229.496	74.5
229.73	91.5
229.964	78.5
230.199	62.5
230.433	66.5
230.667	90.5
230.901	75.5
231.136	72.5
231.37	70.5
231.604	78.5
231.838	78.5
232.072	74.5
232.306	76.5
232.541	79.5
232.775	95.5
233.009	85.5
233.243	79.5
233.477	79.5
233.711	77.5
233.945	82.5
234.179	76.5
234.413	82.5
234.647	74.5
234.881	82.5
235.115	87.5
235.349	79.5
235.583	75.5
235.817	83.5
236.051	72.5
236.285	74.5
236.519	67.5
236.753	84.5
236.987	67.5
237.221	91.5
237.455	99.5
237.689	73.5
237.922	84.5
238.156	93.5
238.39	74.5
238.624	78.5
238.858	83.5
239.091	72.5
239.325	73.5
239.559	83.5
239.793	67.5
240.027	78.5
240.26	67.5
240.494	76.5
240.728	84.5
240.961	75.5
241.195	78.5
241.429	88.5
241.662	78.5
241.896	91.5
242.13	80.5
242.363	69.5
242.597	80.5
242.83	70.5
243.064	60.5
243.298	78.5
243.531	76.5
243.765	71.5
243.998	69.5
244.232	72.5
244.465	75.5
244.699	71.5
244.932	79.5
245.166	100.5
245.399	80.5
245.633	76.5
245.866	86.5
246.099	85.5
246.333	66.5
246.566	59.5
246.8	70.5
247.033	71.5
247.266	83.5
247.5	78.5
247.733	81.5
247.966	74.5
248.2	77.5
248.433	63.5
248.666	78.5
248.899	87.5
249.133	88.5
249.366	88.5
249.599	92.5
249.832	83.5
250.066	86.5
250.299	86.5
250.532	84.5
250.765	75.5
250.998	80.5
251.231	81.5
251.465	82.5
251.698	82.5
251.931	74.5
252.164	86.5
252.397	80.5
252.63	75.5
252.863	80.5
253.096	74.5
253.329	73.5
253.562	68.5
253.795	81.5
254.028	77.5
254.261	84.5
254.494	81.5
254.727	76.5
254.96	89.5
255.193	86.5
255.426	77.5
255.659	86.5
255.892	91.5
256.124	72.5
256.357	77.5
256.59	77.5
256.823	92.5
257.056	88.5
257.289	68.5
257.521	87.5
257.754	74.5
257.987	74.5
258.22	88.5
258.452	83.5
258.685	68.5
258.918	77.5
259.151	93.5
259.383	81.5
259.616	82.5
259.849	82.5
260.081	81.5
260.314	74.5
260.547	77.5
260.779	83.5
261.012	90.5
261.244	79.5
261.477	92.5
261.71	112.5
261.942	111.5
262.175	125.5
262.407	92.5
262.64	73.5
262.872	78.5
263.105	76.5
263.337	89.5
263.57	81.5
263.802	88.5
264.035	85.5
264.267	83.5
264.499	98.5
264.732	82.5
264.964	81.5
265.197	86.5
265.429	85.5
265.661	89.5
265.894	75.5
266.126	87.5
266.358	84.5
266.591	86.5
266.823	88.5
267.055	68.5
267.287	64.5
267.52	91.5
267.752	95.5
267.984	95.5
268.216	95.5
268.448	67.5
268.681	93.5
268.913	80.5
269.145	91.5
269.377	93.5
269.609	83.5
269.841	91.5
270.073	88.5
270.306	84.5
270.538	99.5
270.77	99.5
271.002	79.5
271.234	88.5
271.466	80.5
271.698	90.5
271.93	81.5
272.162	88.5
272.394	70.5
272.626	91.5
272.858	89.5
273.09	92.5
273.322	82.5
273.553	80.5
273.785	82.5
274.017	85.5
274.249	78.5
274.481	89.5
274.713	102.5
274.945	82.5
275.176	73.5
275.408	83.5
275.64	97.5
275.872	98.5
276.104	86.5
276.335	90.5
276.567	91.5
276.799	110.5
277.031	115.5
277.262	99.5
277.494	89.5
277.726	86.5
277.957	90.5
278.189	70.5
278.421	86.5
278.652	88.5
278.884	86.5
279.115	84.5
279.347	101.5
279.579	93.5
279.81	87.5
280.042	87.5
280.273	95.5
280.505	83.5
280.736	91.5
280.968	95.5
281.199	94.5
281.431	90.5
281.662	86.5
281.894	91.5
282.125	96.5
282.356	115.5
282.588	129.5
282.819	135.5
283.051	83.5
283.282	75.5
283.513	83.5
283.745	76.5
283.976	81.5
284.207	90.5
284.439	80.5
284.67	99.5
284.901	83.5
285.132	81.5
285.364	80.5
285.595	74.5
285.826	79.5
286.057	97.5
286.288	86.5
286.52	79.5
286.751	69.5
286.982	95.5
287.213	74.5
287.444	84.5
287.675	87.5
287.906	98.5
288.138	82.5
288.369	89.5
288.6	89.5
288.831	98.5
289.062	95.5
289.293	95.5
289.524	76.5
289.755	97.5
289.986	85.5
290.217	94.5
290.448	83.5
290.679	70.5
290.91	84.5
291.141	88.5
291.371	90.5
291.602	101.5
291.833	79.5
292.064	97.5
292.295	79.5
292.526	101.5
292.757	82.5
292.987	95.5
293.218	100.5
293.449	88.5
293.68	87.5
293.91	100.5
294.141	90.5
294.372	86.5
294.603	96.5
294.833	84.5
295.064	86.5
295.295	86.5
295.525	96.5
295.756	86.5
295.987	129.5
296.217	137.5
296.448	127.5
296.679	94.5
296.909	88.5
297.14	87.5
297.37	95.5
297.601	90.5
297.831	87.5
298.062	80.5
298.292	92.5
298.523	98.5
298.753	88.5
298.984	84.5
299.214	88.5
299.445	81.5
299.675	106.5
299.905	88.5
300.136	92.5
300.366	99.5
300.597	95.5
300.827	105.5
301.057	91.5
301.288	100.5
301.518	95.5
301.748	85.5
301.979	115.5
302.209	79.5
302.439	76.5
302.669	94.5
302.9	81.5
303.13	88.5
303.36	99.5
303.59	99.5
303.82	114.5
304.051	101.5
304.281	90.5
304.511	85.5
304.741	84.5
304.971	97.5
305.201	101.5
305.431	109.5
305.661	92.5
305.891	97.5
306.121	88.5
306.352	101.5
306.582	117.5
306.812	86.5
307.042	96.5
307.272	95.5
307.502	96.5
307.731	108.5
307.961	109.5
308.191	85.5
308.421	90.5
308.651	92.5
308.881	75.5
309.111	88.5
309.341	94.5
309.571	93.5
309.8	100.5
310.03	89.5
310.26	105.5
310.49	97.5
310.72	91.5
310.949	108.5
311.179	95.5
311.409	97.5
311.639	98.5
311.868	97.5
312.098	90.5
312.328	86.5
312.557	84.5
312.787	113.5
313.017	96.5
313.246	89.5
313.476	84.5
313.706	96.5
313.935	105.5
314.165	96.5
314.394	104.5
314.624	78.5
314.853	84.5
315.083	98.5
315.312	74.5
315.542	86.5
315.771	93.5
316.001	96.5
316.23	94.5
316.46	89.5
316.689	90.5
316.919	108.5
317.148	94.5
317.377	79.5
317.607	80.5
317.836	93.5
318.065	90.5
318.295	90.5
318.524	91.5
318.753	96.5
318.983	90.5
319.212	98.5
319.441	105.5
319.67	96.5
319.9	96.5
320.129	91.5
320.358	80.5
320.587	97.5
320.816	106.5
321.046	119.5
321.275	99.5
321.504	88.5
321.733	84.5
321.962	101.5
322.191	108.5
322.42	102.5
322.649	130.5
322.878	108.5
323.108	111.5
323.337	116.5
323.566	109.5
323.795	142.5
324.024	176.5
324.253	340.5
324.482	682.5
324.71	1391.5
324.939	1862.5
325.168	703.5
325.397	226.5
325.626	127.5
325.855	116.5
326.084	127.5
326.313	132.5
326.542	154.5
326.77	188.5
326.999	376.5
327.228	728.5
327.457	1358.5
327.686	1109.5
327.914	354.5
328.143	200.5
328.372	181.5
328.6	138.5
328.829	123.5
329.058	127.5
329.287	131.5
329.515	120.5
329.744	121.5
329.972	124.5
330.201	187.5
330.43	199.5
330.658	155.5
330.887	151.5
331.115	119.5
331.344	97.5
331.572	85.5
331.801	104.5
332.03	108.5
332.258	90.5
332.486	85.5
332.715	74.5
332.943	100.5
333.172	109.5
333.4	106.5
333.629	105.5
333.857	139.5
334.085	142.5
334.314	191.5
334.542	257.5
334.771	242.5
334.999	125.5
335.227	99.5
335.455	101.5
335.684	99.5
335.912	111.5
336.14	111.5
336.369	102.5
336.597	98.5
336.825	88.5
337.053	98.5
337.281	105.5
337.51	92.5
337.738	93.5
337.966	103.5
338.194	95.5
338.422	102.5
338.65	108.5
338.878	87.5
339.106	93.5
339.334	90.5
339.562	96.5
339.79	104.5
340.018	91.5
340.246	98.5
340.474	91.5
340.702	96.5
340.93	98.5
341.158	105.5
341.386	91.5
341.614	104.5
341.842	102.5
342.07	113.5
342.298	91.5
342.526	90.5
342.754	82.5
342.981	99.5
343.209	83.5
343.437	90.5
343.665	96.5
343.893	85.5
344.12	100.5
344.348	97.5
344.576	82.5
344.804	76.5
345.031	99.5
345.259	86.5
345.487	106.5
345.714	96.5
345.942	88.5
346.17	94.5
346.397	81.5
346.625	87.5
346.853	87.5
347.08	90.5
347.308	96.5
347.535	105.5
347.763	85.5
347.99	82.5
348.218	108.5
348.445	99.5
348.673	109.5
348.9	108.5
349.128	93.5
349.355	88.5
349.583	102.5
349.81	100.5
350.037	99.5
350.265	81.5
350.492	94.5
350.72	75.5
350.947	99.5
351.174	113.5
351.402	112.5
351.629	100.5
351.856	106.5
352.083	104.5
352.311	109.5
352.538	115.5
352.765	103.5
352.992	109.5
353.22	108.5
353.447	114.5
353.674	115.5
353.901	87.5
354.128	100.5
354.355	90.5
354.583	98.5
354.81	106.5
355.037	96.5
355.264	102.5
355.491	96.5
355.718	100.5
355.945	100.5
356.172	89.5
356.399	95.5
356.626	83.5
356.853	86.5
357.08	91.5
357.307	83.5
357.534	71.5
357.761	86.5
357.988	89.5
358.215	86.5
358.441	83.5
358.668	86.5
358.895	91.5
359.122	96.5
359.349	95.5
359.576	99.5
359.802	86.5
360.029	118.5
360.256	107.5
360.483	95.5
360.709	94.5
360.936	106.5
361.163	98.5
361.39	89.5
361.616	101.5
361.843	90.5
362.07	101.5
362.296	99.5
362.523	94.5
362.749	95.5
362.976	106.5
363.203	88.5
363.429	97.5
363.656	93.5
363.882	94.5
364.109	94.5
364.335	82.5
364.562	83.5
364.788	80.5
365.015	83.5
365.241	99.5
365.468	112.5
365.694	115.5
365.92	98.5
366.147	90.5
366.373	99.5
366.599	84.5
366.826	88.5
367.052	96.5
367.278	78.5
367.505	90.5
367.731	89.5
367.957	87.5
368.184	91.5
368.41	98.5
368.636	112.5
368.862	110.5
369.089	96.5
369.315	76.5
369.541	90.5
369.767	87.5
369.993	97.5
370.219	89.5
370.445	95.5
370.672	82.5
370.898	109.5
371.124	108.5
371.35	96.5
371.576	86.5
371.802	77.5
372.028	87.5
372.254	92.5
372.48	91.5
372.706	89.5
372.932	99.5
373.158	87.5
373.384	105.5
373.61	91.5
373.835	90.5
374.061	90.5
374.287	92.5
374.513	68.5
374.739	83.5
374.965	76.5
375.191	97.5
375.416	86.5
375.642	102.5
375.868	95.5
376.094	98.5
376.319	79.5
376.545	94.5
376.771	94.5
376.997	99.5
377.222	93.5
377.448	93.5
377.674	95.5
377.899	90.5
378.125	88.5
378.35	82.5
378.576	88.5
378.802	73.5
379.027	94.5
379.253	99.5
379.478	91.5
379.704	82.5
379.929	81.5
380.155	85.5
380.38	94.5
380.606	75.5
380.831	80.5
381.057	96.5
381.282	95.5
381.507	97.5
381.733	103.5
381.958	92.5
382.184	96.5
382.409	99.5
382.634	118.5
382.86	101.5
383.085	107.5
383.31	97.5
383.535	94.5
383.761	103.5
383.986	101.5
384.211	94.5
384.436	89.5
384.662	99.5
384.887	91.5
385.112	96.5
385.337	100.5
385.562	91.5
385.787	94.5
386.013	95.5
386.238	102.5
386.463	109.5
386.688	108.5
386.913	95.5
387.138	95.5
387.363	97.5
387.588	111.5
387.813	122.5
388.038	118.5
388.263	103.5
388.488	96.5
388.713	104.5
388.938	96.5
389.163	95.5
389.387	94.5
389.612	113.5
389.837	97.5
390.062	97.5
390.287	98.5
390.512	95.5
390.736	104.5
390.961	89.5
391.186	105.5
391.411	104.5
391.636	99.5
391.86	86.5
392.085	77.5
392.31	82.5
392.534	80.5
392.759	81.5
392.984	76.5
393.208	95.5
393.433	88.5
393.658	100.5
393.882	91.5
394.107	91.5
394.331	85.5
394.556	74.5
394.78	86.5
395.005	91.5
395.229	91.5
395.454	87.5
395.678	82.5
395.903	90.5
396.127	82.5
396.352	101.5
396.576	82.5
396.801	68.5
397.025	89.5
397.249	95.5
397.474	92.5
397.698	79.5
397.922	84.5
398.147	93.5
398.371	76.5
398.595	96.5
398.82	77.5
399.044	86.5
399.268	94.5
399.492	95.5
399.717	82.5
399.941	92.5
400.165	91.5
400.389	95.5
400.613	77.5
400.837	77.5
401.062	89.5
401.286	86.5
401.51	75.5
401.734	84.5
401.958	92.5
402.182	132.5
402.406	167.5
402.63	130.5
402.854	89.5
403.078	95.5
403.302	94.5
403.526	77.5
403.75	100.5
403.974	79.5
404.198	67.5
404.422	82.5
404.645	80.5
404.869	95.5
405.093	95.5
405.317	103.5
405.541	107.5
405.765	107.5
405.988	124.5
406.212	165.5
406.436	254.5
406.66	150.5
406.883	95.5
407.107	90.5
407.331	88.5
407.555	92.5
407.778	99.5
408.002	103.5
408.226	102.5
408.449	76.5
408.673	86.5
408.896	99.5
409.12	88.5
409.344	83.5
409.567	92.5
409.791	94.5
410.014	98.5
410.238	85.5
410.461	85.5
410.685	103.5
410.908	73.5
411.132	102.5
411.355	100.5
411.578	83.5
411.802	86.5
412.025	74.5
412.249	87.5
412.472	94.5
412.695	96.5
412.919	95.5
413.142	85.5
413.365	87.5
413.589	83.5
413.812	78.5
414.035	98.5
414.258	82.5
414.482	94.5
414.705	95.5
414.928	90.5
415.151	102.5
415.374	91.5
415.597	92.5
415.821	96.5
416.044	89.5
416.267	77.5
416.49	90.5
416.713	87.5
416.936	78.5
417.159	82.5
417.382	87.5
417.605	83.5
417.828	105.5
418.051	94.5
418.274	78.5
418.497	91.5
418.72	97.5
418.943	87.5
419.166	81.5
419.389	95.5
419.611	83.5
419.834	77.5
420.057	90.5
420.28	87.5
420.503	90.5
420.726	84.5
420.948	89.5
421.171	94.5
421.394	99.5
421.617	91.5
421.839	82.5
422.062	80.5
422.285	73.5
422.507	93.5
422.73	100.5
422.953	89.5
423.175	78.5
423.398	93.5
423.621	79.5
423.843	90.5
424.066	87.5
424.288	87.5
424.511	98.5
424.733	77.5
424.956	86.5
425.178	92.5
425.401	104.5
425.623	86.5
425.846	95.5
426.068	76.5
426.291	87.5
426.513	98.5
426.735	86.5
426.958	89.5
427.18	111.5
427.402	128.5
427.625	157.5
427.847	122.5
428.069	122.5
428.292	89.5
428.514	95.5
428.736	81.5
428.958	88.5
429.181	84.5
429.403	90.5
429.625	83.5
429.847	106.5
430.069	108.5
430.292	85.5
430.514	83.5
430.736	92.5
430.958	82.5
431.18	83.5
431.402	80.5
431.624	79.5
431.846	81.5
432.068	90.5
432.29	90.5
432.512	107.5
432.734	98.5
432.956	82.5
433.178	99.5
433.4	87.5
433.622	90.5
433.844	93.5
434.066	78.5
434.287	79.5
434.509	90.5
434.731	88.5
434.953	90.5
435.175	88.5
435.397	94.5
435.618	93.5
435.84	86.5
436.062	119.5
436.284	107.5
436.505	93.5
436.727	100.5
436.949	88.5
437.17	104.5
437.392	79.5
437.614	90.5
437.835	96.5
438.057	127.5
438.278	104.5
438.5	104.5
438.721	115.5
438.943	104.5
439.165	85.5
439.386	80.5
439.608	91.5
439.829	100.5
440.05	124.5
440.272	124.5
440.493	97.5
440.715	96.5
440.936	80.5
441.158	83.5
441.379	81.5
441.6	99.5
441.822	98.5
442.043	86.5
442.264	96.5
442.486	99.5
442.707	99.5
442.928	114.5
443.149	125.5
443.371	124.5
443.592	112.5
443.813	91.5
444.034	107.5
444.255	97.5
444.476	78.5
444.698	75.5
444.919	86.5
445.14	129.5
445.361	100.5
445.582	115.5
445.803	131.5
446.024	135.5
446.245	120.5
446.466	99.5
446.687	94.5
446.908	94.5
447.129	93.5
447.35	91.5
447.571	92.5
447.792	87.5
448.013	100.5
448.234	97.5
448.455	96.5
448.675	105.5
448.896	113.5
449.117	110.5
449.338	110.5
449.559	118.5
449.779	119.5
450	100.5
450.221	91.5
450.442	100.5
450.662	104.5
450.883	97.5
451.104	108.5
451.324	100.5
451.545	94.5
451.766	90.5
451.986	85.5
452.207	82.5
452.428	94.5
452.648	90.5
452.869	108.5
453.089	103.5
453.31	121.5
453.53	89.5
453.751	83.5
453.971	99.5
454.192	103.5
454.412	86.5
454.633	104.5
454.853	79.5
455.073	85.5
455.294	77.5
455.514	110.5
455.734	97.5
455.955	82.5
456.175	74.5
456.395	88.5
456.616	89.5
456.836	87.5
457.056	93.5
457.276	89.5
457.497	100.5
457.717	84.5
457.937	86.5
458.157	86.5
458.377	87.5
458.598	95.5
458.818	148.5
459.038	150.5
459.258	103.5
459.478	79.5
459.698	79.5
459.918	79.5
460.138	82.5
460.358	77.5
460.578	84.5
460.798	88.5
461.018	88.5
461.238	98.5
461.458	96.5
461.678	94.5
461.898	87.5
462.118	103.5
462.338	82.5
462.558	81.5
462.777	80.5
462.997	82.5
463.217	88.5
463.437	94.5
463.657	81.5
463.876	87.5
464.096	93.5
464.316	103.5
464.536	93.5
464.755	120.5
464.975	110.5
465.195	180.5
465.414	174.5
465.634	106.5
465.854	88.5
466.073	85.5
466.293	86.5
466.512	79.5
466.732	81.5
466.951	99.5
467.171	93.5
467.391	84.5
467.61	102.5
467.829	109.5
468.049	136.5
468.268	157.5
468.488	81.5
468.707	82.5
468.927	82.5
469.146	98.5
469.365	88.5
469.585	98.5
469.804	107.5
470.023	86.5
470.243	86.5
470.462	92.5
470.681	102.5
470.901	80.5
471.12	99.5
471.339	83.5
471.558	84.5
471.777	94.5
471.997	106.5
472.216	185.5
472.435	328.5
472.654	136.5
472.873	95.5
473.092	102.5
473.311	95.5
473.53	90.5
473.749	75.5
473.968	81.5
474.187	96.5
474.406	86.5
474.625	95.5
474.844	91.5
475.063	82.5
475.282	64.5
475.501	90.5
475.72	72.5
475.939	80.5
476.158	91.5
476.377	108.5
476.596	94.5
476.814	91.5
477.033	97.5
477.252	90.5
477.471	83.5
477.69	85.5
477.908	90.5
478.127	74.5
478.346	91.5
478.564	102.5
478.783	94.5
479.002	99.5
479.22	89.5
479.439	110.5
479.658	118.5
479.876	97.5
480.095	92.5
480.313	100.5
480.532	95.5
480.751	112.5
480.969	201.5
481.188	536.5
481.406	323.5
481.624	100.5
481.843	76.5
482.061	89.5
482.28	75.5
482.498	77.5
482.717	90.5
482.935	82.5
483.153	85.5
483.372	92.5
483.59	88.5
483.808	94.5
484.027	83.5
484.245	91.5
484.463	100.5
484.681	97.5
484.9	93.5
485.118	88.5
485.336	97.5
485.554	93.5
485.772	103.5
485.99	99.5
486.209	108.5
486.427	94.5
486.645	113.5
486.863	107.5
487.081	95.5
487.299	107.5
487.517	98.5
487.735	83.5
487.953	93.5
488.171	102.5
488.389	99.5
488.607	107.5
488.825	102.5
489.043	91.5
489.261	90.5
489.479	85.5
489.696	87.5
489.914	90.5
490.132	102.5
490.35	94.5
490.568	88.5
490.786	92.5
491.003	87.5
491.221	90.5
491.439	96.5
491.657	84.5
491.874	82.5
492.092	94.5
492.31	81.5
492.527	83.5
492.745	94.5
492.963	92.5
493.18	105.5
493.398	95.5
493.615	108.5
493.833	99.5
494.05	90.5
494.268	78.5
494.485	79.5
494.703	84.5
494.92	71.5
495.138	82.5
495.355	82.5
495.573	90.5
495.79	89.5
496.008	85.5
496.225	81.5
496.442	103.5
496.66	90.5
496.877	76.5
497.094	87.5
497.312	93.5
497.529	82.5
497.746	77.5
497.963	93.5
498.181	92.5
498.398	109.5
498.615	111.5
498.832	101.5
499.049	90.5
499.267	83.5
499.484	84.5
499.701	90.5
499.918	92.5
500.135	81.5
500.352	96.5
500.569	93.5
500.786	89.5
501.003	81.5
501.22	95.5
501.437	66.5
501.654	96.5
501.871	105.5
502.088	98.5
502.305	92.5
502.522	93.5
502.739	90.5
502.956	92.5
503.172	90.5
503.389	99.5
503.606	107.5
503.823	97.5
504.04	87.5
504.256	91.5
504.473	90.5
504.69	98.5
504.907	107.5
505.123	96.5
505.34	81.5
505.557	88.5
505.773	96.5
505.99	86.5
506.207	86.5
506.423	87.5
506.64	91.5
506.856	90.5
507.073	86.5
507.289	99.5
507.506	100.5
507.722	113.5
507.939	108.5
508.155	98.5
508.372	106.5
508.588	106.5
508.805	94.5
509.021	95.5
509.238	95.5
509.454	95.5
509.67	93.5
509.887	121.5
510.103	148.5
510.319	226.5
510.536	875.5
510.752	2936.5
510.968	775.5
511.184	174.5
511.401	127.5
511.617	118.5
511.833	88.5
512.049	85.5
512.265	111.5
512.481	105.5
512.698	77.5
512.914	83.5
513.13	106.5
513.346	106.5
513.562	95.5
513.778	98.5
513.994	97.5
514.21	101.5
514.426	126.5
514.642	150.5
514.858	124.5
515.074	182.5
515.29	480.5
515.506	1701.5
515.721	616.5
515.937	158.5
516.153	103.5
516.369	111.5
516.585	96.5
516.801	97.5
517.016	90.5
517.232	76.5
517.448	90.5
517.664	99.5
517.879	99.5
518.095	94.5
518.311	93.5
518.527	90.5
518.742	88.5
518.958	92.5
519.173	76.5
519.389	107.5
519.605	106.5
519.82	90.5
520.036	97.5
520.251	121.5
520.467	113.5
520.682	112.5
520.898	103.5
521.113	126.5
521.329	136.5
521.544	222.5
521.76	624.5
521.975	2870.5
522.19	1702.5
522.406	351.5
522.621	130.5
522.836	101.5
523.052	102.5
523.267	92.5
523.482	87.5
523.698	88.5
523.913	123.5
524.128	103.5
524.343	110.5
524.559	93.5
524.774	102.5
524.989	104.5
525.204	111.5
525.419	88.5
525.634	89.5
525.849	88.5
526.064	80.5
526.28	94.5
526.495	107.5
526.71	86.5
526.925	82.5
527.14	77.5
527.355	92.5
527.57	86.5
527.785	80.5
527.999	94.5
528.214	95.5
528.429	100.5
528.644	98.5
528.859	93.5
529.074	93.5
529.289	134.5
529.503	183.5
529.718	102.5
529.933	83.5
530.148	95.5
530.363	96.5
530.577	89.5
530.792	97.5
531.007	90.5
531.221	100.5
531.436	84.5
531.651	106.5
531.865	89.5
532.08	94.5
532.295	103.5
532.509	93.5
532.724	85.5
532.938	95.5
533.153	97.5
533.367	89.5
533.582	100.5
533.796	76.5
534.011	89.5
534.225	89.5
534.44	88.5
534.654	88.5
534.868	95.5
535.083	96.5
535.297	85.5
