Data from Circ_1996_H10_HRD10591_00069.txt Node
Date: Wed Jan 03 11:33:19 EST 2024
User: Yrep
Spectrometer: HR+D1059
Trigger mode: 1
Integration Time (sec): 1.000000E-1
Scans to average: 1
Electric dark correction enabled: true
Nonlinearity correction enabled: false
Boxcar width: 0
XAxis mode: Wavelengths
Number of Pixels in Spectrum: 2048
>>>>>Begin Spectral Data<<<<<
223.165	-10.56
223.4	-10.56
223.635	-10.56
223.869	-10.56
224.104	-21.56
224.338	-11.56
224.573	-31.56
224.808	-12.56
225.042	-6.56
225.277	-15.56
225.511	0.44
225.746	9.44
225.98	4.44
226.215	18.44
226.449	22.44
226.683	18.44
226.918	24.44
227.152	22.44
227.387	35.44
227.621	34.44
227.856	42.44
228.09	39.44
228.324	51.44
228.559	53.44
228.793	49.44
229.027	56.44
229.262	77.44
229.496	66.44
229.73	79.44
229.964	66.44
230.199	65.44
230.433	64.44
230.667	80.44
230.901	81.44
231.136	86.44
231.37	70.44
231.604	80.44
231.838	71.44
232.072	84.44
232.306	77.44
232.541	73.44
232.775	79.44
233.009	68.44
233.243	63.44
233.477	74.44
233.711	80.44
233.945	79.44
234.179	74.44
234.413	73.44
234.647	64.44
234.881	74.44
235.115	84.44
235.349	78.44
235.583	79.44
235.817	84.44
236.051	68.44
236.285	88.44
236.519	55.44
236.753	67.44
236.987	85.44
237.221	83.44
237.455	86.44
237.689	79.44
237.922	67.44
238.156	56.44
238.39	65.44
238.624	85.44
238.858	71.44
239.091	96.44
239.325	71.44
239.559	74.44
239.793	67.44
240.027	67.44
240.26	74.44
240.494	72.44
240.728	80.44
240.961	84.44
241.195	72.44
241.429	78.44
241.662	77.44
241.896	75.44
242.13	74.44
242.363	81.44
242.597	88.44
242.83	73.44
243.064	88.44
243.298	70.44
243.531	80.44
243.765	72.44
243.998	81.44
244.232	68.44
244.465	74.44
244.699	79.44
244.932	72.44
245.166	96.44
245.399	85.44
245.633	81.44
245.866	77.44
246.099	76.44
246.333	86.44
246.566	82.44
246.8	87.44
247.033	88.44
247.266	78.44
247.5	78.44
247.733	72.44
247.966	85.44
248.2	72.44
248.433	76.44
248.666	70.44
248.899	86.44
249.133	91.44
249.366	104.44
249.599	100.44
249.832	74.44
250.066	74.44
250.299	95.44
250.532	83.44
250.765	91.44
250.998	87.44
251.231	65.44
251.465	81.44
251.698	66.44
251.931	65.44
252.164	79.44
252.397	88.44
252.63	86.44
252.863	67.44
253.096	86.44
253.329	72.44
253.562	77.44
253.795	70.44
254.028	76.44
254.261	84.44
254.494	76.44
254.727	78.44
254.96	69.44
255.193	78.44
255.426	91.44
255.659	84.44
255.892	90.44
256.124	86.44
256.357	91.44
256.59	85.44
256.823	81.44
257.056	88.44
257.289	82.44
257.521	68.44
257.754	77.44
257.987	87.44
258.22	77.44
258.452	76.44
258.685	83.44
258.918	83.44
259.151	81.44
259.383	87.44
259.616	76.44
259.849	74.44
260.081	91.44
260.314	76.44
260.547	82.44
260.779	84.44
261.012	76.44
261.244	87.44
261.477	78.44
261.71	93.44
261.942	105.44
262.175	114.44
262.407	81.44
262.64	89.44
262.872	65.44
263.105	78.44
263.337	76.44
263.57	73.44
263.802	67.44
264.035	76.44
264.267	95.44
264.499	76.44
264.732	80.44
264.964	83.44
265.197	76.44
265.429	86.44
265.661	84.44
265.894	90.44
266.126	78.44
266.358	79.44
266.591	80.44
266.823	80.44
267.055	81.44
267.287	82.44
267.52	99.44
267.752	85.44
267.984	91.44
268.216	80.44
268.448	89.44
268.681	63.44
268.913	74.44
269.145	74.44
269.377	70.44
269.609	80.44
269.841	77.44
270.073	90.44
270.306	72.44
270.538	76.44
270.77	79.44
271.002	102.44
271.234	80.44
271.466	72.44
271.698	71.44
271.93	71.44
272.162	105.44
272.394	79.44
272.626	96.44
272.858	92.44
273.09	78.44
273.322	78.44
273.553	78.44
273.785	97.44
274.017	83.44
274.249	84.44
274.481	87.44
274.713	82.44
274.945	76.44
275.176	94.44
275.408	92.44
275.64	99.44
275.872	80.44
276.104	88.44
276.335	92.44
276.567	86.44
276.799	104.44
277.031	93.44
277.262	85.44
277.494	80.44
277.726	89.44
277.957	78.44
278.189	77.44
278.421	88.44
278.652	77.44
278.884	93.44
279.115	79.44
279.347	76.44
279.579	78.44
279.81	84.44
280.042	97.44
280.273	92.44
280.505	81.44
280.736	72.44
280.968	102.44
281.199	81.44
281.431	86.44
281.662	87.44
281.894	86.44
282.125	100.44
282.356	126.44
282.588	148.44
282.819	119.44
283.051	89.44
283.282	80.44
283.513	90.44
283.745	87.44
283.976	77.44
284.207	91.44
284.439	73.44
284.67	94.44
284.901	94.44
285.132	77.44
285.364	84.44
285.595	75.44
285.826	97.44
286.057	95.44
286.288	90.44
286.52	90.44
286.751	71.44
286.982	84.44
287.213	86.44
287.444	84.44
287.675	89.44
287.906	94.44
288.138	87.44
288.369	88.44
288.6	98.44
288.831	94.44
289.062	80.44
289.293	85.44
289.524	90.44
289.755	87.44
289.986	80.44
290.217	75.44
290.448	73.44
290.679	72.44
290.91	96.44
291.141	98.44
291.371	87.44
291.602	82.44
291.833	97.44
292.064	90.44
292.295	96.44
292.526	98.44
292.757	81.44
292.987	89.44
293.218	86.44
293.449	96.44
293.68	88.44
293.91	95.44
294.141	94.44
294.372	71.44
294.603	87.44
294.833	70.44
295.064	79.44
295.295	78.44
295.525	87.44
295.756	92.44
295.987	117.44
296.217	142.44
296.448	130.44
296.679	87.44
296.909	91.44
297.14	91.44
297.37	85.44
297.601	86.44
297.831	86.44
298.062	102.44
298.292	84.44
298.523	91.44
298.753	90.44
298.984	78.44
299.214	85.44
299.445	75.44
299.675	87.44
299.905	93.44
300.136	91.44
300.366	87.44
300.597	104.44
300.827	97.44
301.057	105.44
301.288	96.44
301.518	100.44
301.748	94.44
301.979	102.44
302.209	97.44
302.439	85.44
302.669	84.44
302.9	92.44
303.13	84.44
303.36	101.44
303.59	102.44
303.82	96.44
304.051	77.44
304.281	94.44
304.511	93.44
304.741	96.44
304.971	86.44
305.201	86.44
305.431	78.44
305.661	87.44
305.891	87.44
306.121	90.44
306.352	91.44
306.582	103.44
306.812	90.44
307.042	81.44
307.272	99.44
307.502	92.44
307.731	104.44
307.961	94.44
308.191	93.44
308.421	95.44
308.651	94.44
308.881	100.44
309.111	102.44
309.341	85.44
309.571	82.44
309.8	93.44
310.03	85.44
310.26	96.44
310.49	86.44
310.72	92.44
310.949	97.44
311.179	106.44
311.409	98.44
311.639	89.44
311.868	85.44
312.098	107.44
312.328	86.44
312.557	107.44
312.787	92.44
313.017	98.44
313.246	107.44
313.476	81.44
313.706	88.44
313.935	90.44
314.165	98.44
314.394	96.44
314.624	94.44
314.853	94.44
315.083	88.44
315.312	104.44
315.542	93.44
315.771	88.44
316.001	93.44
316.23	82.44
316.46	102.44
316.689	92.44
316.919	81.44
317.148	99.44
317.377	92.44
317.607	107.44
317.836	87.44
318.065	92.44
318.295	89.44
318.524	91.44
318.753	88.44
318.983	81.44
319.212	94.44
319.441	98.44
319.67	88.44
319.9	93.44
320.129	97.44
320.358	95.44
320.587	101.44
320.816	88.44
321.046	98.44
321.275	99.44
321.504	84.44
321.733	92.44
321.962	95.44
322.191	109.44
322.42	85.44
322.649	114.44
322.878	101.44
323.108	93.44
323.337	111.44
323.566	141.44
323.795	146.44
324.024	175.44
324.253	312.44
324.482	639.44
324.71	1288.44
324.939	1726.44
325.168	656.44
325.397	222.44
325.626	140.44
325.855	121.44
326.084	113.44
326.313	112.44
326.542	134.44
326.77	193.44
326.999	349.44
327.228	694.44
327.457	1224.44
327.686	1002.44
327.914	313.44
328.143	199.44
328.372	166.44
328.6	129.44
328.829	109.44
329.058	115.44
329.287	122.44
329.515	118.44
329.744	114.44
329.972	128.44
330.201	187.44
330.43	220.44
330.658	152.44
330.887	157.44
331.115	121.44
331.344	86.44
331.572	84.44
331.801	105.44
332.03	106.44
332.258	107.44
332.486	89.44
332.715	103.44
332.943	92.44
333.172	101.44
333.4	105.44
333.629	105.44
333.857	116.44
334.085	135.44
334.314	190.44
334.542	258.44
334.771	227.44
334.999	120.44
335.227	94.44
335.455	91.44
335.684	107.44
335.912	102.44
336.14	106.44
336.369	101.44
336.597	120.44
336.825	92.44
337.053	82.44
337.281	97.44
337.51	77.44
337.738	81.44
337.966	85.44
338.194	91.44
338.422	100.44
338.65	88.44
338.878	100.44
339.106	90.44
339.334	84.44
339.562	83.44
339.79	95.44
340.018	100.44
340.246	85.44
340.474	87.44
340.702	85.44
340.93	97.44
341.158	93.44
341.386	102.44
341.614	81.44
341.842	103.44
342.07	87.44
342.298	98.44
342.526	80.44
342.754	85.44
342.981	81.44
343.209	88.44
343.437	107.44
343.665	100.44
343.893	86.44
344.12	93.44
344.348	84.44
344.576	99.44
344.804	92.44
345.031	94.44
345.259	93.44
345.487	90.44
345.714	88.44
345.942	100.44
346.17	97.44
346.397	91.44
346.625	92.44
346.853	85.44
347.08	80.44
347.308	108.44
347.535	100.44
347.763	97.44
347.99	89.44
348.218	92.44
348.445	104.44
348.673	106.44
348.9	97.44
349.128	84.44
349.355	86.44
349.583	97.44
349.81	97.44
350.037	93.44
350.265	96.44
350.492	95.44
350.72	101.44
350.947	89.44
351.174	82.44
351.402	103.44
351.629	95.44
351.856	92.44
352.083	97.44
352.311	107.44
352.538	106.44
352.765	112.44
352.992	116.44
353.22	99.44
353.447	102.44
353.674	89.44
353.901	101.44
354.128	102.44
354.355	103.44
354.583	100.44
354.81	101.44
355.037	95.44
355.264	90.44
355.491	102.44
355.718	86.44
355.945	90.44
356.172	92.44
356.399	86.44
356.626	84.44
356.853	88.44
357.08	87.44
357.307	84.44
357.534	92.44
357.761	84.44
357.988	85.44
358.215	99.44
358.441	90.44
358.668	100.44
358.895	84.44
359.122	82.44
359.349	89.44
359.576	103.44
359.802	100.44
360.029	95.44
360.256	98.44
360.483	83.44
360.709	97.44
360.936	86.44
361.163	75.44
361.39	94.44
361.616	94.44
361.843	96.44
362.07	95.44
362.296	109.44
362.523	83.44
362.749	88.44
362.976	84.44
363.203	84.44
363.429	77.44
363.656	97.44
363.882	93.44
364.109	84.44
364.335	86.44
364.562	75.44
364.788	86.44
365.015	92.44
365.241	102.44
365.468	113.44
365.694	86.44
365.92	97.44
366.147	97.44
366.373	92.44
366.599	92.44
366.826	88.44
367.052	91.44
367.278	86.44
367.505	88.44
367.731	74.44
367.957	98.44
368.184	79.44
368.41	107.44
368.636	86.44
368.862	97.44
369.089	104.44
369.315	94.44
369.541	95.44
369.767	94.44
369.993	83.44
370.219	87.44
370.445	83.44
370.672	80.44
370.898	86.44
371.124	78.44
371.35	84.44
371.576	93.44
371.802	77.44
372.028	95.44
372.254	98.44
372.48	98.44
372.706	97.44
372.932	89.44
373.158	100.44
373.384	85.44
373.61	88.44
373.835	85.44
374.061	76.44
374.287	86.44
374.513	76.44
374.739	88.44
374.965	89.44
375.191	90.44
375.416	88.44
375.642	94.44
375.868	83.44
376.094	81.44
376.319	96.44
376.545	91.44
376.771	92.44
376.997	102.44
377.222	92.44
377.448	92.44
377.674	88.44
377.899	94.44
378.125	95.44
378.35	91.44
378.576	87.44
378.802	103.44
379.027	90.44
379.253	85.44
379.478	78.44
379.704	93.44
379.929	102.44
380.155	93.44
380.38	94.44
380.606	94.44
380.831	105.44
381.057	86.44
381.282	95.44
381.507	90.44
381.733	96.44
381.958	108.44
382.184	98.44
382.409	96.44
382.634	87.44
382.86	82.44
383.085	103.44
383.31	99.44
383.535	98.44
383.761	103.44
383.986	109.44
384.211	101.44
384.436	97.44
384.662	96.44
384.887	95.44
385.112	108.44
385.337	96.44
385.562	97.44
385.787	88.44
386.013	105.44
386.238	111.44
386.463	110.44
386.688	112.44
386.913	108.44
387.138	97.44
387.363	90.44
387.588	86.44
387.813	91.44
388.038	96.44
388.263	99.44
388.488	94.44
388.713	98.44
388.938	80.44
389.163	89.44
389.387	106.44
389.612	92.44
389.837	93.44
390.062	96.44
390.287	98.44
390.512	95.44
390.736	82.44
390.961	94.44
391.186	105.44
391.411	96.44
391.636	102.44
391.86	67.44
392.085	83.44
392.31	76.44
392.534	85.44
392.759	94.44
392.984	78.44
393.208	87.44
393.433	90.44
393.658	90.44
393.882	90.44
394.107	75.44
394.331	81.44
394.556	79.44
394.78	76.44
395.005	85.44
395.229	84.44
395.454	89.44
395.678	76.44
395.903	86.44
396.127	87.44
396.352	81.44
396.576	84.44
396.801	82.44
397.025	87.44
397.249	87.44
397.474	80.44
397.698	78.44
397.922	78.44
398.147	79.44
398.371	80.44
398.595	85.44
398.82	78.44
399.044	78.44
399.268	76.44
399.492	91.44
399.717	87.44
399.941	76.44
400.165	86.44
400.389	92.44
400.613	81.44
400.837	81.44
401.062	77.44
401.286	93.44
401.51	76.44
401.734	81.44
401.958	87.44
402.182	112.44
402.406	150.44
402.63	102.44
402.854	90.44
403.078	93.44
403.302	74.44
403.526	84.44
403.75	97.44
403.974	90.44
404.198	98.44
404.422	92.44
404.645	81.44
404.869	79.44
405.093	103.44
405.317	99.44
405.541	97.44
405.765	89.44
405.988	122.44
406.212	164.44
406.436	220.44
406.66	124.44
406.883	109.44
407.107	80.44
407.331	94.44
407.555	108.44
407.778	83.44
408.002	84.44
408.226	94.44
408.449	90.44
408.673	76.44
408.896	96.44
409.12	86.44
409.344	85.44
409.567	70.44
409.791	99.44
410.014	91.44
410.238	94.44
410.461	101.44
410.685	93.44
410.908	102.44
411.132	91.44
411.355	91.44
411.578	90.44
411.802	82.44
412.025	89.44
412.249	96.44
412.472	88.44
412.695	93.44
412.919	78.44
413.142	89.44
413.365	85.44
413.589	92.44
413.812	74.44
414.035	89.44
414.258	81.44
414.482	83.44
414.705	81.44
414.928	76.44
415.151	105.44
415.374	68.44
415.597	81.44
415.821	74.44
416.044	89.44
416.267	87.44
416.49	87.44
416.713	77.44
416.936	91.44
417.159	75.44
417.382	77.44
417.605	70.44
417.828	75.44
418.051	89.44
418.274	95.44
418.497	89.44
418.72	83.44
418.943	98.44
419.166	88.44
419.389	89.44
419.611	89.44
419.834	84.44
420.057	85.44
420.28	90.44
420.503	87.44
420.726	90.44
420.948	85.44
421.171	95.44
421.394	95.44
421.617	89.44
421.839	97.44
422.062	84.44
422.285	82.44
422.507	95.44
422.73	86.44
422.953	77.44
423.175	75.44
423.398	83.44
423.621	86.44
423.843	89.44
424.066	87.44
424.288	88.44
424.511	90.44
424.733	91.44
424.956	98.44
425.178	94.44
425.401	94.44
425.623	101.44
425.846	83.44
426.068	91.44
426.291	101.44
426.513	87.44
426.735	95.44
426.958	97.44
427.18	96.44
427.402	124.44
427.625	142.44
427.847	133.44
428.069	118.44
428.292	86.44
428.514	90.44
428.736	76.44
428.958	100.44
429.181	76.44
429.403	84.44
429.625	84.44
429.847	92.44
430.069	95.44
430.292	84.44
430.514	90.44
430.736	84.44
430.958	84.44
431.18	93.44
431.402	79.44
431.624	84.44
431.846	94.44
432.068	85.44
432.29	84.44
432.512	90.44
432.734	80.44
432.956	80.44
433.178	86.44
433.4	81.44
433.622	91.44
433.844	81.44
434.066	77.44
434.287	78.44
434.509	108.44
434.731	83.44
434.953	80.44
435.175	93.44
435.397	80.44
435.618	86.44
435.84	74.44
436.062	92.44
436.284	100.44
436.505	97.44
436.727	96.44
436.949	91.44
437.17	89.44
437.392	84.44
437.614	90.44
437.835	90.44
438.057	97.44
438.278	94.44
438.5	104.44
438.721	110.44
438.943	102.44
439.165	79.44
439.386	87.44
439.608	102.44
439.829	95.44
440.05	126.44
440.272	136.44
440.493	103.44
440.715	86.44
440.936	91.44
441.158	82.44
441.379	84.44
441.6	90.44
441.822	85.44
442.043	83.44
442.264	93.44
442.486	89.44
442.707	83.44
442.928	97.44
443.149	115.44
443.371	118.44
443.592	95.44
443.813	91.44
444.034	106.44
444.255	95.44
444.476	95.44
444.698	81.44
444.919	81.44
445.14	129.44
445.361	116.44
445.582	100.44
445.803	122.44
446.024	114.44
446.245	134.44
446.466	113.44
446.687	98.44
446.908	84.44
447.129	90.44
447.35	80.44
447.571	94.44
447.792	94.44
448.013	101.44
448.234	110.44
448.455	90.44
448.675	102.44
448.896	96.44
449.117	90.44
449.338	105.44
449.559	112.44
449.779	116.44
450	72.44
450.221	95.44
450.442	97.44
450.662	103.44
450.883	93.44
451.104	106.44
451.324	102.44
451.545	89.44
451.766	94.44
451.986	87.44
452.207	84.44
452.428	85.44
452.648	97.44
452.869	107.44
453.089	111.44
453.31	114.44
453.53	87.44
453.751	93.44
453.971	104.44
454.192	94.44
454.412	89.44
454.633	99.44
454.853	98.44
455.073	94.44
455.294	98.44
455.514	88.44
455.734	94.44
455.955	81.44
456.175	80.44
456.395	80.44
456.616	84.44
456.836	83.44
457.056	83.44
457.276	78.44
457.497	79.44
457.717	97.44
457.937	93.44
458.157	81.44
458.377	72.44
458.598	97.44
458.818	148.44
459.038	149.44
459.258	97.44
459.478	92.44
459.698	89.44
459.918	100.44
460.138	84.44
460.358	96.44
460.578	72.44
460.798	91.44
461.018	87.44
461.238	77.44
461.458	80.44
461.678	76.44
461.898	74.44
462.118	78.44
462.338	85.44
462.558	81.44
462.777	87.44
462.997	82.44
463.217	89.44
463.437	79.44
463.657	81.44
463.876	81.44
464.096	72.44
464.316	87.44
464.536	85.44
464.755	91.44
464.975	106.44
465.195	147.44
465.414	161.44
465.634	87.44
465.854	82.44
466.073	86.44
466.293	91.44
466.512	87.44
466.732	89.44
466.951	78.44
467.171	86.44
467.391	95.44
467.61	97.44
467.829	111.44
468.049	140.44
468.268	166.44
468.488	83.44
468.707	89.44
468.927	95.44
469.146	74.44
469.365	88.44
469.585	92.44
469.804	82.44
470.023	80.44
470.243	82.44
470.462	90.44
470.681	98.44
470.901	79.44
471.12	92.44
471.339	100.44
471.558	87.44
471.777	84.44
471.997	102.44
472.216	201.44
472.435	308.44
472.654	139.44
472.873	96.44
473.092	71.44
473.311	79.44
473.53	80.44
473.749	81.44
473.968	91.44
474.187	93.44
474.406	83.44
474.625	92.44
474.844	88.44
475.063	83.44
475.282	74.44
475.501	88.44
475.72	65.44
475.939	78.44
476.158	87.44
476.377	95.44
476.596	86.44
476.814	91.44
477.033	86.44
477.252	74.44
477.471	72.44
477.69	95.44
477.908	84.44
478.127	81.44
478.346	80.44
478.564	97.44
478.783	94.44
479.002	77.44
479.22	103.44
479.439	98.44
479.658	98.44
479.876	94.44
480.095	89.44
480.313	84.44
480.532	108.44
480.751	115.44
480.969	193.44
481.188	552.44
481.406	348.44
481.624	118.44
481.843	98.44
482.061	69.44
482.28	96.44
482.498	96.44
482.717	87.44
482.935	81.44
483.153	75.44
483.372	89.44
483.59	93.44
483.808	87.44
484.027	97.44
484.245	102.44
484.463	97.44
484.681	102.44
484.9	86.44
485.118	84.44
485.336	92.44
485.554	84.44
485.772	90.44
485.99	112.44
486.209	104.44
486.427	89.44
486.645	112.44
486.863	99.44
487.081	102.44
487.299	106.44
487.517	100.44
487.735	101.44
487.953	97.44
488.171	107.44
488.389	90.44
488.607	91.44
488.825	82.44
489.043	72.44
489.261	81.44
489.479	82.44
489.696	96.44
489.914	101.44
490.132	91.44
490.35	84.44
490.568	92.44
490.786	77.44
491.003	92.44
491.221	87.44
491.439	96.44
491.657	99.44
491.874	82.44
492.092	93.44
492.31	81.44
492.527	84.44
492.745	92.44
492.963	79.44
493.18	96.44
493.398	76.44
493.615	79.44
493.833	87.44
494.05	94.44
494.268	86.44
494.485	82.44
494.703	87.44
494.92	78.44
495.138	85.44
495.355	83.44
495.573	88.44
495.79	87.44
496.008	88.44
496.225	92.44
496.442	84.44
496.66	93.44
496.877	81.44
497.094	98.44
497.312	85.44
497.529	96.44
497.746	81.44
497.963	105.44
498.181	76.44
498.398	86.44
498.615	110.44
498.832	104.44
499.049	96.44
499.267	82.44
499.484	71.44
499.701	86.44
499.918	95.44
500.135	79.44
500.352	81.44
500.569	81.44
500.786	95.44
501.003	88.44
501.22	97.44
501.437	84.44
501.654	98.44
501.871	102.44
502.088	89.44
502.305	85.44
502.522	92.44
502.739	76.44
502.956	97.44
503.172	94.44
503.389	106.44
503.606	101.44
503.823	95.44
504.04	77.44
504.256	94.44
504.473	95.44
504.69	81.44
504.907	80.44
505.123	84.44
505.34	85.44
505.557	84.44
505.773	97.44
505.99	93.44
506.207	80.44
506.423	101.44
506.64	75.44
506.856	90.44
507.073	82.44
507.289	92.44
507.506	87.44
507.722	104.44
507.939	112.44
508.155	87.44
508.372	95.44
508.588	96.44
508.805	93.44
509.021	95.44
509.238	89.44
509.454	88.44
509.67	103.44
509.887	100.44
510.103	127.44
510.319	222.44
510.536	793.44
510.752	2582.44
510.968	711.44
511.184	172.44
511.401	105.44
511.617	90.44
511.833	109.44
512.049	83.44
512.265	94.44
512.481	88.44
512.698	79.44
512.914	78.44
513.13	86.44
513.346	79.44
513.562	103.44
513.778	98.44
513.994	97.44
514.21	95.44
514.426	103.44
514.642	125.44
514.858	131.44
515.074	150.44
515.29	426.44
515.506	1498.44
515.721	553.44
515.937	154.44
516.153	114.44
516.369	97.44
