Data from Circ_1996_H10_HRD10591_00078.txt Node
Date: Wed Jan 03 11:33:21 EST 2024
User: Yrep
Spectrometer: HR+D1059
Trigger mode: 1
Integration Time (sec): 1.000000E-1
Scans to average: 1
Electric dark correction enabled: true
Nonlinearity correction enabled: false
Boxcar width: 0
XAxis mode: Wavelengths
Number of Pixels in Spectrum: 2048
>>>>>Begin Spectral Data<<<<<
223.165	-16.31
223.4	-16.31
223.635	-16.31
223.869	-18.31
224.104	-28.31
224.338	-16.31
224.573	-17.31
224.808	-13.31
225.042	-8.31
225.277	-0.31
225.511	-5.31
225.746	10.69
225.98	0.69
226.215	16.69
226.449	25.69
226.683	16.69
226.918	17.69
227.152	35.69
227.387	37.69
227.621	42.69
227.856	42.69
228.09	46.69
228.324	43.69
228.559	54.69
228.793	62.69
229.027	54.69
229.262	78.69
229.496	66.69
229.73	78.69
229.964	79.69
230.199	71.69
230.433	74.69
230.667	80.69
230.901	79.69
231.136	76.69
231.37	86.69
231.604	79.69
231.838	65.69
232.072	76.69
232.306	81.69
232.541	81.69
232.775	81.69
233.009	78.69
233.243	93.69
233.477	82.69
233.711	90.69
233.945	94.69
234.179	79.69
234.413	72.69
234.647	94.69
234.881	92.69
235.115	86.69
235.349	75.69
235.583	80.69
235.817	82.69
236.051	80.69
236.285	78.69
236.519	76.69
236.753	84.69
236.987	66.69
237.221	82.69
237.455	83.69
237.689	73.69
237.922	94.69
238.156	86.69
238.39	86.69
238.624	81.69
238.858	82.69
239.091	76.69
239.325	83.69
239.559	81.69
239.793	72.69
240.027	78.69
240.26	71.69
240.494	85.69
240.728	80.69
240.961	78.69
241.195	87.69
241.429	62.69
241.662	68.69
241.896	80.69
242.13	68.69
242.363	74.69
242.597	68.69
242.83	70.69
243.064	83.69
243.298	67.69
243.531	81.69
243.765	74.69
243.998	83.69
244.232	86.69
244.465	76.69
244.699	100.69
244.932	87.69
245.166	70.69
245.399	69.69
245.633	76.69
245.866	81.69
246.099	72.69
246.333	82.69
246.566	81.69
246.8	75.69
247.033	66.69
247.266	80.69
247.5	78.69
247.733	79.69
247.966	76.69
248.2	79.69
248.433	75.69
248.666	79.69
248.899	90.69
249.133	96.69
249.366	94.69
249.599	98.69
249.832	78.69
250.066	92.69
250.299	76.69
250.532	80.69
250.765	88.69
250.998	84.69
251.231	71.69
251.465	94.69
251.698	88.69
251.931	95.69
252.164	84.69
252.397	72.69
252.63	87.69
252.863	83.69
253.096	84.69
253.329	78.69
253.562	74.69
253.795	83.69
254.028	90.69
254.261	87.69
254.494	88.69
254.727	84.69
254.96	78.69
255.193	86.69
255.426	71.69
255.659	74.69
255.892	79.69
256.124	78.69
256.357	87.69
256.59	80.69
256.823	97.69
257.056	69.69
257.289	76.69
257.521	77.69
257.754	76.69
257.987	76.69
258.22	82.69
258.452	80.69
258.685	77.69
258.918	87.69
259.151	82.69
259.383	99.69
259.616	89.69
259.849	83.69
260.081	67.69
260.314	85.69
260.547	76.69
260.779	81.69
261.012	74.69
261.244	78.69
261.477	86.69
261.71	100.69
261.942	110.69
262.175	113.69
262.407	79.69
262.64	78.69
262.872	78.69
263.105	85.69
263.337	77.69
263.57	76.69
263.802	82.69
264.035	86.69
264.267	82.69
264.499	80.69
264.732	82.69
264.964	81.69
265.197	75.69
265.429	88.69
265.661	80.69
265.894	96.69
266.126	90.69
266.358	65.69
266.591	96.69
266.823	71.69
267.055	76.69
267.287	72.69
267.52	82.69
267.752	72.69
267.984	81.69
268.216	71.69
268.448	89.69
268.681	83.69
268.913	73.69
269.145	90.69
269.377	93.69
269.609	74.69
269.841	72.69
270.073	93.69
270.306	85.69
270.538	73.69
270.77	83.69
271.002	68.69
271.234	89.69
271.466	88.69
271.698	104.69
271.93	71.69
272.162	88.69
272.394	87.69
272.626	84.69
272.858	80.69
273.09	82.69
273.322	92.69
273.553	79.69
273.785	76.69
274.017	91.69
274.249	87.69
274.481	79.69
274.713	86.69
274.945	87.69
275.176	82.69
275.408	80.69
275.64	98.69
275.872	98.69
276.104	88.69
276.335	87.69
276.567	94.69
276.799	109.69
277.031	83.69
277.262	85.69
277.494	94.69
277.726	88.69
277.957	83.69
278.189	87.69
278.421	88.69
278.652	81.69
278.884	90.69
279.115	79.69
279.347	88.69
279.579	84.69
279.81	100.69
280.042	89.69
280.273	95.69
280.505	99.69
280.736	95.69
280.968	79.69
281.199	75.69
281.431	91.69
281.662	85.69
281.894	86.69
282.125	93.69
282.356	112.69
282.588	144.69
282.819	103.69
283.051	96.69
283.282	75.69
283.513	97.69
283.745	79.69
283.976	96.69
284.207	83.69
284.439	76.69
284.67	77.69
284.901	94.69
285.132	72.69
285.364	90.69
285.595	88.69
285.826	95.69
286.057	81.69
286.288	78.69
286.52	75.69
286.751	90.69
286.982	89.69
287.213	90.69
287.444	83.69
287.675	83.69
287.906	91.69
288.138	90.69
288.369	88.69
288.6	83.69
288.831	73.69
289.062	72.69
289.293	90.69
289.524	97.69
289.755	88.69
289.986	97.69
290.217	91.69
290.448	91.69
290.679	70.69
290.91	89.69
291.141	82.69
291.371	76.69
291.602	83.69
291.833	85.69
292.064	86.69
292.295	70.69
292.526	94.69
292.757	91.69
292.987	99.69
293.218	98.69
293.449	74.69
293.68	79.69
293.91	92.69
294.141	87.69
294.372	88.69
294.603	82.69
294.833	86.69
295.064	82.69
295.295	88.69
295.525	99.69
295.756	103.69
295.987	113.69
296.217	106.69
296.448	111.69
296.679	102.69
296.909	93.69
297.14	93.69
297.37	92.69
297.601	97.69
297.831	83.69
298.062	90.69
298.292	87.69
298.523	90.69
298.753	78.69
298.984	79.69
299.214	95.69
299.445	93.69
299.675	100.69
299.905	103.69
300.136	86.69
300.366	93.69
300.597	94.69
300.827	83.69
301.057	92.69
301.288	90.69
301.518	95.69
301.748	87.69
301.979	105.69
302.209	101.69
302.439	71.69
302.669	73.69
302.9	87.69
303.13	95.69
303.36	83.69
303.59	111.69
303.82	109.69
304.051	91.69
304.281	83.69
304.511	98.69
304.741	77.69
304.971	95.69
305.201	96.69
305.431	103.69
305.661	84.69
305.891	88.69
306.121	101.69
306.352	103.69
306.582	103.69
306.812	103.69
307.042	94.69
307.272	92.69
307.502	97.69
307.731	88.69
307.961	110.69
308.191	88.69
308.421	78.69
308.651	86.69
308.881	82.69
309.111	85.69
309.341	94.69
309.571	98.69
309.8	97.69
310.03	86.69
310.26	100.69
310.49	91.69
310.72	108.69
310.949	99.69
311.179	102.69
311.409	89.69
311.639	82.69
311.868	93.69
312.098	87.69
312.328	91.69
312.557	102.69
312.787	104.69
313.017	90.69
313.246	77.69
313.476	90.69
313.706	81.69
313.935	100.69
314.165	81.69
314.394	89.69
314.624	74.69
314.853	87.69
315.083	97.69
315.312	76.69
315.542	89.69
315.771	108.69
316.001	87.69
316.23	95.69
316.46	93.69
316.689	86.69
316.919	87.69
317.148	83.69
317.377	98.69
317.607	89.69
317.836	89.69
318.065	95.69
318.295	100.69
318.524	82.69
318.753	96.69
318.983	75.69
319.212	98.69
319.441	103.69
319.67	116.69
319.9	94.69
320.129	93.69
320.358	93.69
320.587	89.69
320.816	92.69
321.046	93.69
321.275	101.69
321.504	100.69
321.733	90.69
321.962	89.69
322.191	100.69
322.42	113.69
322.649	97.69
322.878	106.69
323.108	116.69
323.337	126.69
323.566	116.69
323.795	131.69
324.024	167.69
324.253	302.69
324.482	588.69
324.71	1142.69
324.939	1560.69
325.168	608.69
325.397	200.69
325.626	139.69
325.855	115.69
326.084	115.69
326.313	130.69
326.542	152.69
326.77	175.69
326.999	304.69
327.228	626.69
327.457	1101.69
327.686	936.69
327.914	302.69
328.143	187.69
328.372	152.69
328.6	124.69
328.829	122.69
329.058	121.69
329.287	118.69
329.515	99.69
329.744	116.69
329.972	107.69
330.201	159.69
330.43	195.69
330.658	150.69
330.887	148.69
331.115	118.69
331.344	98.69
331.572	82.69
331.801	90.69
332.03	120.69
332.258	92.69
332.486	99.69
332.715	107.69
332.943	97.69
333.172	97.69
333.4	96.69
333.629	107.69
333.857	121.69
334.085	120.69
334.314	176.69
334.542	259.69
334.771	218.69
334.999	119.69
335.227	89.69
335.455	87.69
335.684	101.69
335.912	110.69
336.14	94.69
336.369	85.69
336.597	94.69
336.825	90.69
337.053	96.69
337.281	74.69
337.51	94.69
337.738	99.69
337.966	95.69
338.194	86.69
338.422	92.69
338.65	93.69
338.878	88.69
339.106	96.69
339.334	92.69
339.562	84.69
339.79	81.69
340.018	92.69
340.246	87.69
340.474	92.69
340.702	88.69
340.93	65.69
341.158	102.69
341.386	87.69
341.614	85.69
341.842	97.69
342.07	84.69
342.298	90.69
342.526	81.69
342.754	91.69
342.981	96.69
343.209	82.69
343.437	88.69
343.665	99.69
343.893	76.69
344.12	84.69
344.348	96.69
344.576	93.69
344.804	105.69
345.031	89.69
345.259	95.69
345.487	94.69
345.714	83.69
345.942	96.69
346.17	95.69
346.397	77.69
346.625	89.69
346.853	81.69
347.08	91.69
347.308	97.69
347.535	104.69
347.763	102.69
347.99	97.69
348.218	100.69
348.445	99.69
348.673	100.69
348.9	97.69
349.128	103.69
349.355	94.69
349.583	98.69
349.81	97.69
350.037	83.69
350.265	99.69
350.492	96.69
350.72	89.69
350.947	84.69
351.174	94.69
351.402	103.69
351.629	104.69
351.856	91.69
352.083	96.69
352.311	98.69
352.538	99.69
352.765	98.69
352.992	92.69
353.22	123.69
353.447	117.69
353.674	103.69
353.901	103.69
354.128	91.69
354.355	91.69
354.583	97.69
354.81	84.69
355.037	93.69
355.264	98.69
355.491	89.69
355.718	97.69
355.945	80.69
356.172	98.69
356.399	95.69
356.626	96.69
356.853	99.69
357.08	83.69
357.307	90.69
357.534	99.69
357.761	101.69
357.988	98.69
358.215	101.69
358.441	97.69
358.668	94.69
358.895	90.69
359.122	92.69
359.349	92.69
359.576	90.69
359.802	102.69
360.029	102.69
360.256	102.69
360.483	95.69
360.709	97.69
360.936	89.69
361.163	92.69
361.39	99.69
361.616	87.69
361.843	84.69
362.07	92.69
362.296	94.69
362.523	88.69
362.749	90.69
362.976	95.69
363.203	99.69
363.429	86.69
363.656	104.69
363.882	79.69
364.109	93.69
364.335	85.69
364.562	93.69
364.788	105.69
365.015	91.69
365.241	106.69
365.468	100.69
365.694	101.69
365.92	98.69
366.147	92.69
366.373	85.69
366.599	95.69
366.826	94.69
367.052	82.69
367.278	89.69
367.505	97.69
367.731	95.69
367.957	89.69
368.184	92.69
368.41	93.69
368.636	98.69
368.862	116.69
369.089	111.69
369.315	88.69
369.541	73.69
369.767	90.69
369.993	92.69
370.219	83.69
370.445	96.69
370.672	95.69
370.898	79.69
371.124	87.69
371.35	78.69
371.576	98.69
371.802	94.69
372.028	91.69
372.254	87.69
372.48	96.69
372.706	75.69
372.932	87.69
373.158	89.69
373.384	88.69
373.61	99.69
373.835	95.69
374.061	82.69
374.287	84.69
374.513	86.69
374.739	92.69
374.965	99.69
375.191	90.69
375.416	100.69
375.642	88.69
375.868	80.69
376.094	94.69
376.319	95.69
376.545	82.69
376.771	92.69
376.997	82.69
377.222	100.69
377.448	86.69
377.674	95.69
377.899	84.69
378.125	99.69
378.35	86.69
378.576	93.69
378.802	87.69
379.027	85.69
379.253	90.69
379.478	83.69
379.704	94.69
379.929	94.69
380.155	91.69
380.38	90.69
380.606	101.69
380.831	103.69
381.057	93.69
381.282	87.69
381.507	89.69
381.733	105.69
381.958	109.69
382.184	110.69
382.409	90.69
382.634	98.69
382.86	92.69
383.085	103.69
383.31	95.69
383.535	84.69
383.761	108.69
383.986	93.69
384.211	87.69
384.436	103.69
384.662	87.69
384.887	102.69
385.112	87.69
385.337	99.69
385.562	115.69
385.787	106.69
386.013	110.69
386.238	106.69
386.463	92.69
386.688	116.69
386.913	102.69
387.138	102.69
387.363	87.69
387.588	101.69
387.813	100.69
388.038	110.69
388.263	97.69
388.488	106.69
388.713	115.69
388.938	99.69
389.163	96.69
389.387	106.69
389.612	91.69
389.837	83.69
390.062	102.69
390.287	100.69
390.512	87.69
390.736	100.69
390.961	92.69
391.186	97.69
391.411	104.69
391.636	95.69
391.86	83.69
392.085	90.69
392.31	85.69
392.534	93.69
392.759	92.69
392.984	87.69
393.208	88.69
393.433	100.69
393.658	90.69
393.882	80.69
394.107	85.69
394.331	95.69
394.556	83.69
394.78	73.69
395.005	90.69
395.229	91.69
395.454	83.69
395.678	97.69
395.903	86.69
396.127	86.69
396.352	80.69
396.576	82.69
396.801	77.69
397.025	94.69
397.249	95.69
397.474	108.69
397.698	108.69
397.922	89.69
398.147	91.69
398.371	87.69
398.595	88.69
398.82	93.69
399.044	84.69
399.268	72.69
399.492	79.69
399.717	92.69
399.941	86.69
400.165	85.69
400.389	104.69
400.613	92.69
400.837	82.69
401.062	100.69
401.286	78.69
401.51	87.69
401.734	102.69
401.958	94.69
402.182	125.69
402.406	144.69
402.63	119.69
402.854	88.69
403.078	82.69
403.302	84.69
403.526	87.69
403.75	82.69
403.974	82.69
404.198	75.69
404.422	87.69
404.645	89.69
404.869	87.69
405.093	77.69
405.317	98.69
405.541	88.69
405.765	98.69
405.988	99.69
406.212	155.69
406.436	204.69
406.66	154.69
406.883	105.69
407.107	97.69
407.331	95.69
407.555	96.69
407.778	94.69
408.002	94.69
408.226	83.69
408.449	86.69
408.673	93.69
408.896	95.69
409.12	97.69
409.344	95.69
409.567	82.69
409.791	80.69
410.014	100.69
410.238	103.69
410.461	94.69
410.685	98.69
410.908	95.69
411.132	108.69
411.355	104.69
411.578	90.69
411.802	90.69
412.025	91.69
412.249	88.69
412.472	88.69
412.695	98.69
412.919	96.69
413.142	75.69
413.365	75.69
413.589	80.69
413.812	92.69
414.035	89.69
414.258	72.69
414.482	80.69
414.705	94.69
414.928	92.69
415.151	88.69
415.374	92.69
415.597	84.69
415.821	88.69
416.044	89.69
416.267	99.69
416.49	88.69
416.713	88.69
416.936	94.69
417.159	82.69
417.382	84.69
417.605	86.69
417.828	77.69
418.051	96.69
418.274	84.69
418.497	89.69
418.72	75.69
418.943	90.69
419.166	81.69
419.389	85.69
419.611	78.69
419.834	74.69
420.057	85.69
420.28	94.69
420.503	94.69
420.726	94.69
420.948	90.69
421.171	76.69
421.394	87.69
421.617	68.69
421.839	88.69
422.062	91.69
422.285	75.69
422.507	92.69
422.73	93.69
422.953	91.69
423.175	80.69
423.398	89.69
423.621	78.69
423.843	88.69
424.066	75.69
424.288	88.69
424.511	80.69
424.733	99.69
424.956	98.69
425.178	98.69
425.401	95.69
425.623	98.69
425.846	85.69
426.068	92.69
426.291	92.69
426.513	105.69
426.735	98.69
426.958	109.69
427.18	113.69
427.402	127.69
427.625	147.69
427.847	120.69
428.069	111.69
428.292	109.69
428.514	82.69
428.736	77.69
428.958	98.69
429.181	88.69
429.403	88.69
429.625	91.69
429.847	87.69
430.069	91.69
430.292	91.69
430.514	78.69
430.736	86.69
430.958	81.69
431.18	91.69
431.402	78.69
431.624	89.69
431.846	99.69
432.068	91.69
432.29	76.69
432.512	92.69
432.734	93.69
432.956	101.69
433.178	91.69
433.4	106.69
433.622	93.69
433.844	92.69
434.066	94.69
434.287	94.69
434.509	84.69
434.731	95.69
434.953	75.69
435.175	91.69
435.397	73.69
435.618	93.69
435.84	99.69
436.062	98.69
436.284	97.69
436.505	92.69
436.727	89.69
436.949	81.69
437.17	97.69
437.392	88.69
437.614	84.69
437.835	111.69
438.057	115.69
438.278	96.69
438.5	102.69
438.721	120.69
438.943	105.69
439.165	96.69
439.386	82.69
439.608	82.69
439.829	95.69
440.05	128.69
440.272	126.69
440.493	88.69
440.715	86.69
440.936	80.69
441.158	72.69
441.379	77.69
441.6	84.69
441.822	74.69
442.043	82.69
442.264	94.69
442.486	89.69
442.707	90.69
442.928	95.69
443.149	119.69
443.371	122.69
443.592	82.69
443.813	99.69
444.034	100.69
444.255	93.69
444.476	87.69
444.698	83.69
444.919	88.69
445.14	119.69
445.361	104.69
445.582	112.69
445.803	120.69
446.024	108.69
446.245	104.69
446.466	93.69
446.687	74.69
446.908	95.69
447.129	76.69
447.35	102.69
447.571	94.69
447.792	84.69
448.013	93.69
448.234	102.69
448.455	99.69
448.675	110.69
448.896	95.69
449.117	115.69
449.338	100.69
449.559	125.69
449.779	122.69
450	84.69
450.221	86.69
450.442	89.69
450.662	82.69
450.883	92.69
451.104	112.69
451.324	94.69
451.545	97.69
451.766	88.69
451.986	84.69
452.207	102.69
452.428	96.69
452.648	95.69
452.869	103.69
453.089	105.69
453.31	102.69
453.53	101.69
453.751	84.69
453.971	103.69
454.192	107.69
454.412	93.69
454.633	89.69
454.853	82.69
455.073	92.69
455.294	91.69
455.514	96.69
455.734	80.69
455.955	91.69
456.175	71.69
456.395	88.69
456.616	87.69
456.836	75.69
457.056	83.69
457.276	95.69
457.497	90.69
457.717	93.69
457.937	97.69
458.157	84.69
458.377	84.69
458.598	99.69
458.818	136.69
459.038	146.69
459.258	108.69
459.478	80.69
459.698	88.69
459.918	97.69
460.138	82.69
460.358	90.69
460.578	84.69
460.798	94.69
461.018	84.69
461.238	89.69
461.458	79.69
461.678	83.69
461.898	105.69
462.118	98.69
462.338	71.69
462.558	86.69
462.777	86.69
462.997	103.69
463.217	87.69
463.437	90.69
463.657	87.69
463.876	80.69
464.096	82.69
464.316	98.69
464.536	88.69
464.755	96.69
464.975	100.69
465.195	136.69
465.414	136.69
465.634	94.69
465.854	85.69
466.073	97.69
466.293	84.69
466.512	87.69
466.732	96.69
466.951	92.69
467.171	97.69
467.391	96.69
467.61	94.69
467.829	110.69
468.049	129.69
468.268	151.69
468.488	104.69
468.707	108.69
468.927	76.69
469.146	88.69
469.365	91.69
469.585	98.69
469.804	98.69
470.023	104.69
470.243	86.69
470.462	108.69
470.681	104.69
470.901	82.69
471.12	97.69
471.339	80.69
471.558	86.69
471.777	92.69
471.997	118.69
472.216	188.69
472.435	299.69
472.654	138.69
472.873	91.69
473.092	101.69
473.311	95.69
473.53	90.69
473.749	87.69
473.968	97.69
474.187	100.69
474.406	86.69
474.625	84.69
474.844	94.69
475.063	90.69
475.282	76.69
475.501	97.69
475.72	100.69
475.939	73.69
476.158	70.69
476.377	84.69
476.596	96.69
476.814	97.69
477.033	84.69
477.252	82.69
477.471	86.69
477.69	87.69
477.908	100.69
478.127	79.69
478.346	96.69
478.564	89.69
478.783	84.69
479.002	93.69
479.22	102.69
479.439	88.69
479.658	85.69
479.876	95.69
480.095	82.69
480.313	99.69
480.532	105.69
480.751	115.69
480.969	190.69
481.188	513.69
481.406	320.69
481.624	105.69
481.843	79.69
482.061	83.69
482.28	98.69
482.498	79.69
482.717	82.69
482.935	75.69
483.153	87.69
483.372	88.69
483.59	94.69
483.808	95.69
484.027	85.69
484.245	96.69
484.463	83.69
484.681	100.69
484.9	102.69
485.118	103.69
485.336	77.69
485.554	110.69
485.772	113.69
485.99	114.69
486.209	108.69
486.427	103.69
486.645	118.69
486.863	110.69
487.081	105.69
487.299	106.69
487.517	93.69
487.735	81.69
487.953	91.69
488.171	102.69
488.389	89.69
488.607	110.69
488.825	79.69
489.043	86.69
489.261	97.69
489.479	90.69
489.696	96.69
489.914	83.69
490.132	99.69
490.35	90.69
490.568	91.69
490.786	80.69
491.003	75.69
491.221	84.69
491.439	96.69
491.657	92.69
491.874	100.69
492.092	90.69
492.31	103.69
492.527	86.69
492.745	87.69
492.963	96.69
493.18	95.69
493.398	82.69
493.615	106.69
493.833	98.69
494.05	93.69
494.268	112.69
494.485	98.69
494.703	103.69
494.92	93.69
495.138	91.69
495.355	90.69
495.573	87.69
495.79	90.69
496.008	80.69
496.225	91.69
496.442	75.69
496.66	89.69
496.877	75.69
497.094	103.69
497.312	94.69
497.529	100.69
497.746	97.69
497.963	95.69
498.181	90.69
498.398	93.69
498.615	106.69
498.832	97.69
499.049	93.69
499.267	96.69
499.484	89.69
499.701	94.69
499.918	106.69
500.135	98.69
500.352	90.69
500.569	94.69
500.786	100.69
501.003	90.69
501.22	89.69
501.437	101.69
501.654	86.69
501.871	103.69
502.088	88.69
502.305	80.69
502.522	85.69
502.739	97.69
502.956	82.69
503.172	83.69
503.389	95.69
503.606	88.69
503.823	87.69
504.04	90.69
504.256	95.69
504.473	96.69
504.69	103.69
504.907	92.69
505.123	94.69
505.34	91.69
505.557	76.69
505.773	95.69
505.99	91.69
506.207	67.69
506.423	98.69
506.64	92.69
506.856	75.69
507.073	96.69
507.289	97.69
507.506	98.69
507.722	112.69
507.939	115.69
508.155	88.69
508.372	103.69
508.588	91.69
508.805	98.69
509.021	95.69
509.238	102.69
509.454	93.69
509.67	100.69
509.887	113.69
510.103	133.69
510.319	222.69
510.536	745.69
510.752	2450.69
510.968	676.69
511.184	156.69
511.401	102.69
511.617	104.69
511.833	85.69
512.049	83.69
512.265	75.69
512.481	97.69
512.698	87.69
512.914	98.69
513.13	100.69
513.346	94.69
513.562	76.69
513.778	98.69
513.994	120.69
514.21	98.69
514.426	106.69
514.642	114.69
514.858	127.69
515.074	154.69
515.29	422.69
515.506	1405.69
515.721	522.69
515.937	159.69
516.153	114.69
