Data from Circ_1996_H10_HRD10591_00054.txt Node
Date: Wed Jan 03 11:33:16 EST 2024
User: Yrep
Spectrometer: HR+D1059
Trigger mode: 1
Integration Time (sec): 1.000000E-1
Scans to average: 1
Electric dark correction enabled: true
Nonlinearity correction enabled: false
Boxcar width: 0
XAxis mode: Wavelengths
Number of Pixels in Spectrum: 2048
>>>>>Begin Spectral Data<<<<<
223.165	-16.44
223.4	-16.44
223.635	-16.44
223.869	-22.44
224.104	-10.44
224.338	-23.44
224.573	-10.44
224.808	-19.44
225.042	-6.44
225.277	-8.44
225.511	-10.44
225.746	11.56
225.98	7.56
226.215	5.56
226.449	17.56
226.683	26.56
226.918	24.56
227.152	34.56
227.387	26.56
227.621	32.56
227.856	65.56
228.09	46.56
228.324	32.56
228.559	67.56
228.793	51.56
229.027	53.56
229.262	80.56
229.496	78.56
229.73	83.56
229.964	91.56
230.199	80.56
230.433	79.56
230.667	70.56
230.901	68.56
231.136	60.56
231.37	67.56
231.604	67.56
231.838	63.56
232.072	87.56
232.306	79.56
232.541	89.56
232.775	92.56
233.009	95.56
233.243	84.56
233.477	70.56
233.711	79.56
233.945	97.56
234.179	75.56
234.413	77.56
234.647	75.56
234.881	71.56
235.115	77.56
235.349	67.56
235.583	71.56
235.817	83.56
236.051	72.56
236.285	66.56
236.519	71.56
236.753	87.56
236.987	74.56
237.221	91.56
237.455	85.56
237.689	78.56
237.922	75.56
238.156	77.56
238.39	75.56
238.624	79.56
238.858	91.56
239.091	75.56
239.325	95.56
239.559	81.56
239.793	71.56
240.027	80.56
240.26	87.56
240.494	79.56
240.728	79.56
240.961	80.56
241.195	83.56
241.429	83.56
241.662	76.56
241.896	73.56
242.13	89.56
242.363	75.56
242.597	71.56
242.83	85.56
243.064	76.56
243.298	88.56
243.531	81.56
243.765	91.56
243.998	74.56
244.232	83.56
244.465	84.56
244.699	90.56
244.932	85.56
245.166	89.56
245.399	66.56
245.633	83.56
245.866	68.56
246.099	62.56
246.333	88.56
246.566	83.56
246.8	73.56
247.033	78.56
247.266	85.56
247.5	79.56
247.733	86.56
247.966	80.56
248.2	81.56
248.433	93.56
248.666	75.56
248.899	86.56
249.133	77.56
249.366	100.56
249.599	99.56
249.832	89.56
250.066	76.56
250.299	85.56
250.532	74.56
250.765	73.56
250.998	59.56
251.231	71.56
251.465	84.56
251.698	76.56
251.931	101.56
252.164	87.56
252.397	79.56
252.63	91.56
252.863	87.56
253.096	63.56
253.329	90.56
253.562	87.56
253.795	88.56
254.028	81.56
254.261	78.56
254.494	86.56
254.727	73.56
254.96	66.56
255.193	79.56
255.426	84.56
255.659	84.56
255.892	80.56
256.124	90.56
256.357	90.56
256.59	76.56
256.823	76.56
257.056	92.56
257.289	90.56
257.521	83.56
257.754	85.56
257.987	82.56
258.22	94.56
258.452	84.56
258.685	84.56
258.918	78.56
259.151	84.56
259.383	83.56
259.616	74.56
259.849	84.56
260.081	83.56
260.314	74.56
260.547	82.56
260.779	83.56
261.012	99.56
261.244	75.56
261.477	86.56
261.71	89.56
261.942	107.56
262.175	117.56
262.407	88.56
262.64	80.56
262.872	81.56
263.105	97.56
263.337	101.56
263.57	89.56
263.802	83.56
264.035	81.56
264.267	79.56
264.499	72.56
264.732	80.56
264.964	72.56
265.197	76.56
265.429	79.56
265.661	84.56
265.894	71.56
266.126	73.56
266.358	80.56
266.591	105.56
266.823	85.56
267.055	75.56
267.287	84.56
267.52	92.56
267.752	85.56
267.984	91.56
268.216	80.56
268.448	89.56
268.681	72.56
268.913	83.56
269.145	75.56
269.377	86.56
269.609	87.56
269.841	87.56
270.073	94.56
270.306	87.56
270.538	86.56
270.77	84.56
271.002	96.56
271.234	73.56
271.466	91.56
271.698	79.56
271.93	91.56
272.162	80.56
272.394	86.56
272.626	80.56
272.858	82.56
273.09	82.56
273.322	85.56
273.553	91.56
273.785	96.56
274.017	87.56
274.249	79.56
274.481	78.56
274.713	72.56
274.945	92.56
275.176	87.56
275.408	102.56
275.64	84.56
275.872	79.56
276.104	92.56
276.335	101.56
276.567	99.56
276.799	100.56
277.031	103.56
277.262	99.56
277.494	85.56
277.726	93.56
277.957	89.56
278.189	88.56
278.421	79.56
278.652	87.56
278.884	91.56
279.115	81.56
279.347	95.56
279.579	81.56
279.81	95.56
280.042	97.56
280.273	101.56
280.505	83.56
280.736	76.56
280.968	99.56
281.199	84.56
281.431	92.56
281.662	87.56
281.894	91.56
282.125	97.56
282.356	126.56
282.588	138.56
282.819	104.56
283.051	109.56
283.282	94.56
283.513	99.56
283.745	92.56
283.976	76.56
284.207	79.56
284.439	89.56
284.67	83.56
284.901	85.56
285.132	85.56
285.364	76.56
285.595	96.56
285.826	87.56
286.057	99.56
286.288	82.56
286.52	86.56
286.751	88.56
286.982	86.56
287.213	77.56
287.444	93.56
287.675	80.56
287.906	93.56
288.138	85.56
288.369	92.56
288.6	86.56
288.831	99.56
289.062	90.56
289.293	87.56
289.524	95.56
289.755	91.56
289.986	87.56
290.217	87.56
290.448	86.56
290.679	94.56
290.91	100.56
291.141	95.56
291.371	92.56
291.602	89.56
291.833	83.56
292.064	85.56
292.295	87.56
292.526	80.56
292.757	87.56
292.987	90.56
293.218	97.56
293.449	91.56
293.68	92.56
293.91	98.56
294.141	99.56
294.372	79.56
294.603	102.56
294.833	87.56
295.064	75.56
295.295	91.56
295.525	94.56
295.756	98.56
295.987	113.56
296.217	131.56
296.448	124.56
296.679	106.56
296.909	80.56
297.14	96.56
297.37	75.56
297.601	84.56
297.831	87.56
298.062	96.56
298.292	92.56
298.523	95.56
298.753	78.56
298.984	81.56
299.214	99.56
299.445	95.56
299.675	91.56
299.905	93.56
300.136	84.56
300.366	80.56
300.597	81.56
300.827	95.56
301.057	84.56
301.288	98.56
301.518	100.56
301.748	95.56
301.979	90.56
302.209	95.56
302.439	89.56
302.669	83.56
302.9	105.56
303.13	97.56
303.36	84.56
303.59	98.56
303.82	98.56
304.051	97.56
304.281	83.56
304.511	90.56
304.741	91.56
304.971	99.56
305.201	84.56
305.431	82.56
305.661	91.56
305.891	76.56
306.121	94.56
306.352	98.56
306.582	104.56
306.812	91.56
307.042	94.56
307.272	96.56
307.502	106.56
307.731	94.56
307.961	95.56
308.191	95.56
308.421	88.56
308.651	87.56
308.881	93.56
309.111	90.56
309.341	89.56
309.571	101.56
309.8	84.56
310.03	99.56
310.26	101.56
310.49	90.56
310.72	97.56
310.949	101.56
311.179	114.56
311.409	96.56
311.639	87.56
311.868	100.56
312.098	96.56
312.328	79.56
312.557	97.56
312.787	109.56
313.017	102.56
313.246	106.56
313.476	95.56
313.706	75.56
313.935	94.56
314.165	101.56
314.394	98.56
314.624	87.56
314.853	103.56
315.083	98.56
315.312	74.56
315.542	90.56
315.771	82.56
316.001	87.56
316.23	89.56
316.46	82.56
316.689	101.56
316.919	89.56
317.148	95.56
317.377	101.56
317.607	99.56
317.836	100.56
318.065	97.56
318.295	100.56
318.524	95.56
318.753	91.56
318.983	95.56
319.212	90.56
319.441	103.56
319.67	107.56
319.9	98.56
320.129	93.56
320.358	100.56
320.587	90.56
320.816	101.56
321.046	93.56
321.275	97.56
321.504	92.56
321.733	96.56
321.962	92.56
322.191	93.56
322.42	113.56
322.649	100.56
322.878	101.56
323.108	110.56
323.337	111.56
323.566	124.56
323.795	146.56
324.024	168.56
324.253	290.56
324.482	617.56
324.71	1204.56
324.939	1593.56
325.168	623.56
325.397	215.56
325.626	155.56
325.855	123.56
326.084	106.56
326.313	107.56
326.542	132.56
326.77	181.56
326.999	330.56
327.228	628.56
327.457	1144.56
327.686	956.56
327.914	320.56
328.143	193.56
328.372	164.56
328.6	129.56
328.829	120.56
329.058	100.56
329.287	119.56
329.515	100.56
329.744	112.56
329.972	128.56
330.201	168.56
330.43	183.56
330.658	144.56
330.887	133.56
331.115	119.56
331.344	91.56
331.572	96.56
331.801	107.56
332.03	106.56
332.258	101.56
332.486	93.56
332.715	95.56
332.943	101.56
333.172	106.56
333.4	99.56
333.629	120.56
333.857	117.56
334.085	129.56
334.314	154.56
334.542	221.56
334.771	192.56
334.999	136.56
335.227	91.56
335.455	100.56
335.684	103.56
335.912	106.56
336.14	106.56
336.369	83.56
336.597	96.56
336.825	100.56
337.053	105.56
337.281	88.56
337.51	83.56
337.738	103.56
337.966	100.56
338.194	101.56
338.422	97.56
338.65	89.56
338.878	91.56
339.106	85.56
339.334	90.56
339.562	88.56
339.79	85.56
340.018	84.56
340.246	83.56
340.474	103.56
340.702	92.56
340.93	90.56
341.158	95.56
341.386	91.56
341.614	99.56
341.842	97.56
342.07	79.56
342.298	89.56
342.526	80.56
342.754	95.56
342.981	83.56
343.209	96.56
343.437	87.56
343.665	77.56
343.893	85.56
344.12	83.56
344.348	104.56
344.576	91.56
344.804	95.56
345.031	97.56
345.259	87.56
345.487	99.56
345.714	91.56
345.942	84.56
346.17	105.56
346.397	96.56
346.625	104.56
346.853	99.56
347.08	89.56
347.308	94.56
347.535	103.56
347.763	101.56
347.99	102.56
348.218	109.56
348.445	109.56
348.673	95.56
348.9	92.56
349.128	94.56
349.355	75.56
349.583	89.56
349.81	85.56
350.037	98.56
350.265	92.56
350.492	93.56
350.72	95.56
350.947	101.56
351.174	104.56
351.402	110.56
351.629	111.56
351.856	119.56
352.083	91.56
352.311	99.56
352.538	110.56
352.765	101.56
352.992	123.56
353.22	116.56
353.447	107.56
353.674	98.56
353.901	111.56
354.128	97.56
354.355	84.56
354.583	93.56
354.81	92.56
355.037	113.56
355.264	93.56
355.491	109.56
355.718	105.56
355.945	103.56
356.172	95.56
356.399	90.56
356.626	80.56
356.853	111.56
357.08	101.56
357.307	90.56
357.534	106.56
357.761	99.56
357.988	107.56
358.215	105.56
358.441	110.56
358.668	87.56
358.895	97.56
359.122	101.56
359.349	95.56
359.576	97.56
359.802	101.56
360.029	108.56
360.256	112.56
360.483	92.56
360.709	96.56
360.936	90.56
361.163	92.56
361.39	84.56
361.616	96.56
361.843	86.56
362.07	90.56
362.296	95.56
362.523	89.56
362.749	98.56
362.976	87.56
363.203	88.56
363.429	91.56
363.656	92.56
363.882	99.56
364.109	82.56
364.335	90.56
364.562	79.56
364.788	91.56
365.015	90.56
365.241	104.56
365.468	117.56
365.694	96.56
365.92	109.56
366.147	81.56
366.373	80.56
366.599	88.56
366.826	92.56
367.052	80.56
367.278	86.56
367.505	90.56
367.731	93.56
367.957	92.56
368.184	101.56
368.41	97.56
368.636	107.56
368.862	121.56
369.089	107.56
369.315	98.56
369.541	94.56
369.767	84.56
369.993	83.56
370.219	90.56
370.445	81.56
370.672	99.56
370.898	93.56
371.124	97.56
371.35	107.56
371.576	96.56
371.802	91.56
372.028	95.56
372.254	69.56
372.48	77.56
372.706	77.56
372.932	81.56
373.158	80.56
373.384	96.56
373.61	94.56
373.835	96.56
374.061	84.56
374.287	95.56
374.513	89.56
374.739	65.56
374.965	76.56
375.191	89.56
375.416	105.56
375.642	96.56
375.868	92.56
376.094	93.56
376.319	87.56
376.545	101.56
376.771	100.56
376.997	85.56
377.222	94.56
377.448	84.56
377.674	103.56
377.899	94.56
378.125	75.56
378.35	88.56
378.576	99.56
378.802	92.56
379.027	89.56
379.253	108.56
379.478	87.56
379.704	84.56
379.929	87.56
380.155	83.56
380.38	102.56
380.606	93.56
380.831	75.56
381.057	100.56
381.282	97.56
381.507	108.56
381.733	98.56
381.958	91.56
382.184	89.56
382.409	101.56
382.634	100.56
382.86	102.56
383.085	105.56
383.31	97.56
383.535	112.56
383.761	104.56
383.986	107.56
384.211	105.56
384.436	104.56
384.662	92.56
384.887	96.56
385.112	103.56
385.337	112.56
385.562	101.56
385.787	110.56
386.013	122.56
386.238	110.56
386.463	106.56
386.688	107.56
386.913	119.56
387.138	110.56
387.363	100.56
387.588	112.56
387.813	94.56
388.038	94.56
388.263	117.56
388.488	115.56
388.713	94.56
388.938	84.56
389.163	118.56
389.387	95.56
389.612	76.56
389.837	90.56
390.062	97.56
390.287	89.56
390.512	93.56
390.736	91.56
390.961	96.56
391.186	87.56
391.411	106.56
391.636	99.56
391.86	100.56
392.085	92.56
392.31	92.56
392.534	87.56
392.759	87.56
392.984	97.56
393.208	100.56
393.433	110.56
393.658	88.56
393.882	93.56
394.107	71.56
394.331	83.56
394.556	91.56
394.78	92.56
395.005	101.56
395.229	101.56
395.454	97.56
395.678	101.56
395.903	91.56
396.127	82.56
396.352	80.56
396.576	90.56
396.801	96.56
397.025	105.56
397.249	85.56
397.474	105.56
397.698	94.56
397.922	87.56
398.147	85.56
398.371	68.56
398.595	80.56
398.82	98.56
399.044	88.56
399.268	95.56
399.492	90.56
399.717	88.56
399.941	81.56
400.165	89.56
400.389	75.56
400.613	87.56
400.837	96.56
401.062	87.56
401.286	90.56
401.51	99.56
401.734	85.56
401.958	99.56
402.182	132.56
402.406	147.56
402.63	92.56
402.854	100.56
403.078	90.56
403.302	86.56
403.526	76.56
403.75	94.56
403.974	84.56
404.198	75.56
404.422	79.56
404.645	87.56
404.869	99.56
405.093	95.56
405.317	109.56
405.541	91.56
405.765	85.56
405.988	119.56
406.212	157.56
406.436	208.56
406.66	161.56
406.883	112.56
407.107	84.56
407.331	97.56
407.555	84.56
407.778	100.56
408.002	97.56
408.226	91.56
408.449	91.56
408.673	82.56
408.896	88.56
409.12	92.56
409.344	94.56
409.567	94.56
409.791	101.56
410.014	94.56
410.238	97.56
410.461	92.56
410.685	96.56
410.908	93.56
411.132	94.56
411.355	82.56
411.578	90.56
411.802	87.56
412.025	83.56
412.249	90.56
412.472	84.56
412.695	101.56
412.919	78.56
413.142	82.56
413.365	97.56
413.589	81.56
413.812	81.56
414.035	95.56
414.258	83.56
414.482	100.56
414.705	87.56
414.928	86.56
415.151	91.56
415.374	97.56
415.597	92.56
415.821	95.56
416.044	92.56
416.267	88.56
416.49	84.56
416.713	82.56
416.936	97.56
417.159	93.56
417.382	94.56
417.605	113.56
417.828	89.56
418.051	100.56
418.274	84.56
418.497	87.56
418.72	90.56
418.943	87.56
419.166	93.56
419.389	83.56
419.611	87.56
419.834	87.56
420.057	92.56
420.28	99.56
420.503	90.56
420.726	82.56
420.948	84.56
421.171	90.56
421.394	68.56
421.617	81.56
421.839	100.56
422.062	97.56
422.285	95.56
422.507	92.56
422.73	101.56
422.953	90.56
423.175	90.56
423.398	80.56
423.621	90.56
423.843	95.56
424.066	81.56
424.288	95.56
424.511	86.56
424.733	106.56
424.956	109.56
425.178	89.56
425.401	91.56
425.623	95.56
425.846	85.56
426.068	98.56
426.291	93.56
426.513	90.56
426.735	91.56
426.958	92.56
427.18	101.56
427.402	126.56
427.625	171.56
427.847	151.56
428.069	108.56
428.292	92.56
428.514	89.56
428.736	107.56
428.958	78.56
429.181	93.56
429.403	93.56
429.625	84.56
429.847	91.56
430.069	104.56
430.292	95.56
430.514	89.56
430.736	91.56
430.958	75.56
431.18	75.56
431.402	77.56
431.624	88.56
431.846	100.56
432.068	97.56
432.29	90.56
432.512	83.56
432.734	80.56
432.956	93.56
433.178	100.56
433.4	83.56
433.622	80.56
433.844	89.56
434.066	82.56
434.287	98.56
434.509	88.56
434.731	92.56
434.953	85.56
435.175	89.56
435.397	103.56
435.618	75.56
435.84	98.56
436.062	113.56
436.284	102.56
436.505	103.56
436.727	88.56
436.949	92.56
437.17	89.56
437.392	70.56
437.614	83.56
437.835	100.56
438.057	88.56
438.278	101.56
438.5	99.56
438.721	114.56
438.943	96.56
439.165	88.56
439.386	81.56
439.608	82.56
439.829	101.56
440.05	109.56
440.272	117.56
440.493	94.56
440.715	96.56
440.936	89.56
441.158	83.56
441.379	88.56
441.6	89.56
441.822	96.56
442.043	87.56
442.264	99.56
442.486	83.56
442.707	96.56
442.928	110.56
443.149	113.56
443.371	128.56
443.592	100.56
443.813	101.56
444.034	107.56
444.255	83.56
444.476	80.56
444.698	80.56
444.919	89.56
445.14	127.56
445.361	116.56
445.582	107.56
445.803	141.56
446.024	124.56
446.245	113.56
446.466	103.56
446.687	100.56
446.908	90.56
447.129	96.56
447.35	80.56
447.571	81.56
447.792	98.56
448.013	103.56
448.234	93.56
448.455	88.56
448.675	114.56
448.896	103.56
449.117	96.56
449.338	94.56
449.559	118.56
449.779	131.56
450	81.56
450.221	92.56
450.442	95.56
450.662	91.56
450.883	93.56
451.104	109.56
451.324	107.56
451.545	92.56
451.766	79.56
451.986	85.56
452.207	104.56
452.428	112.56
452.648	109.56
452.869	116.56
453.089	107.56
453.31	120.56
453.53	86.56
453.751	92.56
453.971	109.56
454.192	132.56
454.412	90.56
454.633	92.56
454.853	72.56
455.073	88.56
455.294	78.56
455.514	95.56
455.734	91.56
455.955	89.56
456.175	89.56
456.395	87.56
456.616	93.56
456.836	95.56
457.056	95.56
457.276	59.56
457.497	78.56
457.717	81.56
457.937	90.56
458.157	90.56
458.377	97.56
458.598	94.56
458.818	138.56
459.038	141.56
459.258	109.56
459.478	99.56
459.698	97.56
459.918	91.56
460.138	59.56
460.358	88.56
460.578	80.56
460.798	80.56
461.018	83.56
461.238	97.56
461.458	91.56
461.678	86.56
461.898	90.56
462.118	84.56
462.338	97.56
462.558	92.56
462.777	81.56
462.997	82.56
463.217	97.56
463.437	96.56
463.657	92.56
463.876	85.56
464.096	85.56
464.316	73.56
464.536	95.56
464.755	65.56
464.975	103.56
465.195	156.56
465.414	151.56
465.634	89.56
465.854	73.56
466.073	90.56
466.293	82.56
466.512	83.56
466.732	97.56
466.951	88.56
467.171	81.56
467.391	98.56
467.61	106.56
467.829	109.56
468.049	123.56
468.268	135.56
468.488	88.56
468.707	79.56
468.927	84.56
469.146	89.56
469.365	94.56
469.585	83.56
469.804	81.56
470.023	91.56
470.243	96.56
470.462	90.56
470.681	104.56
470.901	87.56
471.12	90.56
471.339	82.56
471.558	80.56
471.777	93.56
471.997	94.56
472.216	168.56
472.435	252.56
472.654	115.56
472.873	86.56
473.092	81.56
473.311	82.56
473.53	81.56
473.749	82.56
473.968	92.56
474.187	111.56
474.406	91.56
474.625	91.56
474.844	96.56
475.063	78.56
475.282	91.56
475.501	90.56
475.72	90.56
475.939	81.56
476.158	97.56
476.377	89.56
476.596	85.56
476.814	101.56
477.033	96.56
477.252	91.56
477.471	87.56
477.69	95.56
477.908	95.56
478.127	76.56
478.346	79.56
478.564	90.56
478.783	84.56
479.002	97.56
479.22	92.56
479.439	92.56
479.658	99.56
479.876	77.56
480.095	83.56
480.313	92.56
480.532	90.56
480.751	116.56
480.969	178.56
481.188	418.56
481.406	274.56
481.624	119.56
481.843	95.56
482.061	92.56
482.28	94.56
482.498	88.56
482.717	83.56
482.935	97.56
483.153	100.56
483.372	91.56
483.59	93.56
483.808	89.56
484.027	104.56
484.245	74.56
484.463	81.56
484.681	92.56
484.9	92.56
485.118	95.56
485.336	90.56
485.554	98.56
485.772	92.56
485.99	101.56
486.209	108.56
486.427	100.56
486.645	108.56
486.863	112.56
487.081	108.56
487.299	106.56
487.517	93.56
487.735	106.56
487.953	108.56
488.171	89.56
488.389	104.56
488.607	107.56
488.825	90.56
489.043	77.56
489.261	82.56
489.479	85.56
489.696	90.56
489.914	100.56
490.132	94.56
490.35	92.56
490.568	95.56
490.786	89.56
491.003	85.56
491.221	92.56
491.439	98.56
491.657	86.56
491.874	91.56
492.092	84.56
492.31	97.56
492.527	98.56
492.745	92.56
492.963	83.56
493.18	85.56
493.398	82.56
493.615	97.56
493.833	82.56
494.05	92.56
494.268	81.56
494.485	88.56
494.703	94.56
494.92	81.56
495.138	90.56
495.355	88.56
495.573	85.56
495.79	77.56
496.008	92.56
496.225	87.56
496.442	97.56
496.66	94.56
496.877	76.56
497.094	96.56
497.312	80.56
497.529	89.56
497.746	93.56
497.963	91.56
498.181	81.56
498.398	89.56
498.615	106.56
498.832	109.56
499.049	104.56
499.267	98.56
499.484	84.56
499.701	98.56
499.918	95.56
500.135	95.56
500.352	89.56
500.569	98.56
500.786	89.56
501.003	91.56
501.22	92.56
501.437	95.56
501.654	87.56
501.871	106.56
502.088	91.56
502.305	92.56
502.522	96.56
502.739	101.56
502.956	99.56
503.172	95.56
503.389	101.56
503.606	100.56
503.823	93.56
504.04	87.56
504.256	103.56
504.473	95.56
504.69	90.56
504.907	82.56
505.123	91.56
505.34	84.56
505.557	91.56
505.773	91.56
505.99	91.56
506.207	83.56
506.423	82.56
506.64	92.56
506.856	104.56
507.073	104.56
507.289	96.56
507.506	99.56
507.722	100.56
507.939	105.56
508.155	86.56
508.372	97.56
508.588	87.56
508.805	81.56
509.021	99.56
509.238	107.56
509.454	81.56
509.67	93.56
509.887	106.56
510.103	119.56
510.319	215.56
510.536	797.56
510.752	2571.56
510.968	705.56
511.184	155.56
511.401	105.56
511.617	95.56
511.833	88.56
512.049	94.56
512.265	107.56
512.481	84.56
512.698	81.56
512.914	100.56
513.13	89.56
513.346	92.56
513.562	98.56
513.778	100.56
513.994	97.56
514.21	97.56
514.426	100.56
514.642	130.56
514.858	116.56
515.074	143.56
515.29	449.56
515.506	1496.56
