Data from Circ_1996_H10_HRD10591_00062.txt Node
Date: Wed Jan 03 11:33:18 EST 2024
User: Yrep
Spectrometer: HR+D1059
Trigger mode: 1
Integration Time (sec): 1.000000E-1
Scans to average: 1
Electric dark correction enabled: true
Nonlinearity correction enabled: false
Boxcar width: 0
XAxis mode: Wavelengths
Number of Pixels in Spectrum: 2048
>>>>>Begin Spectral Data<<<<<
223.165	-19.56
223.4	-19.56
223.635	-19.56
223.869	-19.56
224.104	-14.56
224.338	-23.56
224.573	-11.56
224.808	-9.56
225.042	-0.56
225.277	-19.56
225.511	2.44
225.746	8.44
225.98	10.44
226.215	9.44
226.449	12.44
226.683	18.44
226.918	29.44
227.152	27.44
227.387	42.44
227.621	33.44
227.856	31.44
228.09	31.44
228.324	33.44
228.559	47.44
228.793	48.44
229.027	51.44
229.262	64.44
229.496	64.44
229.73	68.44
229.964	71.44
230.199	73.44
230.433	85.44
230.667	72.44
230.901	72.44
231.136	89.44
231.37	65.44
231.604	82.44
231.838	82.44
232.072	85.44
232.306	77.44
232.541	76.44
232.775	72.44
233.009	77.44
233.243	65.44
233.477	93.44
233.711	87.44
233.945	84.44
234.179	75.44
234.413	81.44
234.647	96.44
234.881	79.44
235.115	89.44
235.349	69.44
235.583	82.44
235.817	76.44
236.051	61.44
236.285	82.44
236.519	75.44
236.753	84.44
236.987	82.44
237.221	82.44
237.455	80.44
237.689	78.44
237.922	70.44
238.156	68.44
238.39	72.44
238.624	84.44
238.858	74.44
239.091	73.44
239.325	82.44
239.559	83.44
239.793	78.44
240.027	89.44
240.26	85.44
240.494	87.44
240.728	74.44
240.961	81.44
241.195	70.44
241.429	87.44
241.662	62.44
241.896	78.44
242.13	76.44
242.363	78.44
242.597	76.44
242.83	80.44
243.064	84.44
243.298	90.44
243.531	70.44
243.765	82.44
243.998	81.44
244.232	92.44
244.465	92.44
244.699	81.44
244.932	76.44
245.166	73.44
245.399	66.44
245.633	72.44
245.866	71.44
246.099	76.44
246.333	88.44
246.566	90.44
246.8	88.44
247.033	76.44
247.266	80.44
247.5	84.44
247.733	71.44
247.966	68.44
248.2	68.44
248.433	66.44
248.666	83.44
248.899	81.44
249.133	90.44
249.366	109.44
249.599	95.44
249.832	78.44
250.066	68.44
250.299	83.44
250.532	77.44
250.765	77.44
250.998	80.44
251.231	73.44
251.465	74.44
251.698	70.44
251.931	88.44
252.164	86.44
252.397	76.44
252.63	82.44
252.863	91.44
253.096	77.44
253.329	75.44
253.562	78.44
253.795	82.44
254.028	82.44
254.261	90.44
254.494	82.44
254.727	76.44
254.96	62.44
255.193	86.44
255.426	78.44
255.659	73.44
255.892	87.44
256.124	84.44
256.357	68.44
256.59	82.44
256.823	89.44
257.056	80.44
257.289	88.44
257.521	93.44
257.754	78.44
257.987	81.44
258.22	78.44
258.452	79.44
258.685	90.44
258.918	77.44
259.151	73.44
259.383	90.44
259.616	81.44
259.849	87.44
260.081	71.44
260.314	77.44
260.547	90.44
260.779	83.44
261.012	88.44
261.244	90.44
261.477	72.44
261.71	81.44
261.942	102.44
262.175	108.44
262.407	84.44
262.64	84.44
262.872	80.44
263.105	94.44
263.337	88.44
263.57	68.44
263.802	93.44
264.035	77.44
264.267	87.44
264.499	82.44
264.732	82.44
264.964	92.44
265.197	63.44
265.429	78.44
265.661	80.44
265.894	79.44
266.126	82.44
266.358	78.44
266.591	84.44
266.823	81.44
267.055	76.44
267.287	78.44
267.52	82.44
267.752	78.44
267.984	80.44
268.216	70.44
268.448	85.44
268.681	84.44
268.913	85.44
269.145	96.44
269.377	73.44
269.609	71.44
269.841	90.44
270.073	83.44
270.306	81.44
270.538	90.44
270.77	86.44
271.002	78.44
271.234	77.44
271.466	90.44
271.698	85.44
271.93	87.44
272.162	85.44
272.394	84.44
272.626	65.44
272.858	81.44
273.09	86.44
273.322	79.44
273.553	92.44
273.785	96.44
274.017	88.44
274.249	76.44
274.481	81.44
274.713	90.44
274.945	101.44
275.176	97.44
275.408	80.44
275.64	91.44
275.872	81.44
276.104	85.44
276.335	95.44
276.567	96.44
276.799	107.44
277.031	103.44
277.262	95.44
277.494	88.44
277.726	86.44
277.957	93.44
278.189	77.44
278.421	85.44
278.652	84.44
278.884	92.44
279.115	82.44
279.347	85.44
279.579	87.44
279.81	89.44
280.042	80.44
280.273	81.44
280.505	82.44
280.736	69.44
280.968	72.44
281.199	89.44
281.431	94.44
281.662	77.44
281.894	95.44
282.125	100.44
282.356	108.44
282.588	141.44
282.819	113.44
283.051	100.44
283.282	91.44
283.513	90.44
283.745	84.44
283.976	95.44
284.207	90.44
284.439	78.44
284.67	91.44
284.901	84.44
285.132	89.44
285.364	90.44
285.595	80.44
285.826	84.44
286.057	79.44
286.288	86.44
286.52	84.44
286.751	69.44
286.982	73.44
287.213	98.44
287.444	83.44
287.675	68.44
287.906	74.44
288.138	82.44
288.369	78.44
288.6	82.44
288.831	89.44
289.062	97.44
289.293	72.44
289.524	73.44
289.755	77.44
289.986	102.44
290.217	70.44
290.448	90.44
290.679	83.44
290.91	75.44
291.141	89.44
291.371	69.44
291.602	87.44
291.833	97.44
292.064	94.44
292.295	71.44
292.526	95.44
292.757	95.44
292.987	76.44
293.218	88.44
293.449	96.44
293.68	94.44
293.91	81.44
294.141	89.44
294.372	75.44
294.603	86.44
294.833	92.44
295.064	92.44
295.295	80.44
295.525	107.44
295.756	95.44
295.987	110.44
296.217	144.44
296.448	135.44
296.679	107.44
296.909	92.44
297.14	89.44
297.37	86.44
297.601	88.44
297.831	88.44
298.062	81.44
298.292	84.44
298.523	82.44
298.753	93.44
298.984	74.44
299.214	85.44
299.445	98.44
299.675	104.44
299.905	96.44
300.136	94.44
300.366	87.44
300.597	74.44
300.827	83.44
301.057	103.44
301.288	92.44
301.518	91.44
301.748	89.44
301.979	97.44
302.209	91.44
302.439	81.44
302.669	87.44
302.9	91.44
303.13	98.44
303.36	87.44
303.59	90.44
303.82	102.44
304.051	89.44
304.281	76.44
304.511	78.44
304.741	89.44
304.971	85.44
305.201	91.44
305.431	82.44
305.661	84.44
305.891	89.44
306.121	100.44
306.352	101.44
306.582	90.44
306.812	103.44
307.042	94.44
307.272	93.44
307.502	107.44
307.731	89.44
307.961	110.44
308.191	82.44
308.421	97.44
308.651	92.44
308.881	104.44
309.111	102.44
309.341	98.44
309.571	109.44
309.8	97.44
310.03	85.44
310.26	94.44
310.49	84.44
310.72	111.44
310.949	100.44
311.179	108.44
311.409	94.44
311.639	86.44
311.868	72.44
312.098	87.44
312.328	96.44
312.557	98.44
312.787	97.44
313.017	92.44
313.246	91.44
313.476	94.44
313.706	92.44
313.935	79.44
314.165	96.44
314.394	92.44
314.624	96.44
314.853	98.44
315.083	103.44
315.312	82.44
315.542	93.44
315.771	95.44
316.001	95.44
316.23	94.44
316.46	79.44
316.689	89.44
316.919	84.44
317.148	89.44
317.377	104.44
317.607	98.44
317.836	103.44
318.065	104.44
318.295	92.44
318.524	98.44
318.753	76.44
318.983	97.44
319.212	91.44
319.441	101.44
319.67	99.44
319.9	95.44
320.129	95.44
320.358	94.44
320.587	102.44
320.816	92.44
321.046	96.44
321.275	90.44
321.504	81.44
321.733	91.44
321.962	84.44
322.191	102.44
322.42	108.44
322.649	102.44
322.878	100.44
323.108	106.44
323.337	130.44
323.566	120.44
323.795	148.44
324.024	173.44
324.253	318.44
324.482	646.44
324.71	1320.44
324.939	1718.44
325.168	675.44
325.397	214.44
325.626	121.44
325.855	124.44
326.084	107.44
326.313	114.44
326.542	105.44
326.77	191.44
326.999	341.44
327.228	684.44
327.457	1248.44
327.686	1018.44
327.914	302.44
328.143	197.44
328.372	163.44
328.6	129.44
328.829	108.44
329.058	148.44
329.287	128.44
329.515	105.44
329.744	102.44
329.972	123.44
330.201	164.44
330.43	180.44
330.658	152.44
330.887	136.44
331.115	128.44
331.344	104.44
331.572	100.44
331.801	95.44
332.03	85.44
332.258	87.44
332.486	98.44
332.715	81.44
332.943	93.44
333.172	95.44
333.4	98.44
333.629	117.44
333.857	118.44
334.085	148.44
334.314	169.44
334.542	230.44
334.771	215.44
334.999	113.44
335.227	70.44
335.455	108.44
335.684	108.44
335.912	90.44
336.14	86.44
336.369	90.44
336.597	96.44
336.825	84.44
337.053	73.44
337.281	82.44
337.51	91.44
337.738	68.44
337.966	92.44
338.194	101.44
338.422	88.44
338.65	90.44
338.878	88.44
339.106	102.44
339.334	88.44
339.562	96.44
339.79	80.44
340.018	95.44
340.246	87.44
340.474	97.44
340.702	80.44
340.93	89.44
341.158	93.44
341.386	106.44
341.614	106.44
341.842	93.44
342.07	88.44
342.298	91.44
342.526	90.44
342.754	93.44
342.981	86.44
343.209	85.44
343.437	77.44
343.665	91.44
343.893	87.44
344.12	89.44
344.348	102.44
344.576	76.44
344.804	95.44
345.031	97.44
345.259	89.44
345.487	81.44
345.714	88.44
345.942	92.44
346.17	85.44
346.397	89.44
346.625	85.44
346.853	83.44
347.08	108.44
347.308	108.44
347.535	88.44
347.763	91.44
347.99	98.44
348.218	95.44
348.445	94.44
348.673	96.44
348.9	95.44
349.128	104.44
349.355	84.44
349.583	96.44
349.81	86.44
350.037	72.44
350.265	94.44
350.492	81.44
350.72	95.44
350.947	95.44
351.174	103.44
351.402	120.44
351.629	99.44
351.856	98.44
352.083	92.44
352.311	101.44
352.538	104.44
352.765	98.44
352.992	114.44
353.22	118.44
353.447	89.44
353.674	110.44
353.901	104.44
354.128	91.44
354.355	96.44
354.583	102.44
354.81	104.44
355.037	97.44
355.264	84.44
355.491	91.44
355.718	84.44
355.945	80.44
356.172	90.44
356.399	84.44
356.626	92.44
356.853	102.44
357.08	96.44
357.307	92.44
357.534	86.44
357.761	93.44
357.988	93.44
358.215	96.44
358.441	90.44
358.668	84.44
358.895	87.44
359.122	69.44
359.349	80.44
359.576	87.44
359.802	85.44
360.029	96.44
360.256	100.44
360.483	96.44
360.709	91.44
360.936	85.44
361.163	85.44
361.39	92.44
361.616	107.44
361.843	77.44
362.07	96.44
362.296	89.44
362.523	107.44
362.749	90.44
362.976	98.44
363.203	93.44
363.429	102.44
363.656	97.44
363.882	81.44
364.109	96.44
364.335	91.44
364.562	91.44
364.788	93.44
365.015	98.44
365.241	93.44
365.468	93.44
365.694	102.44
365.92	92.44
366.147	83.44
366.373	72.44
366.599	78.44
366.826	88.44
367.052	70.44
367.278	85.44
367.505	86.44
367.731	96.44
367.957	97.44
368.184	92.44
368.41	90.44
368.636	104.44
368.862	108.44
369.089	98.44
369.315	78.44
369.541	102.44
369.767	97.44
369.993	94.44
370.219	97.44
370.445	74.44
370.672	89.44
370.898	86.44
371.124	85.44
371.35	80.44
371.576	83.44
371.802	92.44
372.028	81.44
372.254	92.44
372.48	78.44
372.706	78.44
372.932	86.44
373.158	92.44
373.384	89.44
373.61	93.44
373.835	92.44
374.061	86.44
374.287	88.44
374.513	86.44
374.739	81.44
374.965	89.44
375.191	87.44
375.416	96.44
375.642	82.44
375.868	91.44
376.094	93.44
376.319	88.44
376.545	92.44
376.771	71.44
376.997	86.44
377.222	86.44
377.448	84.44
377.674	89.44
377.899	84.44
378.125	81.44
378.35	93.44
378.576	70.44
378.802	94.44
379.027	96.44
379.253	83.44
379.478	85.44
379.704	89.44
379.929	107.44
380.155	76.44
380.38	83.44
380.606	94.44
380.831	95.44
381.057	103.44
381.282	102.44
381.507	94.44
381.733	90.44
381.958	92.44
382.184	101.44
382.409	84.44
382.634	101.44
382.86	104.44
383.085	102.44
383.31	100.44
383.535	102.44
383.761	95.44
383.986	91.44
384.211	104.44
384.436	104.44
384.662	105.44
384.887	104.44
385.112	105.44
385.337	88.44
385.562	100.44
385.787	105.44
386.013	121.44
386.238	113.44
386.463	112.44
386.688	108.44
386.913	109.44
387.138	114.44
387.363	113.44
387.588	101.44
387.813	96.44
388.038	114.44
388.263	105.44
388.488	109.44
388.713	102.44
388.938	104.44
389.163	92.44
389.387	95.44
389.612	75.44
389.837	107.44
390.062	83.44
390.287	96.44
390.512	87.44
390.736	82.44
390.961	86.44
391.186	96.44
391.411	99.44
391.636	98.44
391.86	88.44
392.085	98.44
392.31	74.44
392.534	90.44
392.759	82.44
392.984	86.44
393.208	84.44
393.433	97.44
393.658	98.44
393.882	96.44
394.107	82.44
394.331	84.44
394.556	89.44
394.78	82.44
395.005	78.44
395.229	84.44
395.454	86.44
395.678	81.44
395.903	86.44
396.127	81.44
396.352	85.44
396.576	86.44
396.801	97.44
397.025	93.44
397.249	85.44
397.474	98.44
397.698	87.44
397.922	81.44
398.147	102.44
398.371	92.44
398.595	84.44
398.82	87.44
399.044	91.44
399.268	79.44
399.492	89.44
399.717	78.44
399.941	110.44
400.165	96.44
400.389	86.44
400.613	80.44
400.837	75.44
401.062	75.44
401.286	91.44
401.51	84.44
401.734	81.44
401.958	95.44
402.182	130.44
402.406	172.44
402.63	115.44
402.854	79.44
403.078	86.44
403.302	86.44
403.526	73.44
403.75	73.44
403.974	79.44
404.198	92.44
404.422	85.44
404.645	73.44
404.869	91.44
405.093	105.44
405.317	101.44
405.541	91.44
405.765	102.44
405.988	118.44
406.212	167.44
406.436	226.44
406.66	138.44
406.883	85.44
407.107	78.44
407.331	81.44
407.555	88.44
407.778	86.44
408.002	98.44
408.226	102.44
408.449	85.44
408.673	94.44
408.896	80.44
409.12	79.44
409.344	87.44
409.567	86.44
409.791	103.44
410.014	89.44
410.238	85.44
410.461	84.44
410.685	84.44
410.908	87.44
411.132	101.44
411.355	94.44
411.578	96.44
411.802	80.44
412.025	93.44
412.249	93.44
412.472	95.44
412.695	96.44
412.919	92.44
413.142	82.44
413.365	96.44
413.589	100.44
413.812	89.44
414.035	95.44
414.258	93.44
414.482	90.44
414.705	80.44
414.928	86.44
415.151	81.44
415.374	88.44
415.597	89.44
415.821	86.44
416.044	84.44
416.267	98.44
416.49	73.44
416.713	81.44
416.936	83.44
417.159	79.44
417.382	72.44
417.605	89.44
417.828	79.44
418.051	83.44
418.274	82.44
418.497	84.44
418.72	90.44
418.943	93.44
419.166	86.44
419.389	93.44
419.611	88.44
419.834	87.44
420.057	95.44
420.28	78.44
420.503	71.44
420.726	72.44
420.948	86.44
421.171	92.44
421.394	88.44
421.617	93.44
421.839	99.44
422.062	89.44
422.285	96.44
422.507	88.44
422.73	97.44
422.953	106.44
423.175	80.44
423.398	92.44
423.621	91.44
423.843	81.44
424.066	90.44
424.288	85.44
424.511	90.44
424.733	84.44
424.956	92.44
425.178	102.44
425.401	96.44
425.623	102.44
425.846	88.44
426.068	89.44
426.291	89.44
426.513	91.44
426.735	89.44
426.958	89.44
427.18	84.44
427.402	119.44
427.625	182.44
427.847	127.44
428.069	101.44
428.292	95.44
428.514	80.44
428.736	89.44
428.958	90.44
429.181	80.44
429.403	80.44
429.625	88.44
429.847	77.44
430.069	100.44
430.292	102.44
430.514	79.44
430.736	85.44
430.958	85.44
431.18	84.44
431.402	88.44
431.624	73.44
431.846	86.44
432.068	91.44
432.29	81.44
432.512	78.44
432.734	85.44
432.956	99.44
433.178	90.44
433.4	88.44
433.622	85.44
433.844	90.44
434.066	74.44
434.287	80.44
434.509	75.44
434.731	73.44
434.953	81.44
435.175	79.44
435.397	96.44
435.618	81.44
435.84	94.44
436.062	105.44
436.284	86.44
436.505	100.44
436.727	113.44
436.949	80.44
437.17	97.44
437.392	84.44
437.614	91.44
437.835	101.44
438.057	109.44
438.278	88.44
438.5	92.44
438.721	105.44
438.943	94.44
439.165	76.44
439.386	75.44
439.608	86.44
439.829	98.44
440.05	118.44
440.272	121.44
440.493	90.44
440.715	85.44
440.936	89.44
441.158	89.44
441.379	77.44
441.6	87.44
441.822	103.44
442.043	82.44
442.264	97.44
442.486	102.44
442.707	85.44
442.928	112.44
443.149	133.44
443.371	136.44
443.592	106.44
443.813	94.44
444.034	89.44
444.255	94.44
444.476	77.44
444.698	84.44
444.919	89.44
445.14	112.44
445.361	111.44
445.582	110.44
445.803	111.44
446.024	125.44
446.245	119.44
446.466	103.44
446.687	86.44
446.908	66.44
447.129	82.44
447.35	90.44
447.571	90.44
447.792	98.44
448.013	95.44
448.234	100.44
448.455	95.44
448.675	98.44
448.896	86.44
449.117	96.44
449.338	102.44
449.559	113.44
449.779	108.44
450	102.44
450.221	81.44
450.442	85.44
450.662	98.44
450.883	96.44
451.104	109.44
451.324	86.44
451.545	90.44
451.766	86.44
451.986	85.44
452.207	87.44
452.428	87.44
452.648	91.44
452.869	111.44
453.089	104.44
453.31	105.44
453.53	108.44
453.751	91.44
453.971	102.44
454.192	106.44
454.412	83.44
454.633	79.44
454.853	98.44
455.073	90.44
455.294	89.44
455.514	93.44
455.734	88.44
455.955	76.44
456.175	81.44
456.395	74.44
456.616	85.44
456.836	82.44
457.056	91.44
457.276	74.44
457.497	79.44
457.717	84.44
457.937	82.44
458.157	90.44
458.377	78.44
458.598	104.44
458.818	152.44
459.038	162.44
459.258	114.44
459.478	91.44
459.698	81.44
459.918	93.44
460.138	90.44
460.358	84.44
460.578	81.44
460.798	97.44
461.018	112.44
461.238	89.44
461.458	91.44
461.678	84.44
461.898	87.44
462.118	95.44
462.338	90.44
462.558	87.44
462.777	81.44
462.997	88.44
463.217	89.44
463.437	94.44
463.657	69.44
463.876	74.44
464.096	99.44
464.316	94.44
464.536	95.44
464.755	89.44
464.975	98.44
465.195	165.44
465.414	158.44
465.634	89.44
465.854	83.44
466.073	76.44
466.293	72.44
466.512	86.44
466.732	88.44
466.951	103.44
467.171	83.44
467.391	74.44
467.61	101.44
467.829	98.44
468.049	126.44
468.268	139.44
468.488	84.44
468.707	82.44
468.927	81.44
469.146	76.44
469.365	104.44
469.585	88.44
469.804	86.44
470.023	85.44
470.243	97.44
470.462	91.44
470.681	119.44
470.901	89.44
471.12	100.44
471.339	78.44
471.558	95.44
471.777	88.44
471.997	85.44
472.216	158.44
472.435	285.44
472.654	114.44
472.873	92.44
473.092	68.44
473.311	76.44
473.53	70.44
473.749	88.44
473.968	99.44
474.187	104.44
474.406	89.44
474.625	90.44
474.844	89.44
475.063	81.44
475.282	90.44
475.501	76.44
475.72	87.44
475.939	85.44
476.158	86.44
476.377	76.44
476.596	76.44
476.814	100.44
477.033	95.44
477.252	89.44
477.471	92.44
477.69	90.44
477.908	89.44
478.127	85.44
478.346	91.44
478.564	94.44
478.783	87.44
479.002	86.44
479.22	89.44
479.439	92.44
479.658	107.44
479.876	96.44
480.095	87.44
480.313	108.44
480.532	98.44
480.751	105.44
480.969	178.44
481.188	446.44
481.406	280.44
481.624	104.44
481.843	101.44
482.061	84.44
482.28	84.44
482.498	86.44
482.717	88.44
482.935	105.44
483.153	88.44
483.372	85.44
483.59	76.44
483.808	85.44
484.027	92.44
484.245	94.44
484.463	76.44
484.681	74.44
484.9	97.44
485.118	93.44
485.336	86.44
485.554	90.44
485.772	102.44
485.99	97.44
486.209	105.44
486.427	89.44
486.645	112.44
486.863	98.44
487.081	97.44
487.299	102.44
487.517	101.44
487.735	74.44
487.953	81.44
488.171	100.44
488.389	82.44
488.607	89.44
488.825	91.44
489.043	87.44
489.261	87.44
489.479	90.44
489.696	83.44
489.914	94.44
490.132	80.44
490.35	75.44
490.568	89.44
490.786	98.44
491.003	87.44
491.221	104.44
491.439	102.44
491.657	81.44
491.874	102.44
492.092	90.44
492.31	94.44
492.527	81.44
492.745	89.44
492.963	94.44
493.18	86.44
493.398	89.44
493.615	80.44
493.833	90.44
494.05	95.44
494.268	95.44
494.485	94.44
494.703	101.44
494.92	79.44
495.138	96.44
495.355	91.44
495.573	78.44
495.79	71.44
496.008	81.44
496.225	85.44
496.442	84.44
496.66	79.44
496.877	82.44
497.094	100.44
497.312	100.44
497.529	86.44
497.746	86.44
497.963	79.44
498.181	96.44
498.398	94.44
498.615	108.44
498.832	105.44
499.049	99.44
499.267	90.44
499.484	97.44
499.701	85.44
499.918	94.44
500.135	88.44
500.352	91.44
500.569	90.44
500.786	91.44
501.003	94.44
501.22	92.44
501.437	88.44
501.654	97.44
501.871	112.44
502.088	81.44
502.305	85.44
502.522	79.44
502.739	97.44
502.956	104.44
503.172	88.44
503.389	108.44
503.606	114.44
503.823	82.44
504.04	92.44
504.256	94.44
504.473	98.44
504.69	94.44
504.907	105.44
505.123	105.44
505.34	85.44
505.557	85.44
505.773	99.44
505.99	95.44
506.207	81.44
506.423	91.44
506.64	92.44
506.856	86.44
507.073	80.44
507.289	97.44
507.506	104.44
507.722	101.44
507.939	106.44
508.155	92.44
508.372	87.44
508.588	90.44
508.805	86.44
509.021	88.44
509.238	100.44
509.454	98.44
509.67	98.44
509.887	112.44
510.103	122.44
510.319	213.44
510.536	814.44
510.752	2733.44
510.968	721.44
511.184	168.44
511.401	115.44
511.617	103.44
511.833	89.44
512.049	91.44
512.265	86.44
512.481	80.44
512.698	91.44
512.914	85.44
513.13	85.44
513.346	88.44
513.562	96.44
513.778	98.44
513.994	99.44
514.21	94.44
514.426	115.44
514.642	128.44
514.858	109.44
515.074	166.44
515.29	450.44
515.506	1558.44
515.721	567.44
515.937	144.44
516.153	126.44
