Data from Circ_1996_H10_HRD10591_00041.txt Node
Date: Wed Jan 03 11:33:14 EST 2024
User: Yrep
Spectrometer: HR+D1059
Trigger mode: 1
Integration Time (sec): 1.000000E-1
Scans to average: 1
Electric dark correction enabled: true
Nonlinearity correction enabled: false
Boxcar width: 0
XAxis mode: Wavelengths
Number of Pixels in Spectrum: 2048
>>>>>Begin Spectral Data<<<<<
223.165	-17.69
223.4	-17.69
223.635	-17.69
223.869	-17.69
224.104	-17.69
224.338	-17.69
224.573	-8.69
224.808	-9.69
225.042	-11.69
225.277	-11.69
225.511	-3.69
225.746	-15.69
225.98	13.31
226.215	13.31
226.449	15.31
226.683	25.31
226.918	30.31
227.152	34.31
227.387	16.31
227.621	51.31
227.856	55.31
228.09	37.31
228.324	38.31
228.559	57.31
228.793	65.31
229.027	66.31
229.262	55.31
229.496	72.31
229.73	94.31
229.964	90.31
230.199	56.31
230.433	69.31
230.667	82.31
230.901	73.31
231.136	74.31
231.37	81.31
231.604	78.31
231.838	64.31
232.072	66.31
232.306	74.31
232.541	80.31
232.775	80.31
233.009	88.31
233.243	70.31
233.477	78.31
233.711	78.31
233.945	77.31
234.179	86.31
234.413	88.31
234.647	95.31
234.881	80.31
235.115	74.31
235.349	67.31
235.583	64.31
235.817	79.31
236.051	62.31
236.285	70.31
236.519	78.31
236.753	87.31
236.987	76.31
237.221	74.31
237.455	97.31
237.689	70.31
237.922	82.31
238.156	80.31
238.39	62.31
238.624	78.31
238.858	77.31
239.091	73.31
239.325	62.31
239.559	97.31
239.793	90.31
240.027	77.31
240.26	86.31
240.494	83.31
240.728	78.31
240.961	88.31
241.195	72.31
241.429	73.31
241.662	72.31
241.896	70.31
242.13	68.31
242.363	78.31
242.597	77.31
242.83	100.31
243.064	65.31
243.298	71.31
243.531	72.31
243.765	81.31
243.998	81.31
244.232	95.31
244.465	82.31
244.699	72.31
244.932	74.31
245.166	73.31
245.399	84.31
245.633	84.31
245.866	93.31
246.099	63.31
246.333	81.31
246.566	61.31
246.8	87.31
247.033	78.31
247.266	82.31
247.5	75.31
247.733	92.31
247.966	77.31
248.2	74.31
248.433	71.31
248.666	72.31
248.899	93.31
249.133	96.31
249.366	108.31
249.599	106.31
249.832	76.31
250.066	71.31
250.299	101.31
250.532	72.31
250.765	82.31
250.998	81.31
251.231	89.31
251.465	74.31
251.698	85.31
251.931	100.31
252.164	81.31
252.397	89.31
252.63	74.31
252.863	66.31
253.096	67.31
253.329	74.31
253.562	67.31
253.795	76.31
254.028	92.31
254.261	78.31
254.494	74.31
254.727	69.31
254.96	81.31
255.193	79.31
255.426	78.31
255.659	85.31
255.892	95.31
256.124	83.31
256.357	78.31
256.59	78.31
256.823	72.31
257.056	70.31
257.289	87.31
257.521	83.31
257.754	75.31
257.987	78.31
258.22	78.31
258.452	75.31
258.685	73.31
258.918	82.31
259.151	94.31
259.383	76.31
259.616	83.31
259.849	80.31
260.081	84.31
260.314	81.31
260.547	78.31
260.779	95.31
261.012	82.31
261.244	74.31
261.477	88.31
261.71	107.31
261.942	121.31
262.175	126.31
262.407	90.31
262.64	81.31
262.872	78.31
263.105	78.31
263.337	81.31
263.57	77.31
263.802	97.31
264.035	78.31
264.267	82.31
264.499	78.31
264.732	97.31
264.964	88.31
265.197	77.31
265.429	74.31
265.661	75.31
265.894	81.31
266.126	80.31
266.358	80.31
266.591	79.31
266.823	87.31
267.055	89.31
267.287	72.31
267.52	82.31
267.752	74.31
267.984	86.31
268.216	88.31
268.448	74.31
268.681	81.31
268.913	86.31
269.145	83.31
269.377	98.31
269.609	84.31
269.841	89.31
270.073	80.31
270.306	95.31
270.538	84.31
270.77	79.31
271.002	78.31
271.234	79.31
271.466	82.31
271.698	89.31
271.93	86.31
272.162	78.31
272.394	86.31
272.626	83.31
272.858	84.31
273.09	88.31
273.322	78.31
273.553	83.31
273.785	83.31
274.017	83.31
274.249	83.31
274.481	76.31
274.713	87.31
274.945	66.31
275.176	94.31
275.408	97.31
275.64	94.31
275.872	77.31
276.104	86.31
276.335	90.31
276.567	96.31
276.799	112.31
277.031	100.31
277.262	95.31
277.494	84.31
277.726	83.31
277.957	86.31
278.189	88.31
278.421	74.31
278.652	84.31
278.884	92.31
279.115	92.31
279.347	88.31
279.579	83.31
279.81	80.31
280.042	82.31
280.273	99.31
280.505	89.31
280.736	88.31
280.968	98.31
281.199	92.31
281.431	94.31
281.662	89.31
281.894	89.31
282.125	105.31
282.356	117.31
282.588	175.31
282.819	114.31
283.051	110.31
283.282	84.31
283.513	96.31
283.745	78.31
283.976	89.31
284.207	86.31
284.439	95.31
284.67	92.31
284.901	88.31
285.132	92.31
285.364	89.31
285.595	72.31
285.826	85.31
286.057	87.31
286.288	86.31
286.52	84.31
286.751	71.31
286.982	90.31
287.213	76.31
287.444	79.31
287.675	74.31
287.906	97.31
288.138	87.31
288.369	90.31
288.6	82.31
288.831	83.31
289.062	90.31
289.293	86.31
289.524	85.31
289.755	77.31
289.986	81.31
290.217	88.31
290.448	79.31
290.679	77.31
290.91	78.31
291.141	96.31
291.371	92.31
291.602	84.31
291.833	91.31
292.064	95.31
292.295	105.31
292.526	99.31
292.757	99.31
292.987	92.31
293.218	88.31
293.449	78.31
293.68	91.31
293.91	86.31
294.141	83.31
294.372	96.31
294.603	100.31
294.833	91.31
295.064	80.31
295.295	87.31
295.525	75.31
295.756	103.31
295.987	139.31
296.217	169.31
296.448	118.31
296.679	80.31
296.909	78.31
297.14	81.31
297.37	95.31
297.601	89.31
297.831	92.31
298.062	82.31
298.292	81.31
298.523	110.31
298.753	95.31
298.984	90.31
299.214	82.31
299.445	88.31
299.675	96.31
299.905	79.31
300.136	86.31
300.366	99.31
300.597	94.31
300.827	90.31
301.057	108.31
301.288	110.31
301.518	101.31
301.748	96.31
301.979	97.31
302.209	98.31
302.439	94.31
302.669	91.31
302.9	79.31
303.13	83.31
303.36	106.31
303.59	98.31
303.82	94.31
304.051	100.31
304.281	115.31
304.511	106.31
304.741	76.31
304.971	77.31
305.201	79.31
305.431	94.31
305.661	88.31
305.891	89.31
306.121	97.31
306.352	113.31
306.582	102.31
306.812	91.31
307.042	106.31
307.272	103.31
307.502	101.31
307.731	95.31
307.961	100.31
308.191	93.31
308.421	79.31
308.651	92.31
308.881	96.31
309.111	97.31
309.341	96.31
309.571	100.31
309.8	105.31
310.03	96.31
310.26	93.31
310.49	91.31
310.72	91.31
310.949	95.31
311.179	98.31
311.409	97.31
311.639	104.31
311.868	99.31
312.098	107.31
312.328	94.31
312.557	101.31
312.787	96.31
313.017	105.31
313.246	100.31
313.476	102.31
313.706	102.31
313.935	113.31
314.165	96.31
314.394	113.31
314.624	100.31
314.853	103.31
315.083	100.31
315.312	100.31
315.542	96.31
315.771	104.31
316.001	108.31
316.23	88.31
316.46	94.31
316.689	97.31
316.919	86.31
317.148	93.31
317.377	92.31
317.607	88.31
317.836	94.31
318.065	84.31
318.295	97.31
318.524	103.31
318.753	88.31
318.983	87.31
319.212	88.31
319.441	110.31
319.67	109.31
319.9	98.31
320.129	88.31
320.358	72.31
320.587	92.31
320.816	96.31
321.046	109.31
321.275	90.31
321.504	93.31
321.733	103.31
321.962	90.31
322.191	108.31
322.42	92.31
322.649	100.31
322.878	130.31
323.108	112.31
323.337	122.31
323.566	135.31
323.795	156.31
324.024	212.31
324.253	387.31
324.482	827.31
324.71	1680.31
324.939	2263.31
325.168	844.31
325.397	251.31
325.626	160.31
325.855	127.31
326.084	122.31
326.313	140.31
326.542	151.31
326.77	228.31
326.999	407.31
327.228	886.31
327.457	1585.31
327.686	1267.31
327.914	374.31
328.143	230.31
328.372	183.31
328.6	138.31
328.829	116.31
329.058	155.31
329.287	155.31
329.515	119.31
329.744	109.31
329.972	127.31
330.201	158.31
330.43	188.31
330.658	179.31
330.887	160.31
331.115	127.31
331.344	106.31
331.572	112.31
331.801	123.31
332.03	96.31
332.258	95.31
332.486	89.31
332.715	96.31
332.943	83.31
333.172	90.31
333.4	103.31
333.629	104.31
333.857	141.31
334.085	144.31
334.314	164.31
334.542	252.31
334.771	215.31
334.999	142.31
335.227	83.31
335.455	83.31
335.684	90.31
335.912	94.31
336.14	99.31
336.369	104.31
336.597	100.31
336.825	96.31
337.053	112.31
337.281	87.31
337.51	78.31
337.738	97.31
337.966	98.31
338.194	103.31
338.422	98.31
338.65	98.31
338.878	98.31
339.106	96.31
339.334	89.31
339.562	97.31
339.79	94.31
340.018	84.31
340.246	97.31
340.474	79.31
340.702	90.31
340.93	93.31
341.158	89.31
341.386	88.31
341.614	99.31
341.842	87.31
342.07	94.31
342.298	80.31
342.526	103.31
342.754	92.31
342.981	96.31
343.209	78.31
343.437	105.31
343.665	98.31
343.893	88.31
344.12	80.31
344.348	97.31
344.576	86.31
344.804	109.31
345.031	94.31
345.259	100.31
345.487	98.31
345.714	109.31
345.942	100.31
346.17	97.31
346.397	103.31
346.625	93.31
346.853	89.31
347.08	91.31
347.308	98.31
347.535	89.31
347.763	97.31
347.99	93.31
348.218	101.31
348.445	104.31
348.673	106.31
348.9	99.31
349.128	100.31
349.355	86.31
349.583	92.31
349.81	89.31
350.037	107.31
350.265	98.31
350.492	82.31
350.72	98.31
350.947	89.31
351.174	109.31
351.402	118.31
351.629	111.31
351.856	97.31
352.083	114.31
352.311	92.31
352.538	105.31
352.765	118.31
352.992	123.31
353.22	106.31
353.447	94.31
353.674	94.31
353.901	104.31
354.128	99.31
354.355	97.31
354.583	100.31
354.81	105.31
355.037	93.31
355.264	95.31
355.491	96.31
355.718	98.31
355.945	102.31
356.172	102.31
356.399	72.31
356.626	96.31
356.853	98.31
357.08	81.31
357.307	98.31
357.534	104.31
357.761	84.31
357.988	99.31
358.215	94.31
358.441	104.31
358.668	86.31
358.895	90.31
359.122	87.31
359.349	84.31
359.576	94.31
359.802	98.31
360.029	115.31
360.256	110.31
360.483	117.31
360.709	90.31
360.936	90.31
361.163	98.31
361.39	98.31
361.616	84.31
361.843	93.31
362.07	97.31
362.296	102.31
362.523	100.31
362.749	92.31
362.976	79.31
363.203	102.31
363.429	97.31
363.656	96.31
363.882	92.31
364.109	91.31
364.335	88.31
364.562	90.31
364.788	76.31
365.015	91.31
365.241	96.31
365.468	103.31
365.694	101.31
365.92	98.31
366.147	83.31
366.373	94.31
366.599	95.31
366.826	84.31
367.052	97.31
367.278	94.31
367.505	88.31
367.731	78.31
367.957	88.31
368.184	81.31
368.41	95.31
368.636	109.31
368.862	131.31
369.089	107.31
369.315	94.31
369.541	86.31
369.767	95.31
369.993	88.31
370.219	87.31
370.445	83.31
370.672	98.31
370.898	101.31
371.124	88.31
371.35	86.31
371.576	96.31
371.802	80.31
372.028	95.31
372.254	95.31
372.48	95.31
372.706	81.31
372.932	80.31
373.158	95.31
373.384	96.31
373.61	91.31
373.835	91.31
374.061	96.31
374.287	90.31
374.513	85.31
374.739	95.31
374.965	86.31
375.191	97.31
375.416	70.31
375.642	87.31
375.868	86.31
376.094	82.31
376.319	90.31
376.545	80.31
376.771	97.31
376.997	84.31
377.222	92.31
377.448	105.31
377.674	80.31
377.899	88.31
378.125	90.31
378.35	89.31
378.576	82.31
378.802	75.31
379.027	78.31
379.253	77.31
379.478	88.31
379.704	111.31
379.929	114.31
380.155	91.31
380.38	91.31
380.606	94.31
380.831	107.31
381.057	108.31
381.282	86.31
381.507	91.31
381.733	96.31
381.958	92.31
382.184	94.31
382.409	97.31
382.634	100.31
382.86	91.31
383.085	90.31
383.31	91.31
383.535	96.31
383.761	104.31
383.986	99.31
384.211	90.31
384.436	105.31
384.662	105.31
384.887	97.31
385.112	97.31
385.337	115.31
385.562	105.31
385.787	111.31
386.013	115.31
386.238	122.31
386.463	118.31
386.688	113.31
386.913	99.31
387.138	104.31
387.363	98.31
387.588	100.31
387.813	111.31
388.038	107.31
388.263	108.31
388.488	118.31
388.713	82.31
388.938	81.31
389.163	87.31
389.387	84.31
389.612	88.31
389.837	83.31
390.062	92.31
390.287	86.31
390.512	99.31
390.736	93.31
390.961	76.31
391.186	101.31
391.411	94.31
391.636	83.31
391.86	96.31
392.085	92.31
392.31	88.31
392.534	75.31
392.759	74.31
392.984	89.31
393.208	99.31
393.433	98.31
393.658	100.31
393.882	106.31
394.107	76.31
394.331	93.31
394.556	94.31
394.78	88.31
395.005	86.31
395.229	79.31
395.454	80.31
395.678	76.31
395.903	90.31
396.127	83.31
396.352	78.31
396.576	93.31
396.801	97.31
397.025	108.31
397.249	102.31
397.474	81.31
397.698	95.31
397.922	88.31
398.147	87.31
398.371	87.31
398.595	99.31
398.82	81.31
399.044	85.31
399.268	90.31
399.492	94.31
399.717	87.31
399.941	86.31
400.165	91.31
400.389	93.31
400.613	98.31
400.837	94.31
401.062	88.31
401.286	92.31
401.51	84.31
401.734	97.31
401.958	106.31
402.182	131.31
402.406	192.31
402.63	128.31
402.854	98.31
403.078	97.31
403.302	98.31
403.526	95.31
403.75	82.31
403.974	99.31
404.198	95.31
404.422	96.31
404.645	88.31
404.869	83.31
405.093	86.31
405.317	101.31
405.541	113.31
405.765	115.31
405.988	115.31
406.212	212.31
406.436	285.31
406.66	166.31
406.883	122.31
407.107	105.31
407.331	91.31
407.555	89.31
407.778	103.31
408.002	82.31
408.226	76.31
408.449	92.31
408.673	89.31
408.896	100.31
409.12	83.31
409.344	90.31
409.567	86.31
409.791	103.31
410.014	97.31
410.238	82.31
410.461	105.31
410.685	100.31
410.908	104.31
411.132	97.31
411.355	85.31
411.578	99.31
411.802	97.31
412.025	89.31
412.249	89.31
412.472	88.31
412.695	110.31
412.919	91.31
413.142	86.31
413.365	79.31
413.589	80.31
413.812	86.31
414.035	81.31
414.258	91.31
414.482	93.31
414.705	82.31
414.928	89.31
415.151	93.31
415.374	90.31
415.597	89.31
415.821	99.31
416.044	91.31
416.267	99.31
416.49	93.31
416.713	95.31
416.936	93.31
417.159	84.31
417.382	84.31
417.605	84.31
417.828	94.31
418.051	98.31
418.274	100.31
418.497	98.31
418.72	88.31
418.943	78.31
419.166	86.31
419.389	90.31
419.611	81.31
419.834	86.31
420.057	87.31
420.28	92.31
420.503	81.31
420.726	88.31
420.948	84.31
421.171	81.31
421.394	79.31
421.617	87.31
421.839	85.31
422.062	97.31
422.285	82.31
422.507	96.31
422.73	108.31
422.953	92.31
423.175	86.31
423.398	72.31
423.621	78.31
423.843	86.31
424.066	85.31
424.288	104.31
424.511	86.31
424.733	99.31
424.956	90.31
425.178	94.31
425.401	99.31
425.623	103.31
425.846	94.31
426.068	106.31
426.291	82.31
426.513	95.31
426.735	94.31
426.958	94.31
427.18	106.31
427.402	127.31
427.625	165.31
427.847	150.31
428.069	117.31
428.292	104.31
428.514	98.31
428.736	91.31
428.958	92.31
429.181	78.31
429.403	75.31
429.625	100.31
429.847	95.31
430.069	114.31
430.292	96.31
430.514	87.31
430.736	85.31
430.958	80.31
431.18	95.31
431.402	91.31
431.624	83.31
431.846	81.31
432.068	81.31
432.29	80.31
432.512	93.31
432.734	93.31
432.956	83.31
433.178	99.31
433.4	85.31
433.622	82.31
433.844	84.31
434.066	103.31
434.287	87.31
434.509	84.31
434.731	83.31
434.953	82.31
435.175	76.31
435.397	101.31
435.618	92.31
435.84	97.31
436.062	104.31
436.284	115.31
436.505	105.31
436.727	112.31
436.949	80.31
437.17	87.31
437.392	75.31
437.614	74.31
437.835	111.31
438.057	124.31
438.278	110.31
438.5	108.31
438.721	116.31
438.943	101.31
439.165	83.31
439.386	95.31
439.608	86.31
439.829	94.31
440.05	106.31
440.272	150.31
440.493	92.31
440.715	93.31
440.936	69.31
441.158	64.31
441.379	87.31
441.6	94.31
441.822	102.31
442.043	100.31
442.264	97.31
442.486	87.31
442.707	110.31
442.928	112.31
443.149	136.31
443.371	154.31
443.592	106.31
443.813	99.31
444.034	111.31
444.255	90.31
444.476	81.31
444.698	79.31
444.919	75.31
445.14	131.31
445.361	126.31
445.582	122.31
445.803	132.31
446.024	126.31
446.245	129.31
446.466	101.31
446.687	74.31
446.908	85.31
447.129	94.31
447.35	77.31
447.571	84.31
447.792	95.31
448.013	98.31
448.234	102.31
448.455	97.31
448.675	107.31
448.896	101.31
449.117	86.31
449.338	91.31
449.559	118.31
449.779	108.31
450	82.31
450.221	96.31
450.442	84.31
450.662	103.31
450.883	114.31
451.104	114.31
451.324	103.31
451.545	106.31
451.766	98.31
451.986	91.31
452.207	89.31
452.428	98.31
452.648	106.31
452.869	119.31
453.089	126.31
453.31	125.31
453.53	103.31
453.751	90.31
453.971	103.31
454.192	115.31
454.412	91.31
454.633	86.31
454.853	79.31
455.073	81.31
455.294	92.31
455.514	93.31
455.734	78.31
455.955	83.31
456.175	91.31
456.395	81.31
456.616	87.31
456.836	89.31
457.056	84.31
457.276	82.31
457.497	84.31
457.717	84.31
457.937	86.31
458.157	73.31
458.377	85.31
458.598	118.31
458.818	165.31
459.038	161.31
459.258	106.31
459.478	85.31
459.698	78.31
459.918	91.31
460.138	86.31
460.358	75.31
460.578	92.31
460.798	95.31
461.018	86.31
461.238	77.31
461.458	87.31
461.678	77.31
461.898	95.31
462.118	86.31
462.338	76.31
462.558	96.31
462.777	79.31
462.997	93.31
463.217	89.31
463.437	93.31
463.657	101.31
463.876	99.31
464.096	99.31
464.316	99.31
464.536	92.31
464.755	88.31
464.975	105.31
465.195	183.31
465.414	199.31
465.634	104.31
465.854	91.31
466.073	86.31
466.293	83.31
466.512	88.31
466.732	78.31
466.951	82.31
467.171	100.31
467.391	96.31
467.61	101.31
467.829	108.31
468.049	133.31
468.268	141.31
468.488	98.31
468.707	89.31
468.927	100.31
469.146	94.31
469.365	99.31
469.585	91.31
469.804	98.31
470.023	100.31
470.243	106.31
470.462	91.31
470.681	120.31
470.901	95.31
471.12	103.31
471.339	100.31
471.558	90.31
471.777	88.31
471.997	106.31
472.216	187.31
472.435	275.31
472.654	125.31
472.873	94.31
473.092	92.31
473.311	79.31
473.53	85.31
473.749	95.31
473.968	98.31
474.187	103.31
474.406	106.31
474.625	95.31
474.844	99.31
475.063	76.31
475.282	74.31
475.501	87.31
475.72	87.31
475.939	78.31
476.158	73.31
476.377	80.31
476.596	88.31
476.814	94.31
477.033	101.31
477.252	90.31
477.471	91.31
477.69	96.31
477.908	81.31
478.127	85.31
478.346	87.31
478.564	94.31
478.783	90.31
479.002	91.31
479.22	110.31
479.439	93.31
479.658	107.31
479.876	101.31
480.095	81.31
480.313	103.31
480.532	95.31
480.751	105.31
480.969	195.31
481.188	506.31
481.406	299.31
481.624	107.31
481.843	91.31
482.061	90.31
482.28	91.31
482.498	94.31
482.717	84.31
482.935	87.31
483.153	80.31
483.372	85.31
483.59	89.31
483.808	68.31
484.027	88.31
484.245	91.31
484.463	105.31
484.681	104.31
484.9	80.31
485.118	88.31
485.336	88.31
485.554	103.31
485.772	89.31
485.99	90.31
486.209	106.31
486.427	111.31
486.645	112.31
486.863	114.31
487.081	96.31
487.299	88.31
487.517	100.31
487.735	81.31
487.953	102.31
488.171	104.31
488.389	95.31
488.607	98.31
488.825	68.31
489.043	86.31
489.261	81.31
489.479	88.31
489.696	94.31
489.914	93.31
490.132	93.31
490.35	95.31
490.568	87.31
490.786	90.31
491.003	81.31
491.221	81.31
491.439	84.31
491.657	97.31
491.874	84.31
492.092	98.31
492.31	83.31
492.527	88.31
492.745	78.31
492.963	98.31
493.18	86.31
493.398	90.31
493.615	91.31
493.833	84.31
494.05	94.31
494.268	88.31
494.485	95.31
494.703	76.31
494.92	86.31
495.138	109.31
495.355	93.31
495.573	107.31
495.79	80.31
496.008	93.31
496.225	90.31
496.442	81.31
496.66	97.31
496.877	107.31
497.094	103.31
497.312	77.31
497.529	86.31
497.746	101.31
497.963	74.31
498.181	89.31
498.398	83.31
498.615	103.31
498.832	111.31
499.049	91.31
499.267	81.31
499.484	78.31
499.701	92.31
499.918	82.31
500.135	95.31
500.352	88.31
500.569	99.31
500.786	97.31
501.003	83.31
501.22	84.31
501.437	94.31
501.654	100.31
501.871	98.31
502.088	89.31
502.305	97.31
502.522	86.31
502.739	81.31
502.956	74.31
503.172	98.31
503.389	91.31
503.606	107.31
503.823	103.31
504.04	82.31
504.256	91.31
504.473	88.31
504.69	90.31
504.907	91.31
505.123	98.31
505.34	97.31
505.557	90.31
505.773	85.31
505.99	85.31
506.207	98.31
506.423	94.31
506.64	106.31
506.856	95.31
507.073	84.31
507.289	87.31
507.506	101.31
507.722	112.31
507.939	115.31
508.155	90.31
508.372	95.31
508.588	102.31
508.805	102.31
509.021	102.31
509.238	103.31
509.454	103.31
509.67	98.31
509.887	108.31
510.103	146.31
510.319	254.31
510.536	999.31
510.752	3572.31
510.968	928.31
511.184	193.31
511.401	126.31
511.617	97.31
511.833	103.31
512.049	86.31
512.265	85.31
512.481	102.31
512.698	84.31
512.914	99.31
513.13	90.31
513.346	80.31
513.562	85.31
513.778	87.31
513.994	106.31
514.21	98.31
514.426	118.31
514.642	138.31
514.858	145.31
515.074	183.31
515.29	597.31
