Data from Circ_1996_H10_HRD10591_00011.txt Node
Date: Wed Jan 03 11:33:08 EST 2024
User: Yrep
Spectrometer: HR+D1059
Trigger mode: 1
Integration Time (sec): 1.000000E-1
Scans to average: 1
Electric dark correction enabled: true
Nonlinearity correction enabled: false
Boxcar width: 0
XAxis mode: Wavelengths
Number of Pixels in Spectrum: 2048
>>>>>Begin Spectral Data<<<<<
223.165	-16.88
223.4	-16.88
223.635	-16.88
223.869	-0.88
224.104	-11.88
224.338	-9.88
224.573	-24.88
224.808	-18.88
225.042	-9.88
225.277	-9.88
225.511	10.12
225.746	-3.88
225.98	-4.88
226.215	9.12
226.449	17.12
226.683	23.12
226.918	30.12
227.152	22.12
227.387	32.12
227.621	34.12
227.856	47.12
228.09	45.12
228.324	65.12
228.559	61.12
228.793	68.12
229.027	80.12
229.262	71.12
229.496	77.12
229.73	82.12
229.964	103.12
230.199	86.12
230.433	87.12
230.667	71.12
230.901	88.12
231.136	92.12
231.37	84.12
231.604	90.12
231.838	76.12
232.072	82.12
232.306	78.12
232.541	91.12
232.775	78.12
233.009	90.12
233.243	68.12
233.477	73.12
233.711	87.12
233.945	78.12
234.179	70.12
234.413	85.12
234.647	90.12
234.881	75.12
235.115	82.12
235.349	92.12
235.583	98.12
235.817	78.12
236.051	85.12
236.285	82.12
236.519	73.12
236.753	79.12
236.987	80.12
237.221	77.12
237.455	88.12
237.689	84.12
237.922	73.12
238.156	76.12
238.39	73.12
238.624	58.12
238.858	76.12
239.091	73.12
239.325	78.12
239.559	75.12
239.793	70.12
240.027	87.12
240.26	89.12
240.494	81.12
240.728	83.12
240.961	95.12
241.195	77.12
241.429	74.12
241.662	76.12
241.896	83.12
242.13	70.12
242.363	95.12
242.597	70.12
242.83	70.12
243.064	102.12
243.298	91.12
243.531	76.12
243.765	86.12
243.998	89.12
244.232	86.12
244.465	96.12
244.699	73.12
244.932	75.12
245.166	87.12
245.399	86.12
245.633	78.12
245.866	90.12
246.099	80.12
246.333	88.12
246.566	87.12
246.8	83.12
247.033	83.12
247.266	89.12
247.5	87.12
247.733	66.12
247.966	82.12
248.2	84.12
248.433	79.12
248.666	82.12
248.899	77.12
249.133	71.12
249.366	98.12
249.599	91.12
249.832	79.12
250.066	83.12
250.299	88.12
250.532	75.12
250.765	81.12
250.998	83.12
251.231	69.12
251.465	95.12
251.698	91.12
251.931	69.12
252.164	83.12
252.397	97.12
252.63	85.12
252.863	79.12
253.096	68.12
253.329	77.12
253.562	87.12
253.795	94.12
254.028	85.12
254.261	102.12
254.494	98.12
254.727	95.12
254.96	74.12
255.193	89.12
255.426	79.12
255.659	83.12
255.892	79.12
256.124	88.12
256.357	76.12
256.59	85.12
256.823	80.12
257.056	90.12
257.289	83.12
257.521	84.12
257.754	84.12
257.987	88.12
258.22	84.12
258.452	87.12
258.685	80.12
258.918	79.12
259.151	81.12
259.383	89.12
259.616	88.12
259.849	81.12
260.081	86.12
260.314	107.12
260.547	57.12
260.779	74.12
261.012	84.12
261.244	85.12
261.477	95.12
261.71	91.12
261.942	103.12
262.175	117.12
262.407	103.12
262.64	86.12
262.872	80.12
263.105	91.12
263.337	95.12
263.57	83.12
263.802	94.12
264.035	93.12
264.267	86.12
264.499	81.12
264.732	79.12
264.964	95.12
265.197	90.12
265.429	75.12
265.661	74.12
265.894	80.12
266.126	85.12
266.358	77.12
266.591	88.12
266.823	85.12
267.055	91.12
267.287	84.12
267.52	71.12
267.752	84.12
267.984	79.12
268.216	75.12
268.448	91.12
268.681	87.12
268.913	86.12
269.145	93.12
269.377	86.12
269.609	83.12
269.841	102.12
270.073	79.12
270.306	89.12
270.538	101.12
270.77	96.12
271.002	79.12
271.234	73.12
271.466	76.12
271.698	101.12
271.93	80.12
272.162	71.12
272.394	95.12
272.626	83.12
272.858	86.12
273.09	83.12
273.322	85.12
273.553	89.12
273.785	91.12
274.017	76.12
274.249	86.12
274.481	99.12
274.713	81.12
274.945	92.12
275.176	93.12
275.408	86.12
275.64	91.12
275.872	76.12
276.104	88.12
276.335	94.12
276.567	103.12
276.799	105.12
277.031	110.12
277.262	75.12
277.494	99.12
277.726	86.12
277.957	91.12
278.189	92.12
278.421	87.12
278.652	82.12
278.884	101.12
279.115	99.12
279.347	79.12
279.579	73.12
279.81	91.12
280.042	95.12
280.273	109.12
280.505	102.12
280.736	80.12
280.968	92.12
281.199	100.12
281.431	83.12
281.662	89.12
281.894	101.12
282.125	89.12
282.356	126.12
282.588	141.12
282.819	111.12
283.051	106.12
283.282	97.12
283.513	98.12
283.745	96.12
283.976	83.12
284.207	78.12
284.439	84.12
284.67	105.12
284.901	104.12
285.132	88.12
285.364	82.12
285.595	78.12
285.826	67.12
286.057	70.12
286.288	85.12
286.52	94.12
286.751	85.12
286.982	102.12
287.213	87.12
287.444	87.12
287.675	98.12
287.906	98.12
288.138	82.12
288.369	102.12
288.6	95.12
288.831	92.12
289.062	83.12
289.293	93.12
289.524	94.12
289.755	80.12
289.986	92.12
290.217	86.12
290.448	103.12
290.679	92.12
290.91	90.12
291.141	88.12
291.371	94.12
291.602	96.12
291.833	90.12
292.064	95.12
292.295	91.12
292.526	97.12
292.757	82.12
292.987	86.12
293.218	84.12
293.449	84.12
293.68	79.12
293.91	95.12
294.141	87.12
294.372	77.12
294.603	93.12
294.833	83.12
295.064	96.12
295.295	83.12
295.525	92.12
295.756	86.12
295.987	121.12
296.217	142.12
296.448	125.12
296.679	99.12
296.909	94.12
297.14	97.12
297.37	91.12
297.601	106.12
297.831	84.12
298.062	98.12
298.292	95.12
298.523	93.12
298.753	86.12
298.984	89.12
299.214	97.12
299.445	91.12
299.675	99.12
299.905	62.12
300.136	87.12
300.366	94.12
300.597	95.12
300.827	86.12
301.057	103.12
301.288	116.12
301.518	99.12
301.748	100.12
301.979	109.12
302.209	95.12
302.439	83.12
302.669	95.12
302.9	107.12
303.13	101.12
303.36	98.12
303.59	109.12
303.82	115.12
304.051	107.12
304.281	106.12
304.511	86.12
304.741	89.12
304.971	81.12
305.201	95.12
305.431	90.12
305.661	93.12
305.891	92.12
306.121	97.12
306.352	105.12
306.582	101.12
306.812	95.12
307.042	81.12
307.272	105.12
307.502	92.12
307.731	93.12
307.961	110.12
308.191	93.12
308.421	100.12
308.651	94.12
308.881	107.12
309.111	95.12
309.341	81.12
309.571	97.12
309.8	94.12
310.03	109.12
310.26	95.12
310.49	93.12
310.72	97.12
310.949	105.12
311.179	81.12
311.409	85.12
311.639	110.12
311.868	94.12
312.098	108.12
312.328	95.12
312.557	109.12
312.787	115.12
313.017	107.12
313.246	104.12
313.476	97.12
313.706	92.12
313.935	93.12
314.165	98.12
314.394	97.12
314.624	99.12
314.853	103.12
315.083	107.12
315.312	108.12
315.542	89.12
315.771	107.12
316.001	91.12
316.23	92.12
316.46	101.12
316.689	79.12
316.919	96.12
317.148	91.12
317.377	105.12
317.607	96.12
317.836	97.12
318.065	91.12
318.295	84.12
318.524	93.12
318.753	101.12
318.983	108.12
319.212	107.12
319.441	117.12
319.67	108.12
319.9	92.12
320.129	89.12
320.358	104.12
320.587	98.12
320.816	98.12
321.046	93.12
321.275	99.12
321.504	101.12
321.733	89.12
321.962	107.12
322.191	93.12
322.42	98.12
322.649	117.12
322.878	108.12
323.108	99.12
323.337	125.12
323.566	121.12
323.795	133.12
324.024	181.12
324.253	320.12
324.482	617.12
324.71	1245.12
324.939	1615.12
325.168	626.12
325.397	214.12
325.626	132.12
325.855	125.12
326.084	122.12
326.313	130.12
326.542	131.12
326.77	189.12
326.999	322.12
327.228	655.12
327.457	1188.12
327.686	977.12
327.914	309.12
328.143	194.12
328.372	159.12
328.6	135.12
328.829	111.12
329.058	117.12
329.287	119.12
329.515	108.12
329.744	116.12
329.972	114.12
330.201	184.12
330.43	217.12
330.658	142.12
330.887	138.12
331.115	121.12
331.344	105.12
331.572	114.12
331.801	126.12
332.03	107.12
332.258	102.12
332.486	98.12
332.715	91.12
332.943	107.12
333.172	99.12
333.4	92.12
333.629	105.12
333.857	124.12
334.085	119.12
334.314	165.12
334.542	239.12
334.771	232.12
334.999	120.12
335.227	112.12
335.455	104.12
335.684	107.12
335.912	114.12
336.14	106.12
336.369	97.12
336.597	106.12
336.825	105.12
337.053	98.12
337.281	105.12
337.51	98.12
337.738	95.12
337.966	82.12
338.194	100.12
338.422	106.12
338.65	97.12
338.878	101.12
339.106	87.12
339.334	94.12
339.562	99.12
339.79	85.12
340.018	93.12
340.246	94.12
340.474	79.12
340.702	96.12
340.93	101.12
341.158	105.12
341.386	98.12
341.614	100.12
341.842	93.12
342.07	83.12
342.298	97.12
342.526	90.12
342.754	102.12
342.981	101.12
343.209	83.12
343.437	92.12
343.665	89.12
343.893	90.12
344.12	100.12
344.348	99.12
344.576	91.12
344.804	89.12
345.031	103.12
345.259	102.12
345.487	101.12
345.714	106.12
345.942	94.12
346.17	92.12
346.397	100.12
346.625	95.12
346.853	97.12
347.08	108.12
347.308	101.12
347.535	101.12
347.763	111.12
347.99	104.12
348.218	101.12
348.445	104.12
348.673	94.12
348.9	93.12
349.128	103.12
349.355	118.12
349.583	100.12
349.81	91.12
350.037	98.12
350.265	84.12
350.492	101.12
350.72	91.12
350.947	105.12
351.174	127.12
351.402	108.12
351.629	121.12
351.856	102.12
352.083	103.12
352.311	102.12
352.538	99.12
352.765	109.12
352.992	127.12
353.22	106.12
353.447	116.12
353.674	98.12
353.901	101.12
354.128	97.12
354.355	107.12
354.583	106.12
354.81	94.12
355.037	99.12
355.264	108.12
355.491	97.12
355.718	95.12
355.945	94.12
356.172	100.12
356.399	92.12
356.626	97.12
356.853	98.12
357.08	96.12
357.307	104.12
357.534	99.12
357.761	94.12
357.988	87.12
358.215	102.12
358.441	108.12
358.668	102.12
358.895	90.12
359.122	93.12
359.349	86.12
359.576	99.12
359.802	85.12
360.029	100.12
360.256	108.12
360.483	107.12
360.709	93.12
360.936	103.12
361.163	85.12
361.39	110.12
361.616	104.12
361.843	99.12
362.07	102.12
362.296	98.12
362.523	83.12
362.749	99.12
362.976	106.12
363.203	95.12
363.429	87.12
363.656	93.12
363.882	99.12
364.109	86.12
364.335	97.12
364.562	96.12
364.788	91.12
365.015	91.12
365.241	101.12
365.468	107.12
365.694	108.12
365.92	109.12
366.147	116.12
366.373	94.12
366.599	98.12
366.826	81.12
367.052	76.12
367.278	90.12
367.505	75.12
367.731	96.12
367.957	79.12
368.184	90.12
368.41	114.12
368.636	111.12
368.862	124.12
369.089	112.12
369.315	106.12
369.541	100.12
369.767	84.12
369.993	97.12
370.219	100.12
370.445	89.12
370.672	100.12
370.898	106.12
371.124	90.12
371.35	92.12
371.576	90.12
371.802	95.12
372.028	97.12
372.254	90.12
372.48	85.12
372.706	83.12
372.932	89.12
373.158	103.12
373.384	88.12
373.61	93.12
373.835	80.12
374.061	81.12
374.287	76.12
374.513	76.12
374.739	87.12
374.965	96.12
375.191	100.12
375.416	102.12
375.642	88.12
375.868	102.12
376.094	101.12
376.319	89.12
376.545	93.12
376.771	107.12
376.997	92.12
377.222	103.12
377.448	91.12
377.674	97.12
377.899	95.12
378.125	88.12
378.35	98.12
378.576	100.12
378.802	90.12
379.027	103.12
379.253	100.12
379.478	95.12
379.704	101.12
379.929	102.12
380.155	102.12
380.38	94.12
380.606	94.12
380.831	109.12
381.057	105.12
381.282	106.12
381.507	112.12
381.733	115.12
381.958	100.12
382.184	117.12
382.409	115.12
382.634	124.12
382.86	111.12
383.085	109.12
383.31	105.12
383.535	125.12
383.761	112.12
383.986	125.12
384.211	107.12
384.436	100.12
384.662	120.12
384.887	131.12
385.112	133.12
385.337	123.12
385.562	122.12
385.787	107.12
386.013	120.12
386.238	138.12
386.463	131.12
386.688	128.12
386.913	124.12
387.138	131.12
387.363	127.12
387.588	109.12
387.813	119.12
388.038	134.12
388.263	130.12
388.488	131.12
388.713	99.12
388.938	110.12
389.163	105.12
389.387	100.12
389.612	89.12
389.837	94.12
390.062	102.12
390.287	107.12
390.512	97.12
390.736	93.12
390.961	94.12
391.186	93.12
391.411	89.12
391.636	83.12
391.86	104.12
392.085	95.12
392.31	87.12
392.534	93.12
392.759	78.12
392.984	111.12
393.208	101.12
393.433	129.12
393.658	115.12
393.882	90.12
394.107	83.12
394.331	99.12
394.556	103.12
394.78	84.12
395.005	91.12
395.229	111.12
395.454	93.12
395.678	93.12
395.903	92.12
396.127	101.12
396.352	107.12
396.576	95.12
396.801	109.12
397.025	98.12
397.249	97.12
397.474	86.12
397.698	84.12
397.922	105.12
398.147	97.12
398.371	86.12
398.595	99.12
398.82	93.12
399.044	74.12
399.268	81.12
399.492	80.12
399.717	96.12
399.941	95.12
400.165	91.12
400.389	87.12
400.613	86.12
400.837	90.12
401.062	96.12
401.286	90.12
401.51	85.12
401.734	89.12
401.958	95.12
402.182	123.12
402.406	157.12
402.63	133.12
402.854	92.12
403.078	85.12
403.302	86.12
403.526	89.12
403.75	106.12
403.974	90.12
404.198	97.12
404.422	91.12
404.645	92.12
404.869	91.12
405.093	85.12
405.317	105.12
405.541	97.12
405.765	116.12
405.988	111.12
406.212	189.12
406.436	227.12
406.66	137.12
406.883	114.12
407.107	102.12
407.331	94.12
407.555	87.12
407.778	108.12
408.002	95.12
408.226	89.12
408.449	85.12
408.673	99.12
408.896	110.12
409.12	79.12
409.344	93.12
409.567	79.12
409.791	79.12
410.014	96.12
410.238	92.12
410.461	79.12
410.685	93.12
410.908	102.12
411.132	88.12
411.355	89.12
411.578	95.12
411.802	86.12
412.025	93.12
412.249	93.12
412.472	95.12
412.695	96.12
412.919	115.12
413.142	83.12
413.365	91.12
413.589	87.12
413.812	91.12
414.035	99.12
414.258	103.12
414.482	89.12
414.705	89.12
414.928	78.12
415.151	83.12
415.374	108.12
415.597	89.12
415.821	90.12
416.044	104.12
416.267	92.12
416.49	92.12
416.713	94.12
416.936	106.12
417.159	85.12
417.382	80.12
417.605	88.12
417.828	100.12
418.051	92.12
418.274	91.12
418.497	77.12
418.72	95.12
418.943	98.12
419.166	102.12
419.389	86.12
419.611	94.12
419.834	97.12
420.057	91.12
420.28	69.12
420.503	87.12
420.726	91.12
420.948	100.12
421.171	104.12
421.394	95.12
421.617	114.12
421.839	97.12
422.062	95.12
422.285	95.12
422.507	103.12
422.73	98.12
422.953	98.12
423.175	84.12
423.398	93.12
423.621	91.12
423.843	90.12
424.066	81.12
424.288	100.12
424.511	90.12
424.733	86.12
424.956	97.12
425.178	93.12
425.401	99.12
425.623	97.12
425.846	91.12
426.068	101.12
426.291	98.12
426.513	103.12
426.735	84.12
426.958	90.12
427.18	112.12
427.402	132.12
427.625	142.12
427.847	144.12
428.069	124.12
428.292	88.12
428.514	92.12
428.736	89.12
428.958	91.12
429.181	97.12
429.403	81.12
429.625	86.12
429.847	93.12
430.069	91.12
430.292	81.12
430.514	85.12
430.736	87.12
430.958	90.12
431.18	78.12
431.402	77.12
431.624	77.12
431.846	101.12
432.068	99.12
432.29	76.12
432.512	90.12
432.734	87.12
432.956	93.12
433.178	93.12
433.4	101.12
433.622	101.12
433.844	109.12
434.066	91.12
434.287	91.12
434.509	101.12
434.731	100.12
434.953	93.12
435.175	95.12
435.397	81.12
435.618	82.12
435.84	104.12
436.062	99.12
436.284	98.12
436.505	86.12
436.727	100.12
436.949	94.12
437.17	81.12
437.392	73.12
437.614	79.12
437.835	92.12
438.057	104.12
438.278	93.12
438.5	96.12
438.721	102.12
438.943	80.12
439.165	85.12
439.386	80.12
439.608	113.12
439.829	97.12
440.05	101.12
440.272	100.12
440.493	116.12
440.715	81.12
440.936	81.12
441.158	95.12
441.379	91.12
441.6	84.12
441.822	95.12
442.043	93.12
442.264	95.12
442.486	96.12
442.707	84.12
442.928	109.12
443.149	123.12
443.371	134.12
443.592	97.12
443.813	95.12
444.034	112.12
444.255	96.12
444.476	79.12
444.698	103.12
444.919	94.12
445.14	134.12
445.361	123.12
445.582	110.12
445.803	114.12
446.024	130.12
446.245	115.12
446.466	106.12
446.687	91.12
446.908	81.12
447.129	79.12
447.35	86.12
447.571	101.12
447.792	104.12
448.013	105.12
448.234	109.12
448.455	110.12
448.675	101.12
448.896	121.12
449.117	94.12
449.338	93.12
449.559	111.12
449.779	122.12
450	94.12
450.221	88.12
450.442	106.12
450.662	98.12
450.883	111.12
451.104	105.12
451.324	93.12
451.545	87.12
451.766	76.12
451.986	89.12
452.207	84.12
452.428	101.12
452.648	105.12
452.869	115.12
453.089	111.12
453.31	110.12
453.53	97.12
453.751	78.12
453.971	103.12
454.192	110.12
454.412	106.12
454.633	94.12
454.853	83.12
455.073	82.12
455.294	91.12
455.514	97.12
455.734	92.12
455.955	91.12
456.175	91.12
456.395	98.12
456.616	86.12
456.836	89.12
457.056	80.12
457.276	83.12
457.497	74.12
457.717	96.12
457.937	93.12
458.157	88.12
458.377	104.12
458.598	100.12
458.818	131.12
459.038	145.12
459.258	117.12
459.478	105.12
459.698	91.12
459.918	93.12
460.138	100.12
460.358	91.12
460.578	87.12
460.798	84.12
461.018	97.12
461.238	88.12
461.458	97.12
461.678	89.12
461.898	87.12
462.118	86.12
462.338	69.12
462.558	88.12
462.777	81.12
462.997	94.12
463.217	101.12
463.437	93.12
463.657	74.12
463.876	102.12
464.096	96.12
464.316	95.12
464.536	82.12
464.755	94.12
464.975	106.12
465.195	151.12
465.414	142.12
465.634	87.12
465.854	83.12
466.073	96.12
466.293	82.12
466.512	98.12
466.732	102.12
466.951	102.12
467.171	100.12
467.391	100.12
467.61	105.12
467.829	106.12
468.049	130.12
468.268	150.12
468.488	102.12
468.707	89.12
468.927	87.12
469.146	91.12
469.365	96.12
469.585	87.12
469.804	108.12
470.023	90.12
470.243	89.12
470.462	101.12
470.681	107.12
470.901	100.12
471.12	85.12
471.339	93.12
471.558	94.12
471.777	92.12
471.997	99.12
472.216	197.12
472.435	291.12
472.654	125.12
472.873	93.12
473.092	84.12
473.311	99.12
473.53	98.12
473.749	91.12
473.968	99.12
474.187	114.12
474.406	104.12
474.625	85.12
474.844	102.12
475.063	94.12
475.282	80.12
475.501	78.12
475.72	90.12
475.939	89.12
476.158	94.12
476.377	94.12
476.596	91.12
476.814	100.12
477.033	93.12
477.252	91.12
477.471	85.12
477.69	93.12
477.908	86.12
478.127	93.12
478.346	83.12
478.564	102.12
478.783	95.12
479.002	93.12
479.22	100.12
479.439	96.12
479.658	99.12
479.876	100.12
480.095	104.12
480.313	91.12
480.532	94.12
480.751	109.12
480.969	182.12
481.188	492.12
481.406	302.12
481.624	122.12
481.843	98.12
482.061	108.12
482.28	95.12
482.498	91.12
482.717	94.12
482.935	103.12
483.153	79.12
483.372	94.12
483.59	93.12
483.808	84.12
484.027	100.12
484.245	91.12
484.463	86.12
484.681	102.12
484.9	101.12
485.118	93.12
485.336	90.12
485.554	123.12
485.772	105.12
485.99	123.12
486.209	106.12
486.427	104.12
486.645	124.12
486.863	132.12
487.081	106.12
487.299	90.12
487.517	106.12
487.735	93.12
487.953	108.12
488.171	98.12
488.389	96.12
488.607	106.12
488.825	89.12
489.043	92.12
489.261	84.12
489.479	108.12
489.696	99.12
489.914	87.12
490.132	91.12
490.35	93.12
490.568	94.12
490.786	106.12
491.003	98.12
491.221	97.12
491.439	87.12
491.657	89.12
491.874	98.12
492.092	86.12
492.31	81.12
492.527	96.12
492.745	94.12
492.963	109.12
493.18	102.12
493.398	92.12
493.615	98.12
493.833	91.12
494.05	99.12
494.268	93.12
494.485	95.12
494.703	90.12
494.92	90.12
495.138	90.12
495.355	100.12
495.573	97.12
495.79	96.12
496.008	102.12
496.225	95.12
496.442	89.12
496.66	106.12
496.877	82.12
497.094	96.12
497.312	99.12
497.529	85.12
497.746	82.12
497.963	100.12
498.181	92.12
498.398	86.12
498.615	107.12
498.832	98.12
499.049	93.12
499.267	100.12
499.484	102.12
499.701	98.12
499.918	90.12
500.135	96.12
500.352	89.12
500.569	83.12
500.786	79.12
501.003	85.12
501.22	87.12
501.437	90.12
501.654	92.12
501.871	111.12
502.088	107.12
502.305	87.12
502.522	101.12
502.739	88.12
502.956	98.12
503.172	91.12
503.389	94.12
503.606	93.12
503.823	89.12
504.04	96.12
504.256	91.12
504.473	87.12
504.69	97.12
504.907	83.12
505.123	89.12
505.34	102.12
505.557	98.12
505.773	85.12
505.99	89.12
506.207	89.12
506.423	91.12
506.64	96.12
506.856	86.12
507.073	90.12
507.289	93.12
507.506	99.12
507.722	123.12
507.939	117.12
508.155	91.12
508.372	95.12
508.588	88.12
508.805	86.12
509.021	85.12
509.238	103.12
509.454	111.12
509.67	101.12
509.887	113.12
510.103	117.12
510.319	219.12
510.536	785.12
510.752	2545.12
510.968	692.12
511.184	148.12
511.401	99.12
511.617	102.12
511.833	88.12
512.049	98.12
512.265	92.12
512.481	113.12
512.698	79.12
512.914	90.12
513.13	96.12
513.346	102.12
513.562	97.12
513.778	96.12
513.994	103.12
