Data from Circ_1996_H10_HRD10591_00080.txt Node
Date: Wed Jan 03 11:33:22 EST 2024
User: Yrep
Spectrometer: HR+D1059
Trigger mode: 1
Integration Time (sec): 1.000000E-1
Scans to average: 1
Electric dark correction enabled: true
Nonlinearity correction enabled: false
Boxcar width: 0
XAxis mode: Wavelengths
Number of Pixels in Spectrum: 2048
>>>>>Begin Spectral Data<<<<<
223.165	-22.31
223.4	-22.31
223.635	-22.31
223.869	-25.31
224.104	-18.31
224.338	-17.31
224.573	-30.31
224.808	-9.31
225.042	-5.31
225.277	-16.31
225.511	0.69
225.746	5.69
225.98	4.69
226.215	18.69
226.449	9.69
226.683	33.69
226.918	27.69
227.152	43.69
227.387	31.69
227.621	33.69
227.856	47.69
228.09	38.69
228.324	54.69
228.559	54.69
228.793	54.69
229.027	68.69
229.262	61.69
229.496	65.69
229.73	77.69
229.964	83.69
230.199	56.69
230.433	70.69
230.667	65.69
230.901	70.69
231.136	82.69
231.37	64.69
231.604	71.69
231.838	69.69
232.072	67.69
232.306	65.69
232.541	65.69
232.775	81.69
233.009	66.69
233.243	80.69
233.477	75.69
233.711	73.69
233.945	81.69
234.179	91.69
234.413	84.69
234.647	71.69
234.881	70.69
235.115	73.69
235.349	68.69
235.583	79.69
235.817	71.69
236.051	72.69
236.285	74.69
236.519	73.69
236.753	56.69
236.987	75.69
237.221	86.69
237.455	80.69
237.689	88.69
237.922	71.69
238.156	69.69
238.39	58.69
238.624	83.69
238.858	75.69
239.091	78.69
239.325	67.69
239.559	75.69
239.793	76.69
240.027	73.69
240.26	65.69
240.494	65.69
240.728	75.69
240.961	70.69
241.195	91.69
241.429	73.69
241.662	74.69
241.896	76.69
242.13	75.69
242.363	76.69
242.597	67.69
242.83	76.69
243.064	81.69
243.298	75.69
243.531	67.69
243.765	60.69
243.998	73.69
244.232	80.69
244.465	61.69
244.699	63.69
244.932	86.69
245.166	81.69
245.399	82.69
245.633	79.69
245.866	69.69
246.099	77.69
246.333	80.69
246.566	78.69
246.8	71.69
247.033	70.69
247.266	72.69
247.5	65.69
247.733	76.69
247.966	72.69
248.2	72.69
248.433	84.69
248.666	70.69
248.899	68.69
249.133	73.69
249.366	85.69
249.599	91.69
249.832	65.69
250.066	84.69
250.299	76.69
250.532	79.69
250.765	83.69
250.998	70.69
251.231	84.69
251.465	83.69
251.698	66.69
251.931	71.69
252.164	73.69
252.397	73.69
252.63	85.69
252.863	74.69
253.096	64.69
253.329	79.69
253.562	74.69
253.795	82.69
254.028	63.69
254.261	69.69
254.494	71.69
254.727	72.69
254.96	75.69
255.193	81.69
255.426	71.69
255.659	86.69
255.892	76.69
256.124	67.69
256.357	62.69
256.59	69.69
256.823	76.69
257.056	86.69
257.289	75.69
257.521	70.69
257.754	76.69
257.987	91.69
258.22	73.69
258.452	78.69
258.685	48.69
258.918	78.69
259.151	83.69
259.383	74.69
259.616	81.69
259.849	79.69
260.081	87.69
260.314	68.69
260.547	78.69
260.779	95.69
261.012	80.69
261.244	74.69
261.477	82.69
261.71	87.69
261.942	92.69
262.175	97.69
262.407	83.69
262.64	81.69
262.872	85.69
263.105	83.69
263.337	90.69
263.57	83.69
263.802	75.69
264.035	79.69
264.267	82.69
264.499	59.69
264.732	78.69
264.964	88.69
265.197	87.69
265.429	82.69
265.661	68.69
265.894	65.69
266.126	76.69
266.358	85.69
266.591	80.69
266.823	85.69
267.055	78.69
267.287	70.69
267.52	80.69
267.752	90.69
267.984	79.69
268.216	86.69
268.448	71.69
268.681	94.69
268.913	72.69
269.145	63.69
269.377	71.69
269.609	77.69
269.841	86.69
270.073	73.69
270.306	69.69
270.538	80.69
270.77	72.69
271.002	74.69
271.234	68.69
271.466	90.69
271.698	73.69
271.93	62.69
272.162	86.69
272.394	89.69
272.626	86.69
272.858	73.69
273.09	87.69
273.322	87.69
273.553	83.69
273.785	87.69
274.017	72.69
274.249	73.69
274.481	77.69
274.713	87.69
274.945	82.69
275.176	82.69
275.408	71.69
275.64	80.69
275.872	79.69
276.104	92.69
276.335	89.69
276.567	96.69
276.799	107.69
277.031	94.69
277.262	88.69
277.494	94.69
277.726	78.69
277.957	77.69
278.189	63.69
278.421	68.69
278.652	67.69
278.884	88.69
279.115	67.69
279.347	78.69
279.579	85.69
279.81	75.69
280.042	81.69
280.273	87.69
280.505	77.69
280.736	73.69
280.968	85.69
281.199	85.69
281.431	77.69
281.662	70.69
281.894	77.69
282.125	87.69
282.356	100.69
282.588	129.69
282.819	102.69
283.051	81.69
283.282	77.69
283.513	78.69
283.745	91.69
283.976	84.69
284.207	79.69
284.439	89.69
284.67	81.69
284.901	86.69
285.132	73.69
285.364	70.69
285.595	78.69
285.826	72.69
286.057	80.69
286.288	89.69
286.52	80.69
286.751	73.69
286.982	69.69
287.213	74.69
287.444	88.69
287.675	87.69
287.906	86.69
288.138	83.69
288.369	91.69
288.6	98.69
288.831	63.69
289.062	78.69
289.293	72.69
289.524	82.69
289.755	73.69
289.986	81.69
290.217	82.69
290.448	88.69
290.679	84.69
290.91	76.69
291.141	71.69
291.371	88.69
291.602	69.69
291.833	84.69
292.064	79.69
292.295	97.69
292.526	85.69
292.757	69.69
292.987	90.69
293.218	69.69
293.449	96.69
293.68	94.69
293.91	83.69
294.141	79.69
294.372	67.69
294.603	72.69
294.833	75.69
295.064	70.69
295.295	83.69
295.525	91.69
295.756	83.69
295.987	122.69
296.217	138.69
296.448	124.69
296.679	89.69
296.909	73.69
297.14	82.69
297.37	86.69
297.601	84.69
297.831	90.69
298.062	86.69
298.292	85.69
298.523	84.69
298.753	78.69
298.984	97.69
299.214	84.69
299.445	94.69
299.675	88.69
299.905	103.69
300.136	102.69
300.366	90.69
300.597	67.69
300.827	75.69
301.057	94.69
301.288	87.69
301.518	75.69
301.748	84.69
301.979	80.69
302.209	96.69
302.439	94.69
302.669	74.69
302.9	68.69
303.13	79.69
303.36	79.69
303.59	81.69
303.82	94.69
304.051	93.69
304.281	85.69
304.511	100.69
304.741	73.69
304.971	85.69
305.201	82.69
305.431	74.69
305.661	98.69
305.891	77.69
306.121	97.69
306.352	72.69
306.582	109.69
306.812	89.69
307.042	84.69
307.272	99.69
307.502	99.69
307.731	101.69
307.961	105.69
308.191	78.69
308.421	85.69
308.651	81.69
308.881	94.69
309.111	91.69
309.341	88.69
309.571	86.69
309.8	76.69
310.03	110.69
310.26	96.69
310.49	97.69
310.72	94.69
310.949	82.69
311.179	88.69
311.409	81.69
311.639	84.69
311.868	88.69
312.098	88.69
312.328	99.69
312.557	103.69
312.787	89.69
313.017	90.69
313.246	91.69
313.476	89.69
313.706	83.69
313.935	81.69
314.165	93.69
314.394	89.69
314.624	101.69
314.853	86.69
315.083	88.69
315.312	87.69
315.542	73.69
315.771	96.69
316.001	73.69
316.23	82.69
316.46	92.69
316.689	89.69
316.919	97.69
317.148	96.69
317.377	75.69
317.607	77.69
317.836	81.69
318.065	78.69
318.295	84.69
318.524	86.69
318.753	73.69
318.983	89.69
319.212	98.69
319.441	102.69
319.67	115.69
319.9	79.69
320.129	90.69
320.358	85.69
320.587	80.69
320.816	94.69
321.046	82.69
321.275	80.69
321.504	79.69
321.733	88.69
321.962	90.69
322.191	101.69
322.42	95.69
322.649	94.69
322.878	90.69
323.108	116.69
323.337	99.69
323.566	117.69
323.795	126.69
324.024	160.69
324.253	286.69
324.482	573.69
324.71	1153.69
324.939	1485.69
325.168	557.69
325.397	187.69
325.626	109.69
325.855	110.69
326.084	123.69
326.313	97.69
326.542	127.69
326.77	167.69
326.999	306.69
327.228	612.69
327.457	1063.69
327.686	911.69
327.914	277.69
328.143	161.69
328.372	169.69
328.6	128.69
328.829	107.69
329.058	111.69
329.287	111.69
329.515	115.69
329.744	106.69
329.972	134.69
330.201	166.69
330.43	194.69
330.658	149.69
330.887	119.69
331.115	109.69
331.344	95.69
331.572	111.69
331.801	94.69
332.03	100.69
332.258	96.69
332.486	89.69
332.715	96.69
332.943	99.69
333.172	86.69
333.4	83.69
333.629	95.69
333.857	108.69
334.085	126.69
334.314	185.69
334.542	249.69
334.771	237.69
334.999	123.69
335.227	105.69
335.455	95.69
335.684	100.69
335.912	93.69
336.14	98.69
336.369	105.69
336.597	83.69
336.825	83.69
337.053	86.69
337.281	78.69
337.51	102.69
337.738	91.69
337.966	89.69
338.194	92.69
338.422	96.69
338.65	75.69
338.878	89.69
339.106	87.69
339.334	92.69
339.562	87.69
339.79	87.69
340.018	74.69
340.246	82.69
340.474	86.69
340.702	90.69
340.93	82.69
341.158	84.69
341.386	98.69
341.614	77.69
341.842	92.69
342.07	77.69
342.298	90.69
342.526	91.69
342.754	84.69
342.981	75.69
343.209	85.69
343.437	95.69
343.665	82.69
343.893	81.69
344.12	87.69
344.348	93.69
344.576	78.69
344.804	85.69
345.031	78.69
345.259	96.69
345.487	95.69
345.714	85.69
345.942	74.69
346.17	77.69
346.397	89.69
346.625	95.69
346.853	85.69
347.08	65.69
347.308	76.69
347.535	74.69
347.763	86.69
347.99	100.69
348.218	102.69
348.445	101.69
348.673	88.69
348.9	89.69
349.128	84.69
349.355	86.69
349.583	97.69
349.81	91.69
350.037	90.69
350.265	93.69
350.492	81.69
350.72	85.69
350.947	91.69
351.174	106.69
351.402	105.69
351.629	103.69
351.856	89.69
352.083	98.69
352.311	88.69
352.538	93.69
352.765	108.69
352.992	99.69
353.22	100.69
353.447	93.69
353.674	93.69
353.901	102.69
354.128	85.69
354.355	82.69
354.583	78.69
354.81	90.69
355.037	90.69
355.264	99.69
355.491	91.69
355.718	86.69
355.945	84.69
356.172	94.69
356.399	77.69
356.626	70.69
356.853	86.69
357.08	85.69
357.307	76.69
357.534	79.69
357.761	95.69
357.988	90.69
358.215	99.69
358.441	75.69
358.668	73.69
358.895	94.69
359.122	95.69
359.349	79.69
359.576	89.69
359.802	92.69
360.029	104.69
360.256	93.69
360.483	100.69
360.709	76.69
360.936	71.69
361.163	81.69
361.39	100.69
361.616	92.69
361.843	95.69
362.07	87.69
362.296	91.69
362.523	91.69
362.749	84.69
362.976	88.69
363.203	74.69
363.429	85.69
363.656	81.69
363.882	78.69
364.109	78.69
364.335	102.69
364.562	100.69
364.788	97.69
365.015	90.69
365.241	98.69
365.468	101.69
365.694	102.69
365.92	91.69
366.147	90.69
366.373	69.69
366.599	91.69
366.826	92.69
367.052	86.69
367.278	85.69
367.505	81.69
367.731	82.69
367.957	71.69
368.184	70.69
368.41	85.69
368.636	97.69
368.862	118.69
369.089	104.69
369.315	99.69
369.541	87.69
369.767	65.69
369.993	87.69
370.219	93.69
370.445	88.69
370.672	76.69
370.898	81.69
371.124	92.69
371.35	89.69
371.576	83.69
371.802	74.69
372.028	89.69
372.254	75.69
372.48	81.69
372.706	74.69
372.932	77.69
373.158	87.69
373.384	85.69
373.61	76.69
373.835	95.69
374.061	82.69
374.287	95.69
374.513	85.69
374.739	91.69
374.965	87.69
375.191	95.69
375.416	82.69
375.642	103.69
375.868	89.69
376.094	83.69
376.319	92.69
376.545	95.69
376.771	79.69
376.997	76.69
377.222	91.69
377.448	70.69
377.674	94.69
377.899	87.69
378.125	86.69
378.35	87.69
378.576	87.69
378.802	70.69
379.027	92.69
379.253	79.69
379.478	90.69
379.704	90.69
379.929	89.69
380.155	85.69
380.38	85.69
380.606	87.69
380.831	82.69
381.057	95.69
381.282	78.69
381.507	76.69
381.733	94.69
381.958	76.69
382.184	84.69
382.409	89.69
382.634	84.69
382.86	90.69
383.085	94.69
383.31	94.69
383.535	88.69
383.761	85.69
383.986	98.69
384.211	85.69
384.436	98.69
384.662	94.69
384.887	83.69
385.112	103.69
385.337	99.69
385.562	90.69
385.787	93.69
386.013	108.69
386.238	117.69
386.463	103.69
386.688	107.69
386.913	83.69
387.138	88.69
387.363	106.69
387.588	89.69
387.813	92.69
388.038	92.69
388.263	85.69
388.488	96.69
388.713	70.69
388.938	80.69
389.163	85.69
389.387	79.69
389.612	79.69
389.837	86.69
390.062	82.69
390.287	74.69
390.512	92.69
390.736	85.69
390.961	80.69
391.186	99.69
391.411	103.69
391.636	94.69
391.86	81.69
392.085	88.69
392.31	77.69
392.534	79.69
392.759	78.69
392.984	87.69
393.208	85.69
393.433	96.69
393.658	71.69
393.882	84.69
394.107	77.69
394.331	75.69
394.556	91.69
394.78	101.69
395.005	78.69
395.229	89.69
395.454	79.69
395.678	70.69
395.903	92.69
396.127	85.69
396.352	84.69
396.576	63.69
396.801	87.69
397.025	88.69
397.249	84.69
397.474	91.69
397.698	83.69
397.922	78.69
398.147	76.69
398.371	75.69
398.595	76.69
398.82	77.69
399.044	67.69
399.268	79.69
399.492	89.69
399.717	95.69
399.941	94.69
400.165	81.69
400.389	73.69
400.613	84.69
400.837	83.69
401.062	81.69
401.286	82.69
401.51	86.69
401.734	87.69
401.958	78.69
402.182	105.69
402.406	147.69
402.63	105.69
402.854	82.69
403.078	77.69
403.302	92.69
403.526	86.69
403.75	97.69
403.974	89.69
404.198	93.69
404.422	83.69
404.645	86.69
404.869	87.69
405.093	101.69
405.317	96.69
405.541	94.69
405.765	99.69
405.988	109.69
406.212	148.69
406.436	213.69
406.66	130.69
406.883	82.69
407.107	98.69
407.331	102.69
407.555	91.69
407.778	100.69
408.002	85.69
408.226	80.69
408.449	92.69
408.673	102.69
408.896	95.69
409.12	85.69
409.344	88.69
409.567	75.69
409.791	92.69
410.014	100.69
410.238	83.69
410.461	83.69
410.685	76.69
410.908	91.69
411.132	87.69
411.355	102.69
411.578	87.69
411.802	80.69
412.025	78.69
412.249	84.69
412.472	73.69
412.695	91.69
412.919	91.69
413.142	98.69
413.365	85.69
413.589	102.69
413.812	87.69
414.035	75.69
414.258	85.69
414.482	91.69
414.705	92.69
414.928	87.69
415.151	86.69
415.374	83.69
415.597	102.69
415.821	74.69
416.044	91.69
416.267	94.69
416.49	80.69
416.713	86.69
416.936	79.69
417.159	86.69
417.382	80.69
417.605	79.69
417.828	94.69
418.051	86.69
418.274	79.69
418.497	83.69
418.72	75.69
418.943	81.69
419.166	70.69
419.389	87.69
419.611	71.69
419.834	75.69
420.057	91.69
420.28	71.69
420.503	82.69
420.726	94.69
420.948	97.69
421.171	81.69
421.394	89.69
421.617	81.69
421.839	86.69
422.062	82.69
422.285	89.69
422.507	78.69
422.73	99.69
422.953	100.69
423.175	80.69
423.398	81.69
423.621	88.69
423.843	73.69
424.066	82.69
424.288	71.69
424.511	92.69
424.733	90.69
424.956	84.69
425.178	91.69
425.401	102.69
425.623	89.69
425.846	96.69
426.068	82.69
426.291	78.69
426.513	88.69
426.735	78.69
426.958	97.69
427.18	98.69
427.402	117.69
427.625	126.69
427.847	109.69
428.069	101.69
428.292	88.69
428.514	74.69
428.736	84.69
428.958	89.69
429.181	77.69
429.403	79.69
429.625	76.69
429.847	79.69
430.069	94.69
430.292	88.69
430.514	82.69
430.736	83.69
430.958	90.69
431.18	86.69
431.402	81.69
431.624	90.69
431.846	95.69
432.068	81.69
432.29	81.69
432.512	90.69
432.734	77.69
432.956	82.69
433.178	89.69
433.4	72.69
433.622	78.69
433.844	86.69
434.066	70.69
434.287	88.69
434.509	66.69
434.731	74.69
434.953	83.69
435.175	94.69
435.397	81.69
435.618	97.69
435.84	98.69
436.062	91.69
436.284	103.69
436.505	87.69
436.727	101.69
436.949	98.69
437.17	86.69
437.392	77.69
437.614	71.69
437.835	84.69
438.057	93.69
438.278	93.69
438.5	94.69
438.721	82.69
438.943	85.69
439.165	68.69
439.386	81.69
439.608	93.69
439.829	95.69
440.05	93.69
440.272	111.69
440.493	97.69
440.715	82.69
440.936	74.69
441.158	95.69
441.379	86.69
441.6	77.69
441.822	81.69
442.043	79.69
442.264	84.69
442.486	97.69
442.707	77.69
442.928	93.69
443.149	109.69
443.371	101.69
443.592	100.69
443.813	97.69
444.034	103.69
444.255	83.69
444.476	77.69
444.698	84.69
444.919	69.69
445.14	115.69
445.361	109.69
445.582	100.69
445.803	113.69
446.024	116.69
446.245	105.69
446.466	89.69
446.687	76.69
446.908	69.69
447.129	85.69
447.35	86.69
447.571	92.69
447.792	81.69
448.013	89.69
448.234	104.69
448.455	90.69
448.675	100.69
448.896	103.69
449.117	84.69
449.338	78.69
449.559	101.69
449.779	106.69
450	94.69
450.221	92.69
450.442	83.69
450.662	78.69
450.883	80.69
451.104	95.69
451.324	79.69
451.545	84.69
451.766	85.69
451.986	102.69
452.207	81.69
452.428	93.69
452.648	78.69
452.869	107.69
453.089	118.69
453.31	109.69
453.53	90.69
453.751	95.69
453.971	88.69
454.192	99.69
454.412	82.69
454.633	89.69
454.853	69.69
455.073	81.69
455.294	85.69
455.514	92.69
455.734	83.69
455.955	82.69
456.175	71.69
456.395	84.69
456.616	84.69
456.836	74.69
457.056	83.69
457.276	83.69
457.497	85.69
457.717	77.69
457.937	70.69
458.157	78.69
458.377	93.69
458.598	100.69
458.818	135.69
459.038	133.69
459.258	113.69
459.478	95.69
459.698	86.69
459.918	87.69
460.138	88.69
460.358	86.69
460.578	83.69
460.798	87.69
461.018	83.69
461.238	78.69
461.458	78.69
461.678	74.69
461.898	90.69
462.118	89.69
462.338	81.69
462.558	85.69
462.777	79.69
462.997	76.69
463.217	94.69
463.437	89.69
463.657	81.69
463.876	86.69
464.096	86.69
464.316	78.69
464.536	70.69
464.755	73.69
464.975	88.69
465.195	134.69
465.414	147.69
465.634	87.69
465.854	78.69
466.073	75.69
466.293	83.69
466.512	82.69
466.732	88.69
466.951	84.69
467.171	88.69
467.391	85.69
467.61	98.69
467.829	107.69
468.049	130.69
468.268	133.69
468.488	98.69
468.707	77.69
468.927	83.69
469.146	77.69
469.365	74.69
469.585	74.69
469.804	72.69
470.023	90.69
470.243	81.69
470.462	96.69
470.681	93.69
470.901	81.69
471.12	86.69
471.339	88.69
471.558	96.69
471.777	82.69
471.997	109.69
472.216	165.69
472.435	308.69
472.654	113.69
472.873	87.69
473.092	74.69
473.311	85.69
473.53	85.69
473.749	91.69
473.968	94.69
474.187	71.69
474.406	74.69
474.625	75.69
474.844	81.69
475.063	86.69
475.282	96.69
475.501	70.69
475.72	87.69
475.939	77.69
476.158	82.69
476.377	85.69
476.596	95.69
476.814	95.69
477.033	78.69
477.252	88.69
477.471	79.69
477.69	102.69
477.908	85.69
478.127	87.69
478.346	90.69
478.564	81.69
478.783	81.69
479.002	93.69
479.22	85.69
479.439	90.69
479.658	91.69
479.876	94.69
480.095	76.69
480.313	91.69
480.532	85.69
480.751	102.69
480.969	185.69
481.188	531.69
481.406	304.69
481.624	101.69
481.843	92.69
482.061	79.69
482.28	76.69
482.498	94.69
482.717	93.69
482.935	77.69
483.153	88.69
483.372	87.69
483.59	83.69
483.808	94.69
484.027	86.69
484.245	89.69
484.463	79.69
484.681	78.69
484.9	93.69
485.118	77.69
485.336	85.69
485.554	90.69
485.772	81.69
485.99	91.69
486.209	97.69
486.427	87.69
486.645	106.69
486.863	109.69
487.081	93.69
487.299	86.69
487.517	79.69
487.735	97.69
487.953	95.69
488.171	86.69
488.389	87.69
488.607	92.69
488.825	91.69
489.043	87.69
489.261	80.69
489.479	83.69
489.696	85.69
489.914	86.69
490.132	81.69
490.35	75.69
490.568	92.69
490.786	83.69
491.003	86.69
491.221	91.69
491.439	76.69
491.657	89.69
491.874	83.69
492.092	94.69
492.31	103.69
492.527	93.69
492.745	80.69
492.963	73.69
493.18	81.69
493.398	99.69
493.615	97.69
493.833	98.69
494.05	92.69
494.268	100.69
494.485	81.69
494.703	82.69
494.92	70.69
495.138	95.69
495.355	100.69
495.573	91.69
495.79	85.69
496.008	93.69
496.225	95.69
496.442	76.69
496.66	75.69
496.877	82.69
497.094	85.69
497.312	84.69
497.529	83.69
497.746	75.69
497.963	91.69
498.181	77.69
498.398	88.69
498.615	96.69
498.832	95.69
499.049	69.69
499.267	90.69
499.484	89.69
499.701	97.69
499.918	78.69
500.135	75.69
500.352	79.69
500.569	84.69
500.786	85.69
501.003	78.69
501.22	81.69
501.437	75.69
501.654	87.69
501.871	95.69
502.088	78.69
502.305	94.69
502.522	102.69
502.739	90.69
502.956	81.69
503.172	91.69
503.389	91.69
503.606	94.69
503.823	108.69
504.04	80.69
504.256	77.69
504.473	85.69
504.69	68.69
504.907	85.69
505.123	86.69
505.34	90.69
505.557	88.69
505.773	88.69
505.99	108.69
506.207	77.69
506.423	76.69
506.64	79.69
506.856	84.69
507.073	106.69
507.289	89.69
507.506	90.69
507.722	102.69
507.939	104.69
508.155	97.69
508.372	85.69
508.588	86.69
508.805	92.69
509.021	91.69
509.238	91.69
509.454	90.69
509.67	89.69
509.887	92.69
510.103	109.69
510.319	223.69
510.536	722.69
510.752	2464.69
510.968	654.69
511.184	145.69
511.401	93.69
511.617	88.69
511.833	98.69
512.049	86.69
512.265	90.69
512.481	74.69
512.698	84.69
512.914	95.69
513.13	92.69
513.346	88.69
513.562	94.69
513.778	101.69
513.994	82.69
514.21	87.69
514.426	109.69
514.642	127.69
514.858	102.69
515.074	159.69
515.29	394.69
515.506	1342.69
515.721	497.69
515.937	157.69
516.153	103.69
516.369	108.69
516.585	74.69
516.801	102.69
517.016	83.69
517.232	75.69
517.448	77.69
