Data from Circ_1996_H10_HRD10591_00072.txt Node
Date: Wed Jan 03 11:33:20 EST 2024
User: Yrep
Spectrometer: HR+D1059
Trigger mode: 1
Integration Time (sec): 1.000000E-1
Scans to average: 1
Electric dark correction enabled: true
Nonlinearity correction enabled: false
Boxcar width: 0
XAxis mode: Wavelengths
Number of Pixels in Spectrum: 2048
>>>>>Begin Spectral Data<<<<<
223.165	-22.94
223.4	-22.94
223.635	-22.94
223.869	-26.94
224.104	-23.94
224.338	-10.94
224.573	-5.94
224.808	-20.94
225.042	-9.94
225.277	-3.94
225.511	-3.94
225.746	2.06
225.98	6.06
226.215	12.06
226.449	21.06
226.683	27.06
226.918	38.06
227.152	23.06
227.387	31.06
227.621	35.06
227.856	46.06
228.09	54.06
228.324	45.06
228.559	65.06
228.793	48.06
229.027	62.06
229.262	61.06
229.496	75.06
229.73	62.06
229.964	71.06
230.199	71.06
230.433	80.06
230.667	93.06
230.901	82.06
231.136	61.06
231.37	79.06
231.604	92.06
231.838	79.06
232.072	83.06
232.306	81.06
232.541	76.06
232.775	82.06
233.009	92.06
233.243	82.06
233.477	68.06
233.711	87.06
233.945	81.06
234.179	81.06
234.413	81.06
234.647	66.06
234.881	65.06
235.115	85.06
235.349	77.06
235.583	73.06
235.817	82.06
236.051	66.06
236.285	73.06
236.519	80.06
236.753	73.06
236.987	81.06
237.221	77.06
237.455	73.06
237.689	82.06
237.922	92.06
238.156	72.06
238.39	78.06
238.624	73.06
238.858	83.06
239.091	71.06
239.325	79.06
239.559	80.06
239.793	86.06
240.027	85.06
240.26	71.06
240.494	80.06
240.728	78.06
240.961	90.06
241.195	77.06
241.429	75.06
241.662	52.06
241.896	80.06
242.13	72.06
242.363	78.06
242.597	86.06
242.83	92.06
243.064	87.06
243.298	80.06
243.531	82.06
243.765	73.06
243.998	81.06
244.232	79.06
244.465	84.06
244.699	80.06
244.932	80.06
245.166	82.06
245.399	81.06
245.633	84.06
245.866	71.06
246.099	77.06
246.333	79.06
246.566	94.06
246.8	82.06
247.033	84.06
247.266	91.06
247.5	74.06
247.733	75.06
247.966	90.06
248.2	85.06
248.433	84.06
248.666	83.06
248.899	91.06
249.133	72.06
249.366	81.06
249.599	107.06
249.832	80.06
250.066	89.06
250.299	83.06
250.532	98.06
250.765	79.06
250.998	85.06
251.231	76.06
251.465	78.06
251.698	85.06
251.931	65.06
252.164	64.06
252.397	76.06
252.63	85.06
252.863	80.06
253.096	88.06
253.329	99.06
253.562	95.06
253.795	69.06
254.028	81.06
254.261	72.06
254.494	89.06
254.727	88.06
254.96	85.06
255.193	87.06
255.426	79.06
255.659	95.06
255.892	93.06
256.124	86.06
256.357	81.06
256.59	75.06
256.823	96.06
257.056	81.06
257.289	81.06
257.521	81.06
257.754	81.06
257.987	73.06
258.22	90.06
258.452	80.06
258.685	89.06
258.918	88.06
259.151	87.06
259.383	87.06
259.616	89.06
259.849	73.06
260.081	86.06
260.314	84.06
260.547	83.06
260.779	93.06
261.012	86.06
261.244	88.06
261.477	89.06
261.71	93.06
261.942	99.06
262.175	101.06
262.407	80.06
262.64	89.06
262.872	90.06
263.105	79.06
263.337	86.06
263.57	93.06
263.802	80.06
264.035	89.06
264.267	84.06
264.499	104.06
264.732	90.06
264.964	83.06
265.197	77.06
265.429	80.06
265.661	86.06
265.894	90.06
266.126	78.06
266.358	88.06
266.591	77.06
266.823	81.06
267.055	77.06
267.287	94.06
267.52	84.06
267.752	74.06
267.984	97.06
268.216	81.06
268.448	92.06
268.681	94.06
268.913	90.06
269.145	83.06
269.377	91.06
269.609	79.06
269.841	85.06
270.073	103.06
270.306	77.06
270.538	80.06
270.77	82.06
271.002	90.06
271.234	85.06
271.466	91.06
271.698	68.06
271.93	85.06
272.162	87.06
272.394	102.06
272.626	79.06
272.858	91.06
273.09	92.06
273.322	82.06
273.553	82.06
273.785	79.06
274.017	84.06
274.249	92.06
274.481	88.06
274.713	74.06
274.945	93.06
275.176	87.06
275.408	94.06
275.64	92.06
275.872	92.06
276.104	67.06
276.335	83.06
276.567	96.06
276.799	102.06
277.031	115.06
277.262	103.06
277.494	77.06
277.726	83.06
277.957	89.06
278.189	94.06
278.421	93.06
278.652	89.06
278.884	79.06
279.115	93.06
279.347	88.06
279.579	95.06
279.81	96.06
280.042	97.06
280.273	93.06
280.505	93.06
280.736	85.06
280.968	91.06
281.199	94.06
281.431	95.06
281.662	92.06
281.894	100.06
282.125	89.06
282.356	109.06
282.588	120.06
282.819	120.06
283.051	90.06
283.282	93.06
283.513	90.06
283.745	88.06
283.976	82.06
284.207	84.06
284.439	92.06
284.67	86.06
284.901	93.06
285.132	99.06
285.364	75.06
285.595	90.06
285.826	80.06
286.057	92.06
286.288	84.06
286.52	87.06
286.751	71.06
286.982	84.06
287.213	96.06
287.444	78.06
287.675	91.06
287.906	96.06
288.138	86.06
288.369	74.06
288.6	98.06
288.831	77.06
289.062	91.06
289.293	80.06
289.524	92.06
289.755	87.06
289.986	88.06
290.217	86.06
290.448	80.06
290.679	94.06
290.91	81.06
291.141	82.06
291.371	83.06
291.602	79.06
291.833	92.06
292.064	106.06
292.295	75.06
292.526	93.06
292.757	103.06
292.987	96.06
293.218	103.06
293.449	102.06
293.68	85.06
293.91	95.06
294.141	89.06
294.372	78.06
294.603	80.06
294.833	88.06
295.064	94.06
295.295	90.06
295.525	95.06
295.756	94.06
295.987	117.06
296.217	124.06
296.448	105.06
296.679	99.06
296.909	92.06
297.14	87.06
297.37	97.06
297.601	96.06
297.831	89.06
298.062	102.06
298.292	84.06
298.523	73.06
298.753	96.06
298.984	88.06
299.214	85.06
299.445	85.06
299.675	98.06
299.905	102.06
300.136	91.06
300.366	93.06
300.597	87.06
300.827	92.06
301.057	96.06
301.288	105.06
301.518	91.06
301.748	85.06
301.979	91.06
302.209	101.06
302.439	81.06
302.669	85.06
302.9	94.06
303.13	87.06
303.36	95.06
303.59	99.06
303.82	101.06
304.051	92.06
304.281	79.06
304.511	107.06
304.741	97.06
304.971	95.06
305.201	92.06
305.431	80.06
305.661	95.06
305.891	88.06
306.121	104.06
306.352	96.06
306.582	107.06
306.812	100.06
307.042	105.06
307.272	95.06
307.502	98.06
307.731	98.06
307.961	101.06
308.191	83.06
308.421	91.06
308.651	88.06
308.881	87.06
309.111	97.06
309.341	95.06
309.571	105.06
309.8	81.06
310.03	108.06
310.26	108.06
310.49	87.06
310.72	113.06
310.949	84.06
311.179	91.06
311.409	89.06
311.639	102.06
311.868	87.06
312.098	101.06
312.328	91.06
312.557	89.06
312.787	95.06
313.017	99.06
313.246	98.06
313.476	82.06
313.706	99.06
313.935	79.06
314.165	102.06
314.394	88.06
314.624	105.06
314.853	98.06
315.083	98.06
315.312	92.06
315.542	102.06
315.771	83.06
316.001	85.06
316.23	101.06
316.46	86.06
316.689	94.06
316.919	103.06
317.148	87.06
317.377	90.06
317.607	87.06
317.836	84.06
318.065	84.06
318.295	91.06
318.524	102.06
318.753	101.06
318.983	85.06
319.212	104.06
319.441	97.06
319.67	115.06
319.9	98.06
320.129	90.06
320.358	95.06
320.587	93.06
320.816	101.06
321.046	101.06
321.275	107.06
321.504	97.06
321.733	89.06
321.962	100.06
322.191	89.06
322.42	96.06
322.649	106.06
322.878	117.06
323.108	110.06
323.337	125.06
323.566	130.06
323.795	123.06
324.024	176.06
324.253	266.06
324.482	576.06
324.71	1099.06
324.939	1409.06
325.168	549.06
325.397	191.06
325.626	124.06
325.855	120.06
326.084	104.06
326.313	119.06
326.542	112.06
326.77	177.06
326.999	308.06
327.228	594.06
327.457	1026.06
327.686	871.06
327.914	275.06
328.143	190.06
328.372	171.06
328.6	128.06
328.829	114.06
329.058	115.06
329.287	110.06
329.515	107.06
329.744	108.06
329.972	124.06
330.201	169.06
330.43	193.06
330.658	143.06
330.887	135.06
331.115	110.06
331.344	97.06
331.572	106.06
331.801	95.06
332.03	110.06
332.258	98.06
332.486	99.06
332.715	99.06
332.943	92.06
333.172	89.06
333.4	97.06
333.629	110.06
333.857	112.06
334.085	128.06
334.314	172.06
334.542	238.06
334.771	226.06
334.999	124.06
335.227	98.06
335.455	97.06
335.684	114.06
335.912	103.06
336.14	92.06
336.369	109.06
336.597	91.06
336.825	88.06
337.053	104.06
337.281	79.06
337.51	98.06
337.738	80.06
337.966	88.06
338.194	95.06
338.422	103.06
338.65	77.06
338.878	98.06
339.106	97.06
339.334	92.06
339.562	93.06
339.79	95.06
340.018	100.06
340.246	86.06
340.474	101.06
340.702	91.06
340.93	95.06
341.158	97.06
341.386	91.06
341.614	110.06
341.842	79.06
342.07	87.06
342.298	96.06
342.526	103.06
342.754	77.06
342.981	82.06
343.209	87.06
343.437	103.06
343.665	79.06
343.893	90.06
344.12	87.06
344.348	91.06
344.576	80.06
344.804	94.06
345.031	95.06
345.259	85.06
345.487	90.06
345.714	92.06
345.942	95.06
346.17	88.06
346.397	103.06
346.625	91.06
346.853	95.06
347.08	82.06
347.308	92.06
347.535	87.06
347.763	111.06
347.99	117.06
348.218	99.06
348.445	114.06
348.673	90.06
348.9	96.06
349.128	91.06
349.355	106.06
349.583	92.06
349.81	96.06
350.037	92.06
350.265	90.06
350.492	93.06
350.72	95.06
350.947	108.06
351.174	111.06
351.402	120.06
351.629	89.06
351.856	84.06
352.083	120.06
352.311	110.06
352.538	103.06
352.765	115.06
352.992	107.06
353.22	119.06
353.447	105.06
353.674	96.06
353.901	107.06
354.128	102.06
354.355	106.06
354.583	94.06
354.81	100.06
355.037	100.06
355.264	104.06
355.491	86.06
355.718	87.06
355.945	96.06
356.172	107.06
356.399	100.06
356.626	101.06
356.853	86.06
357.08	85.06
357.307	100.06
357.534	97.06
357.761	79.06
357.988	95.06
358.215	94.06
358.441	92.06
358.668	87.06
358.895	89.06
359.122	91.06
359.349	104.06
359.576	82.06
359.802	89.06
360.029	97.06
360.256	101.06
360.483	99.06
360.709	92.06
360.936	88.06
361.163	93.06
361.39	102.06
361.616	97.06
361.843	86.06
362.07	97.06
362.296	100.06
362.523	100.06
362.749	95.06
362.976	76.06
363.203	80.06
363.429	89.06
363.656	101.06
363.882	91.06
364.109	79.06
364.335	84.06
364.562	82.06
364.788	93.06
365.015	97.06
365.241	102.06
365.468	95.06
365.694	99.06
365.92	77.06
366.147	95.06
366.373	97.06
366.599	84.06
366.826	87.06
367.052	101.06
367.278	99.06
367.505	94.06
367.731	106.06
367.957	89.06
368.184	89.06
368.41	105.06
368.636	105.06
368.862	104.06
369.089	97.06
369.315	94.06
369.541	103.06
369.767	105.06
369.993	88.06
370.219	91.06
370.445	85.06
370.672	101.06
370.898	93.06
371.124	98.06
371.35	88.06
371.576	81.06
371.802	85.06
372.028	80.06
372.254	89.06
372.48	98.06
372.706	99.06
372.932	92.06
373.158	69.06
373.384	96.06
373.61	86.06
373.835	93.06
374.061	83.06
374.287	87.06
374.513	92.06
374.739	88.06
374.965	97.06
375.191	86.06
375.416	96.06
375.642	98.06
375.868	107.06
376.094	96.06
376.319	82.06
376.545	89.06
376.771	81.06
376.997	79.06
377.222	75.06
377.448	89.06
377.674	89.06
377.899	88.06
378.125	99.06
378.35	95.06
378.576	85.06
378.802	99.06
379.027	92.06
379.253	90.06
379.478	87.06
379.704	86.06
379.929	104.06
380.155	91.06
380.38	99.06
380.606	97.06
380.831	103.06
381.057	99.06
381.282	94.06
381.507	98.06
381.733	89.06
381.958	82.06
382.184	87.06
382.409	99.06
382.634	97.06
382.86	87.06
383.085	90.06
383.31	99.06
383.535	107.06
383.761	102.06
383.986	108.06
384.211	92.06
384.436	100.06
384.662	101.06
384.887	100.06
385.112	97.06
385.337	100.06
385.562	101.06
385.787	113.06
386.013	103.06
386.238	117.06
386.463	102.06
386.688	107.06
386.913	102.06
387.138	96.06
387.363	93.06
387.588	101.06
387.813	101.06
388.038	108.06
388.263	116.06
388.488	107.06
388.713	78.06
388.938	79.06
389.163	103.06
389.387	112.06
389.612	112.06
389.837	89.06
390.062	98.06
390.287	99.06
390.512	88.06
390.736	73.06
390.961	92.06
391.186	101.06
391.411	96.06
391.636	97.06
391.86	93.06
392.085	108.06
392.31	107.06
392.534	94.06
392.759	88.06
392.984	92.06
393.208	93.06
393.433	97.06
393.658	83.06
393.882	77.06
394.107	88.06
394.331	90.06
394.556	88.06
394.78	91.06
395.005	85.06
395.229	89.06
395.454	80.06
395.678	89.06
395.903	86.06
396.127	79.06
396.352	90.06
396.576	95.06
396.801	103.06
397.025	101.06
397.249	96.06
397.474	75.06
397.698	98.06
397.922	81.06
398.147	97.06
398.371	80.06
398.595	89.06
398.82	88.06
399.044	97.06
399.268	103.06
399.492	84.06
399.717	83.06
399.941	91.06
400.165	95.06
400.389	97.06
400.613	86.06
400.837	83.06
401.062	91.06
401.286	99.06
401.51	93.06
401.734	99.06
401.958	95.06
402.182	119.06
402.406	139.06
402.63	120.06
402.854	90.06
403.078	88.06
403.302	91.06
403.526	95.06
403.75	84.06
403.974	79.06
404.198	78.06
404.422	80.06
404.645	89.06
404.869	101.06
405.093	96.06
405.317	90.06
405.541	90.06
405.765	92.06
405.988	100.06
406.212	161.06
406.436	193.06
406.66	128.06
406.883	95.06
407.107	87.06
407.331	89.06
407.555	94.06
407.778	106.06
408.002	88.06
408.226	89.06
408.449	81.06
408.673	111.06
408.896	95.06
409.12	93.06
409.344	90.06
409.567	92.06
409.791	91.06
410.014	99.06
410.238	94.06
410.461	98.06
410.685	97.06
410.908	102.06
411.132	89.06
411.355	92.06
411.578	100.06
411.802	97.06
412.025	99.06
412.249	101.06
412.472	88.06
412.695	100.06
412.919	114.06
413.142	89.06
413.365	96.06
413.589	97.06
413.812	99.06
414.035	82.06
414.258	92.06
414.482	104.06
414.705	91.06
414.928	88.06
415.151	81.06
415.374	90.06
415.597	90.06
415.821	88.06
416.044	86.06
416.267	101.06
416.49	101.06
416.713	93.06
416.936	92.06
417.159	89.06
417.382	97.06
417.605	84.06
417.828	88.06
418.051	95.06
418.274	108.06
418.497	95.06
418.72	79.06
418.943	89.06
419.166	87.06
419.389	78.06
419.611	106.06
419.834	100.06
420.057	89.06
420.28	82.06
420.503	82.06
420.726	90.06
420.948	83.06
421.171	86.06
421.394	68.06
421.617	95.06
421.839	87.06
422.062	98.06
422.285	86.06
422.507	85.06
422.73	97.06
422.953	110.06
423.175	109.06
423.398	92.06
423.621	79.06
423.843	92.06
424.066	91.06
424.288	85.06
424.511	85.06
424.733	98.06
424.956	96.06
425.178	93.06
425.401	85.06
425.623	107.06
425.846	91.06
426.068	94.06
426.291	85.06
426.513	92.06
426.735	95.06
426.958	91.06
427.18	96.06
427.402	116.06
427.625	153.06
427.847	129.06
428.069	121.06
428.292	92.06
428.514	83.06
428.736	74.06
428.958	74.06
429.181	89.06
429.403	81.06
429.625	87.06
429.847	99.06
430.069	92.06
430.292	95.06
430.514	90.06
430.736	83.06
430.958	82.06
431.18	65.06
431.402	83.06
431.624	89.06
431.846	91.06
432.068	87.06
432.29	100.06
432.512	88.06
432.734	85.06
432.956	100.06
433.178	114.06
433.4	94.06
433.622	87.06
433.844	80.06
434.066	75.06
434.287	94.06
434.509	81.06
434.731	99.06
434.953	63.06
435.175	74.06
435.397	90.06
435.618	106.06
435.84	91.06
436.062	95.06
436.284	100.06
436.505	98.06
436.727	92.06
436.949	103.06
437.17	77.06
437.392	89.06
437.614	89.06
437.835	104.06
438.057	120.06
438.278	115.06
438.5	95.06
438.721	109.06
438.943	97.06
439.165	86.06
439.386	83.06
439.608	100.06
439.829	98.06
440.05	110.06
440.272	98.06
440.493	90.06
440.715	81.06
440.936	87.06
441.158	79.06
441.379	89.06
441.6	84.06
441.822	87.06
442.043	96.06
442.264	96.06
442.486	99.06
442.707	104.06
442.928	101.06
443.149	119.06
443.371	115.06
443.592	108.06
443.813	97.06
444.034	100.06
444.255	84.06
444.476	85.06
444.698	83.06
444.919	86.06
445.14	123.06
445.361	121.06
445.582	101.06
445.803	116.06
446.024	124.06
446.245	113.06
446.466	80.06
446.687	77.06
446.908	107.06
447.129	87.06
447.35	89.06
447.571	90.06
447.792	95.06
448.013	91.06
448.234	119.06
448.455	92.06
448.675	93.06
448.896	108.06
449.117	98.06
449.338	92.06
449.559	114.06
449.779	113.06
450	98.06
450.221	85.06
450.442	78.06
450.662	99.06
450.883	103.06
451.104	115.06
451.324	89.06
451.545	79.06
451.766	81.06
451.986	91.06
452.207	91.06
452.428	78.06
452.648	85.06
452.869	105.06
453.089	99.06
453.31	101.06
453.53	82.06
453.751	88.06
453.971	101.06
454.192	97.06
454.412	86.06
454.633	91.06
454.853	83.06
455.073	80.06
455.294	87.06
455.514	87.06
455.734	89.06
455.955	77.06
456.175	75.06
456.395	72.06
456.616	76.06
456.836	87.06
457.056	95.06
457.276	87.06
457.497	84.06
457.717	77.06
457.937	85.06
458.157	88.06
458.377	87.06
458.598	104.06
458.818	131.06
459.038	139.06
459.258	107.06
459.478	92.06
459.698	106.06
459.918	82.06
460.138	94.06
460.358	76.06
460.578	89.06
460.798	89.06
461.018	107.06
461.238	91.06
461.458	98.06
461.678	92.06
461.898	97.06
462.118	107.06
462.338	87.06
462.558	92.06
462.777	88.06
462.997	89.06
463.217	90.06
463.437	93.06
463.657	80.06
463.876	76.06
464.096	82.06
464.316	94.06
464.536	89.06
464.755	98.06
464.975	109.06
465.195	155.06
465.414	126.06
465.634	101.06
465.854	71.06
466.073	74.06
466.293	88.06
466.512	79.06
466.732	93.06
466.951	95.06
467.171	94.06
467.391	95.06
467.61	101.06
467.829	103.06
468.049	116.06
468.268	154.06
468.488	93.06
468.707	94.06
468.927	93.06
469.146	78.06
469.365	82.06
469.585	84.06
469.804	85.06
470.023	89.06
470.243	85.06
470.462	91.06
470.681	108.06
470.901	87.06
471.12	82.06
471.339	96.06
471.558	81.06
471.777	104.06
471.997	103.06
472.216	191.06
472.435	282.06
472.654	133.06
472.873	90.06
473.092	85.06
473.311	81.06
473.53	91.06
473.749	86.06
473.968	93.06
474.187	99.06
474.406	101.06
474.625	96.06
474.844	87.06
475.063	87.06
475.282	79.06
475.501	98.06
475.72	92.06
475.939	96.06
476.158	76.06
476.377	88.06
476.596	86.06
476.814	99.06
477.033	91.06
477.252	88.06
477.471	84.06
477.69	86.06
477.908	69.06
478.127	83.06
478.346	86.06
478.564	103.06
478.783	110.06
479.002	101.06
479.22	87.06
479.439	101.06
479.658	106.06
479.876	98.06
480.095	89.06
480.313	82.06
480.532	109.06
480.751	116.06
480.969	186.06
481.188	452.06
481.406	308.06
481.624	107.06
481.843	86.06
482.061	83.06
482.28	73.06
482.498	83.06
482.717	83.06
482.935	91.06
483.153	91.06
483.372	72.06
483.59	87.06
483.808	101.06
484.027	89.06
484.245	97.06
484.463	80.06
484.681	105.06
484.9	100.06
485.118	96.06
485.336	90.06
485.554	99.06
485.772	90.06
485.99	102.06
486.209	112.06
486.427	95.06
486.645	104.06
486.863	112.06
487.081	94.06
487.299	98.06
487.517	104.06
487.735	90.06
487.953	99.06
488.171	82.06
488.389	111.06
488.607	94.06
488.825	98.06
489.043	103.06
489.261	89.06
489.479	95.06
489.696	91.06
489.914	91.06
490.132	77.06
490.35	84.06
490.568	91.06
490.786	95.06
491.003	104.06
491.221	98.06
491.439	97.06
491.657	92.06
491.874	100.06
492.092	91.06
492.31	78.06
492.527	65.06
492.745	91.06
492.963	99.06
493.18	66.06
493.398	77.06
493.615	101.06
493.833	103.06
494.05	87.06
494.268	80.06
494.485	96.06
494.703	89.06
494.92	84.06
495.138	81.06
495.355	89.06
495.573	105.06
495.79	87.06
496.008	95.06
496.225	86.06
496.442	96.06
496.66	98.06
496.877	90.06
497.094	88.06
497.312	85.06
497.529	98.06
497.746	87.06
497.963	96.06
498.181	101.06
498.398	101.06
498.615	101.06
498.832	107.06
499.049	90.06
499.267	89.06
499.484	83.06
499.701	87.06
499.918	96.06
500.135	82.06
500.352	97.06
500.569	92.06
500.786	91.06
501.003	80.06
501.22	87.06
501.437	94.06
501.654	95.06
501.871	95.06
502.088	100.06
502.305	83.06
502.522	89.06
502.739	99.06
502.956	107.06
503.172	96.06
503.389	93.06
503.606	100.06
503.823	97.06
504.04	89.06
504.256	90.06
504.473	81.06
504.69	87.06
504.907	102.06
505.123	77.06
505.34	74.06
505.557	88.06
505.773	64.06
505.99	85.06
506.207	89.06
506.423	107.06
506.64	96.06
506.856	91.06
507.073	93.06
507.289	96.06
507.506	92.06
507.722	115.06
507.939	97.06
508.155	98.06
508.372	84.06
508.588	83.06
508.805	102.06
509.021	101.06
509.238	87.06
509.454	92.06
509.67	97.06
509.887	90.06
510.103	118.06
510.319	220.06
510.536	706.06
510.752	2255.06
510.968	619.06
511.184	154.06
511.401	109.06
511.617	93.06
511.833	86.06
512.049	99.06
512.265	102.06
512.481	79.06
512.698	92.06
512.914	108.06
513.13	89.06
513.346	93.06
513.562	86.06
513.778	100.06
513.994	106.06
514.21	101.06
514.426	103.06
514.642	131.06
514.858	117.06
515.074	162.06
515.29	376.06
515.506	1233.06
