Data from Circ_1996_H10_HRD10591_00100.txt Node
Date: Wed Jan 03 11:33:26 EST 2024
User: Yrep
Spectrometer: HR+D1059
Trigger mode: 1
Integration Time (sec): 1.000000E-1
Scans to average: 1
Electric dark correction enabled: true
Nonlinearity correction enabled: false
Boxcar width: 0
XAxis mode: Wavelengths
Number of Pixels in Spectrum: 2048
>>>>>Begin Spectral Data<<<<<
223.165	-12.44
223.4	-12.44
223.635	-12.44
223.869	-18.44
224.104	-4.44
224.338	-8.44
224.573	-17.44
224.808	4.56
225.042	-15.44
225.277	-23.44
225.511	-1.44
225.746	-1.44
225.98	12.56
226.215	8.56
226.449	21.56
226.683	14.56
226.918	20.56
227.152	20.56
227.387	37.56
227.621	52.56
227.856	46.56
228.09	55.56
228.324	56.56
228.559	55.56
228.793	72.56
229.027	58.56
229.262	77.56
229.496	78.56
229.73	82.56
229.964	88.56
230.199	66.56
230.433	76.56
230.667	73.56
230.901	76.56
231.136	74.56
231.37	80.56
231.604	78.56
231.838	97.56
232.072	84.56
232.306	75.56
232.541	77.56
232.775	88.56
233.009	72.56
233.243	93.56
233.477	82.56
233.711	90.56
233.945	89.56
234.179	83.56
234.413	73.56
234.647	70.56
234.881	80.56
235.115	75.56
235.349	87.56
235.583	88.56
235.817	74.56
236.051	74.56
236.285	76.56
236.519	74.56
236.753	81.56
236.987	74.56
237.221	75.56
237.455	83.56
237.689	81.56
237.922	70.56
238.156	74.56
238.39	82.56
238.624	77.56
238.858	85.56
239.091	83.56
239.325	84.56
239.559	83.56
239.793	88.56
240.027	90.56
240.26	83.56
240.494	76.56
240.728	81.56
240.961	65.56
241.195	81.56
241.429	81.56
241.662	86.56
241.896	86.56
242.13	85.56
242.363	88.56
242.597	74.56
242.83	89.56
243.064	76.56
243.298	74.56
243.531	72.56
243.765	79.56
243.998	90.56
244.232	84.56
244.465	84.56
244.699	91.56
244.932	73.56
245.166	94.56
245.399	80.56
245.633	78.56
245.866	73.56
246.099	77.56
246.333	88.56
246.566	68.56
246.8	88.56
247.033	83.56
247.266	87.56
247.5	89.56
247.733	76.56
247.966	84.56
248.2	83.56
248.433	70.56
248.666	72.56
248.899	93.56
249.133	85.56
249.366	109.56
249.599	104.56
249.832	90.56
250.066	88.56
250.299	87.56
250.532	83.56
250.765	82.56
250.998	76.56
251.231	78.56
251.465	74.56
251.698	64.56
251.931	84.56
252.164	81.56
252.397	77.56
252.63	93.56
252.863	89.56
253.096	92.56
253.329	86.56
253.562	90.56
253.795	69.56
254.028	88.56
254.261	85.56
254.494	75.56
254.727	80.56
254.96	72.56
255.193	74.56
255.426	102.56
255.659	92.56
255.892	81.56
256.124	91.56
256.357	88.56
256.59	92.56
256.823	65.56
257.056	74.56
257.289	78.56
257.521	95.56
257.754	85.56
257.987	96.56
258.22	84.56
258.452	78.56
258.685	86.56
258.918	88.56
259.151	83.56
259.383	78.56
259.616	74.56
259.849	81.56
260.081	76.56
260.314	82.56
260.547	83.56
260.779	81.56
261.012	82.56
261.244	73.56
261.477	82.56
261.71	100.56
261.942	112.56
262.175	125.56
262.407	92.56
262.64	85.56
262.872	67.56
263.105	90.56
263.337	86.56
263.57	69.56
263.802	85.56
264.035	83.56
264.267	76.56
264.499	77.56
264.732	76.56
264.964	76.56
265.197	91.56
265.429	98.56
265.661	88.56
265.894	89.56
266.126	85.56
266.358	78.56
266.591	92.56
266.823	81.56
267.055	80.56
267.287	87.56
267.52	77.56
267.752	84.56
267.984	85.56
268.216	86.56
268.448	91.56
268.681	78.56
268.913	85.56
269.145	80.56
269.377	93.56
269.609	87.56
269.841	84.56
270.073	77.56
270.306	100.56
270.538	92.56
270.77	73.56
271.002	89.56
271.234	86.56
271.466	85.56
271.698	86.56
271.93	94.56
272.162	99.56
272.394	83.56
272.626	81.56
272.858	75.56
273.09	88.56
273.322	88.56
273.553	88.56
273.785	83.56
274.017	70.56
274.249	95.56
274.481	90.56
274.713	91.56
274.945	94.56
275.176	100.56
275.408	94.56
275.64	92.56
275.872	92.56
276.104	95.56
276.335	94.56
276.567	103.56
276.799	106.56
277.031	88.56
277.262	94.56
277.494	90.56
277.726	84.56
277.957	88.56
278.189	90.56
278.421	81.56
278.652	98.56
278.884	91.56
279.115	90.56
279.347	84.56
279.579	96.56
279.81	94.56
280.042	97.56
280.273	103.56
280.505	99.56
280.736	95.56
280.968	90.56
281.199	89.56
281.431	88.56
281.662	90.56
281.894	104.56
282.125	114.56
282.356	123.56
282.588	150.56
282.819	119.56
283.051	90.56
283.282	81.56
283.513	88.56
283.745	97.56
283.976	95.56
284.207	80.56
284.439	82.56
284.67	96.56
284.901	88.56
285.132	94.56
285.364	77.56
285.595	100.56
285.826	69.56
286.057	88.56
286.288	84.56
286.52	97.56
286.751	84.56
286.982	94.56
287.213	75.56
287.444	96.56
287.675	100.56
287.906	98.56
288.138	96.56
288.369	99.56
288.6	101.56
288.831	100.56
289.062	91.56
289.293	75.56
289.524	84.56
289.755	89.56
289.986	102.56
290.217	77.56
290.448	85.56
290.679	81.56
290.91	96.56
291.141	66.56
291.371	110.56
291.602	100.56
291.833	92.56
292.064	97.56
292.295	84.56
292.526	84.56
292.757	92.56
292.987	89.56
293.218	97.56
293.449	81.56
293.68	97.56
293.91	82.56
294.141	84.56
294.372	88.56
294.603	91.56
294.833	85.56
295.064	77.56
295.295	77.56
295.525	88.56
295.756	91.56
295.987	117.56
296.217	136.56
296.448	134.56
296.679	92.56
296.909	97.56
297.14	78.56
297.37	76.56
297.601	90.56
297.831	84.56
298.062	106.56
298.292	82.56
298.523	94.56
298.753	94.56
298.984	80.56
299.214	85.56
299.445	92.56
299.675	103.56
299.905	91.56
300.136	103.56
300.366	91.56
300.597	87.56
300.827	93.56
301.057	94.56
301.288	114.56
301.518	101.56
301.748	83.56
301.979	97.56
302.209	109.56
302.439	86.56
302.669	84.56
302.9	83.56
303.13	91.56
303.36	89.56
303.59	100.56
303.82	99.56
304.051	84.56
304.281	88.56
304.511	85.56
304.741	82.56
304.971	82.56
305.201	86.56
305.431	77.56
305.661	88.56
305.891	97.56
306.121	104.56
306.352	108.56
306.582	95.56
306.812	100.56
307.042	98.56
307.272	102.56
307.502	109.56
307.731	99.56
307.961	93.56
308.191	97.56
308.421	102.56
308.651	88.56
308.881	104.56
309.111	89.56
309.341	80.56
309.571	111.56
309.8	100.56
310.03	102.56
310.26	100.56
310.49	93.56
310.72	94.56
310.949	104.56
311.179	99.56
311.409	85.56
311.639	99.56
311.868	112.56
312.098	104.56
312.328	108.56
312.557	94.56
312.787	102.56
313.017	92.56
313.246	111.56
313.476	101.56
313.706	100.56
313.935	102.56
314.165	94.56
314.394	105.56
314.624	90.56
314.853	84.56
315.083	95.56
315.312	92.56
315.542	81.56
315.771	86.56
316.001	86.56
316.23	109.56
316.46	89.56
316.689	99.56
316.919	86.56
317.148	106.56
317.377	93.56
317.607	92.56
317.836	93.56
318.065	84.56
318.295	90.56
318.524	97.56
318.753	102.56
318.983	95.56
319.212	87.56
319.441	109.56
319.67	110.56
319.9	87.56
320.129	107.56
320.358	87.56
320.587	98.56
320.816	90.56
321.046	106.56
321.275	91.56
321.504	101.56
321.733	95.56
321.962	102.56
322.191	107.56
322.42	101.56
322.649	116.56
322.878	116.56
323.108	118.56
323.337	105.56
323.566	120.56
323.795	144.56
324.024	181.56
324.253	320.56
324.482	641.56
324.71	1306.56
324.939	1756.56
325.168	670.56
325.397	208.56
325.626	144.56
325.855	124.56
326.084	123.56
326.313	125.56
326.542	138.56
326.77	192.56
326.999	345.56
327.228	707.56
327.457	1245.56
327.686	1040.56
327.914	305.56
328.143	202.56
328.372	189.56
328.6	147.56
328.829	120.56
329.058	116.56
329.287	132.56
329.515	125.56
329.744	123.56
329.972	131.56
330.201	208.56
330.43	226.56
330.658	166.56
330.887	132.56
331.115	123.56
331.344	105.56
331.572	83.56
331.801	107.56
332.03	118.56
332.258	107.56
332.486	110.56
332.715	115.56
332.943	86.56
333.172	99.56
333.4	93.56
333.629	94.56
333.857	124.56
334.085	163.56
334.314	195.56
334.542	278.56
334.771	259.56
334.999	119.56
335.227	105.56
335.455	101.56
335.684	91.56
335.912	95.56
336.14	99.56
336.369	105.56
336.597	115.56
336.825	99.56
337.053	92.56
337.281	83.56
337.51	89.56
337.738	102.56
337.966	93.56
338.194	108.56
338.422	100.56
338.65	103.56
338.878	93.56
339.106	103.56
339.334	89.56
339.562	90.56
339.79	97.56
340.018	82.56
340.246	89.56
340.474	95.56
340.702	92.56
340.93	108.56
341.158	98.56
341.386	80.56
341.614	90.56
341.842	93.56
342.07	98.56
342.298	88.56
342.526	99.56
342.754	81.56
342.981	79.56
343.209	94.56
343.437	97.56
343.665	75.56
343.893	84.56
344.12	102.56
344.348	96.56
344.576	93.56
344.804	92.56
345.031	103.56
345.259	93.56
345.487	79.56
345.714	87.56
345.942	85.56
346.17	98.56
346.397	102.56
346.625	100.56
346.853	81.56
347.08	79.56
347.308	110.56
347.535	93.56
347.763	112.56
347.99	113.56
348.218	111.56
348.445	98.56
348.673	99.56
348.9	97.56
349.128	104.56
349.355	93.56
349.583	105.56
349.81	90.56
350.037	106.56
350.265	83.56
350.492	97.56
350.72	102.56
350.947	89.56
351.174	124.56
351.402	118.56
351.629	99.56
351.856	100.56
352.083	87.56
352.311	100.56
352.538	104.56
352.765	107.56
352.992	111.56
353.22	112.56
353.447	100.56
353.674	104.56
353.901	100.56
354.128	107.56
354.355	114.56
354.583	103.56
354.81	108.56
355.037	94.56
355.264	89.56
355.491	84.56
355.718	82.56
355.945	99.56
356.172	99.56
356.399	109.56
356.626	93.56
356.853	90.56
357.08	84.56
357.307	76.56
357.534	96.56
357.761	92.56
357.988	96.56
358.215	88.56
358.441	97.56
358.668	84.56
358.895	85.56
359.122	92.56
359.349	84.56
359.576	86.56
359.802	101.56
360.029	118.56
360.256	102.56
360.483	122.56
360.709	94.56
360.936	90.56
361.163	86.56
361.39	88.56
361.616	93.56
361.843	93.56
362.07	98.56
362.296	83.56
362.523	102.56
362.749	90.56
362.976	90.56
363.203	91.56
363.429	94.56
363.656	84.56
363.882	92.56
364.109	83.56
364.335	94.56
364.562	91.56
364.788	92.56
365.015	81.56
365.241	98.56
365.468	102.56
365.694	96.56
365.92	93.56
366.147	99.56
366.373	94.56
366.599	82.56
366.826	85.56
367.052	100.56
367.278	99.56
367.505	86.56
367.731	94.56
367.957	91.56
368.184	92.56
368.41	93.56
368.636	110.56
368.862	110.56
369.089	105.56
369.315	96.56
369.541	104.56
369.767	98.56
369.993	89.56
370.219	99.56
370.445	85.56
370.672	85.56
370.898	97.56
371.124	80.56
371.35	92.56
371.576	84.56
371.802	96.56
372.028	76.56
372.254	94.56
372.48	96.56
372.706	89.56
372.932	84.56
373.158	94.56
373.384	94.56
373.61	91.56
373.835	81.56
374.061	90.56
374.287	95.56
374.513	82.56
374.739	84.56
374.965	81.56
375.191	85.56
375.416	103.56
375.642	93.56
375.868	81.56
376.094	89.56
376.319	89.56
376.545	83.56
376.771	102.56
376.997	91.56
377.222	92.56
377.448	91.56
377.674	82.56
377.899	98.56
378.125	96.56
378.35	107.56
378.576	94.56
378.802	106.56
379.027	83.56
379.253	102.56
379.478	91.56
379.704	96.56
379.929	97.56
380.155	102.56
380.38	81.56
380.606	108.56
380.831	92.56
381.057	104.56
381.282	80.56
381.507	90.56
381.733	97.56
381.958	90.56
382.184	102.56
382.409	96.56
382.634	112.56
382.86	102.56
383.085	98.56
383.31	95.56
383.535	107.56
383.761	106.56
383.986	88.56
384.211	107.56
384.436	92.56
384.662	94.56
384.887	99.56
385.112	91.56
385.337	96.56
385.562	105.56
385.787	100.56
386.013	124.56
386.238	116.56
386.463	110.56
386.688	110.56
386.913	86.56
387.138	105.56
387.363	99.56
387.588	100.56
387.813	90.56
388.038	99.56
388.263	98.56
388.488	109.56
388.713	96.56
388.938	91.56
389.163	79.56
389.387	99.56
389.612	89.56
389.837	95.56
390.062	96.56
390.287	89.56
390.512	83.56
390.736	89.56
390.961	82.56
391.186	95.56
391.411	90.56
391.636	83.56
391.86	92.56
392.085	80.56
392.31	94.56
392.534	102.56
392.759	99.56
392.984	78.56
393.208	87.56
393.433	93.56
393.658	102.56
393.882	85.56
394.107	78.56
394.331	84.56
394.556	86.56
394.78	89.56
395.005	84.56
395.229	84.56
395.454	92.56
395.678	99.56
395.903	101.56
396.127	100.56
396.352	88.56
396.576	85.56
396.801	112.56
397.025	104.56
397.249	97.56
397.474	86.56
397.698	84.56
397.922	95.56
398.147	85.56
398.371	94.56
398.595	98.56
398.82	95.56
399.044	92.56
399.268	84.56
399.492	89.56
399.717	97.56
399.941	83.56
400.165	88.56
400.389	81.56
400.613	82.56
400.837	86.56
401.062	81.56
401.286	88.56
401.51	88.56
401.734	90.56
401.958	99.56
402.182	127.56
402.406	169.56
402.63	112.56
402.854	96.56
403.078	104.56
403.302	92.56
403.526	94.56
403.75	80.56
403.974	88.56
404.198	81.56
404.422	88.56
404.645	77.56
404.869	89.56
405.093	85.56
405.317	101.56
405.541	88.56
405.765	93.56
405.988	109.56
406.212	178.56
406.436	245.56
406.66	143.56
406.883	111.56
407.107	103.56
407.331	79.56
407.555	102.56
407.778	94.56
408.002	94.56
408.226	92.56
408.449	101.56
408.673	91.56
408.896	88.56
409.12	94.56
409.344	86.56
409.567	93.56
409.791	80.56
410.014	95.56
410.238	89.56
410.461	92.56
410.685	87.56
410.908	105.56
411.132	99.56
411.355	90.56
411.578	100.56
411.802	94.56
412.025	86.56
412.249	107.56
412.472	97.56
412.695	100.56
412.919	78.56
413.142	95.56
413.365	92.56
413.589	89.56
413.812	104.56
414.035	91.56
414.258	79.56
414.482	80.56
414.705	81.56
414.928	90.56
415.151	94.56
415.374	107.56
415.597	89.56
415.821	84.56
416.044	88.56
416.267	79.56
416.49	88.56
416.713	86.56
416.936	79.56
417.159	82.56
417.382	91.56
417.605	97.56
417.828	99.56
418.051	83.56
418.274	100.56
418.497	91.56
418.72	85.56
418.943	88.56
419.166	77.56
419.389	99.56
419.611	81.56
419.834	93.56
420.057	94.56
420.28	79.56
420.503	80.56
420.726	78.56
420.948	88.56
421.171	88.56
421.394	90.56
421.617	93.56
421.839	86.56
422.062	96.56
422.285	89.56
422.507	84.56
422.73	100.56
422.953	85.56
423.175	108.56
423.398	96.56
423.621	82.56
423.843	100.56
424.066	91.56
424.288	86.56
424.511	93.56
424.733	100.56
424.956	109.56
425.178	95.56
425.401	99.56
425.623	104.56
425.846	94.56
426.068	102.56
426.291	100.56
426.513	106.56
426.735	109.56
426.958	105.56
427.18	101.56
427.402	115.56
427.625	156.56
427.847	126.56
428.069	110.56
428.292	92.56
428.514	97.56
428.736	88.56
428.958	89.56
429.181	85.56
429.403	94.56
429.625	68.56
429.847	92.56
430.069	95.56
430.292	92.56
430.514	84.56
430.736	98.56
430.958	87.56
431.18	93.56
431.402	93.56
431.624	90.56
431.846	93.56
432.068	81.56
432.29	80.56
432.512	85.56
432.734	93.56
432.956	94.56
433.178	99.56
433.4	86.56
433.622	92.56
433.844	94.56
434.066	90.56
434.287	86.56
434.509	84.56
434.731	74.56
434.953	87.56
435.175	92.56
435.397	101.56
435.618	93.56
435.84	100.56
436.062	106.56
436.284	102.56
436.505	100.56
436.727	95.56
436.949	99.56
437.17	89.56
437.392	86.56
437.614	93.56
437.835	106.56
438.057	115.56
438.278	121.56
438.5	89.56
438.721	122.56
438.943	86.56
439.165	96.56
439.386	100.56
439.608	89.56
439.829	97.56
440.05	116.56
440.272	136.56
440.493	91.56
440.715	80.56
440.936	96.56
441.158	87.56
441.379	90.56
441.6	93.56
441.822	94.56
442.043	93.56
442.264	105.56
442.486	108.56
442.707	100.56
442.928	111.56
443.149	121.56
443.371	126.56
443.592	97.56
443.813	101.56
444.034	115.56
444.255	81.56
444.476	84.56
444.698	82.56
444.919	88.56
445.14	138.56
445.361	122.56
445.582	111.56
445.803	120.56
446.024	110.56
446.245	130.56
446.466	101.56
446.687	93.56
446.908	104.56
447.129	91.56
447.35	96.56
447.571	86.56
447.792	92.56
448.013	91.56
448.234	100.56
448.455	110.56
448.675	115.56
448.896	102.56
449.117	93.56
449.338	111.56
449.559	126.56
449.779	120.56
450	96.56
450.221	96.56
450.442	98.56
450.662	90.56
450.883	97.56
451.104	104.56
451.324	82.56
451.545	82.56
451.766	79.56
451.986	71.56
452.207	82.56
452.428	99.56
452.648	91.56
452.869	102.56
453.089	104.56
453.31	110.56
453.53	83.56
453.751	101.56
453.971	101.56
454.192	103.56
454.412	100.56
454.633	100.56
454.853	89.56
455.073	92.56
455.294	86.56
455.514	94.56
455.734	88.56
455.955	88.56
456.175	92.56
456.395	100.56
456.616	99.56
456.836	83.56
457.056	81.56
457.276	100.56
457.497	80.56
457.717	88.56
457.937	79.56
458.157	105.56
458.377	98.56
458.598	118.56
458.818	124.56
459.038	155.56
459.258	108.56
459.478	83.56
459.698	83.56
459.918	77.56
460.138	78.56
460.358	73.56
460.578	79.56
460.798	93.56
461.018	90.56
461.238	114.56
461.458	81.56
461.678	95.56
461.898	92.56
462.118	88.56
462.338	93.56
462.558	84.56
462.777	90.56
462.997	90.56
463.217	94.56
463.437	88.56
463.657	86.56
463.876	95.56
464.096	92.56
464.316	94.56
464.536	95.56
464.755	93.56
464.975	97.56
465.195	155.56
465.414	156.56
465.634	103.56
465.854	103.56
466.073	85.56
466.293	95.56
466.512	97.56
466.732	83.56
466.951	79.56
467.171	91.56
467.391	100.56
467.61	91.56
467.829	110.56
468.049	146.56
468.268	156.56
468.488	92.56
468.707	106.56
468.927	90.56
469.146	97.56
469.365	88.56
469.585	93.56
469.804	99.56
470.023	95.56
470.243	85.56
470.462	101.56
470.681	110.56
470.901	109.56
471.12	83.56
471.339	90.56
471.558	88.56
471.777	93.56
471.997	112.56
472.216	216.56
472.435	344.56
472.654	145.56
472.873	86.56
473.092	91.56
473.311	90.56
473.53	97.56
473.749	84.56
473.968	98.56
474.187	99.56
474.406	108.56
474.625	86.56
474.844	75.56
475.063	83.56
475.282	98.56
475.501	86.56
475.72	96.56
475.939	93.56
476.158	82.56
476.377	86.56
476.596	81.56
476.814	96.56
477.033	90.56
477.252	84.56
477.471	89.56
477.69	92.56
477.908	87.56
478.127	91.56
478.346	98.56
478.564	91.56
478.783	101.56
479.002	85.56
479.22	99.56
479.439	100.56
479.658	109.56
479.876	85.56
480.095	99.56
480.313	106.56
480.532	106.56
480.751	123.56
480.969	237.56
481.188	619.56
481.406	365.56
481.624	115.56
481.843	80.56
482.061	85.56
482.28	100.56
482.498	106.56
482.717	78.56
482.935	87.56
483.153	89.56
483.372	88.56
483.59	86.56
483.808	90.56
484.027	102.56
484.245	94.56
484.463	102.56
484.681	108.56
484.9	101.56
485.118	96.56
485.336	82.56
485.554	85.56
485.772	97.56
485.99	81.56
486.209	110.56
486.427	92.56
486.645	115.56
486.863	118.56
487.081	101.56
487.299	91.56
487.517	97.56
487.735	96.56
487.953	78.56
488.171	100.56
488.389	104.56
488.607	101.56
488.825	89.56
489.043	88.56
489.261	95.56
489.479	87.56
489.696	83.56
489.914	91.56
490.132	99.56
490.35	87.56
490.568	94.56
490.786	82.56
491.003	91.56
491.221	84.56
491.439	88.56
491.657	98.56
491.874	98.56
492.092	98.56
492.31	89.56
492.527	82.56
492.745	97.56
492.963	104.56
493.18	92.56
493.398	95.56
493.615	90.56
493.833	88.56
494.05	80.56
494.268	83.56
494.485	94.56
494.703	92.56
494.92	86.56
495.138	92.56
495.355	77.56
495.573	96.56
495.79	102.56
496.008	89.56
496.225	101.56
496.442	99.56
496.66	90.56
496.877	92.56
497.094	100.56
497.312	107.56
497.529	94.56
497.746	101.56
497.963	94.56
498.181	78.56
498.398	99.56
498.615	119.56
498.832	86.56
499.049	102.56
499.267	91.56
499.484	92.56
499.701	81.56
499.918	99.56
500.135	93.56
500.352	96.56
500.569	77.56
500.786	88.56
501.003	91.56
501.22	95.56
501.437	97.56
501.654	100.56
501.871	109.56
502.088	84.56
502.305	97.56
502.522	96.56
502.739	94.56
502.956	93.56
503.172	99.56
503.389	101.56
503.606	109.56
503.823	98.56
504.04	86.56
504.256	89.56
504.473	92.56
504.69	92.56
504.907	105.56
505.123	94.56
505.34	90.56
505.557	94.56
505.773	89.56
505.99	86.56
506.207	92.56
506.423	94.56
506.64	98.56
506.856	88.56
507.073	93.56
507.289	95.56
507.506	96.56
507.722	116.56
507.939	114.56
508.155	100.56
508.372	99.56
508.588	102.56
508.805	91.56
509.021	114.56
509.238	97.56
509.454	106.56
509.67	97.56
509.887	111.56
510.103	139.56
510.319	227.56
510.536	783.56
510.752	2685.56
510.968	727.56
511.184	169.56
511.401	115.56
511.617	110.56
511.833	101.56
512.049	85.56
512.265	84.56
512.481	102.56
512.698	98.56
512.914	114.56
513.13	92.56
513.346	98.56
513.562	74.56
513.778	94.56
513.994	93.56
514.21	107.56
514.426	121.56
514.642	134.56
514.858	131.56
515.074	163.56
