Data from Circ_1996_H10_HRD10591_00053.txt Node
Date: Wed Jan 03 11:33:16 EST 2024
User: Yrep
Spectrometer: HR+D1059
Trigger mode: 1
Integration Time (sec): 1.000000E-1
Scans to average: 1
Electric dark correction enabled: true
Nonlinearity correction enabled: false
Boxcar width: 0
XAxis mode: Wavelengths
Number of Pixels in Spectrum: 2048
>>>>>Begin Spectral Data<<<<<
223.165	-24.38
223.4	-24.38
223.635	-24.38
223.869	-25.38
224.104	-16.38
224.338	-12.38
224.573	-9.38
224.808	-11.38
225.042	-4.38
225.277	-0.38
225.511	-0.38
225.746	16.62
225.98	16.62
226.215	13.62
226.449	1.62
226.683	16.62
226.918	16.62
227.152	22.62
227.387	39.62
227.621	39.62
227.856	45.62
228.09	75.62
228.324	50.62
228.559	63.62
228.793	49.62
229.027	58.62
229.262	65.62
229.496	81.62
229.73	81.62
229.964	92.62
230.199	92.62
230.433	77.62
230.667	87.62
230.901	91.62
231.136	85.62
231.37	85.62
231.604	90.62
231.838	94.62
232.072	83.62
232.306	85.62
232.541	74.62
232.775	93.62
233.009	73.62
233.243	100.62
233.477	79.62
233.711	90.62
233.945	88.62
234.179	97.62
234.413	88.62
234.647	81.62
234.881	84.62
235.115	95.62
235.349	83.62
235.583	79.62
235.817	77.62
236.051	90.62
236.285	87.62
236.519	91.62
236.753	70.62
236.987	89.62
237.221	69.62
237.455	82.62
237.689	90.62
237.922	82.62
238.156	82.62
238.39	80.62
238.624	70.62
238.858	75.62
239.091	77.62
239.325	65.62
239.559	79.62
239.793	101.62
240.027	76.62
240.26	58.62
240.494	77.62
240.728	69.62
240.961	55.62
241.195	82.62
241.429	84.62
241.662	81.62
241.896	89.62
242.13	77.62
242.363	86.62
242.597	79.62
242.83	86.62
243.064	73.62
243.298	73.62
243.531	78.62
243.765	88.62
243.998	91.62
244.232	71.62
244.465	91.62
244.699	79.62
244.932	76.62
245.166	83.62
245.399	90.62
245.633	78.62
245.866	85.62
246.099	75.62
246.333	70.62
246.566	76.62
246.8	79.62
247.033	82.62
247.266	75.62
247.5	81.62
247.733	91.62
247.966	87.62
248.2	87.62
248.433	90.62
248.666	89.62
248.899	84.62
249.133	85.62
249.366	98.62
249.599	89.62
249.832	86.62
250.066	89.62
250.299	91.62
250.532	80.62
250.765	87.62
250.998	84.62
251.231	83.62
251.465	77.62
251.698	80.62
251.931	96.62
252.164	88.62
252.397	84.62
252.63	83.62
252.863	62.62
253.096	67.62
253.329	91.62
253.562	78.62
253.795	80.62
254.028	87.62
254.261	71.62
254.494	77.62
254.727	79.62
254.96	82.62
255.193	102.62
255.426	85.62
255.659	76.62
255.892	84.62
256.124	93.62
256.357	84.62
256.59	84.62
256.823	81.62
257.056	75.62
257.289	86.62
257.521	90.62
257.754	83.62
257.987	84.62
258.22	80.62
258.452	87.62
258.685	95.62
258.918	87.62
259.151	96.62
259.383	84.62
259.616	83.62
259.849	84.62
260.081	71.62
260.314	78.62
260.547	90.62
260.779	96.62
261.012	94.62
261.244	82.62
261.477	96.62
261.71	107.62
261.942	122.62
262.175	122.62
262.407	100.62
262.64	99.62
262.872	86.62
263.105	81.62
263.337	66.62
263.57	89.62
263.802	87.62
264.035	89.62
264.267	89.62
264.499	92.62
264.732	65.62
264.964	84.62
265.197	86.62
265.429	66.62
265.661	75.62
265.894	71.62
266.126	80.62
266.358	80.62
266.591	80.62
266.823	84.62
267.055	82.62
267.287	91.62
267.52	82.62
267.752	90.62
267.984	101.62
268.216	75.62
268.448	81.62
268.681	91.62
268.913	77.62
269.145	83.62
269.377	90.62
269.609	77.62
269.841	87.62
270.073	86.62
270.306	83.62
270.538	93.62
270.77	93.62
271.002	90.62
271.234	83.62
271.466	86.62
271.698	86.62
271.93	68.62
272.162	82.62
272.394	79.62
272.626	103.62
272.858	100.62
273.09	79.62
273.322	90.62
273.553	86.62
273.785	72.62
274.017	85.62
274.249	93.62
274.481	91.62
274.713	90.62
274.945	95.62
275.176	92.62
275.408	81.62
275.64	85.62
275.872	85.62
276.104	96.62
276.335	83.62
276.567	111.62
276.799	96.62
277.031	102.62
277.262	90.62
277.494	91.62
277.726	94.62
277.957	84.62
278.189	99.62
278.421	102.62
278.652	82.62
278.884	87.62
279.115	87.62
279.347	87.62
279.579	83.62
279.81	85.62
280.042	76.62
280.273	84.62
280.505	75.62
280.736	89.62
280.968	89.62
281.199	81.62
281.431	90.62
281.662	78.62
281.894	94.62
282.125	102.62
282.356	137.62
282.588	141.62
282.819	115.62
283.051	92.62
283.282	85.62
283.513	89.62
283.745	76.62
283.976	100.62
284.207	103.62
284.439	93.62
284.67	98.62
284.901	86.62
285.132	91.62
285.364	89.62
285.595	93.62
285.826	106.62
286.057	86.62
286.288	85.62
286.52	87.62
286.751	77.62
286.982	93.62
287.213	93.62
287.444	86.62
287.675	97.62
287.906	103.62
288.138	93.62
288.369	111.62
288.6	97.62
288.831	83.62
289.062	92.62
289.293	85.62
289.524	98.62
289.755	103.62
289.986	72.62
290.217	92.62
290.448	85.62
290.679	93.62
290.91	82.62
291.141	102.62
291.371	92.62
291.602	94.62
291.833	86.62
292.064	92.62
292.295	89.62
292.526	81.62
292.757	92.62
292.987	86.62
293.218	98.62
293.449	89.62
293.68	95.62
293.91	93.62
294.141	100.62
294.372	87.62
294.603	94.62
294.833	81.62
295.064	78.62
295.295	94.62
295.525	95.62
295.756	89.62
295.987	121.62
296.217	126.62
296.448	126.62
296.679	106.62
296.909	97.62
297.14	91.62
297.37	90.62
297.601	95.62
297.831	84.62
298.062	105.62
298.292	83.62
298.523	90.62
298.753	109.62
298.984	96.62
299.214	92.62
299.445	99.62
299.675	101.62
299.905	92.62
300.136	86.62
300.366	86.62
300.597	105.62
300.827	95.62
301.057	105.62
301.288	100.62
301.518	109.62
301.748	107.62
301.979	110.62
302.209	93.62
302.439	94.62
302.669	89.62
302.9	99.62
303.13	84.62
303.36	94.62
303.59	103.62
303.82	118.62
304.051	108.62
304.281	84.62
304.511	97.62
304.741	94.62
304.971	97.62
305.201	96.62
305.431	102.62
305.661	76.62
305.891	83.62
306.121	91.62
306.352	103.62
306.582	107.62
306.812	94.62
307.042	86.62
307.272	90.62
307.502	94.62
307.731	106.62
307.961	86.62
308.191	105.62
308.421	97.62
308.651	101.62
308.881	87.62
309.111	85.62
309.341	114.62
309.571	90.62
309.8	75.62
310.03	102.62
310.26	106.62
310.49	93.62
310.72	97.62
310.949	115.62
311.179	103.62
311.409	106.62
311.639	102.62
311.868	95.62
312.098	105.62
312.328	109.62
312.557	112.62
312.787	104.62
313.017	112.62
313.246	109.62
313.476	95.62
313.706	90.62
313.935	85.62
314.165	97.62
314.394	103.62
314.624	94.62
314.853	94.62
315.083	103.62
315.312	92.62
315.542	98.62
315.771	92.62
316.001	94.62
316.23	86.62
316.46	95.62
316.689	92.62
316.919	102.62
317.148	97.62
317.377	97.62
317.607	93.62
317.836	95.62
318.065	111.62
318.295	96.62
318.524	91.62
318.753	85.62
318.983	103.62
319.212	104.62
319.441	103.62
319.67	103.62
319.9	91.62
320.129	79.62
320.358	109.62
320.587	100.62
320.816	98.62
321.046	91.62
321.275	99.62
321.504	102.62
321.733	93.62
321.962	101.62
322.191	91.62
322.42	88.62
322.649	118.62
322.878	111.62
323.108	118.62
323.337	121.62
323.566	113.62
323.795	112.62
324.024	183.62
324.253	313.62
324.482	642.62
324.71	1243.62
324.939	1638.62
325.168	644.62
325.397	200.62
325.626	131.62
325.855	113.62
326.084	123.62
326.313	130.62
326.542	149.62
326.77	185.62
326.999	333.62
327.228	670.62
327.457	1189.62
327.686	961.62
327.914	295.62
328.143	190.62
328.372	163.62
328.6	133.62
328.829	124.62
329.058	139.62
329.287	121.62
329.515	108.62
329.744	110.62
329.972	129.62
330.201	153.62
330.43	198.62
330.658	150.62
330.887	143.62
331.115	150.62
331.344	103.62
331.572	104.62
331.801	105.62
332.03	96.62
332.258	94.62
332.486	96.62
332.715	97.62
332.943	107.62
333.172	113.62
333.4	97.62
333.629	97.62
333.857	124.62
334.085	115.62
334.314	169.62
334.542	218.62
334.771	201.62
334.999	130.62
335.227	100.62
335.455	100.62
335.684	111.62
335.912	88.62
336.14	105.62
336.369	108.62
336.597	107.62
336.825	107.62
337.053	85.62
337.281	90.62
337.51	87.62
337.738	86.62
337.966	105.62
338.194	97.62
338.422	93.62
338.65	100.62
338.878	100.62
339.106	96.62
339.334	92.62
339.562	83.62
339.79	93.62
340.018	109.62
340.246	106.62
340.474	103.62
340.702	100.62
340.93	93.62
341.158	102.62
341.386	102.62
341.614	104.62
341.842	98.62
342.07	101.62
342.298	90.62
342.526	87.62
342.754	95.62
342.981	90.62
343.209	89.62
343.437	108.62
343.665	95.62
343.893	75.62
344.12	79.62
344.348	86.62
344.576	84.62
344.804	98.62
345.031	106.62
345.259	94.62
345.487	99.62
345.714	97.62
345.942	113.62
346.17	103.62
346.397	100.62
346.625	92.62
346.853	98.62
347.08	99.62
347.308	101.62
347.535	115.62
347.763	111.62
347.99	103.62
348.218	107.62
348.445	97.62
348.673	104.62
348.9	100.62
349.128	94.62
349.355	94.62
349.583	92.62
349.81	99.62
350.037	91.62
350.265	87.62
350.492	101.62
350.72	105.62
350.947	103.62
351.174	121.62
351.402	103.62
351.629	103.62
351.856	123.62
352.083	111.62
352.311	104.62
352.538	104.62
352.765	103.62
352.992	117.62
353.22	104.62
353.447	99.62
353.674	101.62
353.901	103.62
354.128	98.62
354.355	103.62
354.583	98.62
354.81	98.62
355.037	95.62
355.264	103.62
355.491	87.62
355.718	86.62
355.945	96.62
356.172	103.62
356.399	98.62
356.626	104.62
356.853	98.62
357.08	95.62
357.307	96.62
357.534	106.62
357.761	92.62
357.988	95.62
358.215	100.62
358.441	89.62
358.668	100.62
358.895	96.62
359.122	86.62
359.349	102.62
359.576	90.62
359.802	100.62
360.029	109.62
360.256	112.62
360.483	99.62
360.709	99.62
360.936	101.62
361.163	110.62
361.39	89.62
361.616	91.62
361.843	98.62
362.07	98.62
362.296	112.62
362.523	91.62
362.749	91.62
362.976	107.62
363.203	97.62
363.429	89.62
363.656	85.62
363.882	87.62
364.109	100.62
364.335	83.62
364.562	118.62
364.788	88.62
365.015	100.62
365.241	98.62
365.468	101.62
365.694	111.62
365.92	116.62
366.147	88.62
366.373	94.62
366.599	91.62
366.826	85.62
367.052	86.62
367.278	94.62
367.505	97.62
367.731	98.62
367.957	83.62
368.184	101.62
368.41	106.62
368.636	120.62
368.862	110.62
369.089	114.62
369.315	87.62
369.541	87.62
369.767	103.62
369.993	83.62
370.219	94.62
370.445	92.62
370.672	93.62
370.898	78.62
371.124	93.62
371.35	86.62
371.576	88.62
371.802	76.62
372.028	99.62
372.254	84.62
372.48	71.62
372.706	87.62
372.932	91.62
373.158	93.62
373.384	105.62
373.61	95.62
373.835	80.62
374.061	89.62
374.287	98.62
374.513	106.62
374.739	81.62
374.965	95.62
375.191	85.62
375.416	94.62
375.642	90.62
375.868	105.62
376.094	104.62
376.319	91.62
376.545	83.62
376.771	85.62
376.997	87.62
377.222	95.62
377.448	101.62
377.674	81.62
377.899	98.62
378.125	93.62
378.35	93.62
378.576	110.62
378.802	94.62
379.027	92.62
379.253	79.62
379.478	90.62
379.704	97.62
379.929	95.62
380.155	101.62
380.38	92.62
380.606	98.62
380.831	95.62
381.057	102.62
381.282	97.62
381.507	94.62
381.733	100.62
381.958	93.62
382.184	106.62
382.409	98.62
382.634	104.62
382.86	109.62
383.085	84.62
383.31	95.62
383.535	106.62
383.761	108.62
383.986	104.62
384.211	100.62
384.436	108.62
384.662	107.62
384.887	102.62
385.112	106.62
385.337	119.62
385.562	114.62
385.787	118.62
386.013	103.62
386.238	110.62
386.463	113.62
386.688	112.62
386.913	103.62
387.138	110.62
387.363	94.62
387.588	100.62
387.813	112.62
388.038	109.62
388.263	114.62
388.488	101.62
388.713	90.62
388.938	98.62
389.163	92.62
389.387	96.62
389.612	114.62
389.837	92.62
390.062	100.62
390.287	85.62
390.512	81.62
390.736	92.62
390.961	93.62
391.186	74.62
391.411	91.62
391.636	93.62
391.86	96.62
392.085	94.62
392.31	101.62
392.534	97.62
392.759	86.62
392.984	100.62
393.208	101.62
393.433	109.62
393.658	97.62
393.882	83.62
394.107	78.62
394.331	91.62
394.556	84.62
394.78	93.62
395.005	102.62
395.229	94.62
395.454	92.62
395.678	91.62
395.903	89.62
396.127	86.62
396.352	89.62
396.576	94.62
396.801	94.62
397.025	105.62
397.249	89.62
397.474	85.62
397.698	91.62
397.922	97.62
398.147	106.62
398.371	91.62
398.595	81.62
398.82	89.62
399.044	95.62
399.268	77.62
399.492	94.62
399.717	91.62
399.941	91.62
400.165	89.62
400.389	98.62
400.613	97.62
400.837	91.62
401.062	76.62
401.286	97.62
401.51	79.62
401.734	89.62
401.958	101.62
402.182	126.62
402.406	162.62
402.63	126.62
402.854	108.62
403.078	96.62
403.302	93.62
403.526	101.62
403.75	90.62
403.974	92.62
404.198	98.62
404.422	86.62
404.645	88.62
404.869	84.62
405.093	89.62
405.317	81.62
405.541	103.62
405.765	105.62
405.988	126.62
406.212	168.62
406.436	219.62
406.66	139.62
406.883	100.62
407.107	85.62
407.331	95.62
407.555	96.62
407.778	105.62
408.002	92.62
408.226	94.62
408.449	98.62
408.673	94.62
408.896	98.62
409.12	76.62
409.344	89.62
409.567	84.62
409.791	94.62
410.014	103.62
410.238	98.62
410.461	98.62
410.685	110.62
410.908	103.62
411.132	112.62
411.355	97.62
411.578	97.62
411.802	103.62
412.025	95.62
412.249	95.62
412.472	96.62
412.695	104.62
412.919	82.62
413.142	108.62
413.365	99.62
413.589	102.62
413.812	104.62
414.035	96.62
414.258	93.62
414.482	79.62
414.705	82.62
414.928	91.62
415.151	87.62
415.374	104.62
415.597	99.62
415.821	87.62
416.044	94.62
416.267	91.62
416.49	91.62
416.713	89.62
416.936	90.62
417.159	92.62
417.382	70.62
417.605	93.62
417.828	83.62
418.051	87.62
418.274	82.62
418.497	89.62
418.72	86.62
418.943	97.62
419.166	77.62
419.389	98.62
419.611	92.62
419.834	95.62
420.057	90.62
420.28	91.62
420.503	97.62
420.726	90.62
420.948	91.62
421.171	86.62
421.394	88.62
421.617	95.62
421.839	98.62
422.062	98.62
422.285	86.62
422.507	114.62
422.73	101.62
422.953	105.62
423.175	83.62
423.398	85.62
423.621	101.62
423.843	83.62
424.066	77.62
424.288	87.62
424.511	100.62
424.733	90.62
424.956	105.62
425.178	106.62
425.401	106.62
425.623	94.62
425.846	95.62
426.068	103.62
426.291	108.62
426.513	104.62
426.735	86.62
426.958	108.62
427.18	96.62
427.402	129.62
427.625	156.62
427.847	141.62
428.069	114.62
428.292	89.62
428.514	97.62
428.736	95.62
428.958	86.62
429.181	84.62
429.403	87.62
429.625	81.62
429.847	97.62
430.069	97.62
430.292	87.62
430.514	96.62
430.736	87.62
430.958	85.62
431.18	103.62
431.402	97.62
431.624	97.62
431.846	92.62
432.068	87.62
432.29	86.62
432.512	101.62
432.734	92.62
432.956	96.62
433.178	90.62
433.4	113.62
433.622	91.62
433.844	97.62
434.066	98.62
434.287	96.62
434.509	90.62
434.731	96.62
434.953	96.62
435.175	86.62
435.397	93.62
435.618	92.62
435.84	94.62
436.062	108.62
436.284	99.62
436.505	107.62
436.727	96.62
436.949	94.62
437.17	96.62
437.392	88.62
437.614	93.62
437.835	106.62
438.057	112.62
438.278	108.62
438.5	90.62
438.721	102.62
438.943	88.62
439.165	91.62
439.386	99.62
439.608	94.62
439.829	95.62
440.05	111.62
440.272	130.62
440.493	92.62
440.715	97.62
440.936	95.62
441.158	90.62
441.379	97.62
441.6	81.62
441.822	87.62
442.043	94.62
442.264	91.62
442.486	102.62
442.707	106.62
442.928	123.62
443.149	134.62
443.371	142.62
443.592	106.62
443.813	97.62
444.034	121.62
444.255	91.62
444.476	94.62
444.698	83.62
444.919	92.62
445.14	123.62
445.361	111.62
445.582	103.62
445.803	114.62
446.024	130.62
446.245	116.62
446.466	109.62
446.687	91.62
446.908	86.62
447.129	101.62
447.35	89.62
447.571	90.62
447.792	98.62
448.013	93.62
448.234	94.62
448.455	98.62
448.675	114.62
448.896	113.62
449.117	104.62
449.338	101.62
449.559	130.62
449.779	121.62
450	97.62
450.221	85.62
450.442	89.62
450.662	101.62
450.883	102.62
451.104	110.62
451.324	96.62
451.545	102.62
451.766	75.62
451.986	70.62
452.207	89.62
452.428	84.62
452.648	101.62
452.869	126.62
453.089	120.62
453.31	109.62
453.53	97.62
453.751	102.62
453.971	94.62
454.192	96.62
454.412	101.62
454.633	91.62
454.853	97.62
455.073	88.62
455.294	86.62
455.514	115.62
455.734	91.62
455.955	89.62
456.175	96.62
456.395	90.62
456.616	90.62
456.836	79.62
457.056	97.62
457.276	97.62
457.497	95.62
457.717	85.62
457.937	74.62
458.157	91.62
458.377	96.62
458.598	118.62
458.818	153.62
459.038	151.62
459.258	127.62
459.478	88.62
459.698	96.62
459.918	83.62
460.138	98.62
460.358	91.62
460.578	86.62
460.798	94.62
461.018	76.62
461.238	79.62
461.458	99.62
461.678	95.62
461.898	87.62
462.118	83.62
462.338	84.62
462.558	96.62
462.777	87.62
462.997	85.62
463.217	78.62
463.437	105.62
463.657	77.62
463.876	89.62
464.096	90.62
464.316	88.62
464.536	87.62
464.755	94.62
464.975	107.62
465.195	167.62
465.414	153.62
465.634	107.62
465.854	101.62
466.073	86.62
466.293	83.62
466.512	78.62
466.732	78.62
466.951	94.62
467.171	89.62
467.391	99.62
467.61	105.62
467.829	112.62
468.049	119.62
468.268	127.62
468.488	84.62
468.707	97.62
468.927	100.62
469.146	101.62
469.365	90.62
469.585	80.62
469.804	94.62
470.023	101.62
470.243	99.62
470.462	102.62
470.681	103.62
470.901	93.62
471.12	95.62
471.339	95.62
471.558	80.62
471.777	84.62
471.997	120.62
472.216	175.62
472.435	283.62
472.654	121.62
472.873	101.62
473.092	82.62
473.311	105.62
473.53	83.62
473.749	80.62
473.968	102.62
474.187	101.62
474.406	97.62
474.625	92.62
474.844	109.62
475.063	90.62
475.282	89.62
475.501	89.62
475.72	90.62
475.939	96.62
476.158	95.62
476.377	76.62
476.596	90.62
476.814	114.62
477.033	100.62
477.252	86.62
477.471	89.62
477.69	91.62
477.908	85.62
478.127	100.62
478.346	80.62
478.564	89.62
478.783	85.62
479.002	98.62
479.22	96.62
479.439	101.62
479.658	98.62
479.876	95.62
480.095	96.62
480.313	91.62
480.532	89.62
480.751	110.62
480.969	174.62
481.188	455.62
481.406	292.62
481.624	112.62
481.843	91.62
482.061	79.62
482.28	95.62
482.498	94.62
482.717	95.62
482.935	97.62
483.153	79.62
483.372	96.62
483.59	90.62
483.808	83.62
484.027	86.62
484.245	100.62
484.463	101.62
484.681	97.62
484.9	102.62
485.118	118.62
485.336	90.62
485.554	108.62
485.772	95.62
485.99	101.62
486.209	114.62
486.427	103.62
486.645	111.62
486.863	119.62
487.081	115.62
487.299	92.62
487.517	108.62
487.735	93.62
487.953	86.62
488.171	94.62
488.389	98.62
488.607	104.62
488.825	92.62
489.043	96.62
489.261	91.62
489.479	115.62
489.696	94.62
489.914	83.62
490.132	83.62
490.35	103.62
490.568	102.62
490.786	90.62
491.003	78.62
491.221	96.62
491.439	89.62
491.657	109.62
491.874	102.62
492.092	94.62
492.31	83.62
492.527	97.62
492.745	85.62
492.963	83.62
493.18	97.62
493.398	92.62
493.615	95.62
493.833	82.62
494.05	91.62
494.268	89.62
494.485	100.62
494.703	82.62
494.92	103.62
495.138	92.62
495.355	97.62
495.573	98.62
495.79	94.62
496.008	95.62
496.225	101.62
496.442	102.62
496.66	97.62
496.877	97.62
497.094	89.62
497.312	101.62
497.529	88.62
497.746	87.62
497.963	89.62
498.181	95.62
498.398	90.62
498.615	101.62
498.832	105.62
499.049	97.62
499.267	106.62
499.484	82.62
499.701	82.62
499.918	91.62
500.135	109.62
500.352	85.62
500.569	95.62
500.786	101.62
501.003	96.62
501.22	86.62
501.437	95.62
501.654	95.62
501.871	111.62
502.088	95.62
502.305	93.62
502.522	89.62
502.739	93.62
502.956	99.62
503.172	87.62
503.389	99.62
503.606	95.62
503.823	97.62
504.04	94.62
504.256	90.62
504.473	96.62
504.69	99.62
504.907	102.62
505.123	88.62
505.34	103.62
505.557	109.62
505.773	104.62
505.99	91.62
506.207	89.62
506.423	80.62
506.64	95.62
506.856	111.62
507.073	69.62
507.289	96.62
507.506	81.62
507.722	116.62
507.939	123.62
508.155	115.62
508.372	102.62
508.588	88.62
508.805	101.62
509.021	106.62
509.238	107.62
509.454	92.62
509.67	99.62
509.887	115.62
510.103	131.62
510.319	216.62
510.536	787.62
510.752	2599.62
510.968	713.62
511.184	173.62
511.401	118.62
511.617	118.62
511.833	106.62
512.049	91.62
512.265	91.62
512.481	97.62
512.698	95.62
512.914	82.62
513.13	89.62
513.346	94.62
513.562	96.62
513.778	107.62
513.994	97.62
514.21	114.62
