Data from Circ_1996_H10_HRD10591_00070.txt Node
Date: Wed Jan 03 11:33:20 EST 2024
User: Yrep
Spectrometer: HR+D1059
Trigger mode: 1
Integration Time (sec): 1.000000E-1
Scans to average: 1
Electric dark correction enabled: true
Nonlinearity correction enabled: false
Boxcar width: 0
XAxis mode: Wavelengths
Number of Pixels in Spectrum: 2048
>>>>>Begin Spectral Data<<<<<
223.165	-21.88
223.4	-21.88
223.635	-21.88
223.869	-16.88
224.104	-16.88
224.338	-1.88
224.573	-18.88
224.808	-15.88
225.042	-0.88
225.277	-4.88
225.511	-9.88
225.746	-6.88
225.98	4.12
226.215	25.12
226.449	4.12
226.683	30.12
226.918	25.12
227.152	26.12
227.387	31.12
227.621	21.12
227.856	29.12
228.09	53.12
228.324	52.12
228.559	57.12
228.793	48.12
229.027	55.12
229.262	53.12
229.496	73.12
229.73	92.12
229.964	85.12
230.199	67.12
230.433	73.12
230.667	66.12
230.901	69.12
231.136	68.12
231.37	82.12
231.604	79.12
231.838	85.12
232.072	79.12
232.306	75.12
232.541	87.12
232.775	82.12
233.009	83.12
233.243	73.12
233.477	61.12
233.711	81.12
233.945	71.12
234.179	78.12
234.413	79.12
234.647	69.12
234.881	87.12
235.115	89.12
235.349	74.12
235.583	91.12
235.817	79.12
236.051	81.12
236.285	75.12
236.519	70.12
236.753	71.12
236.987	77.12
237.221	78.12
237.455	69.12
237.689	68.12
237.922	66.12
238.156	65.12
238.39	71.12
238.624	69.12
238.858	66.12
239.091	71.12
239.325	64.12
239.559	81.12
239.793	67.12
240.027	60.12
240.26	87.12
240.494	57.12
240.728	66.12
240.961	75.12
241.195	86.12
241.429	85.12
241.662	70.12
241.896	63.12
242.13	70.12
242.363	64.12
242.597	69.12
242.83	61.12
243.064	72.12
243.298	83.12
243.531	64.12
243.765	81.12
243.998	71.12
244.232	71.12
244.465	79.12
244.699	88.12
244.932	92.12
245.166	77.12
245.399	75.12
245.633	73.12
245.866	81.12
246.099	74.12
246.333	74.12
246.566	76.12
246.8	79.12
247.033	84.12
247.266	75.12
247.5	78.12
247.733	82.12
247.966	78.12
248.2	60.12
248.433	63.12
248.666	91.12
248.899	74.12
249.133	80.12
249.366	87.12
249.599	83.12
249.832	69.12
250.066	77.12
250.299	86.12
250.532	89.12
250.765	86.12
250.998	88.12
251.231	73.12
251.465	82.12
251.698	85.12
251.931	79.12
252.164	78.12
252.397	75.12
252.63	83.12
252.863	79.12
253.096	73.12
253.329	77.12
253.562	76.12
253.795	72.12
254.028	90.12
254.261	86.12
254.494	81.12
254.727	83.12
254.96	88.12
255.193	74.12
255.426	75.12
255.659	71.12
255.892	79.12
256.124	85.12
256.357	91.12
256.59	81.12
256.823	84.12
257.056	82.12
257.289	75.12
257.521	81.12
257.754	90.12
257.987	87.12
258.22	81.12
258.452	84.12
258.685	80.12
258.918	69.12
259.151	73.12
259.383	82.12
259.616	72.12
259.849	88.12
260.081	76.12
260.314	73.12
260.547	78.12
260.779	95.12
261.012	82.12
261.244	87.12
261.477	84.12
261.71	89.12
261.942	103.12
262.175	104.12
262.407	89.12
262.64	90.12
262.872	83.12
263.105	83.12
263.337	61.12
263.57	93.12
263.802	79.12
264.035	75.12
264.267	85.12
264.499	91.12
264.732	66.12
264.964	80.12
265.197	85.12
265.429	87.12
265.661	82.12
265.894	76.12
266.126	85.12
266.358	73.12
266.591	83.12
266.823	90.12
267.055	91.12
267.287	65.12
267.52	83.12
267.752	89.12
267.984	76.12
268.216	79.12
268.448	87.12
268.681	87.12
268.913	82.12
269.145	83.12
269.377	86.12
269.609	80.12
269.841	93.12
270.073	73.12
270.306	81.12
270.538	86.12
270.77	79.12
271.002	86.12
271.234	60.12
271.466	83.12
271.698	83.12
271.93	80.12
272.162	84.12
272.394	83.12
272.626	83.12
272.858	81.12
273.09	85.12
273.322	93.12
273.553	90.12
273.785	83.12
274.017	85.12
274.249	81.12
274.481	78.12
274.713	97.12
274.945	75.12
275.176	66.12
275.408	95.12
275.64	87.12
275.872	82.12
276.104	94.12
276.335	91.12
276.567	101.12
276.799	89.12
277.031	101.12
277.262	90.12
277.494	83.12
277.726	85.12
277.957	71.12
278.189	90.12
278.421	81.12
278.652	85.12
278.884	78.12
279.115	81.12
279.347	79.12
279.579	80.12
279.81	84.12
280.042	98.12
280.273	91.12
280.505	90.12
280.736	80.12
280.968	81.12
281.199	92.12
281.431	85.12
281.662	82.12
281.894	96.12
282.125	88.12
282.356	112.12
282.588	128.12
282.819	126.12
283.051	84.12
283.282	93.12
283.513	89.12
283.745	87.12
283.976	85.12
284.207	89.12
284.439	73.12
284.67	91.12
284.901	96.12
285.132	87.12
285.364	75.12
285.595	96.12
285.826	79.12
286.057	92.12
286.288	81.12
286.52	82.12
286.751	93.12
286.982	78.12
287.213	80.12
287.444	89.12
287.675	103.12
287.906	91.12
288.138	91.12
288.369	86.12
288.6	70.12
288.831	81.12
289.062	80.12
289.293	91.12
289.524	88.12
289.755	85.12
289.986	93.12
290.217	81.12
290.448	81.12
290.679	70.12
290.91	92.12
291.141	83.12
291.371	89.12
291.602	82.12
291.833	94.12
292.064	80.12
292.295	85.12
292.526	77.12
292.757	81.12
292.987	85.12
293.218	101.12
293.449	88.12
293.68	97.12
293.91	104.12
294.141	81.12
294.372	71.12
294.603	87.12
294.833	87.12
295.064	86.12
295.295	85.12
295.525	82.12
295.756	91.12
295.987	114.12
296.217	117.12
296.448	102.12
296.679	104.12
296.909	92.12
297.14	81.12
297.37	84.12
297.601	87.12
297.831	90.12
298.062	77.12
298.292	98.12
298.523	90.12
298.753	81.12
298.984	92.12
299.214	83.12
299.445	88.12
299.675	85.12
299.905	95.12
300.136	105.12
300.366	90.12
300.597	89.12
300.827	98.12
301.057	87.12
301.288	112.12
301.518	102.12
301.748	108.12
301.979	90.12
302.209	79.12
302.439	103.12
302.669	91.12
302.9	88.12
303.13	92.12
303.36	82.12
303.59	96.12
303.82	106.12
304.051	89.12
304.281	104.12
304.511	81.12
304.741	93.12
304.971	88.12
305.201	104.12
305.431	81.12
305.661	94.12
305.891	99.12
306.121	89.12
306.352	92.12
306.582	94.12
306.812	89.12
307.042	94.12
307.272	91.12
307.502	97.12
307.731	84.12
307.961	86.12
308.191	81.12
308.421	94.12
308.651	89.12
308.881	89.12
309.111	81.12
309.341	95.12
309.571	109.12
309.8	95.12
310.03	90.12
310.26	89.12
310.49	87.12
310.72	102.12
310.949	97.12
311.179	92.12
311.409	91.12
311.639	99.12
311.868	90.12
312.098	93.12
312.328	84.12
312.557	103.12
312.787	108.12
313.017	92.12
313.246	94.12
313.476	89.12
313.706	89.12
313.935	100.12
314.165	93.12
314.394	91.12
314.624	88.12
314.853	105.12
315.083	78.12
315.312	89.12
315.542	92.12
315.771	107.12
316.001	89.12
316.23	91.12
316.46	98.12
316.689	90.12
316.919	74.12
317.148	80.12
317.377	92.12
317.607	92.12
317.836	87.12
318.065	85.12
318.295	101.12
318.524	92.12
318.753	91.12
318.983	102.12
319.212	97.12
319.441	112.12
319.67	104.12
319.9	91.12
320.129	97.12
320.358	93.12
320.587	94.12
320.816	73.12
321.046	92.12
321.275	89.12
321.504	97.12
321.733	91.12
321.962	104.12
322.191	108.12
322.42	99.12
322.649	110.12
322.878	109.12
323.108	116.12
323.337	99.12
323.566	120.12
323.795	129.12
324.024	150.12
324.253	280.12
324.482	559.12
324.71	1097.12
324.939	1453.12
325.168	552.12
325.397	199.12
325.626	145.12
325.855	112.12
326.084	121.12
326.313	114.12
326.542	123.12
326.77	183.12
326.999	309.12
327.228	606.12
327.457	1042.12
327.686	845.12
327.914	269.12
328.143	202.12
328.372	165.12
328.6	109.12
328.829	101.12
329.058	117.12
329.287	106.12
329.515	99.12
329.744	98.12
329.972	112.12
330.201	176.12
330.43	183.12
330.658	144.12
330.887	127.12
331.115	107.12
331.344	105.12
331.572	103.12
331.801	97.12
332.03	79.12
332.258	103.12
332.486	87.12
332.715	87.12
332.943	89.12
333.172	104.12
333.4	90.12
333.629	107.12
333.857	129.12
334.085	145.12
334.314	167.12
334.542	244.12
334.771	201.12
334.999	113.12
335.227	81.12
335.455	98.12
335.684	98.12
335.912	87.12
336.14	88.12
336.369	86.12
336.597	102.12
336.825	101.12
337.053	96.12
337.281	101.12
337.51	86.12
337.738	79.12
337.966	85.12
338.194	86.12
338.422	107.12
338.65	101.12
338.878	92.12
339.106	78.12
339.334	87.12
339.562	79.12
339.79	92.12
340.018	85.12
340.246	89.12
340.474	89.12
340.702	90.12
340.93	80.12
341.158	85.12
341.386	95.12
341.614	90.12
341.842	99.12
342.07	87.12
342.298	91.12
342.526	90.12
342.754	93.12
342.981	82.12
343.209	58.12
343.437	95.12
343.665	85.12
343.893	91.12
344.12	99.12
344.348	85.12
344.576	88.12
344.804	92.12
345.031	75.12
345.259	78.12
345.487	83.12
345.714	88.12
345.942	81.12
346.17	86.12
346.397	85.12
346.625	99.12
346.853	82.12
347.08	88.12
347.308	91.12
347.535	106.12
347.763	88.12
347.99	112.12
348.218	113.12
348.445	106.12
348.673	93.12
348.9	86.12
349.128	95.12
349.355	83.12
349.583	95.12
349.81	92.12
350.037	89.12
350.265	85.12
350.492	100.12
350.72	105.12
350.947	89.12
351.174	98.12
351.402	97.12
351.629	99.12
351.856	91.12
352.083	91.12
352.311	106.12
352.538	98.12
352.765	90.12
352.992	115.12
353.22	115.12
353.447	101.12
353.674	96.12
353.901	92.12
354.128	87.12
354.355	97.12
354.583	91.12
354.81	107.12
355.037	86.12
355.264	94.12
355.491	91.12
355.718	75.12
355.945	108.12
356.172	105.12
356.399	105.12
356.626	87.12
356.853	93.12
357.08	87.12
357.307	92.12
357.534	94.12
357.761	106.12
357.988	108.12
358.215	95.12
358.441	97.12
358.668	93.12
358.895	87.12
359.122	94.12
359.349	82.12
359.576	82.12
359.802	80.12
360.029	99.12
360.256	111.12
360.483	93.12
360.709	85.12
360.936	86.12
361.163	95.12
361.39	102.12
361.616	91.12
361.843	86.12
362.07	74.12
362.296	77.12
362.523	83.12
362.749	101.12
362.976	81.12
363.203	89.12
363.429	87.12
363.656	89.12
363.882	75.12
364.109	87.12
364.335	91.12
364.562	90.12
364.788	112.12
365.015	99.12
365.241	77.12
365.468	107.12
365.694	91.12
365.92	77.12
366.147	93.12
366.373	66.12
366.599	71.12
366.826	92.12
367.052	95.12
367.278	83.12
367.505	94.12
367.731	104.12
367.957	97.12
368.184	87.12
368.41	86.12
368.636	109.12
368.862	109.12
369.089	99.12
369.315	91.12
369.541	75.12
369.767	78.12
369.993	89.12
370.219	84.12
370.445	97.12
370.672	83.12
370.898	84.12
371.124	98.12
371.35	71.12
371.576	89.12
371.802	86.12
372.028	82.12
372.254	89.12
372.48	87.12
372.706	85.12
372.932	77.12
373.158	74.12
373.384	84.12
373.61	77.12
373.835	91.12
374.061	80.12
374.287	84.12
374.513	91.12
374.739	97.12
374.965	95.12
375.191	79.12
375.416	93.12
375.642	96.12
375.868	88.12
376.094	86.12
376.319	91.12
376.545	90.12
376.771	79.12
376.997	92.12
377.222	89.12
377.448	96.12
377.674	91.12
377.899	112.12
378.125	92.12
378.35	90.12
378.576	94.12
378.802	80.12
379.027	97.12
379.253	101.12
379.478	85.12
379.704	92.12
379.929	98.12
380.155	93.12
380.38	89.12
380.606	92.12
380.831	92.12
381.057	110.12
381.282	103.12
381.507	96.12
381.733	109.12
381.958	90.12
382.184	103.12
382.409	94.12
382.634	103.12
382.86	75.12
383.085	103.12
383.31	98.12
383.535	102.12
383.761	93.12
383.986	96.12
384.211	97.12
384.436	78.12
384.662	93.12
384.887	104.12
385.112	102.12
385.337	96.12
385.562	107.12
385.787	91.12
386.013	103.12
386.238	119.12
386.463	89.12
386.688	110.12
386.913	103.12
387.138	104.12
387.363	99.12
387.588	103.12
387.813	99.12
388.038	106.12
388.263	109.12
388.488	93.12
388.713	98.12
388.938	101.12
389.163	104.12
389.387	100.12
389.612	109.12
389.837	100.12
390.062	90.12
390.287	98.12
390.512	90.12
390.736	96.12
390.961	91.12
391.186	92.12
391.411	97.12
391.636	96.12
391.86	83.12
392.085	81.12
392.31	72.12
392.534	87.12
392.759	87.12
392.984	78.12
393.208	104.12
393.433	102.12
393.658	85.12
393.882	79.12
394.107	89.12
394.331	88.12
394.556	106.12
394.78	89.12
395.005	91.12
395.229	93.12
395.454	74.12
395.678	78.12
395.903	91.12
396.127	88.12
396.352	86.12
396.576	102.12
396.801	89.12
397.025	92.12
397.249	86.12
397.474	111.12
397.698	85.12
397.922	83.12
398.147	69.12
398.371	74.12
398.595	75.12
398.82	82.12
399.044	80.12
399.268	88.12
399.492	78.12
399.717	79.12
399.941	88.12
400.165	87.12
400.389	81.12
400.613	112.12
400.837	86.12
401.062	77.12
401.286	81.12
401.51	86.12
401.734	89.12
401.958	83.12
402.182	126.12
402.406	152.12
402.63	99.12
402.854	79.12
403.078	96.12
403.302	96.12
403.526	83.12
403.75	78.12
403.974	86.12
404.198	75.12
404.422	100.12
404.645	102.12
404.869	80.12
405.093	100.12
405.317	90.12
405.541	85.12
405.765	77.12
405.988	113.12
406.212	142.12
406.436	196.12
406.66	135.12
406.883	110.12
407.107	87.12
407.331	90.12
407.555	98.12
407.778	90.12
408.002	95.12
408.226	87.12
408.449	94.12
408.673	91.12
408.896	88.12
409.12	94.12
409.344	94.12
409.567	91.12
409.791	81.12
410.014	99.12
410.238	94.12
410.461	88.12
410.685	103.12
410.908	87.12
411.132	101.12
411.355	91.12
411.578	98.12
411.802	86.12
412.025	91.12
412.249	91.12
412.472	93.12
412.695	90.12
412.919	91.12
413.142	90.12
413.365	95.12
413.589	90.12
413.812	81.12
414.035	89.12
414.258	92.12
414.482	91.12
414.705	77.12
414.928	71.12
415.151	93.12
415.374	82.12
415.597	85.12
415.821	75.12
416.044	89.12
416.267	89.12
416.49	88.12
416.713	95.12
416.936	79.12
417.159	81.12
417.382	89.12
417.605	88.12
417.828	85.12
418.051	88.12
418.274	103.12
418.497	80.12
418.72	79.12
418.943	90.12
419.166	91.12
419.389	89.12
419.611	91.12
419.834	76.12
420.057	87.12
420.28	96.12
420.503	95.12
420.726	87.12
420.948	77.12
421.171	83.12
421.394	79.12
421.617	78.12
421.839	91.12
422.062	89.12
422.285	106.12
422.507	92.12
422.73	90.12
422.953	78.12
423.175	86.12
423.398	95.12
423.621	86.12
423.843	93.12
424.066	89.12
424.288	87.12
424.511	92.12
424.733	87.12
424.956	101.12
425.178	101.12
425.401	105.12
425.623	95.12
425.846	81.12
426.068	90.12
426.291	94.12
426.513	93.12
426.735	77.12
426.958	99.12
427.18	88.12
427.402	108.12
427.625	145.12
427.847	118.12
428.069	105.12
428.292	107.12
428.514	101.12
428.736	89.12
428.958	90.12
429.181	77.12
429.403	75.12
429.625	86.12
429.847	79.12
430.069	92.12
430.292	92.12
430.514	87.12
430.736	90.12
430.958	57.12
431.18	81.12
431.402	79.12
431.624	88.12
431.846	88.12
432.068	88.12
432.29	94.12
432.512	106.12
432.734	104.12
432.956	89.12
433.178	92.12
433.4	74.12
433.622	70.12
433.844	90.12
434.066	95.12
434.287	101.12
434.509	77.12
434.731	86.12
434.953	90.12
435.175	81.12
435.397	77.12
435.618	89.12
435.84	87.12
436.062	86.12
436.284	99.12
436.505	100.12
436.727	89.12
436.949	98.12
437.17	82.12
437.392	83.12
437.614	96.12
437.835	107.12
438.057	109.12
438.278	89.12
438.5	93.12
438.721	98.12
438.943	86.12
439.165	85.12
439.386	83.12
439.608	89.12
439.829	103.12
440.05	97.12
440.272	122.12
440.493	94.12
440.715	92.12
440.936	72.12
441.158	89.12
441.379	92.12
441.6	84.12
441.822	90.12
442.043	79.12
442.264	95.12
442.486	101.12
442.707	86.12
442.928	94.12
443.149	119.12
443.371	125.12
443.592	100.12
443.813	106.12
444.034	97.12
444.255	89.12
444.476	87.12
444.698	83.12
444.919	91.12
445.14	140.12
445.361	103.12
445.582	99.12
445.803	117.12
446.024	109.12
446.245	112.12
446.466	94.12
446.687	79.12
446.908	86.12
447.129	73.12
447.35	85.12
447.571	83.12
447.792	80.12
448.013	93.12
448.234	87.12
448.455	87.12
448.675	78.12
448.896	96.12
449.117	105.12
449.338	89.12
449.559	102.12
449.779	109.12
450	80.12
450.221	104.12
450.442	101.12
450.662	87.12
450.883	87.12
451.104	85.12
451.324	78.12
451.545	82.12
451.766	84.12
451.986	81.12
452.207	86.12
452.428	92.12
452.648	82.12
452.869	102.12
453.089	109.12
453.31	104.12
453.53	83.12
453.751	98.12
453.971	103.12
454.192	96.12
454.412	94.12
454.633	78.12
454.853	79.12
455.073	77.12
455.294	99.12
455.514	87.12
455.734	66.12
455.955	83.12
456.175	88.12
456.395	78.12
456.616	84.12
456.836	74.12
457.056	84.12
457.276	71.12
457.497	93.12
457.717	77.12
457.937	81.12
458.157	73.12
458.377	80.12
458.598	99.12
458.818	120.12
459.038	136.12
459.258	107.12
459.478	83.12
459.698	91.12
459.918	99.12
460.138	82.12
460.358	75.12
460.578	84.12
460.798	75.12
461.018	99.12
461.238	82.12
461.458	83.12
461.678	79.12
461.898	82.12
462.118	90.12
462.338	83.12
462.558	80.12
462.777	104.12
462.997	80.12
463.217	86.12
463.437	90.12
463.657	86.12
463.876	93.12
464.096	77.12
464.316	86.12
464.536	94.12
464.755	89.12
464.975	99.12
465.195	143.12
465.414	145.12
465.634	92.12
465.854	93.12
466.073	93.12
466.293	82.12
466.512	88.12
466.732	83.12
466.951	85.12
467.171	87.12
467.391	94.12
467.61	87.12
467.829	90.12
468.049	127.12
468.268	158.12
468.488	97.12
468.707	80.12
468.927	76.12
469.146	85.12
469.365	93.12
469.585	82.12
469.804	82.12
470.023	89.12
470.243	77.12
470.462	93.12
470.681	105.12
470.901	101.12
471.12	102.12
471.339	89.12
471.558	81.12
471.777	95.12
471.997	94.12
472.216	179.12
472.435	281.12
472.654	125.12
472.873	99.12
473.092	89.12
473.311	82.12
473.53	85.12
473.749	72.12
473.968	92.12
474.187	98.12
474.406	75.12
474.625	70.12
474.844	104.12
475.063	88.12
475.282	98.12
475.501	94.12
475.72	84.12
475.939	81.12
476.158	84.12
476.377	88.12
476.596	95.12
476.814	83.12
477.033	89.12
477.252	91.12
477.471	87.12
477.69	79.12
477.908	105.12
478.127	84.12
478.346	82.12
478.564	82.12
478.783	95.12
479.002	91.12
479.22	82.12
479.439	91.12
479.658	103.12
479.876	84.12
480.095	81.12
480.313	99.12
480.532	88.12
480.751	111.12
480.969	186.12
481.188	486.12
481.406	305.12
481.624	100.12
481.843	98.12
482.061	95.12
482.28	89.12
482.498	89.12
482.717	83.12
482.935	81.12
483.153	86.12
483.372	92.12
483.59	95.12
483.808	88.12
484.027	89.12
484.245	87.12
484.463	92.12
484.681	85.12
484.9	87.12
485.118	85.12
485.336	106.12
485.554	109.12
485.772	104.12
485.99	96.12
486.209	91.12
486.427	87.12
486.645	87.12
486.863	120.12
487.081	65.12
487.299	102.12
487.517	90.12
487.735	85.12
487.953	92.12
488.171	86.12
488.389	75.12
488.607	87.12
488.825	76.12
489.043	84.12
489.261	94.12
489.479	86.12
489.696	85.12
489.914	79.12
490.132	83.12
490.35	94.12
490.568	94.12
490.786	105.12
491.003	85.12
491.221	81.12
491.439	105.12
491.657	88.12
491.874	83.12
492.092	83.12
492.31	83.12
492.527	89.12
492.745	85.12
492.963	87.12
493.18	90.12
493.398	87.12
493.615	88.12
493.833	87.12
494.05	81.12
494.268	93.12
494.485	90.12
494.703	99.12
494.92	96.12
495.138	67.12
495.355	77.12
495.573	91.12
495.79	81.12
496.008	91.12
496.225	87.12
496.442	82.12
496.66	78.12
496.877	97.12
497.094	90.12
497.312	91.12
497.529	81.12
497.746	97.12
497.963	82.12
498.181	93.12
498.398	98.12
498.615	103.12
498.832	98.12
499.049	94.12
499.267	95.12
499.484	82.12
499.701	93.12
499.918	96.12
500.135	81.12
500.352	90.12
500.569	97.12
500.786	83.12
501.003	97.12
501.22	82.12
501.437	98.12
501.654	93.12
501.871	97.12
502.088	73.12
502.305	84.12
502.522	71.12
502.739	95.12
502.956	82.12
503.172	81.12
503.389	81.12
503.606	102.12
503.823	105.12
504.04	92.12
504.256	79.12
504.473	94.12
504.69	88.12
504.907	94.12
505.123	96.12
505.34	99.12
505.557	86.12
505.773	86.12
505.99	93.12
506.207	91.12
506.423	71.12
506.64	87.12
506.856	90.12
507.073	82.12
507.289	94.12
507.506	95.12
507.722	89.12
507.939	105.12
508.155	97.12
508.372	82.12
508.588	95.12
508.805	83.12
509.021	81.12
509.238	101.12
509.454	100.12
509.67	94.12
509.887	107.12
510.103	131.12
510.319	205.12
510.536	686.12
510.752	2238.12
510.968	631.12
511.184	152.12
511.401	106.12
511.617	82.12
511.833	82.12
512.049	89.12
512.265	94.12
512.481	66.12
512.698	97.12
512.914	88.12
513.13	91.12
513.346	86.12
513.562	81.12
513.778	91.12
513.994	80.12
514.21	77.12
514.426	107.12
514.642	112.12
514.858	105.12
515.074	134.12
515.29	393.12
515.506	1207.12
515.721	471.12
515.937	138.12
516.153	96.12
516.369	90.12
516.585	99.12
