Data from Circ_1996_H10_HRD10591_00077.txt Node
Date: Wed Jan 03 11:33:21 EST 2024
User: Yrep
Spectrometer: HR+D1059
Trigger mode: 1
Integration Time (sec): 1.000000E-1
Scans to average: 1
Electric dark correction enabled: true
Nonlinearity correction enabled: false
Boxcar width: 0
XAxis mode: Wavelengths
Number of Pixels in Spectrum: 2048
>>>>>Begin Spectral Data<<<<<
223.165	-21.12
223.4	-21.12
223.635	-21.12
223.869	-11.12
224.104	-11.12
224.338	-15.12
224.573	-12.12
224.808	-8.12
225.042	-4.12
225.277	-3.12
225.511	-20.12
225.746	7.88
225.98	0.88
226.215	12.88
226.449	4.88
226.683	30.88
226.918	18.88
227.152	29.88
227.387	32.88
227.621	22.88
227.856	39.88
228.09	50.88
228.324	61.88
228.559	62.88
228.793	58.88
229.027	69.88
229.262	68.88
229.496	83.88
229.73	84.88
229.964	81.88
230.199	57.88
230.433	65.88
230.667	76.88
230.901	80.88
231.136	78.88
231.37	69.88
231.604	93.88
231.838	86.88
232.072	64.88
232.306	65.88
232.541	75.88
232.775	80.88
233.009	77.88
233.243	90.88
233.477	73.88
233.711	83.88
233.945	82.88
234.179	90.88
234.413	79.88
234.647	75.88
234.881	73.88
235.115	67.88
235.349	64.88
235.583	76.88
235.817	75.88
236.051	71.88
236.285	89.88
236.519	72.88
236.753	63.88
236.987	82.88
237.221	90.88
237.455	84.88
237.689	75.88
237.922	62.88
238.156	70.88
238.39	75.88
238.624	81.88
238.858	80.88
239.091	66.88
239.325	67.88
239.559	76.88
239.793	68.88
240.027	62.88
240.26	74.88
240.494	77.88
240.728	65.88
240.961	77.88
241.195	68.88
241.429	62.88
241.662	77.88
241.896	79.88
242.13	81.88
242.363	82.88
242.597	64.88
242.83	72.88
243.064	74.88
243.298	61.88
243.531	68.88
243.765	80.88
243.998	63.88
244.232	87.88
244.465	88.88
244.699	73.88
244.932	75.88
245.166	87.88
245.399	92.88
245.633	72.88
245.866	89.88
246.099	76.88
246.333	64.88
246.566	72.88
246.8	78.88
247.033	75.88
247.266	77.88
247.5	80.88
247.733	82.88
247.966	78.88
248.2	69.88
248.433	79.88
248.666	76.88
248.899	88.88
249.133	68.88
249.366	87.88
249.599	91.88
249.832	79.88
250.066	80.88
250.299	74.88
250.532	69.88
250.765	69.88
250.998	82.88
251.231	88.88
251.465	88.88
251.698	86.88
251.931	89.88
252.164	75.88
252.397	80.88
252.63	78.88
252.863	75.88
253.096	73.88
253.329	79.88
253.562	95.88
253.795	72.88
254.028	81.88
254.261	66.88
254.494	81.88
254.727	64.88
254.96	70.88
255.193	95.88
255.426	84.88
255.659	77.88
255.892	90.88
256.124	74.88
256.357	76.88
256.59	82.88
256.823	65.88
257.056	80.88
257.289	73.88
257.521	90.88
257.754	78.88
257.987	83.88
258.22	87.88
258.452	82.88
258.685	74.88
258.918	78.88
259.151	81.88
259.383	81.88
259.616	73.88
259.849	73.88
260.081	82.88
260.314	61.88
260.547	74.88
260.779	80.88
261.012	78.88
261.244	71.88
261.477	94.88
261.71	86.88
261.942	120.88
262.175	121.88
262.407	98.88
262.64	78.88
262.872	87.88
263.105	83.88
263.337	73.88
263.57	76.88
263.802	83.88
264.035	73.88
264.267	79.88
264.499	84.88
264.732	65.88
264.964	71.88
265.197	88.88
265.429	94.88
265.661	81.88
265.894	90.88
266.126	76.88
266.358	75.88
266.591	76.88
266.823	89.88
267.055	77.88
267.287	69.88
267.52	76.88
267.752	88.88
267.984	94.88
268.216	77.88
268.448	80.88
268.681	86.88
268.913	72.88
269.145	75.88
269.377	72.88
269.609	74.88
269.841	99.88
270.073	65.88
270.306	75.88
270.538	80.88
270.77	76.88
271.002	70.88
271.234	80.88
271.466	78.88
271.698	87.88
271.93	70.88
272.162	64.88
272.394	80.88
272.626	66.88
272.858	74.88
273.09	88.88
273.322	77.88
273.553	76.88
273.785	80.88
274.017	75.88
274.249	77.88
274.481	79.88
274.713	85.88
274.945	85.88
275.176	87.88
275.408	91.88
275.64	89.88
275.872	89.88
276.104	87.88
276.335	94.88
276.567	96.88
276.799	97.88
277.031	93.88
277.262	75.88
277.494	84.88
277.726	74.88
277.957	87.88
278.189	82.88
278.421	87.88
278.652	81.88
278.884	93.88
279.115	75.88
279.347	74.88
279.579	101.88
279.81	90.88
280.042	80.88
280.273	90.88
280.505	82.88
280.736	91.88
280.968	79.88
281.199	97.88
281.431	85.88
281.662	87.88
281.894	95.88
282.125	88.88
282.356	110.88
282.588	117.88
282.819	92.88
283.051	82.88
283.282	82.88
283.513	84.88
283.745	58.88
283.976	82.88
284.207	75.88
284.439	76.88
284.67	85.88
284.901	75.88
285.132	87.88
285.364	97.88
285.595	88.88
285.826	80.88
286.057	79.88
286.288	89.88
286.52	79.88
286.751	74.88
286.982	84.88
287.213	79.88
287.444	80.88
287.675	96.88
287.906	84.88
288.138	77.88
288.369	78.88
288.6	85.88
288.831	79.88
289.062	70.88
289.293	75.88
289.524	73.88
289.755	74.88
289.986	74.88
290.217	85.88
290.448	81.88
290.679	88.88
290.91	94.88
291.141	89.88
291.371	93.88
291.602	87.88
291.833	93.88
292.064	92.88
292.295	87.88
292.526	79.88
292.757	85.88
292.987	93.88
293.218	73.88
293.449	77.88
293.68	90.88
293.91	91.88
294.141	91.88
294.372	86.88
294.603	78.88
294.833	69.88
295.064	93.88
295.295	98.88
295.525	105.88
295.756	91.88
295.987	106.88
296.217	136.88
296.448	111.88
296.679	89.88
296.909	76.88
297.14	64.88
297.37	83.88
297.601	82.88
297.831	79.88
298.062	85.88
298.292	88.88
298.523	84.88
298.753	88.88
298.984	84.88
299.214	83.88
299.445	96.88
299.675	94.88
299.905	99.88
300.136	72.88
300.366	92.88
300.597	87.88
300.827	94.88
301.057	101.88
301.288	96.88
301.518	88.88
301.748	75.88
301.979	97.88
302.209	84.88
302.439	84.88
302.669	78.88
302.9	113.88
303.13	89.88
303.36	93.88
303.59	99.88
303.82	101.88
304.051	89.88
304.281	76.88
304.511	80.88
304.741	94.88
304.971	67.88
305.201	81.88
305.431	88.88
305.661	83.88
305.891	80.88
306.121	96.88
306.352	103.88
306.582	94.88
306.812	89.88
307.042	87.88
307.272	81.88
307.502	79.88
307.731	109.88
307.961	88.88
308.191	87.88
308.421	90.88
308.651	98.88
308.881	89.88
309.111	90.88
309.341	90.88
309.571	104.88
309.8	89.88
310.03	88.88
310.26	99.88
310.49	106.88
310.72	86.88
310.949	102.88
311.179	94.88
311.409	88.88
311.639	95.88
311.868	93.88
312.098	106.88
312.328	97.88
312.557	92.88
312.787	93.88
313.017	91.88
313.246	93.88
313.476	74.88
313.706	91.88
313.935	107.88
314.165	91.88
314.394	98.88
314.624	95.88
314.853	108.88
315.083	72.88
315.312	81.88
315.542	84.88
315.771	76.88
316.001	98.88
316.23	105.88
316.46	95.88
316.689	85.88
316.919	86.88
317.148	94.88
317.377	101.88
317.607	96.88
317.836	87.88
318.065	86.88
318.295	81.88
318.524	79.88
318.753	70.88
318.983	98.88
319.212	93.88
319.441	119.88
319.67	113.88
319.9	87.88
320.129	78.88
320.358	86.88
320.587	88.88
320.816	102.88
321.046	95.88
321.275	108.88
321.504	84.88
321.733	104.88
321.962	91.88
322.191	100.88
322.42	96.88
322.649	93.88
322.878	111.88
323.108	107.88
323.337	97.88
323.566	118.88
323.795	140.88
324.024	165.88
324.253	304.88
324.482	582.88
324.71	1168.88
324.939	1478.88
325.168	580.88
325.397	196.88
325.626	126.88
325.855	108.88
326.084	108.88
326.313	106.88
326.542	124.88
326.77	178.88
326.999	312.88
327.228	621.88
327.457	1096.88
327.686	917.88
327.914	305.88
328.143	180.88
328.372	154.88
328.6	124.88
328.829	109.88
329.058	125.88
329.287	120.88
329.515	93.88
329.744	100.88
329.972	122.88
330.201	175.88
330.43	196.88
330.658	158.88
330.887	132.88
331.115	112.88
331.344	106.88
331.572	89.88
331.801	98.88
332.03	104.88
332.258	87.88
332.486	95.88
332.715	98.88
332.943	90.88
333.172	98.88
333.4	88.88
333.629	113.88
333.857	108.88
334.085	127.88
334.314	182.88
334.542	226.88
334.771	229.88
334.999	115.88
335.227	95.88
335.455	87.88
335.684	89.88
335.912	107.88
336.14	104.88
336.369	86.88
336.597	85.88
336.825	80.88
337.053	74.88
337.281	94.88
337.51	85.88
337.738	93.88
337.966	90.88
338.194	98.88
338.422	89.88
338.65	102.88
338.878	93.88
339.106	84.88
339.334	88.88
339.562	80.88
339.79	75.88
340.018	81.88
340.246	104.88
340.474	99.88
340.702	82.88
340.93	75.88
341.158	79.88
341.386	97.88
341.614	101.88
341.842	81.88
342.07	106.88
342.298	98.88
342.526	76.88
342.754	95.88
342.981	78.88
343.209	79.88
343.437	84.88
343.665	74.88
343.893	94.88
344.12	91.88
344.348	80.88
344.576	89.88
344.804	84.88
345.031	92.88
345.259	87.88
345.487	100.88
345.714	86.88
345.942	88.88
346.17	98.88
346.397	84.88
346.625	90.88
346.853	101.88
347.08	86.88
347.308	77.88
347.535	88.88
347.763	87.88
347.99	93.88
348.218	91.88
348.445	93.88
348.673	96.88
348.9	107.88
349.128	93.88
349.355	90.88
349.583	83.88
349.81	79.88
350.037	88.88
350.265	79.88
350.492	94.88
350.72	86.88
350.947	105.88
351.174	91.88
351.402	106.88
351.629	98.88
351.856	91.88
352.083	107.88
352.311	95.88
352.538	105.88
352.765	101.88
352.992	109.88
353.22	99.88
353.447	86.88
353.674	95.88
353.901	95.88
354.128	96.88
354.355	79.88
354.583	97.88
354.81	100.88
355.037	111.88
355.264	87.88
355.491	85.88
355.718	102.88
355.945	102.88
356.172	93.88
356.399	101.88
356.626	92.88
356.853	99.88
357.08	100.88
357.307	95.88
357.534	80.88
357.761	106.88
357.988	94.88
358.215	102.88
358.441	84.88
358.668	92.88
358.895	85.88
359.122	87.88
359.349	67.88
359.576	82.88
359.802	92.88
360.029	92.88
360.256	108.88
360.483	88.88
360.709	85.88
360.936	96.88
361.163	89.88
361.39	81.88
361.616	86.88
361.843	96.88
362.07	79.88
362.296	88.88
362.523	96.88
362.749	74.88
362.976	84.88
363.203	82.88
363.429	80.88
363.656	81.88
363.882	95.88
364.109	91.88
364.335	92.88
364.562	95.88
364.788	91.88
365.015	86.88
365.241	92.88
365.468	100.88
365.694	81.88
365.92	92.88
366.147	93.88
366.373	89.88
366.599	88.88
366.826	85.88
367.052	89.88
367.278	93.88
367.505	97.88
367.731	77.88
367.957	80.88
368.184	72.88
368.41	104.88
368.636	101.88
368.862	104.88
369.089	118.88
369.315	85.88
369.541	88.88
369.767	88.88
369.993	96.88
370.219	85.88
370.445	98.88
370.672	92.88
370.898	81.88
371.124	86.88
371.35	79.88
371.576	80.88
371.802	80.88
372.028	88.88
372.254	78.88
372.48	80.88
372.706	79.88
372.932	89.88
373.158	86.88
373.384	90.88
373.61	94.88
373.835	86.88
374.061	86.88
374.287	87.88
374.513	96.88
374.739	102.88
374.965	94.88
375.191	91.88
375.416	85.88
375.642	94.88
375.868	84.88
376.094	95.88
376.319	84.88
376.545	97.88
376.771	93.88
376.997	82.88
377.222	92.88
377.448	84.88
377.674	106.88
377.899	102.88
378.125	93.88
378.35	72.88
378.576	71.88
378.802	80.88
379.027	89.88
379.253	86.88
379.478	84.88
379.704	90.88
379.929	100.88
380.155	90.88
380.38	98.88
380.606	90.88
380.831	85.88
381.057	93.88
381.282	96.88
381.507	94.88
381.733	79.88
381.958	91.88
382.184	79.88
382.409	103.88
382.634	103.88
382.86	95.88
383.085	88.88
383.31	75.88
383.535	81.88
383.761	99.88
383.986	118.88
384.211	110.88
384.436	105.88
384.662	94.88
384.887	86.88
385.112	98.88
385.337	94.88
385.562	107.88
385.787	89.88
386.013	103.88
386.238	103.88
386.463	104.88
386.688	108.88
386.913	102.88
387.138	101.88
387.363	98.88
387.588	91.88
387.813	97.88
388.038	98.88
388.263	113.88
388.488	102.88
388.713	99.88
388.938	97.88
389.163	95.88
389.387	85.88
389.612	87.88
389.837	90.88
390.062	87.88
390.287	88.88
390.512	93.88
390.736	90.88
390.961	77.88
391.186	97.88
391.411	89.88
391.636	90.88
391.86	74.88
392.085	95.88
392.31	79.88
392.534	90.88
392.759	83.88
392.984	78.88
393.208	85.88
393.433	94.88
393.658	106.88
393.882	81.88
394.107	92.88
394.331	96.88
394.556	83.88
394.78	98.88
395.005	78.88
395.229	91.88
395.454	79.88
395.678	68.88
395.903	67.88
396.127	73.88
396.352	94.88
396.576	79.88
396.801	85.88
397.025	86.88
397.249	92.88
397.474	71.88
397.698	80.88
397.922	100.88
398.147	87.88
398.371	76.88
398.595	80.88
398.82	76.88
399.044	92.88
399.268	88.88
399.492	89.88
399.717	89.88
399.941	93.88
400.165	86.88
400.389	92.88
400.613	80.88
400.837	94.88
401.062	68.88
401.286	87.88
401.51	91.88
401.734	81.88
401.958	96.88
402.182	112.88
402.406	155.88
402.63	107.88
402.854	87.88
403.078	90.88
403.302	85.88
403.526	83.88
403.75	86.88
403.974	80.88
404.198	64.88
404.422	86.88
404.645	92.88
404.869	97.88
405.093	89.88
405.317	96.88
405.541	99.88
405.765	103.88
405.988	103.88
406.212	162.88
406.436	195.88
406.66	140.88
406.883	101.88
407.107	91.88
407.331	104.88
407.555	92.88
407.778	87.88
408.002	89.88
408.226	93.88
408.449	85.88
408.673	78.88
408.896	89.88
409.12	88.88
409.344	86.88
409.567	95.88
409.791	92.88
410.014	97.88
410.238	91.88
410.461	74.88
410.685	99.88
410.908	84.88
411.132	98.88
411.355	96.88
411.578	75.88
411.802	80.88
412.025	90.88
412.249	102.88
412.472	92.88
412.695	89.88
412.919	82.88
413.142	93.88
413.365	95.88
413.589	76.88
413.812	87.88
414.035	86.88
414.258	93.88
414.482	85.88
414.705	71.88
414.928	86.88
415.151	92.88
415.374	95.88
415.597	92.88
415.821	88.88
416.044	81.88
416.267	87.88
416.49	74.88
416.713	83.88
416.936	92.88
417.159	100.88
417.382	85.88
417.605	86.88
417.828	73.88
418.051	86.88
418.274	82.88
418.497	90.88
418.72	79.88
418.943	104.88
419.166	94.88
419.389	86.88
419.611	90.88
419.834	88.88
420.057	96.88
420.28	94.88
420.503	77.88
420.726	88.88
420.948	84.88
421.171	94.88
421.394	90.88
421.617	97.88
421.839	84.88
422.062	92.88
422.285	90.88
422.507	95.88
422.73	95.88
422.953	92.88
423.175	93.88
423.398	79.88
423.621	104.88
423.843	83.88
424.066	74.88
424.288	88.88
424.511	93.88
424.733	78.88
424.956	93.88
425.178	102.88
425.401	100.88
425.623	105.88
425.846	86.88
426.068	93.88
426.291	97.88
426.513	81.88
426.735	80.88
426.958	76.88
427.18	93.88
427.402	116.88
427.625	154.88
427.847	124.88
428.069	88.88
428.292	96.88
428.514	88.88
428.736	63.88
428.958	77.88
429.181	86.88
429.403	83.88
429.625	76.88
429.847	93.88
430.069	96.88
430.292	72.88
430.514	85.88
430.736	70.88
430.958	74.88
431.18	83.88
431.402	84.88
431.624	71.88
431.846	80.88
432.068	83.88
432.29	87.88
432.512	95.88
432.734	75.88
432.956	92.88
433.178	91.88
433.4	90.88
433.622	98.88
433.844	75.88
434.066	80.88
434.287	96.88
434.509	97.88
434.731	105.88
434.953	85.88
435.175	91.88
435.397	92.88
435.618	83.88
435.84	100.88
436.062	118.88
436.284	97.88
436.505	96.88
436.727	98.88
436.949	91.88
437.17	92.88
437.392	80.88
437.614	80.88
437.835	78.88
438.057	96.88
438.278	89.88
438.5	88.88
438.721	103.88
438.943	94.88
439.165	94.88
439.386	90.88
439.608	85.88
439.829	89.88
440.05	108.88
440.272	122.88
440.493	94.88
440.715	76.88
440.936	73.88
441.158	76.88
441.379	84.88
441.6	96.88
441.822	94.88
442.043	76.88
442.264	97.88
442.486	93.88
442.707	75.88
442.928	99.88
443.149	121.88
443.371	117.88
443.592	94.88
443.813	102.88
444.034	97.88
444.255	82.88
444.476	81.88
444.698	75.88
444.919	91.88
445.14	114.88
445.361	108.88
445.582	104.88
445.803	114.88
446.024	110.88
446.245	106.88
446.466	104.88
446.687	91.88
446.908	76.88
447.129	86.88
447.35	98.88
447.571	91.88
447.792	84.88
448.013	94.88
448.234	118.88
448.455	98.88
448.675	104.88
448.896	108.88
449.117	96.88
449.338	86.88
449.559	104.88
449.779	92.88
450	106.88
450.221	101.88
450.442	78.88
450.662	97.88
450.883	86.88
451.104	106.88
451.324	98.88
451.545	83.88
451.766	78.88
451.986	87.88
452.207	73.88
452.428	87.88
452.648	97.88
452.869	88.88
453.089	102.88
453.31	111.88
453.53	85.88
453.751	97.88
453.971	101.88
454.192	93.88
454.412	89.88
454.633	93.88
454.853	91.88
455.073	80.88
455.294	82.88
455.514	78.88
455.734	92.88
455.955	84.88
456.175	94.88
456.395	76.88
456.616	78.88
456.836	64.88
457.056	74.88
457.276	90.88
457.497	93.88
457.717	78.88
457.937	78.88
458.157	77.88
458.377	100.88
458.598	98.88
458.818	129.88
459.038	123.88
459.258	97.88
459.478	92.88
459.698	86.88
459.918	86.88
460.138	85.88
460.358	75.88
460.578	91.88
460.798	87.88
461.018	93.88
461.238	77.88
461.458	85.88
461.678	90.88
461.898	87.88
462.118	95.88
462.338	98.88
462.558	90.88
462.777	72.88
462.997	86.88
463.217	83.88
463.437	79.88
463.657	85.88
463.876	80.88
464.096	86.88
464.316	86.88
464.536	76.88
464.755	81.88
464.975	88.88
465.195	142.88
465.414	132.88
465.634	96.88
465.854	93.88
466.073	93.88
466.293	88.88
466.512	78.88
466.732	83.88
466.951	76.88
467.171	78.88
467.391	98.88
467.61	105.88
467.829	111.88
468.049	123.88
468.268	142.88
468.488	85.88
468.707	89.88
468.927	79.88
469.146	92.88
469.365	89.88
469.585	89.88
469.804	91.88
470.023	93.88
470.243	85.88
470.462	93.88
470.681	98.88
470.901	102.88
471.12	81.88
471.339	86.88
471.558	86.88
471.777	88.88
471.997	108.88
472.216	195.88
472.435	282.88
472.654	122.88
472.873	103.88
473.092	79.88
473.311	73.88
473.53	86.88
473.749	83.88
473.968	84.88
474.187	80.88
474.406	96.88
474.625	90.88
474.844	93.88
475.063	78.88
475.282	98.88
475.501	89.88
475.72	95.88
475.939	86.88
476.158	79.88
476.377	83.88
476.596	69.88
476.814	95.88
477.033	92.88
477.252	84.88
477.471	89.88
477.69	81.88
477.908	74.88
478.127	82.88
478.346	85.88
478.564	79.88
478.783	104.88
479.002	89.88
479.22	90.88
479.439	100.88
479.658	114.88
479.876	86.88
480.095	100.88
480.313	82.88
480.532	105.88
480.751	99.88
480.969	198.88
481.188	495.88
481.406	298.88
481.624	105.88
481.843	97.88
482.061	90.88
482.28	89.88
482.498	74.88
482.717	66.88
482.935	89.88
483.153	78.88
483.372	87.88
483.59	93.88
483.808	94.88
484.027	97.88
484.245	83.88
484.463	84.88
484.681	110.88
484.9	85.88
485.118	94.88
485.336	79.88
485.554	97.88
485.772	83.88
485.99	98.88
486.209	97.88
486.427	89.88
486.645	108.88
486.863	119.88
487.081	85.88
487.299	97.88
487.517	89.88
487.735	95.88
487.953	90.88
488.171	91.88
488.389	81.88
488.607	98.88
488.825	88.88
489.043	85.88
489.261	105.88
489.479	87.88
489.696	82.88
489.914	76.88
490.132	79.88
490.35	85.88
490.568	88.88
490.786	93.88
491.003	101.88
491.221	79.88
491.439	83.88
491.657	82.88
491.874	97.88
492.092	88.88
492.31	84.88
492.527	93.88
492.745	81.88
492.963	82.88
493.18	90.88
493.398	89.88
493.615	102.88
493.833	92.88
494.05	90.88
494.268	95.88
494.485	86.88
494.703	77.88
494.92	76.88
495.138	85.88
495.355	95.88
495.573	98.88
495.79	91.88
496.008	80.88
496.225	77.88
496.442	79.88
496.66	95.88
496.877	80.88
497.094	92.88
497.312	89.88
497.529	94.88
497.746	91.88
497.963	97.88
498.181	96.88
498.398	99.88
498.615	96.88
498.832	95.88
499.049	94.88
499.267	78.88
499.484	87.88
499.701	93.88
499.918	94.88
500.135	80.88
500.352	87.88
500.569	85.88
500.786	83.88
501.003	85.88
501.22	108.88
501.437	99.88
501.654	93.88
501.871	89.88
502.088	97.88
502.305	95.88
502.522	87.88
502.739	84.88
502.956	90.88
503.172	89.88
503.389	95.88
503.606	85.88
503.823	95.88
504.04	100.88
504.256	86.88
504.473	89.88
504.69	78.88
504.907	82.88
505.123	85.88
505.34	76.88
505.557	79.88
505.773	84.88
505.99	73.88
506.207	96.88
506.423	92.88
506.64	89.88
506.856	80.88
507.073	90.88
507.289	93.88
507.506	93.88
507.722	89.88
507.939	126.88
508.155	92.88
508.372	86.88
508.588	96.88
508.805	73.88
509.021	87.88
509.238	98.88
509.454	98.88
509.67	103.88
509.887	104.88
510.103	112.88
510.319	203.88
510.536	752.88
510.752	2376.88
510.968	660.88
511.184	159.88
511.401	105.88
511.617	111.88
511.833	97.88
512.049	87.88
512.265	82.88
512.481	93.88
512.698	72.88
512.914	90.88
513.13	79.88
513.346	99.88
513.562	86.88
513.778	92.88
513.994	86.88
514.21	82.88
514.426	114.88
514.642	113.88
514.858	124.88
515.074	153.88
515.29	410.88
515.506	1345.88
515.721	496.88
515.937	147.88
516.153	92.88
516.369	100.88
516.585	100.88
516.801	101.88
517.016	76.88
