Data from Circ_1996_H10_HRD10591_00097.txt Node
Date: Wed Jan 03 11:33:25 EST 2024
User: Yrep
Spectrometer: HR+D1059
Trigger mode: 1
Integration Time (sec): 1.000000E-1
Scans to average: 1
Electric dark correction enabled: true
Nonlinearity correction enabled: false
Boxcar width: 0
XAxis mode: Wavelengths
Number of Pixels in Spectrum: 2048
>>>>>Begin Spectral Data<<<<<
223.165	-20.81
223.4	-20.81
223.635	-20.81
223.869	-14.81
224.104	-14.81
224.338	-19.81
224.573	-30.81
224.808	-7.81
225.042	1.19
225.277	-2.81
225.511	3.19
225.746	0.19
225.98	3.19
226.215	17.19
226.449	12.19
226.683	22.19
226.918	17.19
227.152	35.19
227.387	32.19
227.621	37.19
227.856	50.19
228.09	53.19
228.324	46.19
228.559	50.19
228.793	64.19
229.027	72.19
229.262	73.19
229.496	67.19
229.73	78.19
229.964	76.19
230.199	83.19
230.433	79.19
230.667	91.19
230.901	79.19
231.136	94.19
231.37	79.19
231.604	81.19
231.838	87.19
232.072	73.19
232.306	89.19
232.541	75.19
232.775	83.19
233.009	78.19
233.243	88.19
233.477	79.19
233.711	82.19
233.945	83.19
234.179	73.19
234.413	88.19
234.647	80.19
234.881	88.19
235.115	88.19
235.349	73.19
235.583	87.19
235.817	76.19
236.051	79.19
236.285	87.19
236.519	96.19
236.753	87.19
236.987	79.19
237.221	87.19
237.455	84.19
237.689	84.19
237.922	64.19
238.156	82.19
238.39	60.19
238.624	90.19
238.858	79.19
239.091	83.19
239.325	89.19
239.559	74.19
239.793	87.19
240.027	71.19
240.26	82.19
240.494	87.19
240.728	97.19
240.961	79.19
241.195	74.19
241.429	76.19
241.662	78.19
241.896	77.19
242.13	85.19
242.363	82.19
242.597	81.19
242.83	84.19
243.064	81.19
243.298	84.19
243.531	74.19
243.765	64.19
243.998	73.19
244.232	79.19
244.465	94.19
244.699	77.19
244.932	87.19
245.166	59.19
245.399	74.19
245.633	83.19
245.866	75.19
246.099	68.19
246.333	68.19
246.566	68.19
246.8	81.19
247.033	83.19
247.266	77.19
247.5	65.19
247.733	75.19
247.966	75.19
248.2	85.19
248.433	81.19
248.666	76.19
248.899	79.19
249.133	98.19
249.366	95.19
249.599	95.19
249.832	89.19
250.066	94.19
250.299	80.19
250.532	75.19
250.765	71.19
250.998	74.19
251.231	87.19
251.465	93.19
251.698	69.19
251.931	80.19
252.164	87.19
252.397	91.19
252.63	74.19
252.863	78.19
253.096	83.19
253.329	74.19
253.562	85.19
253.795	83.19
254.028	68.19
254.261	83.19
254.494	59.19
254.727	63.19
254.96	92.19
255.193	90.19
255.426	90.19
255.659	82.19
255.892	85.19
256.124	79.19
256.357	75.19
256.59	78.19
256.823	79.19
257.056	77.19
257.289	93.19
257.521	94.19
257.754	86.19
257.987	80.19
258.22	94.19
258.452	88.19
258.685	77.19
258.918	75.19
259.151	83.19
259.383	73.19
259.616	80.19
259.849	88.19
260.081	83.19
260.314	85.19
260.547	79.19
260.779	80.19
261.012	97.19
261.244	90.19
261.477	99.19
261.71	99.19
261.942	129.19
262.175	117.19
262.407	102.19
262.64	75.19
262.872	79.19
263.105	91.19
263.337	90.19
263.57	83.19
263.802	79.19
264.035	87.19
264.267	79.19
264.499	99.19
264.732	75.19
264.964	89.19
265.197	95.19
265.429	94.19
265.661	88.19
265.894	82.19
266.126	93.19
266.358	73.19
266.591	76.19
266.823	91.19
267.055	94.19
267.287	84.19
267.52	90.19
267.752	75.19
267.984	80.19
268.216	79.19
268.448	86.19
268.681	82.19
268.913	90.19
269.145	83.19
269.377	100.19
269.609	93.19
269.841	79.19
270.073	90.19
270.306	93.19
270.538	85.19
270.77	83.19
271.002	93.19
271.234	87.19
271.466	95.19
271.698	88.19
271.93	92.19
272.162	79.19
272.394	89.19
272.626	83.19
272.858	81.19
273.09	87.19
273.322	81.19
273.553	90.19
273.785	84.19
274.017	91.19
274.249	83.19
274.481	86.19
274.713	97.19
274.945	90.19
275.176	101.19
275.408	95.19
275.64	90.19
275.872	90.19
276.104	88.19
276.335	75.19
276.567	101.19
276.799	105.19
277.031	108.19
277.262	91.19
277.494	87.19
277.726	85.19
277.957	89.19
278.189	83.19
278.421	74.19
278.652	91.19
278.884	83.19
279.115	84.19
279.347	79.19
279.579	89.19
279.81	94.19
280.042	101.19
280.273	88.19
280.505	71.19
280.736	88.19
280.968	80.19
281.199	90.19
281.431	81.19
281.662	96.19
281.894	81.19
282.125	95.19
282.356	119.19
282.588	146.19
282.819	130.19
283.051	91.19
283.282	75.19
283.513	99.19
283.745	85.19
283.976	85.19
284.207	90.19
284.439	89.19
284.67	82.19
284.901	89.19
285.132	91.19
285.364	87.19
285.595	92.19
285.826	82.19
286.057	91.19
286.288	81.19
286.52	95.19
286.751	77.19
286.982	96.19
287.213	75.19
287.444	93.19
287.675	85.19
287.906	87.19
288.138	90.19
288.369	111.19
288.6	97.19
288.831	92.19
289.062	84.19
289.293	98.19
289.524	88.19
289.755	91.19
289.986	93.19
290.217	96.19
290.448	87.19
290.679	84.19
290.91	89.19
291.141	84.19
291.371	97.19
291.602	86.19
291.833	80.19
292.064	90.19
292.295	92.19
292.526	90.19
292.757	90.19
292.987	93.19
293.218	84.19
293.449	92.19
293.68	93.19
293.91	82.19
294.141	96.19
294.372	88.19
294.603	75.19
294.833	93.19
295.064	90.19
295.295	105.19
295.525	95.19
295.756	103.19
295.987	107.19
296.217	160.19
296.448	125.19
296.679	87.19
296.909	103.19
297.14	89.19
297.37	83.19
297.601	88.19
297.831	85.19
298.062	93.19
298.292	91.19
298.523	87.19
298.753	96.19
298.984	85.19
299.214	81.19
299.445	100.19
299.675	97.19
299.905	112.19
300.136	83.19
300.366	77.19
300.597	89.19
300.827	99.19
301.057	101.19
301.288	112.19
301.518	99.19
301.748	86.19
301.979	113.19
302.209	92.19
302.439	101.19
302.669	102.19
302.9	69.19
303.13	90.19
303.36	98.19
303.59	96.19
303.82	121.19
304.051	109.19
304.281	84.19
304.511	79.19
304.741	78.19
304.971	97.19
305.201	96.19
305.431	98.19
305.661	115.19
305.891	87.19
306.121	107.19
306.352	112.19
306.582	116.19
306.812	97.19
307.042	96.19
307.272	101.19
307.502	102.19
307.731	115.19
307.961	93.19
308.191	93.19
308.421	99.19
308.651	89.19
308.881	100.19
309.111	94.19
309.341	101.19
309.571	90.19
309.8	105.19
310.03	90.19
310.26	101.19
310.49	95.19
310.72	115.19
310.949	123.19
311.179	104.19
311.409	106.19
311.639	111.19
311.868	105.19
312.098	91.19
312.328	83.19
312.557	100.19
312.787	101.19
313.017	91.19
313.246	97.19
313.476	99.19
313.706	102.19
313.935	84.19
314.165	111.19
314.394	99.19
314.624	98.19
314.853	98.19
315.083	98.19
315.312	102.19
315.542	108.19
315.771	97.19
316.001	88.19
316.23	92.19
316.46	103.19
316.689	99.19
316.919	103.19
317.148	87.19
317.377	87.19
317.607	92.19
317.836	108.19
318.065	87.19
318.295	90.19
318.524	85.19
318.753	96.19
318.983	95.19
319.212	103.19
319.441	110.19
319.67	111.19
319.9	98.19
320.129	95.19
320.358	119.19
320.587	105.19
320.816	100.19
321.046	95.19
321.275	79.19
321.504	106.19
321.733	97.19
321.962	105.19
322.191	104.19
322.42	108.19
322.649	111.19
322.878	111.19
323.108	109.19
323.337	113.19
323.566	121.19
323.795	155.19
324.024	190.19
324.253	346.19
324.482	742.19
324.71	1464.19
324.939	1977.19
325.168	782.19
325.397	236.19
325.626	163.19
325.855	147.19
326.084	124.19
326.313	110.19
326.542	151.19
326.77	195.19
326.999	380.19
327.228	759.19
327.457	1433.19
327.686	1168.19
327.914	347.19
328.143	215.19
328.372	199.19
328.6	158.19
328.829	114.19
329.058	129.19
329.287	137.19
329.515	119.19
329.744	117.19
329.972	143.19
330.201	181.19
330.43	219.19
330.658	180.19
330.887	163.19
331.115	131.19
331.344	106.19
331.572	90.19
331.801	87.19
332.03	115.19
332.258	112.19
332.486	98.19
332.715	95.19
332.943	98.19
333.172	100.19
333.4	105.19
333.629	121.19
333.857	128.19
334.085	145.19
334.314	190.19
334.542	283.19
334.771	271.19
334.999	130.19
335.227	107.19
335.455	124.19
335.684	99.19
335.912	98.19
336.14	99.19
336.369	113.19
336.597	124.19
336.825	111.19
337.053	87.19
337.281	99.19
337.51	95.19
337.738	105.19
337.966	100.19
338.194	95.19
338.422	88.19
338.65	101.19
338.878	94.19
339.106	90.19
339.334	94.19
339.562	100.19
339.79	106.19
340.018	95.19
340.246	94.19
340.474	95.19
340.702	95.19
340.93	100.19
341.158	98.19
341.386	100.19
341.614	100.19
341.842	101.19
342.07	99.19
342.298	92.19
342.526	101.19
342.754	93.19
342.981	88.19
343.209	97.19
343.437	109.19
343.665	97.19
343.893	90.19
344.12	85.19
344.348	94.19
344.576	89.19
344.804	97.19
345.031	101.19
345.259	86.19
345.487	78.19
345.714	99.19
345.942	93.19
346.17	90.19
346.397	84.19
346.625	95.19
346.853	91.19
347.08	95.19
347.308	86.19
347.535	88.19
347.763	107.19
347.99	110.19
348.218	107.19
348.445	98.19
348.673	108.19
348.9	98.19
349.128	95.19
349.355	84.19
349.583	84.19
349.81	96.19
350.037	99.19
350.265	105.19
350.492	95.19
350.72	85.19
350.947	100.19
351.174	110.19
351.402	127.19
351.629	111.19
351.856	98.19
352.083	109.19
352.311	123.19
352.538	115.19
352.765	125.19
352.992	117.19
353.22	106.19
353.447	90.19
353.674	112.19
353.901	96.19
354.128	97.19
354.355	104.19
354.583	79.19
354.81	97.19
355.037	106.19
355.264	92.19
355.491	90.19
355.718	96.19
355.945	87.19
356.172	103.19
356.399	105.19
356.626	88.19
356.853	87.19
357.08	82.19
357.307	99.19
357.534	98.19
357.761	96.19
357.988	107.19
358.215	95.19
358.441	85.19
358.668	92.19
358.895	80.19
359.122	88.19
359.349	102.19
359.576	99.19
359.802	99.19
360.029	114.19
360.256	121.19
360.483	95.19
360.709	87.19
360.936	96.19
361.163	101.19
361.39	110.19
361.616	107.19
361.843	95.19
362.07	100.19
362.296	105.19
362.523	108.19
362.749	93.19
362.976	93.19
363.203	92.19
363.429	90.19
363.656	101.19
363.882	84.19
364.109	89.19
364.335	94.19
364.562	89.19
364.788	85.19
365.015	94.19
365.241	92.19
365.468	97.19
365.694	111.19
365.92	94.19
366.147	91.19
366.373	61.19
366.599	106.19
366.826	91.19
367.052	82.19
367.278	100.19
367.505	107.19
367.731	111.19
367.957	99.19
368.184	94.19
368.41	112.19
368.636	115.19
368.862	126.19
369.089	109.19
369.315	100.19
369.541	97.19
369.767	104.19
369.993	100.19
370.219	88.19
370.445	95.19
370.672	86.19
370.898	90.19
371.124	82.19
371.35	74.19
371.576	89.19
371.802	93.19
372.028	92.19
372.254	80.19
372.48	72.19
372.706	78.19
372.932	77.19
373.158	82.19
373.384	87.19
373.61	82.19
373.835	84.19
374.061	103.19
374.287	89.19
374.513	89.19
374.739	93.19
374.965	92.19
375.191	85.19
375.416	85.19
375.642	90.19
375.868	93.19
376.094	93.19
376.319	79.19
376.545	88.19
376.771	96.19
376.997	96.19
377.222	90.19
377.448	80.19
377.674	80.19
377.899	87.19
378.125	86.19
378.35	86.19
378.576	97.19
378.802	86.19
379.027	100.19
379.253	85.19
379.478	76.19
379.704	88.19
379.929	85.19
380.155	97.19
380.38	99.19
380.606	76.19
380.831	88.19
381.057	98.19
381.282	97.19
381.507	92.19
381.733	97.19
381.958	96.19
382.184	97.19
382.409	88.19
382.634	103.19
382.86	100.19
383.085	101.19
383.31	86.19
383.535	101.19
383.761	107.19
383.986	97.19
384.211	99.19
384.436	93.19
384.662	90.19
384.887	104.19
385.112	95.19
385.337	92.19
385.562	101.19
385.787	98.19
386.013	101.19
386.238	89.19
386.463	113.19
386.688	104.19
386.913	100.19
387.138	100.19
387.363	109.19
387.588	96.19
387.813	109.19
388.038	107.19
388.263	99.19
388.488	96.19
388.713	95.19
388.938	90.19
389.163	98.19
389.387	104.19
389.612	114.19
389.837	88.19
390.062	97.19
390.287	88.19
390.512	92.19
390.736	94.19
390.961	87.19
391.186	106.19
391.411	110.19
391.636	92.19
391.86	88.19
392.085	88.19
392.31	85.19
392.534	88.19
392.759	95.19
392.984	90.19
393.208	90.19
393.433	105.19
393.658	102.19
393.882	81.19
394.107	76.19
394.331	89.19
394.556	75.19
394.78	93.19
395.005	83.19
395.229	94.19
395.454	92.19
395.678	78.19
395.903	94.19
396.127	84.19
396.352	99.19
396.576	89.19
396.801	103.19
397.025	115.19
397.249	94.19
397.474	96.19
397.698	97.19
397.922	86.19
398.147	77.19
398.371	90.19
398.595	76.19
398.82	92.19
399.044	94.19
399.268	85.19
399.492	85.19
399.717	95.19
399.941	73.19
400.165	85.19
400.389	75.19
400.613	83.19
400.837	92.19
401.062	99.19
401.286	92.19
401.51	87.19
401.734	85.19
401.958	105.19
402.182	135.19
402.406	171.19
402.63	130.19
402.854	91.19
403.078	90.19
403.302	104.19
403.526	81.19
403.75	83.19
403.974	68.19
404.198	93.19
404.422	87.19
404.645	94.19
404.869	92.19
405.093	97.19
405.317	101.19
405.541	112.19
405.765	111.19
405.988	127.19
406.212	185.19
406.436	247.19
406.66	164.19
406.883	93.19
407.107	95.19
407.331	101.19
407.555	103.19
407.778	100.19
408.002	89.19
408.226	97.19
408.449	101.19
408.673	93.19
408.896	95.19
409.12	104.19
409.344	71.19
409.567	77.19
409.791	98.19
410.014	89.19
410.238	87.19
410.461	79.19
410.685	89.19
410.908	93.19
411.132	92.19
411.355	99.19
411.578	80.19
411.802	83.19
412.025	92.19
412.249	85.19
412.472	94.19
412.695	95.19
412.919	84.19
413.142	79.19
413.365	86.19
413.589	80.19
413.812	91.19
414.035	77.19
414.258	102.19
414.482	100.19
414.705	73.19
414.928	97.19
415.151	93.19
415.374	98.19
415.597	79.19
415.821	92.19
416.044	97.19
416.267	94.19
416.49	98.19
416.713	91.19
416.936	96.19
417.159	86.19
417.382	82.19
417.605	82.19
417.828	86.19
418.051	92.19
418.274	88.19
418.497	90.19
418.72	90.19
418.943	79.19
419.166	91.19
419.389	96.19
419.611	96.19
419.834	84.19
420.057	83.19
420.28	88.19
420.503	84.19
420.726	96.19
420.948	85.19
421.171	96.19
421.394	105.19
421.617	89.19
421.839	78.19
422.062	92.19
422.285	94.19
422.507	100.19
422.73	110.19
422.953	69.19
423.175	84.19
423.398	87.19
423.621	93.19
423.843	98.19
424.066	93.19
424.288	97.19
424.511	78.19
424.733	97.19
424.956	91.19
425.178	102.19
425.401	105.19
425.623	105.19
425.846	100.19
426.068	93.19
426.291	97.19
426.513	92.19
426.735	92.19
426.958	98.19
427.18	96.19
427.402	124.19
427.625	182.19
427.847	132.19
428.069	95.19
428.292	99.19
428.514	94.19
428.736	92.19
428.958	86.19
429.181	80.19
429.403	91.19
429.625	107.19
429.847	91.19
430.069	116.19
430.292	95.19
430.514	93.19
430.736	91.19
430.958	91.19
431.18	72.19
431.402	95.19
431.624	92.19
431.846	87.19
432.068	77.19
432.29	98.19
432.512	89.19
432.734	91.19
432.956	91.19
433.178	101.19
433.4	110.19
433.622	96.19
433.844	90.19
434.066	93.19
434.287	84.19
434.509	93.19
434.731	96.19
434.953	94.19
435.175	75.19
435.397	87.19
435.618	85.19
435.84	95.19
436.062	135.19
436.284	113.19
436.505	107.19
436.727	93.19
436.949	88.19
437.17	90.19
437.392	89.19
437.614	93.19
437.835	98.19
438.057	111.19
438.278	105.19
438.5	92.19
438.721	127.19
438.943	107.19
439.165	86.19
439.386	88.19
439.608	82.19
439.829	103.19
440.05	132.19
440.272	158.19
440.493	98.19
440.715	89.19
440.936	90.19
441.158	75.19
441.379	88.19
441.6	88.19
441.822	83.19
442.043	90.19
442.264	101.19
442.486	104.19
442.707	96.19
442.928	112.19
443.149	118.19
443.371	125.19
443.592	111.19
443.813	115.19
444.034	111.19
444.255	92.19
444.476	82.19
444.698	79.19
444.919	95.19
445.14	108.19
445.361	123.19
445.582	123.19
445.803	159.19
446.024	139.19
446.245	132.19
446.466	122.19
446.687	99.19
446.908	83.19
447.129	91.19
447.35	77.19
447.571	76.19
447.792	75.19
448.013	107.19
448.234	105.19
448.455	94.19
448.675	108.19
448.896	100.19
449.117	106.19
449.338	100.19
449.559	111.19
449.779	140.19
450	109.19
450.221	92.19
450.442	96.19
450.662	91.19
450.883	99.19
451.104	121.19
451.324	97.19
451.545	93.19
451.766	97.19
451.986	93.19
452.207	86.19
452.428	100.19
452.648	93.19
452.869	101.19
453.089	103.19
453.31	120.19
453.53	102.19
453.751	96.19
453.971	109.19
454.192	105.19
454.412	104.19
454.633	82.19
454.853	78.19
455.073	92.19
455.294	90.19
455.514	103.19
455.734	92.19
455.955	92.19
456.175	94.19
456.395	83.19
456.616	77.19
456.836	66.19
457.056	87.19
457.276	89.19
457.497	93.19
457.717	83.19
457.937	87.19
458.157	78.19
458.377	78.19
458.598	107.19
458.818	155.19
459.038	158.19
459.258	116.19
459.478	98.19
459.698	89.19
459.918	98.19
460.138	85.19
460.358	91.19
460.578	76.19
460.798	104.19
461.018	92.19
461.238	86.19
461.458	91.19
461.678	94.19
461.898	82.19
462.118	101.19
462.338	75.19
462.558	94.19
462.777	105.19
462.997	91.19
463.217	85.19
463.437	98.19
463.657	83.19
463.876	88.19
464.096	83.19
464.316	77.19
464.536	97.19
464.755	78.19
464.975	106.19
465.195	197.19
465.414	156.19
465.634	97.19
465.854	87.19
466.073	96.19
466.293	81.19
466.512	93.19
466.732	62.19
466.951	89.19
467.171	89.19
467.391	112.19
467.61	95.19
467.829	104.19
468.049	132.19
468.268	157.19
468.488	98.19
468.707	76.19
468.927	78.19
469.146	99.19
469.365	77.19
469.585	93.19
469.804	106.19
470.023	105.19
470.243	105.19
470.462	107.19
470.681	119.19
470.901	87.19
471.12	87.19
471.339	80.19
471.558	105.19
471.777	90.19
471.997	113.19
472.216	226.19
472.435	373.19
472.654	145.19
472.873	92.19
473.092	81.19
473.311	96.19
473.53	88.19
473.749	92.19
473.968	94.19
474.187	104.19
474.406	96.19
474.625	93.19
474.844	82.19
475.063	80.19
475.282	73.19
475.501	65.19
475.72	86.19
475.939	81.19
476.158	81.19
476.377	105.19
476.596	95.19
476.814	83.19
477.033	93.19
477.252	92.19
477.471	86.19
477.69	91.19
477.908	87.19
478.127	86.19
478.346	84.19
478.564	96.19
478.783	99.19
479.002	89.19
479.22	94.19
479.439	115.19
479.658	112.19
479.876	100.19
480.095	95.19
480.313	103.19
480.532	85.19
480.751	114.19
480.969	224.19
481.188	595.19
481.406	370.19
481.624	128.19
481.843	106.19
482.061	100.19
482.28	89.19
482.498	91.19
482.717	98.19
482.935	86.19
483.153	89.19
483.372	91.19
483.59	91.19
483.808	92.19
484.027	87.19
484.245	81.19
484.463	94.19
484.681	104.19
484.9	83.19
485.118	89.19
485.336	93.19
485.554	105.19
485.772	95.19
485.99	90.19
486.209	109.19
486.427	112.19
486.645	109.19
486.863	105.19
487.081	91.19
487.299	97.19
487.517	91.19
487.735	100.19
487.953	92.19
488.171	95.19
488.389	98.19
488.607	99.19
488.825	92.19
489.043	76.19
489.261	88.19
489.479	97.19
489.696	87.19
489.914	74.19
490.132	96.19
490.35	98.19
490.568	92.19
490.786	81.19
491.003	99.19
491.221	94.19
491.439	97.19
491.657	93.19
491.874	85.19
492.092	91.19
492.31	101.19
492.527	90.19
492.745	79.19
492.963	103.19
493.18	96.19
493.398	89.19
493.615	95.19
493.833	98.19
494.05	95.19
494.268	91.19
494.485	84.19
494.703	96.19
494.92	86.19
495.138	112.19
495.355	83.19
495.573	79.19
495.79	72.19
496.008	88.19
496.225	91.19
496.442	99.19
496.66	90.19
496.877	101.19
497.094	92.19
497.312	96.19
497.529	84.19
497.746	94.19
497.963	99.19
498.181	98.19
498.398	100.19
498.615	106.19
498.832	101.19
499.049	91.19
499.267	95.19
499.484	83.19
499.701	94.19
499.918	93.19
500.135	83.19
500.352	105.19
500.569	87.19
500.786	76.19
501.003	95.19
501.22	88.19
501.437	100.19
501.654	100.19
501.871	99.19
502.088	91.19
502.305	93.19
502.522	101.19
502.739	93.19
502.956	91.19
503.172	104.19
503.389	91.19
503.606	107.19
503.823	99.19
504.04	87.19
504.256	86.19
504.473	87.19
504.69	89.19
504.907	101.19
505.123	75.19
505.34	92.19
505.557	85.19
505.773	103.19
505.99	89.19
506.207	91.19
506.423	93.19
506.64	90.19
506.856	93.19
507.073	86.19
507.289	94.19
507.506	94.19
507.722	117.19
507.939	107.19
508.155	106.19
508.372	100.19
508.588	89.19
508.805	102.19
509.021	89.19
509.238	95.19
509.454	101.19
509.67	104.19
509.887	121.19
510.103	126.19
510.319	246.19
510.536	890.19
510.752	2973.19
510.968	784.19
511.184	163.19
511.401	121.19
511.617	111.19
511.833	106.19
512.049	110.19
512.265	92.19
512.481	99.19
512.698	84.19
512.914	97.19
513.13	105.19
513.346	85.19
513.562	85.19
513.778	103.19
513.994	106.19
514.21	104.19
514.426	113.19
514.642	152.19
514.858	123.19
515.074	187.19
