Data from Circ_1996_H10_HRD10591_00002.txt Node
Date: Wed Jan 03 11:33:06 EST 2024
User: Yrep
Spectrometer: HR+D1059
Trigger mode: 1
Integration Time (sec): 1.000000E-1
Scans to average: 1
Electric dark correction enabled: true
Nonlinearity correction enabled: false
Boxcar width: 0
XAxis mode: Wavelengths
Number of Pixels in Spectrum: 2048
>>>>>Begin Spectral Data<<<<<
223.165	-20.25
223.4	-20.25
223.635	-20.25
223.869	-17.25
224.104	-21.25
224.338	-17.25
224.573	-23.25
224.808	1.75
225.042	-8.25
225.277	1.75
225.511	-4.25
225.746	6.75
225.98	3.75
226.215	13.75
226.449	10.75
226.683	16.75
226.918	22.75
227.152	33.75
227.387	38.75
227.621	37.75
227.856	45.75
228.09	44.75
228.324	44.75
228.559	48.75
228.793	65.75
229.027	73.75
229.262	62.75
229.496	73.75
229.73	88.75
229.964	79.75
230.199	76.75
230.433	77.75
230.667	76.75
230.901	76.75
231.136	86.75
231.37	69.75
231.604	95.75
231.838	73.75
232.072	87.75
232.306	70.75
232.541	100.75
232.775	93.75
233.009	82.75
233.243	94.75
233.477	91.75
233.711	84.75
233.945	82.75
234.179	105.75
234.413	83.75
234.647	78.75
234.881	92.75
235.115	102.75
235.349	82.75
235.583	88.75
235.817	92.75
236.051	87.75
236.285	66.75
236.519	77.75
236.753	94.75
236.987	82.75
237.221	75.75
237.455	81.75
237.689	86.75
237.922	84.75
238.156	88.75
238.39	85.75
238.624	58.75
238.858	72.75
239.091	78.75
239.325	90.75
239.559	69.75
239.793	73.75
240.027	81.75
240.26	78.75
240.494	79.75
240.728	77.75
240.961	68.75
241.195	84.75
241.429	80.75
241.662	63.75
241.896	79.75
242.13	85.75
242.363	87.75
242.597	73.75
242.83	76.75
243.064	75.75
243.298	73.75
243.531	84.75
243.765	78.75
243.998	81.75
244.232	78.75
244.465	94.75
244.699	83.75
244.932	79.75
245.166	90.75
245.399	77.75
245.633	69.75
245.866	84.75
246.099	79.75
246.333	80.75
246.566	73.75
246.8	72.75
247.033	91.75
247.266	86.75
247.5	82.75
247.733	82.75
247.966	101.75
248.2	77.75
248.433	83.75
248.666	89.75
248.899	78.75
249.133	82.75
249.366	88.75
249.599	91.75
249.832	96.75
250.066	80.75
250.299	83.75
250.532	86.75
250.765	81.75
250.998	83.75
251.231	89.75
251.465	83.75
251.698	89.75
251.931	80.75
252.164	74.75
252.397	85.75
252.63	76.75
252.863	85.75
253.096	65.75
253.329	75.75
253.562	89.75
253.795	85.75
254.028	77.75
254.261	86.75
254.494	69.75
254.727	77.75
254.96	85.75
255.193	80.75
255.426	73.75
255.659	81.75
255.892	87.75
256.124	75.75
256.357	90.75
256.59	81.75
256.823	59.75
257.056	92.75
257.289	85.75
257.521	86.75
257.754	74.75
257.987	84.75
258.22	81.75
258.452	89.75
258.685	73.75
258.918	72.75
259.151	60.75
259.383	87.75
259.616	75.75
259.849	73.75
260.081	75.75
260.314	89.75
260.547	80.75
260.779	95.75
261.012	82.75
261.244	94.75
261.477	93.75
261.71	80.75
261.942	105.75
262.175	117.75
262.407	92.75
262.64	90.75
262.872	85.75
263.105	83.75
263.337	84.75
263.57	78.75
263.802	80.75
264.035	79.75
264.267	90.75
264.499	96.75
264.732	89.75
264.964	86.75
265.197	89.75
265.429	84.75
265.661	77.75
265.894	74.75
266.126	92.75
266.358	97.75
266.591	86.75
266.823	83.75
267.055	80.75
267.287	90.75
267.52	81.75
267.752	77.75
267.984	78.75
268.216	74.75
268.448	85.75
268.681	85.75
268.913	100.75
269.145	94.75
269.377	70.75
269.609	85.75
269.841	87.75
270.073	98.75
270.306	90.75
270.538	74.75
270.77	94.75
271.002	61.75
271.234	66.75
271.466	87.75
271.698	93.75
271.93	87.75
272.162	88.75
272.394	89.75
272.626	89.75
272.858	87.75
273.09	68.75
273.322	85.75
273.553	98.75
273.785	84.75
274.017	81.75
274.249	68.75
274.481	97.75
274.713	82.75
274.945	88.75
275.176	90.75
275.408	80.75
275.64	82.75
275.872	88.75
276.104	95.75
276.335	91.75
276.567	100.75
276.799	97.75
277.031	103.75
277.262	100.75
277.494	89.75
277.726	103.75
277.957	79.75
278.189	94.75
278.421	93.75
278.652	84.75
278.884	79.75
279.115	86.75
279.347	85.75
279.579	90.75
279.81	94.75
280.042	103.75
280.273	98.75
280.505	93.75
280.736	83.75
280.968	94.75
281.199	82.75
281.431	90.75
281.662	84.75
281.894	87.75
282.125	98.75
282.356	107.75
282.588	129.75
282.819	114.75
283.051	84.75
283.282	78.75
283.513	84.75
283.745	82.75
283.976	91.75
284.207	102.75
284.439	96.75
284.67	90.75
284.901	82.75
285.132	81.75
285.364	84.75
285.595	87.75
285.826	82.75
286.057	103.75
286.288	90.75
286.52	81.75
286.751	102.75
286.982	80.75
287.213	76.75
287.444	89.75
287.675	98.75
287.906	93.75
288.138	87.75
288.369	88.75
288.6	88.75
288.831	106.75
289.062	84.75
289.293	75.75
289.524	93.75
289.755	101.75
289.986	74.75
290.217	99.75
290.448	86.75
290.679	105.75
290.91	87.75
291.141	98.75
291.371	92.75
291.602	81.75
291.833	105.75
292.064	87.75
292.295	93.75
292.526	85.75
292.757	87.75
292.987	86.75
293.218	100.75
293.449	100.75
293.68	97.75
293.91	89.75
294.141	83.75
294.372	83.75
294.603	94.75
294.833	83.75
295.064	78.75
295.295	86.75
295.525	89.75
295.756	103.75
295.987	115.75
296.217	134.75
296.448	110.75
296.679	92.75
296.909	78.75
297.14	93.75
297.37	90.75
297.601	99.75
297.831	92.75
298.062	93.75
298.292	80.75
298.523	87.75
298.753	83.75
298.984	98.75
299.214	75.75
299.445	94.75
299.675	101.75
299.905	89.75
300.136	101.75
300.366	91.75
300.597	86.75
300.827	98.75
301.057	105.75
301.288	101.75
301.518	84.75
301.748	79.75
301.979	83.75
302.209	89.75
302.439	95.75
302.669	101.75
302.9	96.75
303.13	81.75
303.36	94.75
303.59	108.75
303.82	114.75
304.051	105.75
304.281	91.75
304.511	98.75
304.741	94.75
304.971	85.75
305.201	87.75
305.431	91.75
305.661	100.75
305.891	89.75
306.121	107.75
306.352	95.75
306.582	107.75
306.812	103.75
307.042	97.75
307.272	98.75
307.502	91.75
307.731	102.75
307.961	106.75
308.191	97.75
308.421	98.75
308.651	87.75
308.881	98.75
309.111	85.75
309.341	100.75
309.571	98.75
309.8	91.75
310.03	95.75
310.26	101.75
310.49	83.75
310.72	110.75
310.949	108.75
311.179	101.75
311.409	89.75
311.639	97.75
311.868	99.75
312.098	87.75
312.328	85.75
312.557	96.75
312.787	107.75
313.017	97.75
313.246	101.75
313.476	100.75
313.706	92.75
313.935	105.75
314.165	98.75
314.394	98.75
314.624	84.75
314.853	100.75
315.083	94.75
315.312	103.75
315.542	98.75
315.771	96.75
316.001	86.75
316.23	85.75
316.46	96.75
316.689	113.75
316.919	94.75
317.148	92.75
317.377	108.75
317.607	91.75
317.836	102.75
318.065	90.75
318.295	90.75
318.524	91.75
318.753	95.75
318.983	95.75
319.212	97.75
319.441	107.75
319.67	108.75
319.9	102.75
320.129	101.75
320.358	103.75
320.587	97.75
320.816	103.75
321.046	114.75
321.275	106.75
321.504	98.75
321.733	109.75
321.962	91.75
322.191	101.75
322.42	121.75
322.649	114.75
322.878	100.75
323.108	122.75
323.337	113.75
323.566	108.75
323.795	111.75
324.024	158.75
324.253	293.75
324.482	548.75
324.71	1090.75
324.939	1402.75
325.168	549.75
325.397	195.75
325.626	130.75
325.855	121.75
326.084	109.75
326.313	109.75
326.542	136.75
326.77	183.75
326.999	308.75
327.228	618.75
327.457	1058.75
327.686	845.75
327.914	276.75
328.143	166.75
328.372	157.75
328.6	124.75
328.829	121.75
329.058	116.75
329.287	126.75
329.515	102.75
329.744	132.75
329.972	125.75
330.201	169.75
330.43	201.75
330.658	141.75
330.887	125.75
331.115	116.75
331.344	110.75
331.572	103.75
331.801	99.75
332.03	101.75
332.258	92.75
332.486	100.75
332.715	107.75
332.943	97.75
333.172	101.75
333.4	96.75
333.629	91.75
333.857	103.75
334.085	140.75
334.314	186.75
334.542	252.75
334.771	224.75
334.999	124.75
335.227	102.75
335.455	98.75
335.684	92.75
335.912	96.75
336.14	123.75
336.369	95.75
336.597	119.75
336.825	108.75
337.053	89.75
337.281	91.75
337.51	88.75
337.738	108.75
337.966	97.75
338.194	100.75
338.422	94.75
338.65	110.75
338.878	104.75
339.106	86.75
339.334	87.75
339.562	79.75
339.79	90.75
340.018	95.75
340.246	93.75
340.474	97.75
340.702	97.75
340.93	93.75
341.158	92.75
341.386	89.75
341.614	92.75
341.842	98.75
342.07	94.75
342.298	89.75
342.526	91.75
342.754	80.75
342.981	89.75
343.209	75.75
343.437	100.75
343.665	77.75
343.893	107.75
344.12	102.75
344.348	96.75
344.576	85.75
344.804	85.75
345.031	101.75
345.259	99.75
345.487	110.75
345.714	100.75
345.942	91.75
346.17	93.75
346.397	104.75
346.625	96.75
346.853	105.75
347.08	94.75
347.308	99.75
347.535	90.75
347.763	97.75
347.99	105.75
348.218	101.75
348.445	108.75
348.673	90.75
348.9	99.75
349.128	105.75
349.355	90.75
349.583	103.75
349.81	96.75
350.037	102.75
350.265	97.75
350.492	92.75
350.72	85.75
350.947	102.75
351.174	102.75
351.402	102.75
351.629	110.75
351.856	87.75
352.083	102.75
352.311	110.75
352.538	103.75
352.765	116.75
352.992	111.75
353.22	109.75
353.447	108.75
353.674	99.75
353.901	103.75
354.128	113.75
354.355	111.75
354.583	95.75
354.81	112.75
355.037	98.75
355.264	106.75
355.491	98.75
355.718	95.75
355.945	101.75
356.172	106.75
356.399	102.75
356.626	103.75
356.853	95.75
357.08	107.75
357.307	102.75
357.534	93.75
357.761	96.75
357.988	109.75
358.215	105.75
358.441	108.75
358.668	110.75
358.895	109.75
359.122	107.75
359.349	87.75
359.576	102.75
359.802	82.75
360.029	102.75
360.256	110.75
360.483	101.75
360.709	101.75
360.936	97.75
361.163	104.75
361.39	100.75
361.616	81.75
361.843	89.75
362.07	100.75
362.296	84.75
362.523	90.75
362.749	95.75
362.976	106.75
363.203	95.75
363.429	99.75
363.656	93.75
363.882	106.75
364.109	89.75
364.335	94.75
364.562	86.75
364.788	93.75
365.015	97.75
365.241	96.75
365.468	102.75
365.694	86.75
365.92	93.75
366.147	87.75
366.373	91.75
366.599	97.75
366.826	94.75
367.052	97.75
367.278	83.75
367.505	95.75
367.731	100.75
367.957	91.75
368.184	97.75
368.41	107.75
368.636	113.75
368.862	118.75
369.089	104.75
369.315	82.75
369.541	105.75
369.767	86.75
369.993	75.75
370.219	92.75
370.445	106.75
370.672	101.75
370.898	93.75
371.124	103.75
371.35	102.75
371.576	86.75
371.802	93.75
372.028	84.75
372.254	87.75
372.48	98.75
372.706	94.75
372.932	99.75
373.158	89.75
373.384	87.75
373.61	96.75
373.835	89.75
374.061	89.75
374.287	98.75
374.513	105.75
374.739	94.75
374.965	93.75
375.191	93.75
375.416	96.75
375.642	98.75
375.868	87.75
376.094	92.75
376.319	94.75
376.545	106.75
376.771	90.75
376.997	91.75
377.222	105.75
377.448	101.75
377.674	103.75
377.899	91.75
378.125	93.75
378.35	95.75
378.576	100.75
378.802	91.75
379.027	90.75
379.253	100.75
379.478	107.75
379.704	108.75
379.929	114.75
380.155	106.75
380.38	106.75
380.606	96.75
380.831	113.75
381.057	112.75
381.282	107.75
381.507	109.75
381.733	106.75
381.958	111.75
382.184	110.75
382.409	117.75
382.634	118.75
382.86	111.75
383.085	123.75
383.31	114.75
383.535	120.75
383.761	113.75
383.986	107.75
384.211	90.75
384.436	109.75
384.662	117.75
384.887	120.75
385.112	127.75
385.337	135.75
385.562	143.75
385.787	143.75
386.013	123.75
386.238	131.75
386.463	123.75
386.688	128.75
386.913	129.75
387.138	126.75
387.363	130.75
387.588	110.75
387.813	110.75
388.038	123.75
388.263	154.75
388.488	155.75
388.713	111.75
388.938	105.75
389.163	108.75
389.387	100.75
389.612	107.75
389.837	104.75
390.062	100.75
390.287	95.75
390.512	89.75
390.736	90.75
390.961	91.75
391.186	82.75
391.411	93.75
391.636	100.75
391.86	96.75
392.085	85.75
392.31	82.75
392.534	97.75
392.759	96.75
392.984	81.75
393.208	101.75
393.433	136.75
393.658	130.75
393.882	94.75
394.107	91.75
394.331	90.75
394.556	103.75
394.78	97.75
395.005	98.75
395.229	92.75
395.454	94.75
395.678	94.75
395.903	96.75
396.127	89.75
396.352	105.75
396.576	91.75
396.801	107.75
397.025	119.75
397.249	98.75
397.474	94.75
397.698	90.75
397.922	93.75
398.147	93.75
398.371	94.75
398.595	84.75
398.82	77.75
399.044	76.75
399.268	86.75
399.492	98.75
399.717	95.75
399.941	101.75
400.165	96.75
400.389	93.75
400.613	82.75
400.837	106.75
401.062	83.75
401.286	85.75
401.51	99.75
401.734	96.75
401.958	101.75
402.182	118.75
402.406	150.75
402.63	110.75
402.854	97.75
403.078	85.75
403.302	94.75
403.526	96.75
403.75	89.75
403.974	86.75
404.198	89.75
404.422	79.75
404.645	94.75
404.869	90.75
405.093	91.75
405.317	101.75
405.541	83.75
405.765	84.75
405.988	117.75
406.212	170.75
406.436	199.75
406.66	118.75
406.883	92.75
407.107	88.75
407.331	99.75
407.555	106.75
407.778	97.75
408.002	87.75
408.226	86.75
408.449	94.75
408.673	90.75
408.896	95.75
409.12	90.75
409.344	94.75
409.567	95.75
409.791	93.75
410.014	107.75
410.238	96.75
410.461	94.75
410.685	105.75
410.908	102.75
411.132	93.75
411.355	101.75
411.578	101.75
411.802	92.75
412.025	86.75
412.249	110.75
412.472	81.75
412.695	109.75
412.919	88.75
413.142	85.75
413.365	87.75
413.589	78.75
413.812	85.75
414.035	91.75
414.258	88.75
414.482	91.75
414.705	88.75
414.928	104.75
415.151	101.75
415.374	110.75
415.597	91.75
415.821	95.75
416.044	103.75
416.267	98.75
416.49	94.75
416.713	95.75
416.936	84.75
417.159	96.75
417.382	100.75
417.605	102.75
417.828	105.75
418.051	86.75
418.274	93.75
418.497	80.75
418.72	81.75
418.943	81.75
419.166	101.75
419.389	98.75
419.611	93.75
419.834	90.75
420.057	97.75
420.28	79.75
420.503	97.75
420.726	95.75
420.948	97.75
421.171	85.75
421.394	82.75
421.617	102.75
421.839	77.75
422.062	86.75
422.285	93.75
422.507	95.75
422.73	99.75
422.953	107.75
423.175	94.75
423.398	99.75
423.621	85.75
423.843	91.75
424.066	87.75
424.288	85.75
424.511	96.75
424.733	100.75
424.956	97.75
425.178	97.75
425.401	112.75
425.623	113.75
425.846	92.75
426.068	95.75
426.291	101.75
426.513	91.75
426.735	102.75
426.958	87.75
427.18	100.75
427.402	120.75
427.625	128.75
427.847	123.75
428.069	127.75
428.292	95.75
428.514	92.75
428.736	88.75
428.958	91.75
429.181	92.75
429.403	100.75
429.625	87.75
429.847	79.75
430.069	83.75
430.292	95.75
430.514	91.75
430.736	87.75
430.958	82.75
431.18	89.75
431.402	91.75
431.624	73.75
431.846	92.75
432.068	91.75
432.29	90.75
432.512	89.75
432.734	81.75
432.956	86.75
433.178	87.75
433.4	81.75
433.622	93.75
433.844	81.75
434.066	88.75
434.287	81.75
434.509	80.75
434.731	86.75
434.953	83.75
435.175	81.75
435.397	88.75
435.618	83.75
435.84	101.75
436.062	123.75
436.284	89.75
436.505	88.75
436.727	92.75
436.949	81.75
437.17	84.75
437.392	95.75
437.614	78.75
437.835	99.75
438.057	101.75
438.278	101.75
438.5	92.75
438.721	104.75
438.943	103.75
439.165	95.75
439.386	85.75
439.608	92.75
439.829	99.75
440.05	107.75
440.272	128.75
440.493	89.75
440.715	85.75
440.936	89.75
441.158	80.75
441.379	83.75
441.6	95.75
441.822	83.75
442.043	99.75
442.264	95.75
442.486	103.75
442.707	94.75
442.928	107.75
443.149	114.75
443.371	117.75
443.592	109.75
443.813	97.75
444.034	89.75
444.255	100.75
444.476	84.75
444.698	93.75
444.919	87.75
445.14	134.75
445.361	117.75
445.582	98.75
445.803	133.75
446.024	119.75
446.245	104.75
446.466	96.75
446.687	85.75
446.908	85.75
447.129	93.75
447.35	88.75
447.571	96.75
447.792	97.75
448.013	84.75
448.234	109.75
448.455	85.75
448.675	103.75
448.896	109.75
449.117	102.75
449.338	105.75
449.559	98.75
449.779	117.75
450	102.75
450.221	86.75
450.442	87.75
450.662	94.75
450.883	102.75
451.104	105.75
451.324	89.75
451.545	76.75
451.766	90.75
451.986	93.75
452.207	84.75
452.428	92.75
452.648	102.75
452.869	109.75
453.089	108.75
453.31	123.75
453.53	93.75
453.751	82.75
453.971	93.75
454.192	91.75
454.412	91.75
454.633	89.75
454.853	85.75
455.073	90.75
455.294	98.75
455.514	78.75
455.734	90.75
455.955	80.75
456.175	80.75
456.395	86.75
456.616	90.75
456.836	78.75
457.056	70.75
457.276	84.75
457.497	82.75
457.717	83.75
457.937	89.75
458.157	93.75
458.377	86.75
458.598	99.75
458.818	122.75
459.038	142.75
459.258	101.75
459.478	88.75
459.698	87.75
459.918	85.75
460.138	95.75
460.358	81.75
460.578	85.75
460.798	96.75
461.018	83.75
461.238	89.75
461.458	77.75
461.678	90.75
461.898	95.75
462.118	91.75
462.338	83.75
462.558	99.75
462.777	81.75
462.997	89.75
463.217	95.75
463.437	86.75
463.657	93.75
463.876	87.75
464.096	99.75
464.316	93.75
464.536	95.75
464.755	89.75
464.975	96.75
465.195	129.75
465.414	133.75
465.634	83.75
465.854	91.75
466.073	101.75
466.293	85.75
466.512	83.75
466.732	71.75
466.951	78.75
467.171	79.75
467.391	90.75
467.61	94.75
467.829	102.75
468.049	137.75
468.268	153.75
468.488	89.75
468.707	90.75
468.927	87.75
469.146	86.75
469.365	78.75
469.585	94.75
469.804	100.75
470.023	93.75
470.243	87.75
470.462	86.75
470.681	107.75
470.901	85.75
471.12	90.75
471.339	91.75
471.558	106.75
471.777	95.75
471.997	115.75
472.216	191.75
472.435	300.75
472.654	126.75
472.873	96.75
473.092	82.75
473.311	91.75
473.53	94.75
473.749	91.75
473.968	87.75
474.187	113.75
474.406	71.75
474.625	94.75
474.844	81.75
475.063	91.75
475.282	86.75
475.501	78.75
475.72	86.75
475.939	86.75
476.158	102.75
476.377	84.75
476.596	87.75
476.814	97.75
477.033	82.75
477.252	87.75
477.471	87.75
477.69	83.75
477.908	94.75
478.127	95.75
478.346	82.75
478.564	95.75
478.783	92.75
479.002	89.75
479.22	100.75
479.439	93.75
479.658	101.75
479.876	110.75
480.095	97.75
480.313	101.75
480.532	80.75
480.751	131.75
480.969	198.75
481.188	508.75
481.406	307.75
481.624	115.75
481.843	92.75
482.061	96.75
482.28	86.75
482.498	88.75
482.717	87.75
482.935	82.75
483.153	97.75
483.372	92.75
483.59	89.75
483.808	93.75
484.027	94.75
484.245	91.75
484.463	92.75
484.681	119.75
484.9	79.75
485.118	99.75
485.336	112.75
485.554	101.75
485.772	110.75
485.99	121.75
486.209	120.75
486.427	110.75
486.645	100.75
486.863	125.75
487.081	93.75
487.299	105.75
487.517	95.75
487.735	91.75
487.953	94.75
488.171	96.75
488.389	91.75
488.607	98.75
488.825	91.75
489.043	84.75
489.261	88.75
489.479	88.75
489.696	90.75
489.914	89.75
490.132	93.75
490.35	81.75
490.568	84.75
490.786	79.75
491.003	91.75
491.221	85.75
491.439	85.75
491.657	91.75
491.874	100.75
492.092	94.75
492.31	87.75
492.527	82.75
492.745	82.75
492.963	93.75
493.18	92.75
493.398	96.75
493.615	107.75
493.833	98.75
494.05	102.75
494.268	92.75
494.485	74.75
494.703	95.75
494.92	82.75
495.138	85.75
495.355	100.75
495.573	96.75
495.79	97.75
496.008	96.75
496.225	116.75
496.442	97.75
496.66	83.75
496.877	85.75
497.094	101.75
497.312	94.75
497.529	89.75
497.746	97.75
497.963	93.75
498.181	90.75
498.398	95.75
498.615	120.75
498.832	102.75
499.049	90.75
499.267	97.75
499.484	90.75
499.701	91.75
499.918	101.75
500.135	89.75
500.352	93.75
500.569	97.75
500.786	93.75
501.003	95.75
501.22	97.75
501.437	93.75
501.654	83.75
501.871	106.75
502.088	93.75
502.305	107.75
502.522	85.75
502.739	96.75
502.956	93.75
503.172	85.75
503.389	101.75
503.606	106.75
503.823	85.75
504.04	110.75
504.256	97.75
504.473	93.75
504.69	85.75
504.907	85.75
505.123	81.75
505.34	84.75
505.557	86.75
505.773	91.75
505.99	94.75
506.207	90.75
506.423	92.75
506.64	84.75
506.856	84.75
507.073	86.75
507.289	97.75
507.506	99.75
507.722	100.75
507.939	103.75
508.155	99.75
508.372	102.75
508.588	94.75
508.805	90.75
509.021	94.75
509.238	93.75
509.454	90.75
509.67	92.75
509.887	116.75
510.103	113.75
510.319	203.75
510.536	646.75
510.752	2052.75
510.968	577.75
511.184	142.75
511.401	103.75
511.617	106.75
511.833	100.75
512.049	91.75
512.265	86.75
512.481	93.75
512.698	84.75
512.914	93.75
513.13	95.75
513.346	88.75
513.562	87.75
513.778	106.75
513.994	84.75
514.21	91.75
514.426	100.75
514.642	107.75
