Data from Circ_1996_H10_HRD10591_00031.txt Node
Date: Wed Jan 03 11:33:12 EST 2024
User: Yrep
Spectrometer: HR+D1059
Trigger mode: 1
Integration Time (sec): 1.000000E-1
Scans to average: 1
Electric dark correction enabled: true
Nonlinearity correction enabled: false
Boxcar width: 0
XAxis mode: Wavelengths
Number of Pixels in Spectrum: 2048
>>>>>Begin Spectral Data<<<<<
223.165	-29
223.4	-29
223.635	-29
223.869	-30
224.104	-20
224.338	-11
224.573	-13
224.808	-12
225.042	4
225.277	-8
225.511	11
225.746	6
225.98	4
226.215	6
226.449	14
226.683	12
226.918	32
227.152	34
227.387	35
227.621	44
227.856	48
228.09	28
228.324	51
228.559	69
228.793	63
229.027	75
229.262	70
229.496	73
229.73	97
229.964	88
230.199	66
230.433	72
230.667	69
230.901	85
231.136	78
231.37	78
231.604	85
231.838	87
232.072	74
232.306	86
232.541	93
232.775	69
233.009	92
233.243	77
233.477	90
233.711	81
233.945	93
234.179	70
234.413	84
234.647	73
234.881	91
235.115	88
235.349	100
235.583	80
235.817	67
236.051	72
236.285	84
236.519	80
236.753	77
236.987	82
237.221	95
237.455	82
237.689	82
237.922	77
238.156	86
238.39	65
238.624	79
238.858	86
239.091	68
239.325	70
239.559	90
239.793	88
240.027	90
240.26	74
240.494	80
240.728	82
240.961	80
241.195	81
241.429	82
241.662	82
241.896	89
242.13	83
242.363	82
242.597	82
242.83	59
243.064	85
243.298	81
243.531	87
243.765	93
243.998	80
244.232	85
244.465	84
244.699	69
244.932	80
245.166	90
245.399	85
245.633	81
245.866	89
246.099	85
246.333	86
246.566	89
246.8	85
247.033	83
247.266	73
247.5	88
247.733	81
247.966	82
248.2	80
248.433	85
248.666	80
248.899	77
249.133	76
249.366	81
249.599	90
249.832	74
250.066	75
250.299	79
250.532	83
250.765	74
250.998	99
251.231	82
251.465	84
251.698	76
251.931	97
252.164	70
252.397	82
252.63	82
252.863	73
253.096	84
253.329	85
253.562	91
253.795	90
254.028	96
254.261	90
254.494	85
254.727	85
254.96	78
255.193	90
255.426	89
255.659	81
255.892	90
256.124	79
256.357	87
256.59	69
256.823	93
257.056	81
257.289	84
257.521	76
257.754	84
257.987	92
258.22	77
258.452	76
258.685	88
258.918	86
259.151	74
259.383	82
259.616	85
259.849	85
260.081	93
260.314	93
260.547	89
260.779	81
261.012	69
261.244	96
261.477	87
261.71	91
261.942	125
262.175	114
262.407	99
262.64	86
262.872	98
263.105	75
263.337	80
263.57	80
263.802	97
264.035	96
264.267	77
264.499	73
264.732	85
264.964	64
265.197	84
265.429	80
265.661	91
265.894	81
266.126	85
266.358	81
266.591	96
266.823	77
267.055	86
267.287	74
267.52	92
267.752	79
267.984	83
268.216	82
268.448	84
268.681	93
268.913	83
269.145	85
269.377	89
269.609	87
269.841	88
270.073	75
270.306	84
270.538	81
270.77	98
271.002	81
271.234	91
271.466	88
271.698	84
271.93	82
272.162	94
272.394	91
272.626	99
272.858	88
273.09	88
273.322	73
273.553	85
273.785	92
274.017	77
274.249	80
274.481	88
274.713	93
274.945	88
275.176	74
275.408	81
275.64	89
275.872	89
276.104	97
276.335	74
276.567	102
276.799	117
277.031	92
277.262	94
277.494	99
277.726	85
277.957	96
278.189	91
278.421	86
278.652	89
278.884	92
279.115	90
279.347	80
279.579	99
279.81	86
280.042	93
280.273	100
280.505	93
280.736	84
280.968	96
281.199	94
281.431	81
281.662	83
281.894	85
282.125	96
282.356	100
282.588	133
282.819	89
283.051	90
283.282	91
283.513	99
283.745	87
283.976	91
284.207	89
284.439	92
284.67	102
284.901	102
285.132	96
285.364	79
285.595	87
285.826	80
286.057	94
286.288	90
286.52	99
286.751	89
286.982	95
287.213	78
287.444	96
287.675	96
287.906	98
288.138	100
288.369	96
288.6	84
288.831	104
289.062	92
289.293	79
289.524	100
289.755	76
289.986	85
290.217	93
290.448	78
290.679	103
290.91	88
291.141	91
291.371	84
291.602	90
291.833	72
292.064	108
292.295	100
292.526	72
292.757	93
292.987	87
293.218	84
293.449	84
293.68	98
293.91	92
294.141	88
294.372	100
294.603	91
294.833	85
295.064	101
295.295	80
295.525	87
295.756	116
295.987	115
296.217	133
296.448	118
296.679	94
296.909	77
297.14	91
297.37	88
297.601	84
297.831	93
298.062	104
298.292	86
298.523	98
298.753	88
298.984	85
299.214	86
299.445	101
299.675	83
299.905	90
300.136	100
300.366	82
300.597	102
300.827	90
301.057	110
301.288	84
301.518	97
301.748	95
301.979	101
302.209	82
302.439	79
302.669	84
302.9	91
303.13	96
303.36	95
303.59	93
303.82	100
304.051	89
304.281	95
304.511	84
304.741	94
304.971	100
305.201	90
305.431	90
305.661	91
305.891	101
306.121	92
306.352	110
306.582	102
306.812	93
307.042	101
307.272	110
307.502	111
307.731	96
307.961	86
308.191	92
308.421	89
308.651	112
308.881	107
309.111	86
309.341	84
309.571	97
309.8	101
310.03	102
310.26	97
310.49	104
310.72	92
310.949	97
311.179	99
311.409	96
311.639	78
311.868	87
312.098	96
312.328	99
312.557	102
312.787	100
313.017	96
313.246	96
313.476	79
313.706	80
313.935	91
314.165	100
314.394	107
314.624	106
314.853	97
315.083	97
315.312	100
315.542	98
315.771	101
316.001	98
316.23	87
316.46	85
316.689	94
316.919	98
317.148	105
317.377	89
317.607	101
317.836	88
318.065	78
318.295	95
318.524	98
318.753	101
318.983	111
319.212	92
319.441	102
319.67	116
319.9	105
320.129	91
320.358	100
320.587	109
320.816	89
321.046	110
321.275	100
321.504	98
321.733	99
321.962	97
322.191	107
322.42	120
322.649	100
322.878	106
323.108	110
323.337	129
323.566	117
323.795	123
324.024	177
324.253	300
324.482	579
324.71	1127
324.939	1496
325.168	596
325.397	195
325.626	160
325.855	127
326.084	117
326.313	113
326.542	114
326.77	178
326.999	315
327.228	626
327.457	1114
327.686	874
327.914	298
328.143	179
328.372	158
328.6	132
328.829	115
329.058	103
329.287	112
329.515	105
329.744	109
329.972	126
330.201	163
330.43	176
330.658	139
330.887	139
331.115	101
331.344	103
331.572	97
331.801	110
332.03	85
332.258	108
332.486	92
332.715	101
332.943	99
333.172	96
333.4	101
333.629	103
333.857	109
334.085	126
334.314	149
334.542	202
334.771	186
334.999	120
335.227	91
335.455	91
335.684	95
335.912	95
336.14	101
336.369	98
336.597	83
336.825	85
337.053	93
337.281	90
337.51	85
337.738	82
337.966	97
338.194	101
338.422	103
338.65	98
338.878	93
339.106	97
339.334	101
339.562	99
339.79	91
340.018	99
340.246	91
340.474	81
340.702	78
340.93	93
341.158	98
341.386	99
341.614	83
341.842	89
342.07	75
342.298	97
342.526	102
342.754	102
342.981	93
343.209	84
343.437	102
343.665	80
343.893	82
344.12	95
344.348	94
344.576	95
344.804	85
345.031	102
345.259	85
345.487	83
345.714	105
345.942	97
346.17	91
346.397	91
346.625	91
346.853	100
347.08	85
347.308	76
347.535	77
347.763	93
347.99	82
348.218	97
348.445	115
348.673	101
348.9	91
349.128	101
349.355	98
349.583	95
349.81	86
350.037	95
350.265	99
350.492	97
350.72	94
350.947	86
351.174	103
351.402	95
351.629	92
351.856	96
352.083	99
352.311	106
352.538	113
352.765	94
352.992	123
353.22	115
353.447	92
353.674	89
353.901	98
354.128	101
354.355	110
354.583	97
354.81	91
355.037	106
355.264	85
355.491	91
355.718	103
355.945	100
356.172	95
356.399	99
356.626	97
356.853	81
357.08	83
357.307	94
357.534	92
357.761	91
357.988	97
358.215	88
358.441	105
358.668	108
358.895	100
359.122	104
359.349	95
359.576	93
359.802	106
360.029	124
360.256	115
360.483	99
360.709	101
360.936	104
361.163	79
361.39	95
361.616	97
361.843	94
362.07	102
362.296	102
362.523	92
362.749	94
362.976	93
363.203	98
363.429	91
363.656	85
363.882	95
364.109	88
364.335	88
364.562	86
364.788	91
365.015	92
365.241	105
365.468	100
365.694	99
365.92	85
366.147	102
366.373	90
366.599	81
366.826	84
367.052	111
367.278	86
367.505	82
367.731	101
367.957	92
368.184	85
368.41	102
368.636	102
368.862	123
369.089	108
369.315	83
369.541	87
369.767	94
369.993	88
370.219	97
370.445	85
370.672	93
370.898	82
371.124	86
371.35	114
371.576	85
371.802	84
372.028	108
372.254	94
372.48	90
372.706	84
372.932	92
373.158	87
373.384	82
373.61	85
373.835	92
374.061	88
374.287	93
374.513	92
374.739	100
374.965	97
375.191	88
375.416	82
375.642	92
375.868	108
376.094	88
376.319	87
376.545	89
376.771	94
376.997	89
377.222	81
377.448	76
377.674	84
377.899	93
378.125	82
378.35	92
378.576	100
378.802	89
379.027	96
379.253	99
379.478	94
379.704	106
379.929	83
380.155	93
380.38	101
380.606	87
380.831	97
381.057	103
381.282	91
381.507	93
381.733	86
381.958	101
382.184	93
382.409	96
382.634	88
382.86	94
383.085	97
383.31	93
383.535	118
383.761	131
383.986	107
384.211	97
384.436	96
384.662	90
384.887	118
385.112	97
385.337	102
385.562	112
385.787	111
386.013	113
386.238	123
386.463	112
386.688	132
386.913	118
387.138	115
387.363	116
387.588	102
387.813	108
388.038	117
388.263	122
388.488	95
388.713	100
388.938	104
389.163	94
389.387	79
389.612	85
389.837	94
390.062	82
390.287	85
390.512	88
390.736	88
390.961	93
391.186	89
391.411	85
391.636	85
391.86	88
392.085	89
392.31	94
392.534	96
392.759	85
392.984	85
393.208	97
393.433	127
393.658	100
393.882	90
394.107	88
394.331	83
394.556	82
394.78	78
395.005	98
395.229	83
395.454	88
395.678	100
395.903	80
396.127	98
396.352	86
396.576	84
396.801	93
397.025	106
397.249	90
397.474	99
397.698	86
397.922	90
398.147	93
398.371	82
398.595	93
398.82	93
399.044	85
399.268	83
399.492	90
399.717	87
399.941	90
400.165	91
400.389	87
400.613	91
400.837	80
401.062	84
401.286	96
401.51	93
401.734	96
401.958	108
402.182	115
402.406	138
402.63	112
402.854	87
403.078	90
403.302	92
403.526	93
403.75	72
403.974	77
404.198	95
404.422	85
404.645	95
404.869	102
405.093	77
405.317	93
405.541	110
405.765	98
405.988	119
406.212	164
406.436	204
406.66	124
406.883	94
407.107	95
407.331	92
407.555	99
407.778	105
408.002	102
408.226	96
408.449	82
408.673	91
408.896	88
409.12	88
409.344	86
409.567	83
409.791	84
410.014	90
410.238	96
410.461	112
410.685	99
410.908	94
411.132	92
411.355	96
411.578	102
411.802	87
412.025	84
412.249	77
412.472	93
412.695	89
412.919	85
413.142	94
413.365	99
413.589	81
413.812	82
414.035	107
414.258	94
414.482	81
414.705	84
414.928	97
415.151	98
415.374	115
415.597	97
415.821	73
416.044	98
416.267	82
416.49	81
416.713	91
416.936	102
417.159	88
417.382	92
417.605	88
417.828	109
418.051	89
418.274	85
418.497	89
418.72	86
418.943	92
419.166	83
419.389	86
419.611	91
419.834	85
420.057	85
420.28	107
420.503	81
420.726	85
420.948	91
421.171	96
421.394	89
421.617	81
421.839	97
422.062	92
422.285	99
422.507	81
422.73	93
422.953	97
423.175	93
423.398	84
423.621	83
423.843	87
424.066	86
424.288	92
424.511	94
424.733	95
424.956	96
425.178	100
425.401	94
425.623	96
425.846	92
426.068	97
426.291	90
426.513	83
426.735	89
426.958	108
427.18	120
427.402	130
427.625	146
427.847	108
428.069	99
428.292	88
428.514	90
428.736	92
428.958	81
429.181	94
429.403	92
429.625	96
429.847	97
430.069	96
430.292	89
430.514	79
430.736	89
430.958	84
431.18	94
431.402	82
431.624	78
431.846	99
432.068	84
432.29	76
432.512	101
432.734	77
432.956	79
433.178	94
433.4	98
433.622	96
433.844	95
434.066	94
434.287	83
434.509	94
434.731	80
434.953	85
435.175	83
435.397	89
435.618	106
435.84	84
436.062	96
436.284	103
436.505	98
436.727	101
436.949	83
437.17	80
437.392	90
437.614	81
437.835	107
438.057	104
438.278	100
438.5	97
438.721	99
438.943	81
439.165	95
439.386	95
439.608	93
439.829	109
440.05	106
440.272	140
440.493	92
440.715	89
440.936	93
441.158	79
441.379	88
441.6	106
441.822	85
442.043	94
442.264	98
442.486	101
442.707	84
442.928	101
443.149	126
443.371	133
443.592	116
443.813	106
444.034	101
444.255	80
444.476	80
444.698	93
444.919	101
445.14	131
445.361	111
445.582	97
445.803	109
446.024	128
446.245	109
446.466	115
446.687	91
446.908	66
447.129	88
447.35	105
447.571	92
447.792	82
448.013	100
448.234	107
448.455	106
448.675	106
448.896	120
449.117	87
449.338	101
449.559	110
449.779	88
450	94
450.221	94
450.442	87
450.662	98
450.883	94
451.104	104
451.324	96
451.545	73
451.766	76
451.986	96
452.207	86
452.428	102
452.648	108
452.869	100
453.089	111
453.31	110
453.53	103
453.751	108
453.971	114
454.192	100
454.412	96
454.633	102
454.853	88
455.073	78
455.294	98
455.514	96
455.734	101
455.955	88
456.175	90
456.395	86
456.616	89
456.836	90
457.056	81
457.276	79
457.497	90
457.717	95
457.937	101
458.157	90
458.377	100
458.598	114
458.818	128
459.038	136
459.258	99
459.478	97
459.698	89
459.918	83
460.138	85
460.358	86
460.578	91
460.798	84
461.018	83
461.238	83
461.458	98
461.678	85
461.898	95
462.118	88
462.338	88
462.558	85
462.777	80
462.997	84
463.217	81
463.437	88
463.657	87
463.876	96
464.096	98
464.316	92
464.536	88
464.755	93
464.975	106
465.195	144
465.414	123
465.634	93
465.854	90
466.073	89
466.293	79
466.512	94
466.732	93
466.951	84
467.171	92
467.391	99
467.61	98
467.829	94
468.049	125
468.268	138
468.488	93
468.707	86
468.927	99
469.146	88
469.365	99
469.585	104
469.804	84
470.023	80
470.243	81
470.462	88
470.681	117
470.901	107
471.12	100
471.339	90
471.558	75
471.777	83
471.997	107
472.216	156
472.435	232
472.654	127
472.873	85
473.092	102
473.311	95
473.53	88
473.749	90
473.968	94
474.187	94
474.406	89
474.625	94
474.844	94
475.063	99
475.282	101
475.501	85
475.72	93
475.939	81
476.158	91
476.377	77
476.596	100
476.814	89
477.033	94
477.252	90
477.471	97
477.69	96
477.908	94
478.127	90
478.346	80
478.564	95
478.783	94
479.002	85
479.22	73
479.439	104
479.658	108
479.876	97
480.095	98
480.313	82
480.532	82
480.751	92
480.969	163
481.188	372
481.406	253
481.624	114
481.843	97
482.061	82
482.28	82
482.498	88
482.717	91
482.935	91
483.153	83
483.372	93
483.59	92
483.808	74
484.027	101
484.245	99
484.463	86
484.681	98
484.9	102
485.118	101
485.336	104
485.554	108
485.772	101
485.99	89
486.209	101
486.427	117
486.645	98
486.863	114
487.081	89
487.299	107
487.517	108
487.735	93
487.953	89
488.171	111
488.389	81
488.607	99
488.825	98
489.043	102
489.261	80
489.479	68
489.696	81
489.914	94
490.132	93
490.35	110
490.568	97
490.786	105
491.003	93
491.221	93
491.439	85
491.657	102
491.874	93
492.092	79
492.31	96
492.527	91
492.745	97
492.963	91
493.18	105
493.398	99
493.615	82
493.833	94
494.05	81
494.268	84
494.485	94
494.703	103
494.92	92
495.138	86
495.355	92
495.573	96
495.79	92
496.008	100
496.225	98
496.442	78
496.66	95
496.877	98
497.094	99
497.312	93
497.529	100
497.746	90
497.963	87
498.181	94
498.398	125
498.615	124
498.832	108
499.049	91
499.267	88
499.484	93
499.701	84
499.918	88
500.135	93
500.352	102
500.569	93
500.786	102
501.003	96
501.22	80
501.437	90
501.654	102
501.871	123
502.088	94
502.305	99
502.522	92
502.739	91
502.956	95
503.172	84
503.389	76
503.606	96
503.823	90
504.04	96
504.256	90
504.473	88
504.69	93
504.907	84
505.123	87
505.34	91
505.557	84
505.773	93
505.99	80
506.207	95
506.423	80
506.64	105
506.856	103
507.073	98
507.289	94
507.506	90
507.722	117
507.939	109
508.155	86
508.372	89
508.588	91
508.805	101
509.021	87
509.238	104
509.454	110
509.67	95
509.887	111
510.103	126
510.319	216
510.536	713
510.752	2292
510.968	643
511.184	160
511.401	97
511.617	92
511.833	94
512.049	100
512.265	105
512.481	90
512.698	92
512.914	92
513.13	104
513.346	94
513.562	103
513.778	116
513.994	102
514.21	100
514.426	112
514.642	146
514.858	120
515.074	163
515.29	395
515.506	1298
515.721	503
515.937	144
516.153	100
516.369	104
516.585	86
516.801	108
517.016	93
517.232	95
517.448	90
517.664	91
517.879	99
518.095	98
518.311	99
518.527	91
518.742	101
518.958	91
519.173	89
519.389	89
519.605	96
519.82	103
520.036	87
520.251	114
520.467	107
520.682	99
520.898	111
521.113	117
521.329	134
521.544	190
521.76	475
521.975	2045
522.19	1261
522.406	276
522.621	120
522.836	93
523.052	104
523.267	92
523.482	93
523.698	93
523.913	107
524.128	102
524.343	96
524.559	99
524.774	94
524.989	97
525.204	98
525.419	110
525.634	80
525.849	83
526.064	95
526.28	105
526.495	91
526.71	88
526.925	87
527.14	86
527.355	95
527.57	94
527.785	90
527.999	96
528.214	97
528.429	99
528.644	98
528.859	90
529.074	96
529.289	116
529.503	158
529.718	99
529.933	95
530.148	101
530.363	101
530.577	78
530.792	79
531.007	110
531.221	104
531.436	81
531.651	73
531.865	92
532.08	108
532.295	86
532.509	73
532.724	108
532.938	96
533.153	84
533.367	93
533.582	95
533.796	100
534.011	101
534.225	92
534.44	109
534.654	91
534.868	100
535.083	87
535.297	88
535.511	93
535.726	95
535.94	97
536.154	90
536.369	94
536.583	86
536.797	97
537.011	82
537.225	85
537.44	88
537.654	85
537.868	91
538.082	102
538.296	90
538.51	89
538.724	83
538.938	82
539.153	77
539.367	99
539.581	92
539.795	90
540.009	81
540.222	96
540.436	108
540.65	84
540.864	95
541.078	91
541.292	101
541.506	90
541.72	109
541.934	96
542.147	89
542.361	89
542.575	94
542.789	77
543.002	79
543.216	113
543.43	104
543.644	83
543.857	85
544.071	95
544.285	80
544.498	91
544.712	86
544.925	96
545.139	92
545.352	97
545.566	91
545.779	108
545.993	72
546.206	77
546.42	97
546.633	92
546.847	96
547.06	92
547.274	90
547.487	86
547.7	95
547.914	102
548.127	74
548.34	76
548.554	85
548.767	68
548.98	87
549.193	78
549.407	91
549.62	89
549.833	107
550.046	81
550.259	89
550.473	83
550.686	90
550.899	96
551.112	88
551.325	101
551.538	90
551.751	97
551.964	92
552.177	84
552.39	83
552.603	92
552.816	93
553.029	89
553.242	99
553.455	95
553.667	105
553.88	99
554.093	94
554.306	86
554.519	93
554.732	94
554.944	94
555.157	86
555.37	102
555.583	107
555.795	102
556.008	85
556.221	78
556.433	88
556.646	83
556.859	100
557.071	87
557.284	99
557.496	85
557.709	92
557.921	94
558.134	89
558.346	89
558.559	83
558.771	92
558.984	83
559.196	98
559.409	88
559.621	92
559.833	91
560.046	98
560.258	109
560.47	96
560.683	88
560.895	93
561.107	79
561.32	85
561.532	89
561.744	93
561.956	93
562.168	93
562.381	99
562.593	96
562.805	84
563.017	88
563.229	89
563.441	99
563.653	88
563.865	83
564.077	81
564.289	94
564.501	93
564.713	88
564.925	84
565.137	101
565.349	90
565.561	93
565.773	86
565.985	84
566.197	81
566.408	94
566.62	92
566.832	93
567.044	88
567.255	102
567.467	97
567.679	90
567.891	83
568.102	81
568.314	84
568.526	86
568.737	94
568.949	96
569.161	91
569.372	88
569.584	113
569.795	97
570.007	122
570.218	236
570.43	122
570.641	100
570.853	88
571.064	91
571.276	79
571.487	87
571.698	81
571.91	88
572.121	87
572.333	114
572.544	96
572.755	88
572.966	81
573.178	80
573.389	80
573.6	77
573.811	80
574.023	98
574.234	102
574.445	102
574.656	92
574.867	100
575.078	97
575.289	78
575.501	92
575.712	109
575.923	101
576.134	91
576.345	85
576.556	85
576.767	97
576.978	81
577.188	95
577.399	96
577.61	99
577.821	94
578.032	111
578.243	253
578.454	675
578.665	207
578.875	102
579.086	86
579.297	101
579.508	90
579.718	98
579.929	78
580.14	90
580.35	89
580.561	86
580.772	97
580.982	93
581.193	90
581.403	89
581.614	89
581.825	89
582.035	85
582.246	96
582.456	76
582.667	85
582.877	93
583.087	71
583.298	76
583.508	83
583.719	104
