Data from Circ_1996_H10_HRD10591_00001.txt Node
Date: Wed Jan 03 11:33:06 EST 2024
User: Yrep
Spectrometer: HR+D1059
Trigger mode: 1
Integration Time (sec): 1.000000E-1
Scans to average: 1
Electric dark correction enabled: true
Nonlinearity correction enabled: false
Boxcar width: 0
XAxis mode: Wavelengths
Number of Pixels in Spectrum: 2048
>>>>>Begin Spectral Data<<<<<
223.165	-19
223.4	-19
223.635	-19
223.869	-10
224.104	-26
224.338	-5
224.573	-23
224.808	-21
225.042	-9
225.277	-9
225.511	-7
225.746	10
225.98	20
226.215	18
226.449	17
226.683	12
226.918	32
227.152	20
227.387	37
227.621	40
227.856	44
228.09	47
228.324	43
228.559	56
228.793	49
229.027	51
229.262	60
229.496	59
229.73	92
229.964	83
230.199	69
230.433	70
230.667	95
230.901	78
231.136	86
231.37	76
231.604	94
231.838	81
232.072	87
232.306	79
232.541	81
232.775	79
233.009	96
233.243	85
233.477	83
233.711	69
233.945	80
234.179	84
234.413	92
234.647	84
234.881	82
235.115	71
235.349	80
235.583	85
235.817	74
236.051	78
236.285	83
236.519	65
236.753	71
236.987	98
237.221	95
237.455	64
237.689	76
237.922	78
238.156	64
238.39	73
238.624	72
238.858	92
239.091	82
239.325	66
239.559	77
239.793	79
240.027	91
240.26	79
240.494	77
240.728	73
240.961	88
241.195	82
241.429	80
241.662	74
241.896	67
242.13	64
242.363	73
242.597	82
242.83	85
243.064	78
243.298	77
243.531	75
243.765	71
243.998	79
244.232	87
244.465	80
244.699	83
244.932	68
245.166	81
245.399	85
245.633	77
245.866	85
246.099	72
246.333	79
246.566	80
246.8	86
247.033	100
247.266	76
247.5	65
247.733	87
247.966	75
248.2	79
248.433	83
248.666	81
248.899	84
249.133	81
249.366	97
249.599	91
249.832	88
250.066	91
250.299	74
250.532	93
250.765	80
250.998	80
251.231	76
251.465	72
251.698	75
251.931	85
252.164	79
252.397	82
252.63	91
252.863	83
253.096	80
253.329	88
253.562	91
253.795	75
254.028	79
254.261	64
254.494	77
254.727	92
254.96	75
255.193	74
255.426	66
255.659	79
255.892	82
256.124	89
256.357	80
256.59	88
256.823	90
257.056	79
257.289	66
257.521	92
257.754	76
257.987	86
258.22	82
258.452	80
258.685	93
258.918	87
259.151	82
259.383	80
259.616	80
259.849	87
260.081	90
260.314	80
260.547	83
260.779	90
261.012	76
261.244	84
261.477	96
261.71	92
261.942	108
262.175	115
262.407	101
262.64	85
262.872	83
263.105	79
263.337	84
263.57	93
263.802	67
264.035	88
264.267	80
264.499	90
264.732	83
264.964	92
265.197	91
265.429	80
265.661	77
265.894	88
266.126	97
266.358	77
266.591	76
266.823	87
267.055	86
267.287	77
267.52	93
267.752	86
267.984	62
268.216	89
268.448	83
268.681	90
268.913	83
269.145	90
269.377	99
269.609	81
269.841	91
270.073	77
270.306	85
270.538	100
270.77	77
271.002	85
271.234	72
271.466	79
271.698	83
271.93	97
272.162	83
272.394	85
272.626	67
272.858	91
273.09	89
273.322	97
273.553	88
273.785	85
274.017	93
274.249	79
274.481	91
274.713	83
274.945	85
275.176	72
275.408	78
275.64	75
275.872	78
276.104	75
276.335	90
276.567	119
276.799	104
277.031	92
277.262	85
277.494	84
277.726	84
277.957	97
278.189	77
278.421	85
278.652	74
278.884	83
279.115	92
279.347	101
279.579	96
279.81	84
280.042	87
280.273	91
280.505	81
280.736	85
280.968	85
281.199	97
281.431	87
281.662	92
281.894	95
282.125	98
282.356	112
282.588	123
282.819	103
283.051	94
283.282	89
283.513	92
283.745	89
283.976	82
284.207	77
284.439	83
284.67	80
284.901	85
285.132	90
285.364	85
285.595	92
285.826	83
286.057	80
286.288	88
286.52	79
286.751	82
286.982	76
287.213	83
287.444	79
287.675	93
287.906	92
288.138	95
288.369	90
288.6	98
288.831	81
289.062	86
289.293	90
289.524	97
289.755	96
289.986	95
290.217	81
290.448	98
290.679	83
290.91	100
291.141	96
291.371	82
291.602	95
291.833	95
292.064	96
292.295	94
292.526	81
292.757	73
292.987	91
293.218	84
293.449	83
293.68	87
293.91	97
294.141	90
294.372	89
294.603	90
294.833	85
295.064	90
295.295	83
295.525	83
295.756	103
295.987	107
296.217	123
296.448	129
296.679	91
296.909	83
297.14	100
297.37	90
297.601	96
297.831	88
298.062	92
298.292	82
298.523	94
298.753	82
298.984	88
299.214	87
299.445	82
299.675	84
299.905	108
300.136	93
300.366	80
300.597	88
300.827	92
301.057	97
301.288	97
301.518	96
301.748	93
301.979	101
302.209	96
302.439	74
302.669	96
302.9	87
303.13	80
303.36	94
303.59	114
303.82	114
304.051	87
304.281	87
304.511	87
304.741	91
304.971	98
305.201	85
305.431	98
305.661	81
305.891	99
306.121	84
306.352	94
306.582	113
306.812	101
307.042	88
307.272	107
307.502	98
307.731	90
307.961	104
308.191	84
308.421	87
308.651	81
308.881	97
309.111	88
309.341	93
309.571	103
309.8	104
310.03	92
310.26	90
310.49	83
310.72	87
310.949	89
311.179	102
311.409	95
311.639	87
311.868	108
312.098	86
312.328	77
312.557	93
312.787	96
313.017	83
313.246	103
313.476	98
313.706	77
313.935	90
314.165	88
314.394	91
314.624	93
314.853	91
315.083	86
315.312	98
315.542	98
315.771	101
316.001	99
316.23	76
316.46	93
316.689	111
316.919	85
317.148	87
317.377	93
317.607	99
317.836	96
318.065	87
318.295	85
318.524	88
318.753	96
318.983	98
319.212	88
319.441	99
319.67	85
319.9	89
320.129	86
320.358	96
320.587	74
320.816	89
321.046	103
321.275	93
321.504	102
321.733	95
321.962	89
322.191	98
322.42	97
322.649	90
322.878	105
323.108	100
323.337	114
323.566	115
323.795	133
324.024	163
324.253	290
324.482	564
324.71	1138
324.939	1465
325.168	574
325.397	195
325.626	139
325.855	108
326.084	111
326.313	116
326.542	128
326.77	191
326.999	309
327.228	626
327.457	1055
327.686	847
327.914	283
328.143	189
328.372	184
328.6	133
328.829	102
329.058	113
329.287	118
329.515	121
329.744	116
329.972	123
330.201	190
330.43	196
330.658	151
330.887	129
331.115	113
331.344	94
331.572	95
331.801	91
332.03	96
332.258	91
332.486	94
332.715	105
332.943	99
333.172	102
333.4	101
333.629	110
333.857	122
334.085	138
334.314	183
334.542	254
334.771	223
334.999	120
335.227	106
335.455	104
335.684	110
335.912	92
336.14	102
336.369	106
336.597	93
336.825	80
337.053	102
337.281	87
337.51	92
337.738	86
337.966	97
338.194	93
338.422	101
338.65	94
338.878	84
339.106	90
339.334	93
339.562	100
339.79	89
340.018	98
340.246	87
340.474	93
340.702	91
340.93	95
341.158	95
341.386	109
341.614	99
341.842	95
342.07	97
342.298	101
342.526	92
342.754	98
342.981	85
343.209	87
343.437	93
343.665	82
343.893	89
344.12	96
344.348	78
344.576	88
344.804	79
345.031	111
345.259	101
345.487	91
345.714	95
345.942	82
346.17	93
346.397	88
346.625	91
346.853	87
347.08	102
347.308	108
347.535	99
347.763	88
347.99	88
348.218	104
348.445	114
348.673	95
348.9	77
349.128	79
349.355	88
349.583	95
349.81	102
350.037	88
350.265	91
350.492	89
350.72	94
350.947	114
351.174	96
351.402	104
351.629	98
351.856	100
352.083	100
352.311	114
352.538	114
352.765	97
352.992	122
353.22	113
353.447	101
353.674	111
353.901	99
354.128	85
354.355	100
354.583	95
354.81	105
355.037	93
355.264	99
355.491	91
355.718	93
355.945	101
356.172	97
356.399	93
356.626	92
356.853	90
357.08	99
357.307	93
357.534	103
357.761	96
357.988	98
358.215	108
358.441	100
358.668	85
358.895	93
359.122	97
359.349	93
359.576	90
359.802	92
360.029	93
360.256	109
360.483	93
360.709	93
360.936	105
361.163	99
361.39	97
361.616	84
361.843	88
362.07	97
362.296	96
362.523	93
362.749	87
362.976	92
363.203	97
363.429	78
363.656	95
363.882	93
364.109	105
364.335	82
364.562	92
364.788	75
365.015	89
365.241	96
365.468	105
365.694	107
365.92	91
366.147	79
366.373	79
366.599	114
366.826	103
367.052	94
367.278	97
367.505	100
367.731	105
367.957	104
368.184	100
368.41	96
368.636	107
368.862	115
369.089	124
369.315	95
369.541	106
369.767	101
369.993	92
370.219	96
370.445	80
370.672	90
370.898	86
371.124	92
371.35	93
371.576	93
371.802	88
372.028	82
372.254	88
372.48	80
372.706	92
372.932	90
373.158	92
373.384	88
373.61	93
373.835	71
374.061	92
374.287	104
374.513	80
374.739	92
374.965	91
375.191	93
375.416	93
375.642	78
375.868	93
376.094	92
376.319	84
376.545	104
376.771	95
376.997	99
377.222	92
377.448	112
377.674	105
377.899	101
378.125	97
378.35	106
378.576	91
378.802	95
379.027	91
379.253	108
379.478	83
379.704	109
379.929	115
380.155	89
380.38	112
380.606	116
380.831	114
381.057	106
381.282	104
381.507	123
381.733	103
381.958	115
382.184	108
382.409	102
382.634	107
382.86	111
383.085	118
383.31	116
383.535	115
383.761	109
383.986	121
384.211	125
384.436	126
384.662	131
384.887	144
385.112	130
385.337	144
385.562	141
385.787	107
386.013	133
386.238	151
386.463	124
386.688	132
386.913	140
387.138	147
387.363	131
387.588	125
387.813	129
388.038	136
388.263	162
388.488	140
388.713	101
388.938	85
389.163	108
389.387	98
389.612	97
389.837	80
390.062	108
390.287	102
390.512	93
390.736	66
390.961	95
391.186	94
391.411	98
391.636	97
391.86	90
392.085	97
392.31	91
392.534	95
392.759	92
392.984	101
393.208	120
393.433	156
393.658	133
393.882	83
394.107	78
394.331	95
394.556	105
394.78	87
395.005	85
395.229	94
395.454	110
395.678	79
395.903	88
396.127	96
396.352	88
396.576	99
396.801	108
397.025	124
397.249	97
397.474	84
397.698	87
397.922	99
398.147	85
398.371	91
398.595	82
398.82	83
399.044	83
399.268	88
399.492	85
399.717	103
399.941	97
400.165	89
400.389	88
400.613	83
400.837	93
401.062	93
401.286	104
401.51	96
401.734	94
401.958	108
402.182	126
402.406	147
402.63	113
402.854	91
403.078	85
403.302	82
403.526	81
403.75	90
403.974	92
404.198	92
404.422	88
404.645	82
404.869	92
405.093	107
405.317	96
405.541	90
405.765	99
405.988	120
406.212	156
406.436	204
406.66	130
406.883	92
407.107	94
407.331	94
407.555	89
407.778	77
408.002	90
408.226	81
408.449	95
408.673	97
408.896	101
409.12	99
409.344	81
409.567	103
409.791	80
410.014	97
410.238	93
410.461	83
410.685	96
410.908	93
411.132	104
411.355	85
411.578	83
411.802	99
412.025	95
412.249	96
412.472	96
412.695	106
412.919	88
413.142	92
413.365	94
413.589	96
413.812	107
414.035	92
414.258	89
414.482	98
414.705	96
414.928	107
415.151	93
415.374	96
415.597	108
415.821	90
416.044	82
416.267	77
416.49	87
416.713	107
416.936	89
417.159	81
417.382	82
417.605	105
417.828	99
418.051	86
418.274	99
418.497	89
418.72	84
418.943	88
419.166	91
419.389	106
419.611	101
419.834	89
420.057	86
420.28	92
420.503	87
420.726	101
420.948	94
421.171	77
421.394	96
421.617	95
421.839	66
422.062	89
422.285	96
422.507	108
422.73	119
422.953	120
423.175	104
423.398	89
423.621	90
423.843	86
424.066	90
424.288	88
424.511	97
424.733	94
424.956	101
425.178	99
425.401	103
425.623	99
425.846	99
426.068	89
426.291	90
426.513	84
426.735	103
426.958	90
427.18	97
427.402	133
427.625	154
427.847	117
428.069	104
428.292	94
428.514	90
428.736	88
428.958	82
429.181	87
429.403	79
429.625	81
429.847	93
430.069	101
430.292	97
430.514	78
430.736	87
430.958	92
431.18	92
431.402	96
431.624	98
431.846	88
432.068	91
432.29	81
432.512	87
432.734	84
432.956	84
433.178	111
433.4	88
433.622	95
433.844	97
434.066	105
434.287	88
434.509	82
434.731	83
434.953	94
435.175	91
435.397	97
435.618	92
435.84	98
436.062	107
436.284	104
436.505	100
436.727	82
436.949	81
437.17	78
437.392	88
437.614	80
437.835	103
438.057	100
438.278	102
438.5	112
438.721	104
438.943	94
439.165	77
439.386	101
439.608	74
439.829	97
440.05	100
440.272	109
440.493	93
440.715	78
440.936	82
441.158	93
441.379	79
441.6	80
441.822	93
442.043	105
442.264	97
442.486	99
442.707	94
442.928	103
443.149	108
443.371	123
443.592	92
443.813	91
444.034	92
444.255	96
444.476	94
444.698	89
444.919	90
445.14	128
445.361	125
445.582	114
445.803	124
446.024	123
446.245	104
446.466	109
446.687	101
446.908	83
447.129	93
447.35	89
447.571	94
447.792	99
448.013	89
448.234	95
448.455	96
448.675	116
448.896	119
449.117	98
449.338	97
449.559	105
449.779	105
450	92
450.221	98
450.442	83
450.662	96
450.883	84
451.104	111
451.324	92
451.545	81
451.766	85
451.986	81
452.207	88
452.428	101
452.648	89
452.869	101
453.089	123
453.31	97
453.53	100
453.751	106
453.971	99
454.192	97
454.412	100
454.633	96
454.853	96
455.073	91
455.294	83
455.514	91
455.734	87
455.955	82
456.175	95
456.395	89
456.616	84
456.836	73
457.056	99
457.276	75
457.497	74
457.717	77
457.937	67
458.157	75
458.377	83
458.598	102
458.818	124
459.038	137
459.258	107
459.478	87
459.698	85
459.918	88
460.138	78
460.358	82
460.578	81
460.798	89
461.018	101
461.238	88
461.458	90
461.678	99
461.898	86
462.118	90
462.338	96
462.558	76
462.777	105
462.997	78
463.217	76
463.437	86
463.657	89
463.876	93
464.096	88
464.316	101
464.536	92
464.755	80
464.975	96
465.195	155
465.414	130
465.634	97
465.854	83
466.073	92
466.293	87
466.512	95
466.732	82
466.951	88
467.171	91
467.391	90
467.61	94
467.829	101
468.049	126
468.268	145
468.488	89
468.707	103
468.927	99
469.146	83
469.365	95
469.585	87
469.804	88
470.023	103
470.243	100
470.462	100
470.681	99
470.901	95
471.12	83
471.339	93
471.558	91
471.777	97
471.997	126
472.216	203
472.435	314
472.654	134
472.873	108
473.092	74
473.311	98
473.53	84
473.749	94
473.968	86
474.187	95
474.406	94
474.625	101
474.844	93
475.063	95
475.282	79
475.501	87
475.72	99
475.939	84
476.158	80
476.377	88
476.596	83
476.814	92
477.033	106
477.252	93
477.471	88
477.69	91
477.908	96
478.127	81
478.346	91
478.564	87
478.783	90
479.002	93
479.22	88
479.439	109
479.658	92
479.876	92
480.095	92
480.313	103
480.532	90
480.751	105
480.969	204
481.188	529
481.406	331
481.624	116
481.843	97
482.061	103
482.28	93
482.498	91
482.717	93
482.935	96
483.153	78
483.372	93
483.59	91
483.808	88
484.027	94
484.245	91
484.463	95
484.681	94
484.9	86
485.118	85
485.336	100
485.554	109
485.772	108
485.99	106
486.209	113
486.427	119
486.645	111
486.863	107
487.081	95
487.299	81
487.517	99
487.735	104
487.953	105
488.171	109
488.389	112
488.607	100
488.825	86
489.043	97
489.261	101
489.479	86
489.696	85
489.914	100
490.132	99
490.35	104
490.568	91
490.786	88
491.003	75
491.221	92
491.439	98
491.657	95
491.874	74
492.092	86
492.31	87
492.527	88
492.745	85
492.963	92
493.18	99
493.398	108
493.615	96
493.833	89
494.05	85
494.268	80
494.485	98
494.703	84
494.92	92
495.138	94
495.355	76
495.573	96
495.79	88
496.008	107
496.225	72
496.442	100
496.66	91
496.877	98
497.094	89
497.312	96
497.529	85
497.746	98
497.963	86
498.181	85
498.398	103
498.615	106
498.832	80
499.049	85
499.267	83
499.484	83
499.701	74
499.918	93
500.135	89
500.352	88
500.569	95
500.786	91
501.003	90
501.22	93
501.437	94
501.654	90
501.871	93
502.088	89
502.305	80
502.522	100
502.739	100
502.956	90
503.172	87
503.389	97
503.606	92
503.823	99
504.04	104
504.256	91
504.473	84
504.69	91
504.907	100
505.123	99
505.34	87
505.557	99
505.773	101
505.99	96
506.207	83
506.423	89
506.64	99
506.856	90
507.073	100
507.289	84
507.506	96
507.722	114
507.939	108
508.155	96
508.372	103
508.588	80
508.805	91
509.021	108
509.238	95
509.454	78
509.67	91
509.887	103
510.103	135
510.319	194
510.536	675
510.752	2136
510.968	619
511.184	151
511.401	124
511.617	110
511.833	100
512.049	94
512.265	87
512.481	91
512.698	96
512.914	92
513.13	105
513.346	93
513.562	93
513.778	98
513.994	101
514.21	109
514.426	121
514.642	111
514.858	116
515.074	148
515.29	376
515.506	1219
515.721	465
515.937	136
516.153	110
516.369	107
516.585	96
516.801	95
517.016	99
517.232	95
517.448	97
517.664	93
517.879	85
518.095	89
518.311	100
518.527	96
518.742	79
518.958	90
519.173	80
519.389	96
519.605	98
519.82	84
520.036	86
520.251	119
520.467	114
520.682	101
520.898	98
521.113	117
521.329	137
521.544	187
521.76	476
521.975	2043
522.19	1209
522.406	255
522.621	112
522.836	95
523.052	97
523.267	91
523.482	87
523.698	111
523.913	117
524.128	85
524.343	96
524.559	83
524.774	92
524.989	94
525.204	94
525.419	89
525.634	97
525.849	76
526.064	99
526.28	73
526.495	90
526.71	91
526.925	81
527.14	97
527.355	98
527.57	95
527.785	78
527.999	79
528.214	89
528.429	88
528.644	110
528.859	90
529.074	109
529.289	103
529.503	168
529.718	109
529.933	91
530.148	79
530.363	87
530.577	97
530.792	96
531.007	88
531.221	91
531.436	101
531.651	102
531.865	97
532.08	94
532.295	101
532.509	97
532.724	91
532.938	84
533.153	102
533.367	90
533.582	95
533.796	97
534.011	92
534.225	91
534.44	99
534.654	93
534.868	102
535.083	100
535.297	107
535.511	102
535.726	97
535.94	80
536.154	105
536.369	80
536.583	87
536.797	77
537.011	72
537.225	90
537.44	85
537.654	83
537.868	85
538.082	99
538.296	100
538.51	92
538.724	92
538.938	105
539.153	92
539.367	100
539.581	82
539.795	87
540.009	85
540.222	81
540.436	89
540.65	80
540.864	99
541.078	94
541.292	88
541.506	74
541.72	95
541.934	87
542.147	97
542.361	94
542.575	91
542.789	98
543.002	91
543.216	86
543.43	87
543.644	95
543.857	97
544.071	97
544.285	92
544.498	89
544.712	91
544.925	89
545.139	91
545.352	75
545.566	100
545.779	85
545.993	88
546.206	101
546.42	88
546.633	93
546.847	93
547.06	97
547.274	99
547.487	98
547.7	80
547.914	96
548.127	100
548.34	98
548.554	86
548.767	93
548.98	87
549.193	89
549.407	92
549.62	85
549.833	87
550.046	93
550.259	94
550.473	91
550.686	87
550.899	87
551.112	85
551.325	92
551.538	94
551.751	92
551.964	94
552.177	84
552.39	84
552.603	91
552.816	90
553.029	97
553.242	91
553.455	103
553.667	108
553.88	90
554.093	100
554.306	100
554.519	94
554.732	92
554.944	97
555.157	89
555.37	95
555.583	101
555.795	88
556.008	92
556.221	88
556.433	72
556.646	103
556.859	96
557.071	85
557.284	93
557.496	84
557.709	96
557.921	87
558.134	98
558.346	79
558.559	79
558.771	89
558.984	98
559.196	82
559.409	88
559.621	85
559.833	106
560.046	101
560.258	89
560.47	79
560.683	96
560.895	98
561.107	85
561.32	92
561.532	90
561.744	100
561.956	82
562.168	88
562.381	94
562.593	113
562.805	91
563.017	98
563.229	94
563.441	85
563.653	90
563.865	78
564.077	95
564.289	99
564.501	84
564.713	88
564.925	96
565.137	101
565.349	92
565.561	77
565.773	94
565.985	89
566.197	83
566.408	95
566.62	89
566.832	88
567.044	80
567.255	92
567.467	80
567.679	78
567.891	87
568.102	81
568.314	78
568.526	107
568.737	100
568.949	82
569.161	80
569.372	101
569.584	98
569.795	89
570.007	115
570.218	213
570.43	141
570.641	94
570.853	100
571.064	76
571.276	86
571.487	86
571.698	95
571.91	90
572.121	102
572.333	84
572.544	83
572.755	71
572.966	79
573.178	96
573.389	85
573.6	98
573.811	92
574.023	95
574.234	83
574.445	75
574.656	106
574.867	85
575.078	81
575.289	84
575.501	77
575.712	95
575.923	78
576.134	87
576.345	81
576.556	80
576.767	107
576.978	91
577.188	96
577.399	90
577.61	98
577.821	91
578.032	123
578.243	237
578.454	638
578.665	187
578.875	99
579.086	89
579.297	88
579.508	97
579.718	83
579.929	85
580.14	80
580.35	84
580.561	93
580.772	99
580.982	93
581.193	87
581.403	93
581.614	99
581.825	80
582.035	73
582.246	93
582.456	88
582.667	76
582.877	75
583.087	89
583.298	85
583.508	82
583.719	88
