Data from Circ_1996_H10_HRD10591_00089.txt Node
Date: Wed Jan 03 11:33:23 EST 2024
User: Yrep
Spectrometer: HR+D1059
Trigger mode: 1
Integration Time (sec): 1.000000E-1
Scans to average: 1
Electric dark correction enabled: true
Nonlinearity correction enabled: false
Boxcar width: 0
XAxis mode: Wavelengths
Number of Pixels in Spectrum: 2048
>>>>>Begin Spectral Data<<<<<
223.165	-26.88
223.4	-26.88
223.635	-26.88
223.869	-20.88
224.104	-24.88
224.338	-14.88
224.573	-13.88
224.808	-8.88
225.042	-14.88
225.277	-10.88
225.511	3.12
225.746	-4.88
225.98	1.12
226.215	16.12
226.449	20.12
226.683	30.12
226.918	32.12
227.152	38.12
227.387	33.12
227.621	51.12
227.856	38.12
228.09	29.12
228.324	55.12
228.559	57.12
228.793	73.12
229.027	63.12
229.262	78.12
229.496	79.12
229.73	79.12
229.964	76.12
230.199	78.12
230.433	69.12
230.667	85.12
230.901	81.12
231.136	85.12
231.37	81.12
231.604	90.12
231.838	81.12
232.072	85.12
232.306	89.12
232.541	79.12
232.775	86.12
233.009	79.12
233.243	80.12
233.477	61.12
233.711	96.12
233.945	81.12
234.179	67.12
234.413	78.12
234.647	79.12
234.881	99.12
235.115	84.12
235.349	87.12
235.583	85.12
235.817	80.12
236.051	91.12
236.285	79.12
236.519	80.12
236.753	94.12
236.987	77.12
237.221	88.12
237.455	75.12
237.689	72.12
237.922	72.12
238.156	72.12
238.39	84.12
238.624	85.12
238.858	85.12
239.091	91.12
239.325	78.12
239.559	76.12
239.793	63.12
240.027	79.12
240.26	81.12
240.494	89.12
240.728	79.12
240.961	67.12
241.195	79.12
241.429	90.12
241.662	87.12
241.896	73.12
242.13	67.12
242.363	64.12
242.597	65.12
242.83	81.12
243.064	68.12
243.298	81.12
243.531	59.12
243.765	77.12
243.998	78.12
244.232	87.12
244.465	93.12
244.699	85.12
244.932	76.12
245.166	99.12
245.399	85.12
245.633	72.12
245.866	83.12
246.099	83.12
246.333	81.12
246.566	76.12
246.8	79.12
247.033	59.12
247.266	79.12
247.5	94.12
247.733	84.12
247.966	92.12
248.2	69.12
248.433	78.12
248.666	94.12
248.899	90.12
249.133	76.12
249.366	100.12
249.599	101.12
249.832	78.12
250.066	107.12
250.299	78.12
250.532	94.12
250.765	76.12
250.998	97.12
251.231	80.12
251.465	102.12
251.698	92.12
251.931	83.12
252.164	79.12
252.397	79.12
252.63	82.12
252.863	79.12
253.096	64.12
253.329	91.12
253.562	87.12
253.795	69.12
254.028	83.12
254.261	93.12
254.494	84.12
254.727	89.12
254.96	75.12
255.193	88.12
255.426	85.12
255.659	72.12
255.892	94.12
256.124	87.12
256.357	74.12
256.59	80.12
256.823	76.12
257.056	74.12
257.289	84.12
257.521	93.12
257.754	84.12
257.987	92.12
258.22	79.12
258.452	92.12
258.685	92.12
258.918	67.12
259.151	80.12
259.383	87.12
259.616	83.12
259.849	90.12
260.081	68.12
260.314	83.12
260.547	84.12
260.779	79.12
261.012	95.12
261.244	91.12
261.477	89.12
261.71	88.12
261.942	114.12
262.175	98.12
262.407	77.12
262.64	89.12
262.872	95.12
263.105	73.12
263.337	88.12
263.57	75.12
263.802	77.12
264.035	87.12
264.267	85.12
264.499	79.12
264.732	89.12
264.964	90.12
265.197	85.12
265.429	80.12
265.661	89.12
265.894	86.12
266.126	82.12
266.358	95.12
266.591	74.12
266.823	78.12
267.055	92.12
267.287	94.12
267.52	96.12
267.752	80.12
267.984	89.12
268.216	76.12
268.448	80.12
268.681	88.12
268.913	94.12
269.145	85.12
269.377	92.12
269.609	88.12
269.841	92.12
270.073	84.12
270.306	81.12
270.538	86.12
270.77	87.12
271.002	75.12
271.234	83.12
271.466	77.12
271.698	77.12
271.93	90.12
272.162	97.12
272.394	91.12
272.626	87.12
272.858	87.12
273.09	99.12
273.322	100.12
273.553	90.12
273.785	86.12
274.017	88.12
274.249	78.12
274.481	91.12
274.713	83.12
274.945	86.12
275.176	82.12
275.408	91.12
275.64	87.12
275.872	96.12
276.104	99.12
276.335	95.12
276.567	105.12
276.799	115.12
277.031	96.12
277.262	107.12
277.494	82.12
277.726	95.12
277.957	97.12
278.189	84.12
278.421	85.12
278.652	72.12
278.884	88.12
279.115	101.12
279.347	79.12
279.579	81.12
279.81	94.12
280.042	91.12
280.273	98.12
280.505	84.12
280.736	84.12
280.968	93.12
281.199	88.12
281.431	80.12
281.662	97.12
281.894	90.12
282.125	109.12
282.356	113.12
282.588	135.12
282.819	111.12
283.051	82.12
283.282	92.12
283.513	83.12
283.745	87.12
283.976	87.12
284.207	85.12
284.439	89.12
284.67	96.12
284.901	86.12
285.132	71.12
285.364	75.12
285.595	77.12
285.826	83.12
286.057	94.12
286.288	81.12
286.52	78.12
286.751	96.12
286.982	99.12
287.213	79.12
287.444	94.12
287.675	99.12
287.906	97.12
288.138	91.12
288.369	101.12
288.6	96.12
288.831	101.12
289.062	92.12
289.293	91.12
289.524	77.12
289.755	97.12
289.986	93.12
290.217	103.12
290.448	101.12
290.679	85.12
290.91	94.12
291.141	98.12
291.371	86.12
291.602	92.12
291.833	100.12
292.064	99.12
292.295	94.12
292.526	77.12
292.757	83.12
292.987	76.12
293.218	98.12
293.449	81.12
293.68	85.12
293.91	85.12
294.141	99.12
294.372	97.12
294.603	87.12
294.833	83.12
295.064	83.12
295.295	85.12
295.525	100.12
295.756	107.12
295.987	105.12
296.217	134.12
296.448	123.12
296.679	91.12
296.909	81.12
297.14	92.12
297.37	98.12
297.601	88.12
297.831	82.12
298.062	93.12
298.292	93.12
298.523	91.12
298.753	86.12
298.984	88.12
299.214	83.12
299.445	86.12
299.675	95.12
299.905	99.12
300.136	99.12
300.366	93.12
300.597	95.12
300.827	95.12
301.057	104.12
301.288	98.12
301.518	97.12
301.748	98.12
301.979	91.12
302.209	99.12
302.439	99.12
302.669	81.12
302.9	87.12
303.13	89.12
303.36	80.12
303.59	92.12
303.82	108.12
304.051	107.12
304.281	92.12
304.511	92.12
304.741	96.12
304.971	98.12
305.201	101.12
305.431	100.12
305.661	95.12
305.891	96.12
306.121	100.12
306.352	96.12
306.582	102.12
306.812	93.12
307.042	98.12
307.272	91.12
307.502	96.12
307.731	82.12
307.961	99.12
308.191	97.12
308.421	112.12
308.651	90.12
308.881	88.12
309.111	105.12
309.341	95.12
309.571	109.12
309.8	96.12
310.03	93.12
310.26	92.12
310.49	76.12
310.72	107.12
310.949	99.12
311.179	86.12
311.409	99.12
311.639	96.12
311.868	95.12
312.098	99.12
312.328	91.12
312.557	90.12
312.787	95.12
313.017	89.12
313.246	105.12
313.476	95.12
313.706	86.12
313.935	94.12
314.165	95.12
314.394	106.12
314.624	93.12
314.853	108.12
315.083	96.12
315.312	99.12
315.542	89.12
315.771	95.12
316.001	109.12
316.23	97.12
316.46	90.12
316.689	92.12
316.919	99.12
317.148	105.12
317.377	81.12
317.607	97.12
317.836	89.12
318.065	105.12
318.295	103.12
318.524	82.12
318.753	82.12
318.983	93.12
319.212	109.12
319.441	105.12
319.67	111.12
319.9	95.12
320.129	92.12
320.358	83.12
320.587	104.12
320.816	102.12
321.046	120.12
321.275	86.12
321.504	93.12
321.733	97.12
321.962	87.12
322.191	95.12
322.42	99.12
322.649	104.12
322.878	105.12
323.108	117.12
323.337	113.12
323.566	132.12
323.795	128.12
324.024	173.12
324.253	307.12
324.482	647.12
324.71	1302.12
324.939	1685.12
325.168	632.12
325.397	218.12
325.626	143.12
325.855	119.12
326.084	123.12
326.313	115.12
326.542	138.12
326.77	205.12
326.999	337.12
327.228	684.12
327.457	1211.12
327.686	1003.12
327.914	324.12
328.143	183.12
328.372	163.12
328.6	123.12
328.829	119.12
329.058	123.12
329.287	120.12
329.515	108.12
329.744	111.12
329.972	133.12
330.201	186.12
330.43	227.12
330.658	152.12
330.887	129.12
331.115	124.12
331.344	88.12
331.572	89.12
331.801	105.12
332.03	111.12
332.258	104.12
332.486	97.12
332.715	101.12
332.943	93.12
333.172	100.12
333.4	94.12
333.629	114.12
333.857	113.12
334.085	135.12
334.314	184.12
334.542	261.12
334.771	245.12
334.999	121.12
335.227	107.12
335.455	89.12
335.684	107.12
335.912	98.12
336.14	106.12
336.369	93.12
336.597	96.12
336.825	89.12
337.053	88.12
337.281	84.12
337.51	90.12
337.738	87.12
337.966	84.12
338.194	106.12
338.422	87.12
338.65	88.12
338.878	102.12
339.106	106.12
339.334	107.12
339.562	103.12
339.79	82.12
340.018	93.12
340.246	90.12
340.474	98.12
340.702	103.12
340.93	91.12
341.158	92.12
341.386	101.12
341.614	95.12
341.842	87.12
342.07	91.12
342.298	84.12
342.526	99.12
342.754	99.12
342.981	85.12
343.209	89.12
343.437	89.12
343.665	77.12
343.893	83.12
344.12	71.12
344.348	105.12
344.576	96.12
344.804	97.12
345.031	90.12
345.259	90.12
345.487	109.12
345.714	111.12
345.942	105.12
346.17	95.12
346.397	88.12
346.625	84.12
346.853	91.12
347.08	84.12
347.308	100.12
347.535	114.12
347.763	105.12
347.99	98.12
348.218	104.12
348.445	116.12
348.673	103.12
348.9	90.12
349.128	85.12
349.355	82.12
349.583	98.12
349.81	113.12
350.037	92.12
350.265	84.12
350.492	91.12
350.72	85.12
350.947	99.12
351.174	112.12
351.402	101.12
351.629	105.12
351.856	106.12
352.083	111.12
352.311	100.12
352.538	107.12
352.765	97.12
352.992	109.12
353.22	104.12
353.447	101.12
353.674	109.12
353.901	91.12
354.128	101.12
354.355	91.12
354.583	100.12
354.81	94.12
355.037	91.12
355.264	109.12
355.491	78.12
355.718	93.12
355.945	117.12
356.172	96.12
356.399	84.12
356.626	98.12
356.853	96.12
357.08	103.12
357.307	96.12
357.534	93.12
357.761	99.12
357.988	91.12
358.215	98.12
358.441	96.12
358.668	85.12
358.895	92.12
359.122	92.12
359.349	98.12
359.576	104.12
359.802	101.12
360.029	107.12
360.256	101.12
360.483	105.12
360.709	80.12
360.936	92.12
361.163	101.12
361.39	96.12
361.616	98.12
361.843	92.12
362.07	89.12
362.296	91.12
362.523	82.12
362.749	79.12
362.976	93.12
363.203	83.12
363.429	85.12
363.656	104.12
363.882	93.12
364.109	94.12
364.335	107.12
364.562	98.12
364.788	97.12
365.015	90.12
365.241	98.12
365.468	106.12
365.694	93.12
365.92	91.12
366.147	90.12
366.373	110.12
366.599	90.12
366.826	85.12
367.052	82.12
367.278	86.12
367.505	95.12
367.731	92.12
367.957	102.12
368.184	100.12
368.41	100.12
368.636	108.12
368.862	116.12
369.089	114.12
369.315	99.12
369.541	83.12
369.767	80.12
369.993	90.12
370.219	86.12
370.445	98.12
370.672	84.12
370.898	85.12
371.124	83.12
371.35	99.12
371.576	79.12
371.802	87.12
372.028	86.12
372.254	94.12
372.48	94.12
372.706	89.12
372.932	94.12
373.158	94.12
373.384	91.12
373.61	98.12
373.835	85.12
374.061	96.12
374.287	96.12
374.513	96.12
374.739	77.12
374.965	81.12
375.191	79.12
375.416	81.12
375.642	87.12
375.868	85.12
376.094	92.12
376.319	69.12
376.545	90.12
376.771	92.12
376.997	91.12
377.222	87.12
377.448	104.12
377.674	83.12
377.899	92.12
378.125	94.12
378.35	89.12
378.576	84.12
378.802	73.12
379.027	93.12
379.253	110.12
379.478	95.12
379.704	76.12
379.929	107.12
380.155	87.12
380.38	88.12
380.606	105.12
380.831	96.12
381.057	97.12
381.282	100.12
381.507	105.12
381.733	95.12
381.958	104.12
382.184	107.12
382.409	101.12
382.634	95.12
382.86	94.12
383.085	100.12
383.31	104.12
383.535	107.12
383.761	104.12
383.986	83.12
384.211	120.12
384.436	87.12
384.662	94.12
384.887	107.12
385.112	97.12
385.337	106.12
385.562	104.12
385.787	107.12
386.013	105.12
386.238	97.12
386.463	107.12
386.688	98.12
386.913	100.12
387.138	88.12
387.363	96.12
387.588	97.12
387.813	104.12
388.038	96.12
388.263	114.12
388.488	105.12
388.713	83.12
388.938	102.12
389.163	99.12
389.387	101.12
389.612	88.12
389.837	93.12
390.062	105.12
390.287	100.12
390.512	96.12
390.736	93.12
390.961	88.12
391.186	83.12
391.411	88.12
391.636	94.12
391.86	91.12
392.085	84.12
392.31	85.12
392.534	91.12
392.759	83.12
392.984	89.12
393.208	92.12
393.433	114.12
393.658	111.12
393.882	99.12
394.107	78.12
394.331	84.12
394.556	76.12
394.78	92.12
395.005	85.12
395.229	92.12
395.454	89.12
395.678	76.12
395.903	101.12
396.127	81.12
396.352	84.12
396.576	107.12
396.801	89.12
397.025	82.12
397.249	72.12
397.474	67.12
397.698	93.12
397.922	82.12
398.147	93.12
398.371	92.12
398.595	88.12
398.82	84.12
399.044	107.12
399.268	94.12
399.492	87.12
399.717	94.12
399.941	115.12
400.165	92.12
400.389	91.12
400.613	96.12
400.837	79.12
401.062	100.12
401.286	99.12
401.51	96.12
401.734	92.12
401.958	90.12
402.182	124.12
402.406	163.12
402.63	115.12
402.854	94.12
403.078	90.12
403.302	85.12
403.526	95.12
403.75	100.12
403.974	88.12
404.198	89.12
404.422	87.12
404.645	83.12
404.869	82.12
405.093	81.12
405.317	98.12
405.541	98.12
405.765	83.12
405.988	112.12
406.212	173.12
406.436	232.12
406.66	132.12
406.883	96.12
407.107	89.12
407.331	96.12
407.555	107.12
407.778	96.12
408.002	94.12
408.226	91.12
408.449	75.12
408.673	91.12
408.896	82.12
409.12	96.12
409.344	89.12
409.567	75.12
409.791	92.12
410.014	101.12
410.238	95.12
410.461	99.12
410.685	84.12
410.908	86.12
411.132	104.12
411.355	90.12
411.578	99.12
411.802	95.12
412.025	91.12
412.249	99.12
412.472	81.12
412.695	81.12
412.919	92.12
413.142	108.12
413.365	91.12
413.589	91.12
413.812	95.12
414.035	100.12
414.258	97.12
414.482	88.12
414.705	85.12
414.928	81.12
415.151	76.12
415.374	83.12
415.597	97.12
415.821	97.12
416.044	89.12
416.267	101.12
416.49	100.12
416.713	75.12
416.936	100.12
417.159	92.12
417.382	87.12
417.605	88.12
417.828	82.12
418.051	85.12
418.274	94.12
418.497	83.12
418.72	89.12
418.943	100.12
419.166	80.12
419.389	93.12
419.611	87.12
419.834	82.12
420.057	94.12
420.28	81.12
420.503	79.12
420.726	68.12
420.948	89.12
421.171	99.12
421.394	71.12
421.617	78.12
421.839	80.12
422.062	98.12
422.285	95.12
422.507	92.12
422.73	87.12
422.953	86.12
423.175	79.12
423.398	84.12
423.621	83.12
423.843	94.12
424.066	93.12
424.288	81.12
424.511	93.12
424.733	92.12
424.956	89.12
425.178	90.12
425.401	96.12
425.623	103.12
425.846	90.12
426.068	83.12
426.291	96.12
426.513	89.12
426.735	88.12
426.958	82.12
427.18	88.12
427.402	131.12
427.625	151.12
427.847	128.12
428.069	115.12
428.292	111.12
428.514	80.12
428.736	78.12
428.958	84.12
429.181	93.12
429.403	85.12
429.625	64.12
429.847	83.12
430.069	89.12
430.292	90.12
430.514	95.12
430.736	81.12
430.958	66.12
431.18	79.12
431.402	85.12
431.624	84.12
431.846	98.12
432.068	96.12
432.29	78.12
432.512	90.12
432.734	91.12
432.956	102.12
433.178	108.12
433.4	102.12
433.622	89.12
433.844	90.12
434.066	84.12
434.287	97.12
434.509	96.12
434.731	101.12
434.953	99.12
435.175	82.12
435.397	85.12
435.618	92.12
435.84	93.12
436.062	109.12
436.284	107.12
436.505	98.12
436.727	85.12
436.949	86.12
437.17	92.12
437.392	95.12
437.614	89.12
437.835	103.12
438.057	125.12
438.278	97.12
438.5	101.12
438.721	107.12
438.943	95.12
439.165	104.12
439.386	85.12
439.608	90.12
439.829	84.12
440.05	112.12
440.272	118.12
440.493	67.12
440.715	84.12
440.936	85.12
441.158	92.12
441.379	84.12
441.6	77.12
441.822	99.12
442.043	82.12
442.264	87.12
442.486	96.12
442.707	97.12
442.928	93.12
443.149	129.12
443.371	132.12
443.592	96.12
443.813	95.12
444.034	107.12
444.255	93.12
444.476	73.12
444.698	88.12
444.919	80.12
445.14	137.12
445.361	104.12
445.582	93.12
445.803	116.12
446.024	111.12
446.245	101.12
446.466	103.12
446.687	94.12
446.908	100.12
447.129	107.12
447.35	88.12
447.571	89.12
447.792	89.12
448.013	94.12
448.234	93.12
448.455	111.12
448.675	114.12
448.896	108.12
449.117	96.12
449.338	98.12
449.559	119.12
449.779	101.12
450	101.12
450.221	95.12
450.442	89.12
450.662	102.12
450.883	97.12
451.104	98.12
451.324	94.12
451.545	83.12
451.766	74.12
451.986	89.12
452.207	90.12
452.428	112.12
452.648	95.12
452.869	116.12
453.089	116.12
453.31	115.12
453.53	95.12
453.751	79.12
453.971	104.12
454.192	111.12
454.412	85.12
454.633	84.12
454.853	99.12
455.073	93.12
455.294	88.12
455.514	90.12
455.734	89.12
455.955	81.12
456.175	83.12
456.395	76.12
456.616	87.12
456.836	94.12
457.056	82.12
457.276	82.12
457.497	90.12
457.717	91.12
457.937	76.12
458.157	88.12
458.377	92.12
458.598	98.12
458.818	141.12
459.038	155.12
459.258	115.12
459.478	86.12
459.698	79.12
459.918	78.12
460.138	104.12
460.358	99.12
460.578	93.12
460.798	99.12
461.018	80.12
461.238	93.12
461.458	88.12
461.678	108.12
461.898	101.12
462.118	79.12
462.338	90.12
462.558	80.12
462.777	80.12
462.997	83.12
463.217	86.12
463.437	97.12
463.657	93.12
463.876	66.12
464.096	88.12
464.316	75.12
464.536	83.12
464.755	90.12
464.975	117.12
465.195	173.12
465.414	149.12
465.634	103.12
465.854	88.12
466.073	94.12
466.293	92.12
466.512	73.12
466.732	74.12
466.951	81.12
467.171	92.12
467.391	100.12
467.61	122.12
467.829	112.12
468.049	135.12
468.268	147.12
468.488	98.12
468.707	91.12
468.927	74.12
469.146	80.12
469.365	89.12
469.585	95.12
469.804	92.12
470.023	97.12
470.243	89.12
470.462	103.12
470.681	95.12
470.901	95.12
471.12	93.12
471.339	82.12
471.558	80.12
471.777	97.12
471.997	100.12
472.216	213.12
472.435	339.12
472.654	148.12
472.873	94.12
473.092	96.12
473.311	91.12
473.53	93.12
473.749	89.12
473.968	100.12
474.187	102.12
474.406	81.12
474.625	89.12
474.844	88.12
475.063	86.12
475.282	84.12
475.501	75.12
475.72	82.12
475.939	79.12
476.158	78.12
476.377	87.12
476.596	98.12
476.814	100.12
477.033	94.12
477.252	91.12
477.471	80.12
477.69	94.12
477.908	85.12
478.127	85.12
478.346	77.12
478.564	91.12
478.783	88.12
479.002	90.12
479.22	84.12
479.439	100.12
479.658	109.12
479.876	99.12
480.095	99.12
480.313	98.12
480.532	95.12
480.751	123.12
480.969	187.12
481.188	546.12
481.406	329.12
481.624	114.12
481.843	100.12
482.061	84.12
482.28	82.12
482.498	84.12
482.717	88.12
482.935	82.12
483.153	94.12
483.372	107.12
483.59	93.12
483.808	90.12
484.027	88.12
484.245	95.12
484.463	93.12
484.681	109.12
484.9	100.12
485.118	93.12
485.336	89.12
485.554	101.12
485.772	95.12
485.99	101.12
486.209	112.12
486.427	103.12
486.645	100.12
486.863	93.12
487.081	100.12
487.299	95.12
487.517	98.12
487.735	86.12
487.953	106.12
488.171	91.12
488.389	95.12
488.607	100.12
488.825	96.12
489.043	76.12
489.261	83.12
489.479	73.12
489.696	99.12
489.914	81.12
490.132	90.12
490.35	92.12
490.568	95.12
490.786	89.12
491.003	89.12
491.221	91.12
491.439	98.12
491.657	96.12
491.874	95.12
492.092	100.12
492.31	92.12
492.527	90.12
492.745	90.12
492.963	63.12
493.18	88.12
493.398	77.12
493.615	91.12
493.833	99.12
494.05	108.12
494.268	90.12
494.485	87.12
494.703	96.12
494.92	96.12
495.138	83.12
495.355	71.12
495.573	98.12
495.79	76.12
496.008	105.12
496.225	81.12
496.442	94.12
496.66	84.12
496.877	107.12
497.094	110.12
497.312	84.12
497.529	94.12
497.746	101.12
497.963	96.12
498.181	88.12
498.398	99.12
498.615	101.12
498.832	101.12
499.049	97.12
499.267	100.12
499.484	97.12
499.701	92.12
499.918	76.12
500.135	89.12
500.352	88.12
500.569	97.12
500.786	97.12
501.003	91.12
501.22	87.12
501.437	91.12
501.654	99.12
501.871	104.12
502.088	97.12
502.305	103.12
502.522	107.12
502.739	89.12
502.956	88.12
503.172	92.12
503.389	94.12
503.606	100.12
503.823	101.12
504.04	91.12
504.256	106.12
504.473	92.12
504.69	104.12
504.907	89.12
505.123	94.12
505.34	94.12
505.557	104.12
505.773	93.12
505.99	92.12
506.207	94.12
506.423	84.12
506.64	81.12
506.856	80.12
507.073	97.12
507.289	76.12
507.506	91.12
507.722	110.12
507.939	112.12
508.155	92.12
508.372	94.12
508.588	101.12
508.805	93.12
509.021	89.12
509.238	87.12
509.454	96.12
509.67	102.12
509.887	111.12
510.103	130.12
510.319	211.12
510.536	805.12
510.752	2779.12
510.968	752.12
511.184	168.12
511.401	96.12
511.617	91.12
511.833	97.12
512.049	91.12
512.265	99.12
512.481	93.12
512.698	84.12
512.914	92.12
513.13	102.12
513.346	83.12
513.562	85.12
513.778	87.12
513.994	93.12
514.21	91.12
514.426	120.12
514.642	130.12
514.858	121.12
515.074	178.12
515.29	450.12
515.506	1587.12
