Data from ZeroMicroDelayPb_HRD10591_00004.txt Node
Date: Mon Nov 24 14:24:51 EST 2025
User: Yrep
Spectrometer: HR+D1059
Trigger mode: 0
Integration Time (sec): 1.000000E-1
Scans to average: 5
Electric dark correction enabled: true
Nonlinearity correction enabled: false
Boxcar width: 0
XAxis mode: Wavelengths
Number of Pixels in Spectrum: 2048
>>>>>Begin Spectral Data<<<<<
223.165	-20.91
223.4	-20.91
223.635	-20.91
223.869	-16.91
224.104	-16.51
224.338	-9.71
224.573	-14.51
224.808	-16.51
225.042	-3.31
225.277	-3.71
225.511	5.89
225.746	1.09
225.98	4.29
226.215	10.09
226.449	9.69
226.683	17.89
226.918	19.89
227.152	33.29
227.387	34.89
227.621	41.49
227.856	47.89
228.09	46.49
228.324	51.09
228.559	55.69
228.793	57.49
229.027	67.89
229.262	66.29
229.496	70.89
229.73	69.29
229.964	71.49
230.199	68.09
230.433	77.49
230.667	75.89
230.901	82.49
231.136	77.89
231.37	79.49
231.604	84.69
231.838	79.49
232.072	83.89
232.306	77.49
232.541	79.29
232.775	82.69
233.009	83.09
233.243	82.89
233.477	84.69
233.711	83.29
233.945	78.49
234.179	88.69
234.413	80.89
234.647	82.89
234.881	83.89
235.115	83.09
235.349	84.69
235.583	84.29
235.817	88.09
236.051	75.49
236.285	82.49
236.519	86.89
236.753	79.09
236.987	78.09
237.221	81.29
237.455	86.49
237.689	81.89
237.922	81.29
238.156	76.89
238.39	79.29
238.624	75.89
238.858	82.09
239.091	80.49
239.325	75.69
239.559	76.09
239.793	82.09
240.027	82.09
240.26	80.09
240.494	84.89
240.728	75.09
240.961	81.69
241.195	80.89
241.429	81.09
241.662	77.49
241.896	81.29
242.13	84.89
242.363	79.69
242.597	79.69
242.83	79.69
243.064	82.49
243.298	78.09
243.531	74.09
243.765	79.29
243.998	83.89
244.232	82.49
244.465	83.09
244.699	87.29
244.932	84.49
245.166	87.09
245.399	84.49
245.633	88.49
245.866	90.69
246.099	81.69
246.333	76.49
246.566	80.89
246.8	79.69
247.033	79.49
247.266	79.29
247.5	81.09
247.733	90.49
247.966	92.29
248.2	84.49
248.433	84.69
248.666	80.49
248.899	82.09
249.133	83.09
249.366	85.49
249.599	81.49
249.832	80.29
250.066	85.69
250.299	83.69
250.532	85.09
250.765	86.89
250.998	87.89
251.231	86.09
251.465	89.89
251.698	86.29
251.931	86.09
252.164	85.49
252.397	86.69
252.63	86.29
252.863	87.49
253.096	91.49
253.329	92.69
253.562	94.29
253.795	98.49
254.028	91.29
254.261	86.49
254.494	90.49
254.727	88.89
254.96	92.69
255.193	83.89
255.426	90.09
255.659	87.69
255.892	87.89
256.124	95.09
256.357	88.69
256.59	87.69
256.823	87.09
257.056	83.69
257.289	84.89
257.521	91.09
257.754	95.49
257.987	100.69
258.22	100.49
258.452	92.29
258.685	93.09
258.918	92.29
259.151	89.69
259.383	92.69
259.616	91.49
259.849	94.49
260.081	92.09
260.314	103.09
260.547	93.69
260.779	96.09
261.012	103.29
261.244	108.89
261.477	117.29
261.71	111.69
261.942	107.69
262.175	101.49
262.407	95.89
262.64	88.89
262.872	95.89
263.105	90.29
263.337	95.69
263.57	93.69
263.802	96.09
264.035	94.89
264.267	94.69
264.499	95.49
264.732	98.09
264.964	103.29
265.197	97.29
265.429	100.89
265.661	94.09
265.894	87.69
266.126	96.29
266.358	105.69
266.591	106.09
266.823	99.69
267.055	94.89
267.287	91.69
267.52	92.89
267.752	92.49
267.984	92.89
268.216	89.49
268.448	91.69
268.681	96.89
268.913	95.89
269.145	81.89
269.377	92.09
269.609	94.69
269.841	94.69
270.073	97.09
270.306	91.89
270.538	96.29
270.77	88.89
271.002	88.69
271.234	94.89
271.466	93.69
271.698	92.29
271.93	95.89
272.162	88.29
272.394	96.09
272.626	84.29
272.858	93.69
273.09	94.89
273.322	93.49
273.553	89.29
273.785	92.09
274.017	88.69
274.249	99.29
274.481	91.89
274.713	92.49
274.945	94.89
275.176	87.69
275.408	99.49
275.64	92.09
275.872	89.69
276.104	95.49
276.335	95.29
276.567	91.09
276.799	95.09
277.031	95.69
277.262	99.09
277.494	91.89
277.726	92.69
277.957	96.29
278.189	96.69
278.421	99.49
278.652	100.29
278.884	101.29
279.115	93.89
279.347	112.49
279.579	106.69
279.81	119.29
280.042	129.89
280.273	142.09
280.505	132.29
280.736	113.09
280.968	112.09
281.199	103.89
281.431	103.09
281.662	100.69
281.894	100.89
282.125	103.29
282.356	118.29
282.588	112.29
282.819	108.29
283.051	109.89
283.282	124.89
283.513	130.29
283.745	116.29
283.976	103.69
284.207	103.89
284.439	99.89
284.67	95.29
284.901	100.89
285.132	94.89
285.364	94.69
285.595	92.29
285.826	95.29
286.057	103.29
286.288	101.69
286.52	103.69
286.751	110.09
286.982	105.29
287.213	112.09
287.444	123.89
287.675	104.49
287.906	102.89
288.138	99.49
288.369	98.69
288.6	106.69
288.831	97.69
289.062	99.29
289.293	93.49
289.524	99.69
289.755	96.09
289.986	89.09
290.217	95.29
290.448	97.49
290.679	95.09
290.91	103.09
291.141	100.29
291.371	93.09
291.602	93.09
291.833	99.69
292.064	90.89
292.295	94.49
292.526	96.89
292.757	96.49
292.987	92.29
293.218	96.29
293.449	96.09
293.68	98.29
293.91	96.49
294.141	109.49
294.372	95.29
294.603	95.69
294.833	96.89
295.064	93.69
295.295	102.69
295.525	94.09
295.756	99.89
295.987	97.49
296.217	101.09
296.448	93.09
296.679	96.69
296.909	100.29
297.14	93.09
297.37	97.09
297.601	94.29
297.831	93.29
298.062	96.49
298.292	96.09
298.523	95.69
298.753	101.69
298.984	97.49
299.214	97.69
299.445	96.89
299.675	100.29
299.905	99.09
300.136	97.69
300.366	96.29
300.597	89.29
300.827	100.49
301.057	98.09
301.288	98.09
301.518	95.09
301.748	105.49
301.979	108.49
302.209	94.49
302.439	95.49
302.669	96.69
302.9	97.69
303.13	95.89
303.36	101.09
303.59	101.49
303.82	101.29
304.051	102.09
304.281	95.89
304.511	96.89
304.741	99.09
304.971	97.89
305.201	104.29
305.431	102.69
305.661	94.49
305.891	103.09
306.121	99.69
306.352	93.89
306.582	94.49
306.812	103.29
307.042	107.29
307.272	101.09
307.502	96.29
307.731	101.09
307.961	98.69
308.191	88.29
308.421	95.69
308.651	98.69
308.881	99.49
309.111	101.49
309.341	92.49
309.571	92.49
309.8	99.09
310.03	96.09
310.26	96.89
310.49	96.29
310.72	98.69
310.949	96.29
311.179	93.09
311.409	100.69
311.639	97.29
311.868	99.49
312.098	100.29
312.328	101.49
312.557	94.69
312.787	95.49
313.017	107.29
313.246	105.89
313.476	105.49
313.706	110.69
313.935	98.89
314.165	104.69
314.394	107.29
314.624	105.89
314.853	107.49
315.083	105.89
315.312	101.49
315.542	103.69
315.771	105.89
316.001	97.69
316.23	100.49
316.46	98.69
316.689	104.69
316.919	98.29
317.148	103.29
317.377	112.49
317.607	100.89
317.836	108.09
318.065	101.49
318.295	100.29
318.524	100.89
318.753	99.29
318.983	96.09
319.212	102.29
319.441	101.69
319.67	101.49
319.9	102.49
320.129	97.89
320.358	101.89
320.587	100.49
320.816	96.49
321.046	102.29
321.275	100.29
321.504	97.69
321.733	98.49
321.962	101.09
322.191	98.49
322.42	97.49
322.649	98.09
322.878	93.89
323.108	103.89
323.337	105.49
323.566	95.69
323.795	99.09
324.024	106.49
324.253	102.29
324.482	100.09
324.71	98.09
324.939	99.49
325.168	96.29
325.397	97.49
325.626	102.69
325.855	104.29
326.084	100.89
326.313	103.49
326.542	92.09
326.77	100.89
326.999	94.89
327.228	100.69
327.457	99.09
327.686	101.69
327.914	100.09
328.143	103.69
328.372	97.89
328.6	103.89
328.829	99.69
329.058	97.49
329.287	104.69
329.515	98.49
329.744	97.09
329.972	102.09
330.201	102.49
330.43	104.09
330.658	99.49
330.887	103.69
331.115	99.09
331.344	100.49
331.572	103.49
331.801	107.09
332.03	97.09
332.258	95.69
332.486	95.69
332.715	95.29
332.943	103.29
333.172	103.49
333.4	104.49
333.629	98.69
333.857	104.69
334.085	98.49
334.314	107.29
334.542	99.89
334.771	108.49
334.999	99.89
335.227	100.49
335.455	103.49
335.684	102.09
335.912	101.49
336.14	97.29
336.369	103.89
336.597	103.89
336.825	103.89
337.053	99.49
337.281	103.49
337.51	104.29
337.738	99.29
337.966	98.49
338.194	96.09
338.422	98.29
338.65	98.69
338.878	99.69
339.106	95.29
339.334	96.69
339.562	97.09
339.79	98.09
340.018	93.69
340.246	98.49
340.474	96.49
340.702	100.69
340.93	94.29
341.158	98.69
341.386	109.29
341.614	103.49
341.842	106.89
342.07	96.69
342.298	100.89
342.526	96.69
342.754	105.09
342.981	97.69
343.209	98.89
343.437	104.09
343.665	106.89
343.893	96.69
344.12	101.29
344.348	91.29
344.576	99.09
344.804	97.69
345.031	99.89
345.259	101.49
345.487	98.69
345.714	101.89
345.942	105.49
346.17	107.09
346.397	106.29
346.625	103.89
346.853	100.49
347.08	91.09
347.308	87.49
347.535	93.69
347.763	90.69
347.99	94.69
348.218	104.69
348.445	107.89
348.673	102.89
348.9	101.69
349.128	108.29
349.355	100.49
349.583	104.09
349.81	103.69
350.037	96.29
350.265	97.69
350.492	100.69
350.72	105.49
350.947	101.09
351.174	98.49
351.402	99.09
351.629	96.49
351.856	91.89
352.083	96.09
352.311	101.49
352.538	98.89
352.765	95.89
352.992	102.49
353.22	99.49
353.447	101.89
353.674	101.29
353.901	103.09
354.128	98.69
354.355	96.69
354.583	100.89
354.81	96.69
355.037	101.29
355.264	101.89
355.491	97.09
355.718	101.89
355.945	102.29
356.172	104.49
356.399	105.69
356.626	109.09
356.853	113.09
357.08	138.89
357.307	148.09
357.534	159.49
357.761	135.29
357.988	127.29
358.215	117.29
358.441	116.29
358.668	112.29
358.895	103.49
359.122	108.69
359.349	92.49
359.576	104.69
359.802	97.29
360.029	98.69
360.256	102.09
360.483	97.09
360.709	101.69
360.936	107.49
361.163	110.89
361.39	101.09
361.616	105.69
361.843	102.29
362.07	108.09
362.296	104.49
362.523	102.29
362.749	109.29
362.976	107.49
363.203	107.09
363.429	118.69
363.656	129.89
363.882	163.29
364.109	175.29
364.335	152.49
364.562	126.09
364.788	111.49
365.015	118.89
365.241	109.89
365.468	105.89
365.694	103.89
365.92	106.89
366.147	107.69
366.373	103.09
366.599	104.49
366.826	110.89
367.052	119.89
367.278	122.69
367.505	115.29
367.731	121.49
367.957	138.09
368.184	181.69
368.41	205.89
368.636	200.09
368.862	146.49
369.089	130.49
369.315	121.69
369.541	118.69
369.767	107.89
369.993	119.09
370.219	110.09
370.445	111.49
370.672	103.89
370.898	108.69
371.124	105.89
371.35	102.49
371.576	106.49
371.802	105.69
372.028	103.49
372.254	104.89
372.48	105.69
372.706	111.09
372.932	114.29
373.158	101.49
373.384	111.49
373.61	120.89
373.835	132.29
374.061	155.29
374.287	156.09
374.513	124.29
374.739	122.49
374.965	107.49
375.191	108.29
375.416	103.69
375.642	106.29
375.868	108.89
376.094	108.49
376.319	105.69
376.545	104.29
376.771	101.09
376.997	100.69
377.222	98.69
377.448	101.69
377.674	103.69
377.899	99.49
378.125	97.89
378.35	103.89
378.576	105.89
378.802	103.29
379.027	101.49
379.253	99.49
379.478	107.49
379.704	105.29
379.929	105.69
380.155	104.09
380.38	100.89
380.606	96.29
380.831	101.89
381.057	108.89
381.282	98.29
381.507	102.69
381.733	104.89
381.958	106.89
382.184	102.09
382.409	98.89
382.634	102.29
382.86	99.29
383.085	98.89
383.31	97.29
383.535	103.09
383.761	102.89
383.986	108.29
384.211	108.49
384.436	100.09
384.662	102.89
384.887	102.89
385.112	101.09
385.337	108.09
385.562	101.49
385.787	100.29
386.013	104.69
386.238	108.69
386.463	104.29
386.688	113.49
386.913	106.89
387.138	97.09
387.363	106.89
387.588	110.29
387.813	101.69
388.038	101.09
388.263	104.09
388.488	104.89
388.713	101.69
388.938	106.29
389.163	102.89
389.387	103.69
389.612	102.09
389.837	102.89
390.062	111.09
390.287	105.09
390.512	102.49
390.736	97.89
390.961	106.09
391.186	93.89
391.411	100.49
391.636	99.69
391.86	108.09
392.085	108.69
392.31	99.09
392.534	98.49
392.759	110.49
392.984	108.69
393.208	99.29
393.433	101.09
393.658	107.89
393.882	103.29
394.107	99.89
394.331	102.69
394.556	101.69
394.78	106.69
395.005	95.69
395.229	102.09
395.454	105.09
395.678	95.29
395.903	109.69
396.127	113.69
396.352	101.69
396.576	101.09
396.801	99.29
397.025	102.09
397.249	100.49
397.474	103.49
397.698	99.29
397.922	97.49
398.147	107.89
398.371	110.89
398.595	109.29
398.82	107.89
399.044	103.89
399.268	104.89
399.492	110.69
399.717	113.29
399.941	107.49
400.165	110.69
400.389	104.09
400.613	108.29
400.837	113.09
401.062	107.89
401.286	106.49
401.51	113.89
401.734	112.29
401.958	115.89
402.182	119.69
402.406	103.89
402.63	109.69
402.854	104.89
403.078	110.69
403.302	107.69
403.526	112.09
403.75	114.49
403.974	116.09
404.198	115.89
404.422	112.29
404.645	114.49
404.869	121.89
405.093	126.69
405.317	147.69
405.541	195.69
405.765	258.09
405.988	284.69
406.212	232.49
406.436	180.29
406.66	150.89
406.883	130.09
407.107	131.29
407.331	119.09
407.555	118.89
407.778	121.49
408.002	124.09
408.226	119.89
408.449	114.69
408.673	115.49
408.896	117.29
409.12	114.29
409.344	112.09
409.567	106.89
409.791	112.89
410.014	113.09
410.238	112.69
410.461	120.89
410.685	111.89
410.908	111.69
411.132	112.49
411.355	109.49
411.578	105.49
411.802	110.89
412.025	112.09
412.249	109.49
412.472	111.29
412.695	103.29
412.919	106.09
413.142	102.89
413.365	113.29
413.589	106.29
413.812	101.69
414.035	114.49
414.258	111.09
414.482	112.89
414.705	106.49
414.928	113.29
415.151	105.49
415.374	107.89
415.597	107.29
415.821	113.49
416.044	109.49
416.267	112.49
416.49	110.89
416.713	111.89
416.936	114.49
417.159	110.69
417.382	107.09
417.605	107.49
417.828	110.69
418.051	113.69
418.274	111.09
418.497	105.69
418.72	109.09
418.943	118.29
419.166	105.69
419.389	105.29
419.611	111.49
419.834	107.29
420.057	110.89
420.28	106.09
420.503	113.29
420.726	112.29
420.948	112.49
421.171	107.49
421.394	107.09
421.617	114.69
421.839	110.49
422.062	115.49
422.285	107.09
422.507	116.29
422.73	107.89
422.953	114.09
423.175	120.09
423.398	120.49
423.621	121.69
423.843	133.09
424.066	135.69
424.288	157.29
424.511	167.29
424.733	174.89
424.956	167.89
425.178	152.29
425.401	138.69
425.623	129.89
425.846	125.49
426.068	131.09
426.291	130.09
426.513	121.49
426.735	114.69
426.958	118.29
427.18	116.49
427.402	121.89
427.625	111.89
427.847	114.69
428.069	115.89
428.292	115.89
428.514	113.49
428.736	109.49
428.958	115.29
429.181	111.69
429.403	116.09
429.625	108.09
429.847	114.29
430.069	107.29
430.292	112.29
430.514	113.49
430.736	112.49
430.958	110.89
431.18	110.29
431.402	111.89
431.624	111.89
431.846	109.89
432.068	110.09
432.29	113.49
432.512	112.49
432.734	110.49
432.956	112.49
433.178	120.49
433.4	114.29
433.622	116.49
433.844	115.29
434.066	113.49
434.287	115.69
434.509	106.69
434.731	111.69
434.953	118.29
435.175	117.49
435.397	115.69
435.618	109.09
435.84	113.69
436.062	115.49
436.284	116.09
436.505	112.09
436.727	114.69
436.949	123.69
437.17	117.49
437.392	115.09
437.614	120.49
437.835	118.29
438.057	128.49
438.278	129.69
438.5	148.49
438.721	157.69
438.943	163.89
439.165	158.09
439.386	145.69
439.608	144.09
439.829	135.09
440.05	135.89
440.272	140.89
440.493	137.49
440.715	138.69
440.936	146.09
441.158	135.89
441.379	136.29
441.6	120.09
441.822	134.49
442.043	133.49
442.264	128.49
442.486	119.89
442.707	121.29
442.928	126.69
443.149	114.89
443.371	114.49
443.592	122.09
443.813	116.89
444.034	123.49
444.255	125.09
444.476	113.29
444.698	119.49
444.919	113.29
445.14	174.09
445.361	145.49
445.582	117.89
445.803	110.89
446.024	116.89
446.245	121.69
446.466	112.49
446.687	113.09
446.908	113.29
447.129	112.89
447.35	107.09
447.571	112.69
447.792	111.09
448.013	107.89
448.234	117.09
448.455	107.29
448.675	111.09
448.896	108.09
449.117	107.89
449.338	112.09
449.559	109.69
449.779	112.29
450	112.49
450.221	110.69
450.442	104.29
450.662	104.69
450.883	111.49
451.104	110.89
451.324	108.09
451.545	109.69
451.766	106.69
451.986	110.89
452.207	106.69
452.428	106.29
452.648	110.49
452.869	110.09
453.089	103.69
453.31	108.09
453.53	104.49
453.751	113.49
453.971	107.29
454.192	106.09
454.412	103.49
454.633	97.29
454.853	109.49
455.073	106.69
455.294	99.89
455.514	101.49
455.734	105.69
455.955	106.69
456.175	103.69
456.395	105.89
456.616	103.49
456.836	103.09
457.056	99.49
457.276	103.49
457.497	108.89
457.717	103.89
457.937	108.09
458.157	104.29
458.377	107.89
458.598	112.09
458.818	106.29
459.038	107.09
459.258	114.09
459.478	103.29
459.698	106.29
459.918	110.49
460.138	101.89
460.358	105.09
460.578	107.29
460.798	112.89
461.018	111.49
461.238	102.89
461.458	103.89
461.678	114.89
461.898	109.29
462.118	111.29
462.338	115.29
462.558	116.29
462.777	115.69
462.997	106.69
463.217	112.89
463.437	111.49
463.657	111.09
463.876	113.29
464.096	109.29
464.316	111.09
464.536	101.49
464.755	115.09
464.975	104.49
465.195	108.09
465.414	109.69
465.634	103.89
465.854	106.29
466.073	111.09
466.293	99.49
466.512	102.09
466.732	110.49
466.951	97.49
467.171	107.69
467.391	107.09
467.61	108.89
467.829	108.69
468.049	107.29
468.268	103.69
468.488	112.29
468.707	113.69
468.927	107.69
469.146	110.09
469.365	106.69
469.585	112.29
469.804	111.09
470.023	110.49
470.243	105.09
470.462	110.49
470.681	108.29
470.901	103.29
471.12	110.09
471.339	109.89
471.558	109.89
471.777	107.69
471.997	111.49
472.216	104.29
472.435	115.29
472.654	106.29
472.873	113.09
473.092	112.09
473.311	110.29
473.53	104.69
473.749	115.89
473.968	109.49
474.187	107.69
474.406	111.89
474.625	113.29
474.844	109.09
475.063	112.29
475.282	111.69
475.501	100.89
475.72	115.49
475.939	102.09
476.158	103.89
476.377	110.29
476.596	110.89
476.814	106.09
477.033	111.29
477.252	108.69
477.471	111.89
477.69	112.69
477.908	111.49
478.127	108.49
478.346	110.69
478.564	107.69
478.783	113.09
479.002	119.29
479.22	115.49
479.439	113.49
479.658	107.29
479.876	108.09
480.095	111.89
480.313	112.29
480.532	116.29
480.751	106.89
480.969	108.49
481.188	110.69
481.406	106.49
481.624	105.89
481.843	109.69
482.061	102.29
482.28	105.29
482.498	115.69
482.717	117.09
482.935	119.69
483.153	116.09
483.372	118.29
483.59	116.49
483.808	111.29
484.027	112.49
484.245	112.49
484.463	115.89
484.681	114.89
484.9	107.29
485.118	111.09
485.336	106.69
485.554	113.49
485.772	115.69
485.99	115.89
486.209	108.89
486.427	116.29
486.645	116.69
486.863	112.69
487.081	113.89
487.299	112.09
487.517	109.49
487.735	116.29
487.953	117.29
488.171	110.49
488.389	113.29
488.607	108.49
488.825	107.69
489.043	114.09
489.261	108.69
489.479	116.49
489.696	111.49
489.914	118.29
490.132	106.49
490.35	116.89
490.568	115.49
490.786	124.49
491.003	115.89
491.221	120.89
491.439	124.69
491.657	116.89
491.874	122.29
492.092	119.89
492.31	127.09
492.527	123.89
492.745	115.69
492.963	120.69
493.18	121.09
493.398	114.49
493.615	111.89
493.833	114.29
494.05	117.09
494.268	113.89
494.485	122.69
494.703	122.69
494.92	122.69
495.138	114.49
495.355	117.09
495.573	128.69
495.79	122.49
496.008	116.49
496.225	118.09
496.442	120.29
496.66	121.69
496.877	126.29
497.094	123.69
497.312	124.09
497.529	120.29
497.746	121.29
497.963	118.89
498.181	119.29
498.398	124.09
498.615	115.89
498.832	121.29
499.049	127.29
499.267	121.69
499.484	133.09
499.701	132.49
499.918	136.29
500.135	132.89
500.352	141.09
500.569	157.69
500.786	166.69
501.003	145.69
501.22	140.29
501.437	131.49
501.654	129.49
501.871	126.29
502.088	127.29
502.305	127.29
502.522	131.09
502.739	127.09
502.956	127.49
503.172	123.29
503.389	127.49
503.606	120.69
503.823	121.69
504.04	123.89
504.256	129.09
504.473	127.09
504.69	125.69
504.907	128.69
505.123	129.09
505.34	129.29
505.557	129.69
505.773	123.69
505.99	120.89
506.207	124.49
506.423	116.09
506.64	116.29
506.856	121.09
507.073	120.49
507.289	115.29
507.506	111.29
507.722	119.69
507.939	112.49
508.155	111.09
