Data from ZeroMicroDelayPb_HRD10591_00010.txt Node
Date: Mon Nov 24 14:24:54 EST 2025
User: Yrep
Spectrometer: HR+D1059
Trigger mode: 0
Integration Time (sec): 1.000000E-1
Scans to average: 5
Electric dark correction enabled: true
Nonlinearity correction enabled: false
Boxcar width: 0
XAxis mode: Wavelengths
Number of Pixels in Spectrum: 2048
>>>>>Begin Spectral Data<<<<<
223.165	-9.89
223.4	-9.89
223.635	-9.89
223.869	-17.89
224.104	-17.49
224.338	-16.69
224.573	-17.09
224.808	-14.09
225.042	-15.29
225.277	-6.69
225.511	3.11
225.746	2.31
225.98	8.91
226.215	9.31
226.449	18.11
226.683	20.51
226.918	22.51
227.152	30.31
227.387	37.31
227.621	37.91
227.856	38.71
228.09	41.91
228.324	53.71
228.559	58.91
228.793	56.51
229.027	61.51
229.262	64.51
229.496	63.51
229.73	65.91
229.964	72.51
230.199	76.51
230.433	71.71
230.667	77.11
230.901	78.31
231.136	74.71
231.37	78.71
231.604	78.11
231.838	79.31
232.072	81.91
232.306	76.51
232.541	82.71
232.775	82.71
233.009	84.51
233.243	83.91
233.477	85.31
233.711	86.11
233.945	79.11
234.179	80.71
234.413	85.11
234.647	85.31
234.881	81.51
235.115	83.31
235.349	82.51
235.583	82.51
235.817	78.11
236.051	83.71
236.285	81.51
236.519	84.91
236.753	80.11
236.987	78.71
237.221	78.51
237.455	72.31
237.689	79.51
237.922	78.91
238.156	80.71
238.39	79.51
238.624	69.31
238.858	79.91
239.091	82.71
239.325	83.91
239.559	82.51
239.793	84.51
240.027	78.31
240.26	78.91
240.494	79.71
240.728	77.51
240.961	80.51
241.195	75.91
241.429	82.71
241.662	78.31
241.896	81.51
242.13	76.91
242.363	75.71
242.597	77.11
242.83	83.71
243.064	78.91
243.298	76.71
243.531	84.91
243.765	77.51
243.998	79.71
244.232	82.11
244.465	71.91
244.699	80.11
244.932	79.11
245.166	75.31
245.399	78.31
245.633	82.51
245.866	79.71
246.099	82.11
246.333	75.31
246.566	73.51
246.8	82.11
247.033	82.51
247.266	76.11
247.5	84.91
247.733	79.71
247.966	82.11
248.2	87.91
248.433	83.31
248.666	85.11
248.899	80.51
249.133	81.11
249.366	80.51
249.599	86.11
249.832	76.31
250.066	85.31
250.299	83.91
250.532	77.11
250.765	85.71
250.998	83.11
251.231	86.91
251.465	84.11
251.698	83.11
251.931	90.71
252.164	86.51
252.397	84.91
252.63	84.71
252.863	86.11
253.096	83.31
253.329	87.31
253.562	81.71
253.795	88.31
254.028	89.91
254.261	86.71
254.494	89.51
254.727	89.51
254.96	88.11
255.193	85.91
255.426	84.51
255.659	84.71
255.892	89.11
256.124	85.51
256.357	93.31
256.59	89.51
256.823	92.51
257.056	88.71
257.289	89.31
257.521	93.71
257.754	88.71
257.987	92.71
258.22	90.31
258.452	90.91
258.685	83.11
258.918	93.71
259.151	89.71
259.383	85.71
259.616	93.11
259.849	84.51
260.081	89.31
260.314	99.11
260.547	92.31
260.779	97.51
261.012	101.51
261.244	98.31
261.477	108.11
261.71	115.51
261.942	103.71
262.175	96.31
262.407	93.11
262.64	95.51
262.872	94.51
263.105	89.71
263.337	95.11
263.57	92.31
263.802	99.51
264.035	90.31
264.267	94.51
264.499	98.71
264.732	96.51
264.964	95.91
265.197	104.11
265.429	95.11
265.661	98.11
265.894	99.91
266.126	102.91
266.358	104.31
266.591	107.11
266.823	101.11
267.055	91.31
267.287	93.71
267.52	88.91
267.752	92.91
267.984	90.71
268.216	95.31
268.448	92.51
268.681	90.11
268.913	94.71
269.145	87.91
269.377	95.31
269.609	81.91
269.841	87.11
270.073	88.11
270.306	91.51
270.538	97.51
270.77	89.11
271.002	87.31
271.234	94.31
271.466	88.71
271.698	88.31
271.93	83.51
272.162	98.11
272.394	104.71
272.626	82.91
272.858	86.71
273.09	90.31
273.322	92.51
273.553	89.31
273.785	92.11
274.017	85.91
274.249	88.11
274.481	89.91
274.713	92.71
274.945	92.31
275.176	86.51
275.408	90.31
275.64	94.91
275.872	90.31
276.104	96.31
276.335	89.91
276.567	89.71
276.799	85.91
277.031	88.31
277.262	89.31
277.494	97.11
277.726	97.31
277.957	88.31
278.189	94.51
278.421	91.91
278.652	95.11
278.884	95.71
279.115	96.91
279.347	100.31
279.579	108.51
279.81	116.91
280.042	132.71
280.273	145.31
280.505	130.91
280.736	108.71
280.968	109.31
281.199	96.71
281.431	101.71
281.662	95.71
281.894	100.91
282.125	97.51
282.356	102.51
282.588	110.31
282.819	106.51
283.051	110.91
283.282	123.71
283.513	126.11
283.745	113.91
283.976	108.11
284.207	99.71
284.439	100.31
284.67	100.11
284.901	97.71
285.132	101.51
285.364	95.31
285.595	96.71
285.826	95.51
286.057	99.51
286.288	96.91
286.52	100.31
286.751	107.91
286.982	107.11
287.213	113.11
287.444	116.71
287.675	109.51
287.906	102.31
288.138	94.51
288.369	97.51
288.6	100.11
288.831	93.31
289.062	97.31
289.293	94.71
289.524	89.91
289.755	100.31
289.986	93.11
290.217	93.11
290.448	90.51
290.679	94.71
290.91	97.51
291.141	92.91
291.371	95.51
291.602	87.91
291.833	89.71
292.064	95.71
292.295	99.71
292.526	92.11
292.757	102.11
292.987	103.31
293.218	93.91
293.449	94.91
293.68	96.11
293.91	92.31
294.141	93.51
294.372	97.11
294.603	94.11
294.833	95.91
295.064	91.31
295.295	96.31
295.525	95.71
295.756	95.71
295.987	97.91
296.217	96.31
296.448	97.51
296.679	103.51
296.909	96.71
297.14	95.31
297.37	95.51
297.601	92.71
297.831	95.11
298.062	93.51
298.292	96.91
298.523	94.71
298.753	93.31
298.984	91.51
299.214	93.91
299.445	94.51
299.675	92.11
299.905	95.31
300.136	91.51
300.366	97.91
300.597	91.71
300.827	92.71
301.057	93.91
301.288	96.51
301.518	103.91
301.748	97.11
301.979	107.91
302.209	92.31
302.439	97.71
302.669	96.51
302.9	95.91
303.13	99.51
303.36	92.71
303.59	95.11
303.82	106.91
304.051	102.11
304.281	93.11
304.511	93.71
304.741	102.31
304.971	94.51
305.201	95.51
305.431	97.51
305.661	103.51
305.891	89.51
306.121	101.71
306.352	93.31
306.582	96.91
306.812	95.11
307.042	96.91
307.272	95.31
307.502	97.11
307.731	89.31
307.961	92.91
308.191	98.31
308.421	97.91
308.651	93.51
308.881	95.91
309.111	94.11
309.341	93.71
309.571	95.31
309.8	98.51
310.03	99.51
310.26	95.11
310.49	97.31
310.72	93.11
310.949	105.51
311.179	98.11
311.409	95.11
311.639	98.51
311.868	96.11
312.098	101.71
312.328	105.91
312.557	98.91
312.787	96.51
313.017	93.51
313.246	99.91
313.476	102.91
313.706	111.51
313.935	103.31
314.165	107.51
314.394	104.91
314.624	100.71
314.853	100.71
315.083	100.11
315.312	104.31
315.542	101.31
315.771	99.71
316.001	102.11
316.23	97.91
316.46	95.91
316.689	101.71
316.919	99.91
317.148	100.51
317.377	105.31
317.607	101.51
317.836	103.51
318.065	103.31
318.295	104.31
318.524	101.91
318.753	105.71
318.983	100.51
319.212	93.51
319.441	94.71
319.67	102.51
319.9	98.31
320.129	98.91
320.358	93.91
320.587	103.91
320.816	99.71
321.046	97.11
321.275	98.31
321.504	96.71
321.733	97.31
321.962	91.11
322.191	105.91
322.42	97.91
322.649	98.31
322.878	100.31
323.108	106.11
323.337	98.71
323.566	97.51
323.795	95.91
324.024	96.51
324.253	90.71
324.482	102.71
324.71	100.71
324.939	99.31
325.168	96.31
325.397	99.11
325.626	99.51
325.855	97.91
326.084	97.51
326.313	98.51
326.542	100.71
326.77	92.31
326.999	87.91
327.228	96.31
327.457	99.11
327.686	96.51
327.914	94.71
328.143	98.11
328.372	100.11
328.6	96.11
328.829	98.31
329.058	95.11
329.287	90.91
329.515	98.51
329.744	97.11
329.972	103.11
330.201	94.11
330.43	96.11
330.658	93.91
330.887	101.31
331.115	96.71
331.344	98.31
331.572	100.11
331.801	98.11
332.03	94.31
332.258	98.51
332.486	99.71
332.715	98.71
332.943	107.31
333.172	95.71
333.4	98.51
333.629	103.31
333.857	96.91
334.085	95.71
334.314	102.31
334.542	104.51
334.771	98.31
334.999	94.71
335.227	99.51
335.455	97.71
335.684	94.91
335.912	94.51
336.14	94.31
336.369	98.51
336.597	99.31
336.825	98.71
337.053	95.51
337.281	101.51
337.51	98.91
337.738	97.11
337.966	104.51
338.194	97.71
338.422	99.91
338.65	98.11
338.878	100.91
339.106	88.31
339.334	97.51
339.562	92.91
339.79	95.91
340.018	100.71
340.246	100.91
340.474	96.11
340.702	98.11
340.93	103.51
341.158	96.71
341.386	95.51
341.614	96.91
341.842	93.11
342.07	94.31
342.298	99.51
342.526	97.71
342.754	97.71
342.981	100.31
343.209	94.31
343.437	103.91
343.665	94.51
343.893	98.51
344.12	106.91
344.348	104.51
344.576	101.51
344.804	100.11
345.031	111.11
345.259	94.31
345.487	103.71
345.714	99.51
345.942	94.71
346.17	98.71
346.397	100.91
346.625	95.11
346.853	103.51
347.08	96.11
347.308	87.51
347.535	96.11
347.763	98.71
347.99	98.71
348.218	95.71
348.445	94.31
348.673	98.91
348.9	97.11
349.128	95.71
349.355	95.91
349.583	99.31
349.81	95.11
350.037	97.51
350.265	99.51
350.492	94.51
350.72	93.51
350.947	95.51
351.174	103.31
351.402	96.31
351.629	96.91
351.856	98.51
352.083	95.11
352.311	92.11
352.538	95.11
352.765	96.51
352.992	106.31
353.22	94.71
353.447	90.51
353.674	95.31
353.901	97.51
354.128	100.31
354.355	96.91
354.583	101.31
354.81	100.31
355.037	102.31
355.264	101.11
355.491	96.11
355.718	100.31
355.945	105.31
356.172	99.91
356.399	104.51
356.626	101.91
356.853	111.71
357.08	127.51
357.307	144.11
357.534	144.31
357.761	127.51
357.988	123.51
358.215	108.71
358.441	109.51
358.668	103.51
358.895	98.71
359.122	105.11
359.349	106.11
359.576	98.71
359.802	99.51
360.029	106.71
360.256	99.71
360.483	101.71
360.709	100.71
360.936	100.51
361.163	106.11
361.39	98.71
361.616	102.71
361.843	108.51
362.07	98.31
362.296	104.31
362.523	103.51
362.749	102.71
362.976	108.31
363.203	110.71
363.429	119.11
363.656	126.71
363.882	152.91
364.109	170.31
364.335	137.31
364.562	114.91
364.788	106.31
365.015	108.71
365.241	106.91
365.468	106.31
365.694	99.31
365.92	101.51
366.147	101.11
366.373	107.11
366.599	100.51
366.826	112.31
367.052	116.71
367.278	117.91
367.505	114.51
367.731	119.91
367.957	134.11
368.184	163.31
368.41	190.91
368.636	182.11
368.862	142.71
369.089	126.71
369.315	110.51
369.541	117.31
369.767	104.91
369.993	112.31
370.219	104.11
370.445	104.51
370.672	103.91
370.898	101.91
371.124	100.31
371.35	102.51
371.576	96.31
371.802	101.51
372.028	105.91
372.254	102.71
372.48	95.91
372.706	107.91
372.932	104.71
373.158	109.51
373.384	110.71
373.61	120.11
373.835	133.11
374.061	153.51
374.287	147.11
374.513	124.11
374.739	106.91
374.965	106.51
375.191	105.71
375.416	99.51
375.642	97.91
375.868	105.31
376.094	98.71
376.319	95.71
376.545	101.91
376.771	104.31
376.997	102.91
377.222	100.71
377.448	98.51
377.674	106.31
377.899	104.31
378.125	106.11
378.35	102.91
378.576	102.11
378.802	101.31
379.027	102.91
379.253	101.31
379.478	98.51
379.704	97.51
379.929	98.51
380.155	103.11
380.38	104.51
380.606	102.11
380.831	97.71
381.057	102.11
381.282	99.91
381.507	94.11
381.733	99.91
381.958	101.11
382.184	96.91
382.409	101.31
382.634	102.11
382.86	96.11
383.085	100.71
383.31	97.71
383.535	103.51
383.761	94.11
383.986	97.71
384.211	103.31
384.436	101.31
384.662	98.71
384.887	99.31
385.112	99.51
385.337	96.71
385.562	98.71
385.787	94.11
386.013	100.51
386.238	99.71
386.463	100.51
386.688	110.91
386.913	98.51
387.138	102.11
387.363	101.31
387.588	103.11
387.813	96.51
388.038	98.11
388.263	104.11
388.488	103.11
388.713	101.31
388.938	99.91
389.163	100.71
389.387	104.11
389.612	100.11
389.837	103.71
390.062	101.91
390.287	98.51
390.512	101.11
390.736	103.71
390.961	103.11
391.186	100.31
391.411	101.31
391.636	102.91
391.86	101.91
392.085	98.91
392.31	98.91
392.534	98.51
392.759	102.71
392.984	102.11
393.208	101.31
393.433	102.11
393.658	97.91
393.882	103.71
394.107	95.11
394.331	95.31
394.556	98.31
394.78	100.91
395.005	96.71
395.229	100.11
395.454	107.71
395.678	104.31
395.903	102.91
396.127	102.31
396.352	107.51
396.576	103.11
396.801	99.11
397.025	97.11
397.249	99.91
397.474	98.91
397.698	103.91
397.922	96.31
398.147	97.11
398.371	105.71
398.595	99.31
398.82	105.51
399.044	96.51
399.268	106.31
399.492	106.71
399.717	108.51
399.941	107.31
400.165	109.71
400.389	101.71
400.613	110.11
400.837	101.31
401.062	105.11
401.286	104.91
401.51	106.11
401.734	108.31
401.958	111.71
402.182	111.51
402.406	104.11
402.63	102.71
402.854	112.11
403.078	106.91
403.302	105.51
403.526	111.11
403.75	104.31
403.974	111.71
404.198	109.31
404.422	105.51
404.645	109.91
404.869	113.91
405.093	123.31
405.317	136.11
405.541	171.91
405.765	228.71
405.988	259.91
406.212	212.71
406.436	164.71
406.66	143.71
406.883	133.31
407.107	122.51
407.331	115.31
407.555	115.91
407.778	109.51
408.002	107.91
408.226	109.51
408.449	111.11
408.673	113.51
408.896	108.71
409.12	105.51
409.344	111.51
409.567	112.91
409.791	110.31
410.014	106.11
410.238	111.91
410.461	110.71
410.685	109.31
410.908	108.11
411.132	104.31
411.355	102.31
411.578	104.11
411.802	105.11
412.025	102.91
412.249	105.71
412.472	106.31
412.695	104.91
412.919	117.71
413.142	106.31
413.365	107.11
413.589	101.11
413.812	103.31
414.035	104.11
414.258	102.71
414.482	107.91
414.705	106.31
414.928	108.31
415.151	106.51
415.374	105.11
415.597	103.51
415.821	107.31
416.044	108.51
416.267	111.31
416.49	111.71
416.713	121.11
416.936	109.11
417.159	104.71
417.382	106.31
417.605	103.91
417.828	105.51
418.051	108.11
418.274	109.11
418.497	110.91
418.72	107.31
418.943	102.11
419.166	108.71
419.389	108.31
419.611	109.11
419.834	104.91
420.057	104.31
420.28	107.11
420.503	107.91
420.726	110.71
420.948	113.11
421.171	106.31
421.394	108.91
421.617	101.91
421.839	108.71
422.062	112.91
422.285	111.31
422.507	112.31
422.73	115.91
422.953	112.91
423.175	117.71
423.398	119.51
423.621	119.11
423.843	126.91
424.066	132.11
424.288	138.51
424.511	160.11
424.733	167.91
424.956	151.51
425.178	141.31
425.401	133.71
425.623	127.91
425.846	125.91
426.068	117.51
426.291	124.71
426.513	121.11
426.735	120.11
426.958	119.11
427.18	112.71
427.402	113.71
427.625	117.71
427.847	109.71
428.069	117.31
428.292	116.51
428.514	116.11
428.736	115.71
428.958	108.11
429.181	109.91
429.403	106.71
429.625	100.31
429.847	112.11
430.069	107.51
430.292	114.91
430.514	107.51
430.736	111.91
430.958	113.31
431.18	104.71
431.402	108.11
431.624	106.31
431.846	107.51
432.068	105.71
432.29	109.31
432.512	109.51
432.734	112.51
432.956	108.51
433.178	109.31
433.4	111.71
433.622	104.51
433.844	108.71
434.066	113.91
434.287	106.71
434.509	108.71
434.731	105.11
434.953	108.51
435.175	105.91
435.397	110.31
435.618	103.51
435.84	109.51
436.062	109.91
436.284	104.51
436.505	109.51
436.727	116.91
436.949	111.71
437.17	109.71
437.392	118.51
437.614	112.51
437.835	118.91
438.057	117.11
438.278	131.31
438.5	139.91
438.721	148.51
438.943	159.31
439.165	145.71
439.386	144.91
439.608	141.31
439.829	122.91
440.05	132.31
440.272	128.71
440.493	131.31
440.715	138.11
440.936	133.91
441.158	129.71
441.379	121.51
441.6	132.71
441.822	123.71
442.043	124.31
442.264	121.91
442.486	120.31
442.707	126.71
442.928	118.31
443.149	108.71
443.371	109.11
443.592	114.51
443.813	118.51
444.034	116.71
444.255	111.11
444.476	111.91
444.698	115.71
444.919	119.51
445.14	175.11
445.361	140.11
445.582	106.31
445.803	109.11
446.024	110.51
446.245	116.51
446.466	114.11
446.687	105.71
446.908	112.31
447.129	111.11
447.35	113.31
447.571	111.51
447.792	108.11
448.013	118.51
448.234	117.31
448.455	116.91
448.675	103.91
448.896	111.31
449.117	108.11
449.338	114.91
449.559	105.91
449.779	103.51
450	104.31
450.221	108.71
450.442	109.51
450.662	101.51
450.883	108.11
451.104	110.11
451.324	106.91
451.545	97.11
451.766	107.71
451.986	106.51
452.207	103.71
452.428	101.11
452.648	102.51
452.869	107.71
453.089	106.51
453.31	103.31
453.53	108.51
453.751	101.11
453.971	104.71
454.192	99.51
454.412	111.51
454.633	106.91
454.853	108.51
455.073	101.51
455.294	109.31
455.514	108.31
455.734	102.11
455.955	101.11
456.175	104.51
456.395	104.31
456.616	102.71
456.836	95.31
457.056	99.51
457.276	95.51
457.497	108.31
457.717	99.71
457.937	107.31
458.157	105.31
458.377	96.31
458.598	101.31
458.818	102.11
459.038	94.31
459.258	97.31
459.478	102.11
459.698	107.71
459.918	103.71
460.138	103.51
460.358	100.31
460.578	104.71
460.798	108.71
461.018	94.31
461.238	105.31
461.458	109.31
461.678	102.31
461.898	105.71
462.118	111.91
462.338	105.91
462.558	106.71
462.777	111.91
462.997	106.11
463.217	106.11
463.437	104.31
463.657	106.31
463.876	106.71
464.096	112.11
464.316	100.31
464.536	104.91
464.755	112.91
464.975	106.91
465.195	104.11
465.414	105.91
465.634	103.71
465.854	106.51
466.073	108.71
466.293	106.11
466.512	111.91
466.732	102.31
466.951	107.51
467.171	100.51
467.391	109.71
467.61	107.51
467.829	107.31
468.049	109.91
468.268	106.51
468.488	107.91
468.707	102.71
468.927	101.51
469.146	106.51
469.365	109.51
469.585	105.51
469.804	107.51
470.023	105.91
470.243	109.51
470.462	105.91
470.681	108.31
470.901	102.51
471.12	101.91
471.339	95.91
471.558	107.31
471.777	102.91
471.997	108.31
472.216	104.31
472.435	98.31
472.654	101.51
472.873	104.11
473.092	96.31
473.311	108.51
473.53	104.71
473.749	101.91
473.968	100.91
474.187	108.31
474.406	102.11
474.625	106.51
474.844	114.11
475.063	108.51
475.282	103.11
475.501	104.71
475.72	118.91
475.939	105.71
476.158	112.31
476.377	103.51
476.596	103.71
476.814	106.11
477.033	114.51
477.252	108.51
477.471	112.31
477.69	111.11
477.908	110.71
478.127	112.91
478.346	109.51
478.564	107.11
478.783	107.51
479.002	113.31
479.22	113.71
479.439	111.91
479.658	116.11
479.876	104.11
480.095	105.51
480.313	109.51
480.532	111.31
480.751	115.11
480.969	108.91
481.188	105.51
481.406	106.91
481.624	107.31
481.843	113.11
482.061	106.71
482.28	107.71
482.498	105.91
482.717	113.31
482.935	112.71
483.153	109.11
483.372	112.91
483.59	108.31
483.808	106.51
484.027	103.91
484.245	107.31
484.463	103.71
484.681	115.91
484.9	111.11
485.118	111.91
485.336	104.31
485.554	101.71
485.772	108.91
485.99	102.71
486.209	103.71
486.427	109.11
486.645	108.71
486.863	110.31
487.081	116.11
487.299	109.71
487.517	106.71
487.735	112.31
487.953	113.71
488.171	121.91
488.389	114.71
488.607	111.31
488.825	107.51
489.043	111.91
489.261	111.11
489.479	110.11
489.696	107.91
489.914	112.51
490.132	107.71
490.35	113.31
490.568	110.31
490.786	116.91
491.003	114.11
491.221	112.31
491.439	115.51
491.657	115.91
491.874	119.71
492.092	109.51
492.31	121.91
492.527	120.71
492.745	122.11
492.963	117.51
493.18	126.71
493.398	114.91
493.615	115.31
493.833	112.31
494.05	115.51
494.268	115.11
494.485	115.51
494.703	115.31
494.92	110.31
495.138	113.11
495.355	118.91
495.573	123.31
495.79	121.31
496.008	117.31
496.225	114.11
496.442	115.71
496.66	119.71
496.877	113.11
497.094	112.71
497.312	120.91
497.529	118.91
497.746	116.51
497.963	120.91
498.181	120.31
498.398	114.91
498.615	119.51
498.832	116.11
499.049	119.31
499.267	124.31
499.484	125.71
499.701	122.51
499.918	127.51
500.135	128.91
500.352	133.91
500.569	147.11
500.786	152.91
501.003	137.51
501.22	123.31
501.437	128.71
501.654	133.91
501.871	122.91
502.088	123.31
502.305	121.11
502.522	127.31
502.739	121.31
502.956	123.51
503.172	119.31
503.389	122.11
503.606	123.71
503.823	115.91
504.04	130.11
504.256	126.91
504.473	121.11
504.69	122.11
504.907	122.71
505.123	122.31
505.34	114.91
505.557	119.11
505.773	120.71
505.99	116.71
506.207	120.71
506.423	120.11
506.64	116.11
506.856	124.11
507.073	118.31
507.289	110.91
507.506	115.91
507.722	112.71
507.939	109.31
508.155	114.31
508.372	108.71
508.588	111.31
508.805	111.11
509.021	113.91
509.238	113.71
509.454	108.31
