Data from ZeroMicroDelayPb_HRD10591_00001.txt Node
Date: Mon Nov 24 14:24:50 EST 2025
User: Yrep
Spectrometer: HR+D1059
Trigger mode: 0
Integration Time (sec): 1.000000E-1
Scans to average: 5
Electric dark correction enabled: true
Nonlinearity correction enabled: false
Boxcar width: 0
XAxis mode: Wavelengths
Number of Pixels in Spectrum: 2048
>>>>>Begin Spectral Data<<<<<
223.165	-14.64
223.4	-14.64
223.635	-14.64
223.869	-14.84
224.104	-19.24
224.338	-12.04
224.573	-16.64
224.808	-15.64
225.042	-11.44
225.277	-2.04
225.511	-3.04
225.746	1.56
225.98	7.76
226.215	8.96
226.449	14.96
226.683	21.16
226.918	23.36
227.152	31.76
227.387	27.56
227.621	38.96
227.856	44.16
228.09	47.96
228.324	53.36
228.559	55.96
228.793	55.76
229.027	61.36
229.262	62.76
229.496	71.76
229.73	70.96
229.964	73.76
230.199	84.36
230.433	80.56
230.667	79.56
230.901	78.56
231.136	81.36
231.37	86.36
231.604	82.76
231.838	80.36
232.072	78.36
232.306	91.96
232.541	82.56
232.775	77.96
233.009	84.16
233.243	76.76
233.477	84.96
233.711	87.76
233.945	85.36
234.179	79.56
234.413	88.56
234.647	82.36
234.881	83.96
235.115	75.96
235.349	80.36
235.583	83.76
235.817	78.56
236.051	87.96
236.285	80.16
236.519	81.16
236.753	84.36
236.987	77.36
237.221	80.56
237.455	76.96
237.689	76.76
237.922	77.56
238.156	77.36
238.39	79.16
238.624	82.16
238.858	83.16
239.091	73.96
239.325	73.36
239.559	84.56
239.793	79.76
240.027	84.36
240.26	78.96
240.494	85.36
240.728	76.36
240.961	78.96
241.195	83.56
241.429	79.16
241.662	79.56
241.896	77.56
242.13	77.36
242.363	77.16
242.597	78.56
242.83	85.96
243.064	77.36
243.298	87.56
243.531	84.76
243.765	75.96
243.998	81.16
244.232	79.36
244.465	85.36
244.699	82.16
244.932	82.36
245.166	77.56
245.399	78.96
245.633	79.56
245.866	83.36
246.099	82.96
246.333	78.96
246.566	77.76
246.8	74.96
247.033	78.36
247.266	80.96
247.5	85.16
247.733	78.56
247.966	85.36
248.2	80.76
248.433	81.36
248.666	86.76
248.899	84.16
249.133	82.96
249.366	82.96
249.599	81.36
249.832	76.36
250.066	87.56
250.299	81.56
250.532	86.16
250.765	85.56
250.998	89.96
251.231	76.96
251.465	86.76
251.698	83.76
251.931	85.16
252.164	90.96
252.397	90.76
252.63	86.56
252.863	83.76
253.096	80.16
253.329	82.76
253.562	88.76
253.795	86.56
254.028	95.96
254.261	89.36
254.494	86.56
254.727	91.16
254.96	87.76
255.193	82.96
255.426	91.76
255.659	80.36
255.892	92.56
256.124	92.16
256.357	82.76
256.59	92.36
256.823	86.96
257.056	85.56
257.289	97.96
257.521	90.36
257.754	89.96
257.987	98.96
258.22	99.96
258.452	94.16
258.685	87.96
258.918	93.16
259.151	84.96
259.383	92.36
259.616	90.96
259.849	97.36
260.081	90.76
260.314	88.16
260.547	90.96
260.779	101.56
261.012	92.36
261.244	104.96
261.477	114.16
261.71	112.96
261.942	108.16
262.175	99.16
262.407	87.16
262.64	91.36
262.872	94.36
263.105	97.96
263.337	92.76
263.57	98.36
263.802	91.76
264.035	93.16
264.267	90.16
264.499	94.96
264.732	92.16
264.964	92.56
265.197	90.56
265.429	89.96
265.661	97.16
265.894	90.76
266.126	98.36
266.358	98.56
266.591	110.36
266.823	101.76
267.055	98.56
267.287	99.36
267.52	91.56
267.752	90.96
267.984	80.96
268.216	93.56
268.448	90.16
268.681	93.16
268.913	88.36
269.145	87.96
269.377	91.76
269.609	95.36
269.841	95.36
270.073	91.16
270.306	92.96
270.538	81.76
270.77	89.36
271.002	89.16
271.234	91.56
271.466	87.36
271.698	91.76
271.93	89.16
272.162	89.56
272.394	93.36
272.626	87.96
272.858	90.76
273.09	94.36
273.322	99.36
273.553	95.16
273.785	94.36
274.017	87.56
274.249	90.76
274.481	93.16
274.713	91.96
274.945	97.36
275.176	90.36
275.408	95.16
275.64	94.16
275.872	99.56
276.104	92.36
276.335	90.96
276.567	93.56
276.799	87.16
277.031	86.36
277.262	89.56
277.494	94.36
277.726	101.16
277.957	101.16
278.189	94.96
278.421	95.56
278.652	95.36
278.884	99.36
279.115	102.56
279.347	110.16
279.579	108.16
279.81	117.56
280.042	130.36
280.273	139.96
280.505	134.96
280.736	114.56
280.968	109.96
281.199	105.96
281.431	101.56
281.662	106.36
281.894	105.56
282.125	110.16
282.356	111.96
282.588	112.16
282.819	112.96
283.051	113.96
283.282	116.96
283.513	129.56
283.745	116.36
283.976	104.96
284.207	107.16
284.439	103.56
284.67	97.16
284.901	99.96
285.132	106.36
285.364	94.36
285.595	95.56
285.826	95.96
286.057	97.76
286.288	90.76
286.52	101.76
286.751	101.16
286.982	109.96
287.213	113.56
287.444	113.56
287.675	108.76
287.906	103.76
288.138	105.76
288.369	103.36
288.6	100.76
288.831	92.96
289.062	97.96
289.293	104.16
289.524	99.96
289.755	95.96
289.986	93.96
290.217	82.96
290.448	95.76
290.679	96.16
290.91	92.16
291.141	95.36
291.371	99.16
291.602	97.96
291.833	96.36
292.064	100.76
292.295	97.56
292.526	101.76
292.757	90.96
292.987	97.36
293.218	91.96
293.449	98.16
293.68	93.76
293.91	91.56
294.141	98.36
294.372	89.56
294.603	92.96
294.833	98.76
295.064	95.76
295.295	96.16
295.525	95.76
295.756	91.96
295.987	90.56
296.217	95.76
296.448	90.56
296.679	95.76
296.909	105.36
297.14	97.36
297.37	95.36
297.601	99.56
297.831	84.96
298.062	95.16
298.292	97.36
298.523	96.56
298.753	104.76
298.984	95.56
299.214	93.36
299.445	97.36
299.675	99.56
299.905	99.56
300.136	96.96
300.366	94.16
300.597	100.76
300.827	95.16
301.057	96.96
301.288	95.36
301.518	102.16
301.748	97.76
301.979	109.16
302.209	97.16
302.439	104.16
302.669	96.96
302.9	97.96
303.13	99.16
303.36	97.76
303.59	90.36
303.82	89.96
304.051	94.96
304.281	99.56
304.511	104.96
304.741	101.56
304.971	101.36
305.201	99.36
305.431	101.16
305.661	104.76
305.891	98.56
306.121	96.76
306.352	98.96
306.582	98.96
306.812	97.76
307.042	92.76
307.272	97.56
307.502	93.96
307.731	103.16
307.961	105.16
308.191	97.36
308.421	101.36
308.651	97.36
308.881	99.16
309.111	95.16
309.341	98.36
309.571	96.96
309.8	101.16
310.03	98.76
310.26	98.96
310.49	95.96
310.72	97.96
310.949	98.96
311.179	99.36
311.409	97.96
311.639	97.56
311.868	96.36
312.098	90.76
312.328	104.36
312.557	103.56
312.787	104.76
313.017	100.96
313.246	101.96
313.476	105.96
313.706	101.96
313.935	107.16
314.165	104.76
314.394	101.56
314.624	103.36
314.853	100.36
315.083	100.76
315.312	102.96
315.542	106.76
315.771	102.56
316.001	101.36
316.23	102.96
316.46	103.96
316.689	103.16
316.919	100.76
317.148	97.76
317.377	103.96
317.607	108.76
317.836	99.76
318.065	100.76
318.295	100.36
318.524	100.96
318.753	95.56
318.983	98.96
319.212	101.16
319.441	100.36
319.67	96.36
319.9	97.56
320.129	100.36
320.358	97.56
320.587	99.56
320.816	100.56
321.046	97.76
321.275	100.56
321.504	100.36
321.733	94.16
321.962	99.56
322.191	103.56
322.42	94.36
322.649	109.76
322.878	96.36
323.108	101.36
323.337	100.16
323.566	101.16
323.795	101.56
324.024	98.16
324.253	103.76
324.482	99.16
324.71	100.76
324.939	104.56
325.168	102.96
325.397	106.36
325.626	102.96
325.855	101.96
326.084	96.36
326.313	101.56
326.542	104.36
326.77	97.76
326.999	103.96
327.228	100.76
327.457	101.76
327.686	96.96
327.914	99.96
328.143	104.36
328.372	93.76
328.6	98.96
328.829	96.96
329.058	97.36
329.287	97.16
329.515	102.16
329.744	103.36
329.972	96.56
330.201	102.16
330.43	97.76
330.658	96.36
330.887	102.56
331.115	103.76
331.344	100.96
331.572	99.16
331.801	91.96
332.03	98.56
332.258	97.96
332.486	96.36
332.715	99.16
332.943	97.56
333.172	99.56
333.4	100.56
333.629	96.16
333.857	95.56
334.085	98.16
334.314	97.36
334.542	97.76
334.771	103.96
334.999	101.16
335.227	100.76
335.455	100.76
335.684	106.96
335.912	93.96
336.14	100.36
336.369	106.36
336.597	105.96
336.825	95.56
337.053	95.56
337.281	102.16
337.51	97.36
337.738	100.16
337.966	96.96
338.194	97.36
338.422	100.16
338.65	98.76
338.878	98.96
339.106	100.36
339.334	101.16
339.562	98.96
339.79	100.16
340.018	102.36
340.246	98.56
340.474	101.36
340.702	95.76
340.93	101.96
341.158	99.96
341.386	97.96
341.614	110.16
341.842	93.76
342.07	99.36
342.298	93.76
342.526	90.36
342.754	101.56
342.981	99.36
343.209	101.16
343.437	109.16
343.665	96.56
343.893	93.76
344.12	102.16
344.348	101.76
344.576	100.16
344.804	101.16
345.031	104.16
345.259	103.36
345.487	100.16
345.714	101.56
345.942	100.76
346.17	100.56
346.397	95.36
346.625	91.16
346.853	98.76
347.08	93.56
347.308	98.56
347.535	104.36
347.763	98.36
347.99	102.36
348.218	91.36
348.445	95.96
348.673	95.76
348.9	96.96
349.128	99.16
349.355	99.56
349.583	95.56
349.81	98.76
350.037	99.96
350.265	94.16
350.492	91.76
350.72	94.96
350.947	95.16
351.174	94.36
351.402	98.36
351.629	95.56
351.856	95.56
352.083	96.76
352.311	96.96
352.538	103.36
352.765	95.96
352.992	103.16
353.22	102.56
353.447	100.56
353.674	100.76
353.901	93.16
354.128	97.76
354.355	99.56
354.583	99.56
354.81	101.36
355.037	107.16
355.264	102.96
355.491	105.36
355.718	97.16
355.945	103.36
356.172	99.76
356.399	107.76
356.626	111.76
356.853	114.96
357.08	139.36
357.307	157.76
357.534	150.56
357.761	133.56
357.988	123.16
358.215	116.36
358.441	109.56
358.668	102.76
358.895	100.16
359.122	105.96
359.349	105.56
359.576	105.36
359.802	104.56
360.029	98.76
360.256	104.16
360.483	100.96
360.709	102.16
360.936	105.56
361.163	104.96
361.39	100.76
361.616	101.76
361.843	103.96
362.07	98.76
362.296	102.56
362.523	98.56
362.749	95.76
362.976	100.36
363.203	114.16
363.429	118.76
363.656	136.96
363.882	153.96
364.109	176.56
364.335	152.36
364.562	125.16
364.788	112.76
365.015	109.16
365.241	110.56
365.468	107.56
365.694	108.76
365.92	108.56
366.147	106.16
366.373	107.36
366.599	106.56
366.826	110.16
367.052	114.36
367.278	128.36
367.505	114.16
367.731	125.56
367.957	143.16
368.184	174.76
368.41	207.56
368.636	187.16
368.862	150.16
369.089	131.76
369.315	126.76
369.541	118.56
369.767	118.16
369.993	110.56
370.219	108.56
370.445	111.56
370.672	109.76
370.898	105.76
371.124	98.16
371.35	110.96
371.576	100.76
371.802	106.56
372.028	104.56
372.254	102.96
372.48	107.96
372.706	111.56
372.932	110.16
373.158	109.76
373.384	114.76
373.61	128.56
373.835	143.16
374.061	165.16
374.287	145.36
374.513	124.96
374.739	120.16
374.965	106.56
375.191	110.96
375.416	105.96
375.642	104.16
375.868	103.16
376.094	103.36
376.319	105.76
376.545	93.56
376.771	104.76
376.997	104.96
377.222	97.36
377.448	109.96
377.674	94.56
377.899	103.36
378.125	109.76
378.35	101.36
378.576	99.76
378.802	107.36
379.027	105.16
379.253	97.76
379.478	104.16
379.704	99.76
379.929	99.76
380.155	99.16
380.38	97.16
380.606	99.56
380.831	105.96
381.057	108.76
381.282	103.36
381.507	106.16
381.733	102.76
381.958	100.76
382.184	104.96
382.409	100.16
382.634	105.56
382.86	107.76
383.085	99.16
383.31	100.56
383.535	104.16
383.761	99.36
383.986	96.16
384.211	102.16
384.436	102.96
384.662	98.16
384.887	99.36
385.112	100.76
385.337	100.36
385.562	105.16
385.787	96.36
386.013	102.16
386.238	108.76
386.463	94.36
386.688	101.76
386.913	102.56
387.138	102.76
387.363	101.76
387.588	112.56
387.813	102.56
388.038	108.76
388.263	100.96
388.488	108.36
388.713	105.76
388.938	105.96
389.163	94.56
389.387	97.56
389.612	111.16
389.837	104.56
390.062	110.76
390.287	99.56
390.512	103.96
390.736	94.76
390.961	99.16
391.186	98.96
391.411	99.16
391.636	107.56
391.86	102.56
392.085	100.36
392.31	99.36
392.534	101.76
392.759	105.36
392.984	105.96
393.208	111.16
393.433	102.76
393.658	102.96
393.882	103.56
394.107	111.16
394.331	101.96
394.556	104.76
394.78	102.76
395.005	99.36
395.229	99.56
395.454	105.76
395.678	103.96
395.903	105.76
396.127	95.56
396.352	107.76
396.576	104.76
396.801	97.76
397.025	106.96
397.249	104.96
397.474	107.76
397.698	114.36
397.922	107.76
398.147	105.16
398.371	103.36
398.595	105.56
398.82	103.96
399.044	106.36
399.268	104.36
399.492	103.76
399.717	106.16
399.941	106.36
400.165	108.56
400.389	107.96
400.613	102.56
400.837	101.96
401.062	108.16
401.286	105.36
401.51	106.96
401.734	108.56
401.958	115.36
402.182	111.56
402.406	107.16
402.63	108.96
402.854	111.36
403.078	116.16
403.302	109.16
403.526	110.16
403.75	114.16
403.974	112.96
404.198	111.76
404.422	114.76
404.645	118.56
404.869	118.96
405.093	129.56
405.317	150.56
405.541	196.96
405.765	263.36
405.988	292.76
406.212	225.56
406.436	177.76
406.66	149.16
406.883	133.96
407.107	137.16
407.331	134.36
407.555	128.36
407.778	116.56
408.002	116.96
408.226	112.96
408.449	114.96
408.673	110.76
408.896	110.76
409.12	116.76
409.344	117.96
409.567	110.76
409.791	111.96
410.014	114.96
410.238	106.76
410.461	108.16
410.685	103.76
410.908	109.96
411.132	105.36
411.355	103.36
411.578	113.56
411.802	113.76
412.025	110.76
412.249	104.56
412.472	110.16
412.695	105.56
412.919	111.36
413.142	109.76
413.365	106.76
413.589	102.96
413.812	106.56
414.035	108.16
414.258	112.76
414.482	109.96
414.705	111.96
414.928	108.16
415.151	114.56
415.374	109.16
415.597	112.16
415.821	104.36
416.044	105.96
416.267	111.36
416.49	108.96
416.713	109.16
416.936	116.56
417.159	107.76
417.382	107.56
417.605	110.36
417.828	118.56
418.051	112.96
418.274	108.56
418.497	100.56
418.72	103.16
418.943	111.96
419.166	111.36
419.389	111.96
419.611	109.36
419.834	110.56
420.057	114.96
420.28	108.36
420.503	111.96
420.726	115.56
420.948	107.56
421.171	110.56
421.394	116.56
421.617	115.56
421.839	114.76
422.062	115.76
422.285	107.56
422.507	113.96
422.73	110.76
422.953	114.16
423.175	119.36
423.398	127.76
423.621	124.96
423.843	126.76
424.066	134.76
424.288	153.96
424.511	166.96
424.733	172.16
424.956	164.76
425.178	160.36
425.401	137.56
425.623	132.96
425.846	135.96
426.068	119.76
426.291	125.56
426.513	124.76
426.735	121.16
426.958	122.36
427.18	115.76
427.402	114.36
427.625	117.76
427.847	111.96
428.069	111.76
428.292	111.56
428.514	114.56
428.736	112.56
428.958	109.76
429.181	117.76
429.403	105.56
429.625	113.76
429.847	111.16
430.069	114.96
430.292	113.96
430.514	109.16
430.736	108.16
430.958	113.56
431.18	111.96
431.402	117.36
431.624	108.16
431.846	108.16
432.068	114.76
432.29	108.96
432.512	106.56
432.734	105.76
432.956	107.76
433.178	116.36
433.4	104.36
433.622	122.56
433.844	108.36
434.066	116.56
434.287	107.56
434.509	116.96
434.731	112.36
434.953	112.56
435.175	115.56
435.397	104.96
435.618	115.16
435.84	110.96
436.062	110.96
436.284	115.96
436.505	112.96
436.727	119.16
436.949	114.76
437.17	112.76
437.392	116.16
437.614	124.76
437.835	120.16
438.057	128.36
438.278	130.16
438.5	145.96
438.721	158.76
438.943	170.56
439.165	158.56
439.386	154.16
439.608	138.96
439.829	134.76
440.05	133.36
440.272	132.56
440.493	128.36
440.715	130.56
440.936	145.56
441.158	136.96
441.379	124.76
441.6	128.96
441.822	123.96
442.043	123.96
442.264	120.96
442.486	119.56
442.707	128.56
442.928	117.36
443.149	115.36
443.371	116.96
443.592	116.76
443.813	115.96
444.034	120.56
444.255	119.76
444.476	117.36
444.698	121.96
444.919	121.16
445.14	179.76
445.361	151.16
445.582	116.76
445.803	116.76
446.024	110.16
446.245	118.56
446.466	117.36
446.687	111.16
446.908	110.36
447.129	107.76
447.35	113.16
447.571	112.96
447.792	106.36
448.013	112.56
448.234	113.96
448.455	108.96
448.675	105.96
448.896	114.96
449.117	107.76
449.338	109.16
449.559	110.16
449.779	105.96
450	109.16
450.221	113.16
450.442	109.96
450.662	108.16
450.883	113.96
451.104	112.36
451.324	107.16
451.545	107.36
451.766	103.96
451.986	109.36
452.207	107.36
452.428	105.76
452.648	105.36
452.869	107.16
453.089	105.16
453.31	105.56
453.53	101.96
453.751	106.56
453.971	112.36
454.192	107.96
454.412	110.36
454.633	107.36
454.853	109.56
455.073	112.56
455.294	106.16
455.514	104.56
455.734	103.96
455.955	109.36
456.175	108.96
456.395	99.16
456.616	106.56
456.836	106.76
457.056	108.76
457.276	101.36
457.497	110.76
457.717	109.16
457.937	103.36
458.157	107.96
458.377	106.36
458.598	99.16
458.818	102.96
459.038	97.16
459.258	102.76
459.478	102.16
459.698	106.56
459.918	106.36
460.138	104.76
460.358	108.96
460.578	109.56
460.798	109.76
461.018	111.96
461.238	109.96
461.458	108.76
461.678	118.96
461.898	114.76
462.118	111.16
462.338	110.16
462.558	114.76
462.777	112.36
462.997	106.96
463.217	106.36
463.437	107.76
463.657	108.16
463.876	111.76
464.096	108.76
464.316	104.96
464.536	107.36
464.755	114.36
464.975	108.36
465.195	106.56
465.414	109.76
465.634	104.36
465.854	108.96
466.073	106.36
466.293	109.96
466.512	101.36
466.732	112.76
466.951	107.36
467.171	110.96
467.391	102.96
467.61	106.16
467.829	109.16
468.049	102.16
468.268	111.96
468.488	108.36
468.707	113.36
468.927	109.56
469.146	100.16
469.365	111.56
469.585	113.76
469.804	103.16
470.023	111.16
470.243	112.16
470.462	105.76
470.681	108.76
470.901	111.56
471.12	101.16
471.339	106.56
471.558	112.36
471.777	109.36
471.997	116.16
472.216	107.76
472.435	100.96
472.654	96.96
472.873	107.56
473.092	102.56
473.311	107.16
473.53	113.96
473.749	105.16
473.968	110.96
474.187	99.36
474.406	106.96
474.625	106.36
474.844	108.56
475.063	111.76
475.282	108.56
475.501	104.76
475.72	105.96
475.939	104.76
476.158	109.16
476.377	107.96
476.596	107.76
476.814	110.36
477.033	108.16
477.252	104.36
477.471	109.96
477.69	113.76
477.908	113.56
478.127	115.56
478.346	111.56
478.564	109.16
478.783	112.16
479.002	115.16
479.22	114.76
479.439	115.76
479.658	116.76
479.876	112.36
480.095	109.96
480.313	103.76
480.532	113.36
480.751	118.36
480.969	116.36
481.188	109.76
481.406	115.96
481.624	109.16
481.843	112.36
482.061	105.16
482.28	112.16
482.498	109.16
482.717	114.96
482.935	116.76
483.153	111.96
483.372	110.36
483.59	113.76
483.808	111.56
484.027	110.16
484.245	116.16
484.463	108.76
484.681	116.76
484.9	112.16
485.118	116.36
485.336	106.56
485.554	116.96
485.772	113.96
485.99	107.96
486.209	109.76
486.427	114.36
486.645	114.56
486.863	113.76
487.081	113.36
487.299	122.36
487.517	113.56
487.735	116.76
487.953	116.56
488.171	119.76
488.389	117.36
488.607	108.96
488.825	110.96
489.043	109.56
489.261	123.36
489.479	120.36
489.696	118.36
489.914	119.36
490.132	115.36
490.35	115.56
490.568	112.96
490.786	117.96
491.003	115.36
491.221	114.56
491.439	115.76
491.657	119.16
491.874	123.56
492.092	125.56
492.31	122.96
492.527	120.36
492.745	112.36
492.963	120.76
493.18	117.16
493.398	121.76
493.615	118.16
493.833	116.16
494.05	117.16
494.268	121.76
494.485	121.16
494.703	116.56
494.92	122.16
495.138	117.16
495.355	126.16
495.573	127.76
495.79	116.16
496.008	118.16
496.225	120.16
496.442	118.76
496.66	122.56
496.877	121.36
497.094	124.16
497.312	118.96
497.529	116.96
497.746	122.96
497.963	121.16
498.181	116.96
498.398	116.16
498.615	120.96
498.832	122.96
499.049	130.56
499.267	132.16
499.484	125.16
499.701	130.96
499.918	133.16
500.135	127.56
500.352	133.96
500.569	151.96
500.786	162.16
501.003	146.36
501.22	140.56
501.437	134.96
501.654	125.96
501.871	134.96
502.088	128.16
502.305	131.36
502.522	127.36
502.739	125.76
502.956	123.96
503.172	128.96
503.389	122.96
503.606	122.36
503.823	127.96
504.04	127.76
504.256	123.36
504.473	128.16
504.69	131.16
504.907	141.76
505.123	131.16
505.34	124.16
505.557	125.76
505.773	124.76
505.99	123.16
506.207	112.56
506.423	124.16
506.64	119.56
506.856	116.36
507.073	123.96
507.289	114.16
507.506	117.56
507.722	118.56
507.939	115.96
508.155	115.56
508.372	114.96
