Data from ZeroMicroDelayPb_HRD10591_00002.txt Node
Date: Mon Nov 24 14:24:50 EST 2025
User: Yrep
Spectrometer: HR+D1059
Trigger mode: 0
Integration Time (sec): 1.000000E-1
Scans to average: 5
Electric dark correction enabled: true
Nonlinearity correction enabled: false
Boxcar width: 0
XAxis mode: Wavelengths
Number of Pixels in Spectrum: 2048
>>>>>Begin Spectral Data<<<<<
223.165	-16.85
223.4	-16.85
223.635	-16.85
223.869	-23.05
224.104	-20.65
224.338	-14.85
224.573	-22.05
224.808	-12.65
225.042	-3.25
225.277	-6.05
225.511	-1.85
225.746	2.95
225.98	0.95
226.215	15.35
226.449	20.95
226.683	19.15
226.918	30.95
227.152	30.95
227.387	36.55
227.621	36.55
227.856	40.15
228.09	48.35
228.324	53.35
228.559	52.15
228.793	56.95
229.027	57.35
229.262	69.15
229.496	65.55
229.73	76.15
229.964	71.35
230.199	64.55
230.433	72.15
230.667	74.75
230.901	79.35
231.136	76.35
231.37	84.35
231.604	81.15
231.838	78.75
232.072	80.95
232.306	78.95
232.541	79.95
232.775	75.35
233.009	81.35
233.243	82.15
233.477	78.55
233.711	81.75
233.945	83.75
234.179	86.75
234.413	79.55
234.647	79.15
234.881	85.55
235.115	80.35
235.349	78.95
235.583	79.75
235.817	76.75
236.051	78.15
236.285	74.75
236.519	82.55
236.753	81.75
236.987	84.15
237.221	78.95
237.455	78.75
237.689	80.55
237.922	76.35
238.156	76.95
238.39	77.95
238.624	74.95
238.858	76.55
239.091	74.55
239.325	79.15
239.559	76.55
239.793	78.75
240.027	79.55
240.26	79.15
240.494	75.35
240.728	75.15
240.961	82.75
241.195	81.95
241.429	77.75
241.662	75.55
241.896	71.95
242.13	74.55
242.363	79.55
242.597	76.95
242.83	87.75
243.064	81.95
243.298	86.15
243.531	76.95
243.765	76.35
243.998	78.35
244.232	82.35
244.465	83.15
244.699	76.55
244.932	88.95
245.166	81.35
245.399	82.75
245.633	78.95
245.866	81.95
246.099	81.95
246.333	77.95
246.566	80.75
246.8	83.95
247.033	76.55
247.266	78.15
247.5	83.35
247.733	81.35
247.966	84.75
248.2	77.15
248.433	85.55
248.666	82.15
248.899	80.95
249.133	77.35
249.366	84.55
249.599	82.55
249.832	79.95
250.066	86.55
250.299	87.95
250.532	80.95
250.765	83.15
250.998	82.35
251.231	83.35
251.465	83.75
251.698	88.15
251.931	85.75
252.164	83.15
252.397	82.75
252.63	87.35
252.863	83.55
253.096	86.95
253.329	85.15
253.562	84.55
253.795	88.95
254.028	91.15
254.261	86.95
254.494	82.15
254.727	86.55
254.96	91.55
255.193	90.15
255.426	90.15
255.659	91.55
255.892	93.35
256.124	90.95
256.357	86.35
256.59	89.35
256.823	85.75
257.056	83.35
257.289	92.15
257.521	98.15
257.754	89.15
257.987	90.15
258.22	92.95
258.452	92.15
258.685	90.35
258.918	93.35
259.151	91.15
259.383	88.35
259.616	91.75
259.849	91.75
260.081	93.75
260.314	89.35
260.547	95.15
260.779	98.75
261.012	97.95
261.244	107.95
261.477	108.15
261.71	113.35
261.942	105.55
262.175	100.15
262.407	90.55
262.64	88.75
262.872	92.75
263.105	97.35
263.337	92.55
263.57	94.75
263.802	91.35
264.035	92.55
264.267	93.75
264.499	96.75
264.732	92.15
264.964	99.15
265.197	102.15
265.429	94.75
265.661	94.95
265.894	95.55
266.126	91.35
266.358	100.35
266.591	103.95
266.823	95.75
267.055	91.95
267.287	94.15
267.52	84.55
267.752	96.95
267.984	83.35
268.216	90.35
268.448	92.55
268.681	85.55
268.913	86.75
269.145	89.35
269.377	89.75
269.609	88.15
269.841	95.15
270.073	84.15
270.306	86.15
270.538	90.15
270.77	88.55
271.002	84.55
271.234	90.55
271.466	93.95
271.698	83.75
271.93	93.15
272.162	89.95
272.394	92.75
272.626	90.75
272.858	89.15
273.09	98.75
273.322	87.55
273.553	86.15
273.785	91.35
274.017	90.15
274.249	90.55
274.481	86.15
274.713	84.35
274.945	92.35
275.176	88.35
275.408	94.15
275.64	91.15
275.872	97.35
276.104	92.95
276.335	93.15
276.567	85.75
276.799	92.55
277.031	83.75
277.262	92.95
277.494	98.55
277.726	89.15
277.957	93.15
278.189	92.95
278.421	90.95
278.652	98.55
278.884	98.15
279.115	98.95
279.347	102.95
279.579	103.55
279.81	117.95
280.042	138.35
280.273	143.15
280.505	135.15
280.736	118.75
280.968	104.15
281.199	104.95
281.431	102.75
281.662	101.55
281.894	108.15
282.125	110.75
282.356	116.15
282.588	109.95
282.819	100.75
283.051	108.55
283.282	114.55
283.513	129.15
283.745	122.55
283.976	106.75
284.207	106.15
284.439	104.75
284.67	95.75
284.901	96.55
285.132	99.15
285.364	96.55
285.595	98.15
285.826	90.55
286.057	101.55
286.288	97.15
286.52	95.15
286.751	99.55
286.982	108.55
287.213	116.15
287.444	124.55
287.675	111.15
287.906	103.15
288.138	102.55
288.369	94.95
288.6	91.15
288.831	94.75
289.062	98.75
289.293	95.35
289.524	91.55
289.755	92.35
289.986	95.15
290.217	93.75
290.448	90.75
290.679	91.75
290.91	101.15
291.141	94.35
291.371	97.55
291.602	90.95
291.833	97.15
292.064	96.75
292.295	96.55
292.526	91.55
292.757	92.15
292.987	98.35
293.218	96.95
293.449	96.15
293.68	96.55
293.91	83.95
294.141	91.95
294.372	94.55
294.603	92.35
294.833	99.95
295.064	90.95
295.295	93.55
295.525	95.75
295.756	96.75
295.987	96.75
296.217	94.55
296.448	97.75
296.679	87.95
296.909	94.75
297.14	101.15
297.37	96.95
297.601	94.75
297.831	97.95
298.062	96.75
298.292	94.95
298.523	102.55
298.753	95.95
298.984	92.95
299.214	99.75
299.445	95.15
299.675	93.35
299.905	94.15
300.136	97.15
300.366	95.75
300.597	98.55
300.827	95.35
301.057	96.35
301.288	100.55
301.518	101.35
301.748	97.15
301.979	108.15
302.209	100.35
302.439	100.15
302.669	104.75
302.9	98.75
303.13	100.55
303.36	101.55
303.59	91.75
303.82	96.95
304.051	100.95
304.281	97.15
304.511	99.75
304.741	99.35
304.971	97.55
305.201	95.35
305.431	96.35
305.661	103.55
305.891	93.15
306.121	93.35
306.352	100.35
306.582	98.75
306.812	90.35
307.042	91.15
307.272	94.15
307.502	91.95
307.731	101.35
307.961	101.95
308.191	104.15
308.421	98.15
308.651	96.35
308.881	93.55
309.111	97.95
309.341	94.95
309.571	94.35
309.8	94.75
310.03	88.55
310.26	96.95
310.49	95.95
310.72	93.35
310.949	95.55
311.179	95.95
311.409	96.95
311.639	109.95
311.868	97.95
312.098	98.15
312.328	107.55
312.557	96.95
312.787	99.35
313.017	95.35
313.246	97.75
313.476	96.35
313.706	99.55
313.935	96.15
314.165	94.75
314.394	101.95
314.624	101.95
314.853	100.95
315.083	102.35
315.312	105.75
315.542	100.55
315.771	102.95
316.001	101.15
316.23	103.35
316.46	101.15
316.689	100.35
316.919	102.55
317.148	99.15
317.377	110.15
317.607	107.95
317.836	102.35
318.065	99.95
318.295	101.55
318.524	106.95
318.753	107.15
318.983	98.95
319.212	103.15
319.441	96.35
319.67	94.15
319.9	97.15
320.129	104.15
320.358	99.35
320.587	99.15
320.816	99.75
321.046	95.35
321.275	99.15
321.504	97.75
321.733	101.95
321.962	95.95
322.191	100.75
322.42	102.15
322.649	101.15
322.878	97.35
323.108	105.15
323.337	100.95
323.566	101.15
323.795	95.15
324.024	98.75
324.253	99.95
324.482	95.55
324.71	94.55
324.939	106.75
325.168	98.35
325.397	101.15
325.626	100.15
325.855	94.55
326.084	100.15
326.313	98.95
326.542	97.95
326.77	104.35
326.999	106.15
327.228	97.15
327.457	97.55
327.686	104.35
327.914	94.75
328.143	100.15
328.372	96.35
328.6	98.35
328.829	97.35
329.058	103.95
329.287	98.15
329.515	99.55
329.744	104.75
329.972	89.55
330.201	92.95
330.43	102.55
330.658	103.35
330.887	100.35
331.115	102.55
331.344	106.35
331.572	102.15
331.801	97.15
332.03	97.35
332.258	101.35
332.486	98.15
332.715	99.35
332.943	99.55
333.172	103.35
333.4	101.15
333.629	101.75
333.857	102.35
334.085	96.15
334.314	94.15
334.542	99.75
334.771	100.55
334.999	98.15
335.227	103.75
335.455	98.75
335.684	105.75
335.912	97.75
336.14	100.15
336.369	94.95
336.597	95.15
336.825	102.15
337.053	95.55
337.281	100.95
337.51	95.75
337.738	99.55
337.966	104.15
338.194	101.35
338.422	90.75
338.65	99.35
338.878	102.35
339.106	92.35
339.334	101.55
339.562	97.55
339.79	99.55
340.018	99.95
340.246	98.75
340.474	94.95
340.702	103.75
340.93	99.95
341.158	100.95
341.386	99.35
341.614	101.75
341.842	94.15
342.07	94.95
342.298	100.95
342.526	98.95
342.754	96.15
342.981	98.35
343.209	101.35
343.437	103.55
343.665	102.15
343.893	99.75
344.12	102.95
344.348	109.15
344.576	99.35
344.804	102.55
345.031	96.75
345.259	106.15
345.487	99.15
345.714	97.35
345.942	95.95
346.17	97.95
346.397	90.55
346.625	95.75
346.853	94.35
347.08	94.35
347.308	105.55
347.535	100.75
347.763	89.55
347.99	91.55
348.218	94.95
348.445	94.95
348.673	86.35
348.9	98.95
349.128	95.75
349.355	99.95
349.583	94.15
349.81	93.75
350.037	96.35
350.265	100.35
350.492	94.95
350.72	90.15
350.947	95.75
351.174	102.95
351.402	100.35
351.629	96.35
351.856	99.95
352.083	96.35
352.311	101.55
352.538	93.15
352.765	94.95
352.992	103.95
353.22	99.55
353.447	102.95
353.674	104.75
353.901	103.35
354.128	102.95
354.355	96.15
354.583	98.55
354.81	102.35
355.037	100.95
355.264	95.95
355.491	95.95
355.718	93.55
355.945	90.55
356.172	101.55
356.399	98.95
356.626	102.35
356.853	115.95
357.08	126.55
357.307	163.15
357.534	153.35
357.761	131.75
357.988	121.15
358.215	114.75
358.441	110.55
358.668	101.15
358.895	102.35
359.122	105.95
359.349	107.75
359.576	109.35
359.802	97.95
360.029	103.55
360.256	95.15
360.483	100.75
360.709	99.15
360.936	102.95
361.163	99.35
361.39	98.35
361.616	103.75
361.843	97.35
362.07	104.55
362.296	99.15
362.523	97.95
362.749	105.35
362.976	103.55
363.203	117.35
363.429	108.15
363.656	131.75
363.882	158.55
364.109	177.55
364.335	148.55
364.562	119.75
364.788	111.95
365.015	110.55
365.241	111.35
365.468	111.95
365.694	105.95
365.92	103.95
366.147	108.55
366.373	95.35
366.599	100.55
366.826	105.75
367.052	120.75
367.278	126.15
367.505	124.55
367.731	120.95
367.957	132.15
368.184	169.75
368.41	209.55
368.636	188.95
368.862	150.15
369.089	124.55
369.315	116.35
369.541	112.55
369.767	110.95
369.993	104.75
370.219	102.55
370.445	106.15
370.672	105.55
370.898	109.15
371.124	105.35
371.35	99.75
371.576	97.55
371.802	96.75
372.028	101.35
372.254	100.55
372.48	107.95
372.706	109.75
372.932	104.95
373.158	98.55
373.384	107.35
373.61	128.15
373.835	140.55
374.061	162.15
374.287	154.35
374.513	128.55
374.739	118.75
374.965	113.35
375.191	104.95
375.416	107.35
375.642	105.55
375.868	109.95
376.094	101.35
376.319	99.95
376.545	100.95
376.771	97.95
376.997	103.75
377.222	95.75
377.448	96.95
377.674	99.55
377.899	102.35
378.125	101.75
378.35	104.95
378.576	103.75
378.802	105.35
379.027	102.55
379.253	105.75
379.478	101.55
379.704	109.35
379.929	106.15
380.155	102.35
380.38	104.35
380.606	95.55
380.831	99.55
381.057	99.55
381.282	100.15
381.507	101.35
381.733	100.95
381.958	103.55
382.184	109.15
382.409	100.75
382.634	105.75
382.86	101.15
383.085	105.95
383.31	95.35
383.535	102.15
383.761	101.95
383.986	105.95
384.211	94.15
384.436	95.35
384.662	99.75
384.887	101.55
385.112	99.95
385.337	96.35
385.562	96.15
385.787	105.95
386.013	104.35
386.238	100.35
386.463	101.35
386.688	112.15
386.913	103.95
387.138	106.35
387.363	102.15
387.588	106.35
387.813	104.15
388.038	102.95
388.263	102.35
388.488	95.75
388.713	99.35
388.938	93.95
389.163	98.35
389.387	95.35
389.612	105.55
389.837	102.15
390.062	103.15
390.287	103.75
390.512	98.55
390.736	97.75
390.961	105.15
391.186	101.55
391.411	96.75
391.636	103.55
391.86	96.35
392.085	110.15
392.31	99.75
392.534	104.55
392.759	106.75
392.984	101.35
393.208	106.55
393.433	103.15
393.658	102.15
393.882	103.95
394.107	103.95
394.331	103.35
394.556	92.95
394.78	100.15
395.005	105.75
395.229	100.95
395.454	105.55
395.678	102.15
395.903	102.15
396.127	102.75
396.352	101.15
396.576	97.95
396.801	101.35
397.025	104.35
397.249	102.35
397.474	105.75
397.698	106.75
397.922	108.55
398.147	101.35
398.371	100.55
398.595	102.95
398.82	112.15
399.044	105.75
399.268	112.75
399.492	108.35
399.717	112.55
399.941	109.75
400.165	114.95
400.389	101.75
400.613	104.15
400.837	105.95
401.062	106.75
401.286	101.75
401.51	112.35
401.734	118.95
401.958	118.15
402.182	118.55
402.406	105.95
402.63	107.75
402.854	109.95
403.078	109.15
403.302	111.95
403.526	106.95
403.75	113.95
403.974	111.55
404.198	109.55
404.422	112.95
404.645	114.95
404.869	116.55
405.093	123.35
405.317	149.95
405.541	188.55
405.765	260.15
405.988	284.95
406.212	224.55
406.436	180.35
406.66	139.95
406.883	135.35
407.107	126.75
407.331	124.55
407.555	124.55
407.778	116.55
408.002	114.55
408.226	112.55
408.449	112.35
408.673	110.55
408.896	113.35
409.12	115.15
409.344	113.55
409.567	112.95
409.791	103.95
410.014	112.75
410.238	108.75
410.461	106.75
410.685	98.75
410.908	102.75
411.132	105.75
411.355	106.75
411.578	112.15
411.802	110.75
412.025	113.15
412.249	110.95
412.472	105.95
412.695	107.95
412.919	106.95
413.142	110.95
413.365	108.95
413.589	103.55
413.812	105.75
414.035	105.15
414.258	106.15
414.482	108.75
414.705	105.35
414.928	105.15
415.151	104.55
415.374	107.95
415.597	103.15
415.821	105.55
416.044	105.55
416.267	109.15
416.49	106.75
416.713	105.75
416.936	117.75
417.159	114.15
417.382	105.95
417.605	102.15
417.828	112.15
418.051	112.15
418.274	110.55
418.497	102.95
418.72	108.95
418.943	116.75
419.166	108.75
419.389	113.75
419.611	106.35
419.834	108.75
420.057	110.55
420.28	107.95
420.503	104.55
420.726	113.75
420.948	112.15
421.171	106.75
421.394	109.35
421.617	117.15
421.839	114.75
422.062	110.15
422.285	112.95
422.507	111.95
422.73	117.15
422.953	114.35
423.175	118.55
423.398	119.95
423.621	124.15
423.843	122.75
424.066	135.95
424.288	143.75
424.511	159.35
424.733	173.75
424.956	162.95
425.178	139.95
425.401	145.95
425.623	133.75
425.846	128.95
426.068	130.55
426.291	126.35
426.513	115.35
426.735	120.95
426.958	124.15
427.18	120.55
427.402	114.95
427.625	113.75
427.847	117.35
428.069	113.55
428.292	111.95
428.514	105.75
428.736	105.75
428.958	113.55
429.181	112.55
429.403	112.35
429.625	109.15
429.847	119.15
430.069	103.95
430.292	110.35
430.514	107.55
430.736	104.15
430.958	108.95
431.18	103.35
431.402	109.95
431.624	111.35
431.846	105.35
432.068	107.35
432.29	103.15
432.512	114.15
432.734	108.75
432.956	107.35
433.178	112.55
433.4	109.55
433.622	111.35
433.844	116.55
434.066	111.35
434.287	111.55
434.509	106.35
434.731	105.95
434.953	109.75
435.175	113.35
435.397	113.95
435.618	104.75
435.84	115.75
436.062	103.55
436.284	102.55
436.505	111.75
436.727	112.15
436.949	117.15
437.17	113.95
437.392	114.75
437.614	113.95
437.835	118.55
438.057	129.35
438.278	126.35
438.5	140.15
438.721	151.15
438.943	168.15
439.165	156.55
439.386	140.55
439.608	145.35
439.829	135.75
440.05	131.35
440.272	133.15
440.493	141.35
440.715	134.75
440.936	137.15
441.158	140.55
441.379	130.35
441.6	126.15
441.822	122.15
442.043	117.15
442.264	120.35
442.486	121.15
442.707	122.95
442.928	121.95
443.149	118.95
443.371	117.15
443.592	119.95
443.813	115.55
444.034	115.15
444.255	123.35
444.476	115.35
444.698	116.75
444.919	119.15
445.14	172.15
445.361	145.95
445.582	113.35
445.803	121.55
446.024	107.95
446.245	110.75
446.466	111.15
446.687	109.75
446.908	116.35
447.129	112.35
447.35	111.75
447.571	111.95
447.792	117.35
448.013	110.35
448.234	106.35
448.455	106.15
448.675	123.55
448.896	105.55
449.117	108.95
449.338	111.75
449.559	106.15
449.779	113.55
450	109.35
450.221	105.95
450.442	108.95
450.662	109.15
450.883	109.95
451.104	109.75
451.324	112.75
451.545	110.35
451.766	102.55
451.986	103.35
452.207	103.35
452.428	107.75
452.648	109.75
452.869	103.35
453.089	104.75
453.31	110.55
453.53	103.35
453.751	99.35
453.971	103.75
454.192	101.35
454.412	103.75
454.633	106.75
454.853	111.35
455.073	103.75
455.294	104.75
455.514	104.35
455.734	105.15
455.955	103.35
456.175	100.35
456.395	103.75
456.616	99.15
456.836	103.15
457.056	108.95
457.276	102.35
457.497	100.75
457.717	97.75
457.937	112.15
458.157	103.95
458.377	97.95
458.598	99.75
458.818	102.55
459.038	101.95
459.258	101.95
459.478	96.55
459.698	103.55
459.918	106.95
460.138	105.55
460.358	101.15
460.578	105.95
460.798	111.55
461.018	111.35
461.238	110.15
461.458	101.55
461.678	105.95
461.898	110.35
462.118	102.75
462.338	104.75
462.558	107.95
462.777	102.35
462.997	104.15
463.217	106.55
463.437	104.15
463.657	107.55
463.876	107.95
464.096	108.55
464.316	107.95
464.536	110.75
464.755	104.35
464.975	103.95
465.195	110.35
465.414	106.75
465.634	100.15
465.854	106.15
466.073	107.15
466.293	104.55
466.512	108.55
466.732	110.75
466.951	106.95
467.171	105.95
467.391	102.15
467.61	106.95
467.829	106.95
468.049	102.15
468.268	106.15
468.488	109.15
468.707	107.35
468.927	102.15
469.146	107.15
469.365	105.95
469.585	105.95
469.804	111.55
470.023	108.95
470.243	111.75
470.462	107.15
470.681	109.55
470.901	106.15
471.12	106.35
471.339	104.75
471.558	105.15
471.777	107.55
471.997	109.35
472.216	108.35
472.435	105.75
472.654	106.35
472.873	108.75
473.092	104.35
473.311	107.55
473.53	108.55
473.749	111.75
473.968	105.55
474.187	104.15
474.406	109.95
474.625	109.75
474.844	103.75
475.063	103.95
475.282	98.35
475.501	105.95
475.72	112.75
475.939	108.75
476.158	109.95
476.377	113.75
476.596	103.55
476.814	108.95
477.033	109.15
477.252	108.35
477.471	101.75
477.69	115.55
477.908	112.55
478.127	110.95
478.346	112.75
478.564	114.95
478.783	116.95
479.002	112.35
479.22	115.95
479.439	114.15
479.658	111.15
479.876	111.95
480.095	111.95
480.313	116.35
480.532	117.35
480.751	119.15
480.969	110.35
481.188	111.95
481.406	110.35
481.624	109.95
481.843	111.35
482.061	108.35
482.28	109.95
482.498	109.75
482.717	106.55
482.935	108.55
483.153	111.35
483.372	104.95
483.59	114.55
483.808	105.75
484.027	110.15
484.245	116.15
484.463	117.15
484.681	120.15
484.9	112.95
485.118	108.35
485.336	106.15
485.554	112.35
485.772	114.35
485.99	111.75
486.209	111.15
486.427	110.35
486.645	103.55
486.863	124.35
487.081	105.55
487.299	113.75
487.517	119.35
487.735	116.55
487.953	117.75
488.171	115.35
488.389	123.95
488.607	105.15
488.825	117.15
489.043	106.55
489.261	114.95
489.479	115.55
489.696	120.75
489.914	111.55
490.132	111.15
490.35	116.15
490.568	113.75
490.786	121.95
491.003	112.55
491.221	112.75
491.439	111.15
491.657	115.15
491.874	117.95
492.092	119.95
492.31	120.55
492.527	120.95
492.745	115.35
492.963	118.55
493.18	115.35
493.398	119.35
493.615	123.75
493.833	121.55
494.05	112.75
494.268	118.55
494.485	116.55
494.703	124.15
494.92	113.95
495.138	116.75
495.355	126.35
495.573	122.75
495.79	118.75
496.008	126.55
496.225	118.75
496.442	116.95
496.66	120.35
496.877	114.75
497.094	120.15
497.312	122.75
497.529	114.95
497.746	120.75
497.963	113.55
498.181	118.15
498.398	120.95
498.615	114.15
498.832	122.15
499.049	122.95
499.267	123.75
499.484	128.35
499.701	128.95
499.918	130.75
500.135	137.15
500.352	134.35
500.569	154.35
500.786	159.75
501.003	144.95
501.22	133.55
501.437	136.75
501.654	130.75
501.871	125.55
502.088	127.35
502.305	124.55
502.522	122.35
502.739	126.55
502.956	120.35
503.172	120.95
503.389	124.35
503.606	117.15
503.823	125.35
504.04	131.75
504.256	126.15
504.473	124.35
504.69	126.15
504.907	136.55
505.123	125.75
505.34	124.95
505.557	122.15
505.773	126.35
505.99	127.75
506.207	119.55
506.423	117.75
506.64	120.15
506.856	121.55
507.073	115.35
507.289	121.35
507.506	115.15
507.722	117.55
507.939	112.95
508.155	112.75
508.372	114.75
508.588	114.55
508.805	121.55
