Data from ZeroMicroDelayPb_HRD10591_00006.txt Node
Date: Mon Nov 24 14:24:52 EST 2025
User: Yrep
Spectrometer: HR+D1059
Trigger mode: 0
Integration Time (sec): 1.000000E-1
Scans to average: 5
Electric dark correction enabled: true
Nonlinearity correction enabled: false
Boxcar width: 0
XAxis mode: Wavelengths
Number of Pixels in Spectrum: 2048
>>>>>Begin Spectral Data<<<<<
223.165	-23.63
223.4	-23.63
223.635	-23.63
223.869	-17.03
224.104	-17.03
224.338	-22.03
224.573	-19.43
224.808	-18.83
225.042	-4.23
225.277	-10.63
225.511	-1.03
225.746	6.17
225.98	10.17
226.215	14.77
226.449	15.77
226.683	23.57
226.918	29.77
227.152	33.57
227.387	37.57
227.621	42.17
227.856	42.57
228.09	43.97
228.324	49.37
228.559	52.17
228.793	62.57
229.027	62.17
229.262	60.37
229.496	67.97
229.73	63.37
229.964	76.97
230.199	72.77
230.433	69.97
230.667	76.97
230.901	81.37
231.136	77.17
231.37	88.37
231.604	80.17
231.838	80.77
232.072	78.37
232.306	86.77
232.541	83.17
232.775	89.17
233.009	89.97
233.243	84.77
233.477	83.97
233.711	83.37
233.945	84.77
234.179	81.97
234.413	80.37
234.647	78.17
234.881	83.57
235.115	83.37
235.349	83.57
235.583	77.97
235.817	82.17
236.051	78.77
236.285	83.17
236.519	83.57
236.753	82.37
236.987	75.37
237.221	78.37
237.455	86.17
237.689	84.57
237.922	77.97
238.156	79.17
238.39	78.97
238.624	80.97
238.858	81.77
239.091	81.37
239.325	90.17
239.559	86.17
239.793	88.37
240.027	89.77
240.26	80.17
240.494	85.57
240.728	78.57
240.961	79.97
241.195	85.37
241.429	82.17
241.662	78.37
241.896	81.57
242.13	73.17
242.363	81.97
242.597	77.77
242.83	82.37
243.064	82.77
243.298	89.37
243.531	81.77
243.765	83.37
243.998	81.57
244.232	81.57
244.465	82.17
244.699	82.57
244.932	85.37
245.166	86.77
245.399	80.77
245.633	84.17
245.866	80.57
246.099	79.17
246.333	81.77
246.566	89.77
246.8	84.97
247.033	78.97
247.266	85.17
247.5	77.17
247.733	85.37
247.966	88.57
248.2	84.17
248.433	76.77
248.666	85.37
248.899	84.97
249.133	84.17
249.366	86.57
249.599	86.17
249.832	78.77
250.066	89.17
250.299	88.77
250.532	87.37
250.765	90.57
250.998	88.77
251.231	85.97
251.465	83.97
251.698	89.37
251.931	85.17
252.164	87.17
252.397	91.97
252.63	92.37
252.863	86.37
253.096	87.17
253.329	90.57
253.562	84.37
253.795	88.77
254.028	92.57
254.261	87.97
254.494	91.37
254.727	87.37
254.96	86.97
255.193	92.57
255.426	91.17
255.659	84.97
255.892	87.57
256.124	89.17
256.357	91.37
256.59	94.37
256.823	88.77
257.056	88.17
257.289	100.77
257.521	102.37
257.754	99.17
257.987	99.97
258.22	91.37
258.452	92.37
258.685	93.77
258.918	89.77
259.151	92.57
259.383	94.77
259.616	91.37
259.849	86.97
260.081	94.97
260.314	91.77
260.547	89.37
260.779	104.57
261.012	106.17
261.244	104.37
261.477	122.17
261.71	118.37
261.942	110.97
262.175	103.17
262.407	97.17
262.64	94.77
262.872	95.37
263.105	93.77
263.337	96.37
263.57	92.57
263.802	96.17
264.035	94.57
264.267	92.37
264.499	89.17
264.732	94.37
264.964	96.57
265.197	99.57
265.429	99.37
265.661	95.37
265.894	87.37
266.126	93.97
266.358	112.57
266.591	107.17
266.823	97.17
267.055	97.77
267.287	94.57
267.52	97.37
267.752	93.37
267.984	94.37
268.216	89.57
268.448	90.17
268.681	91.37
268.913	91.57
269.145	96.97
269.377	89.77
269.609	92.77
269.841	98.17
270.073	97.37
270.306	97.17
270.538	90.57
270.77	85.37
271.002	92.57
271.234	93.17
271.466	94.37
271.698	87.97
271.93	87.97
272.162	92.77
272.394	97.77
272.626	90.77
272.858	93.97
273.09	88.97
273.322	98.57
273.553	87.97
273.785	85.37
274.017	91.57
274.249	91.17
274.481	93.17
274.713	92.97
274.945	95.57
275.176	97.77
275.408	99.37
275.64	94.37
275.872	99.17
276.104	94.57
276.335	92.97
276.567	96.17
276.799	96.17
277.031	101.37
277.262	97.77
277.494	91.17
277.726	93.37
277.957	96.77
278.189	97.37
278.421	104.97
278.652	99.57
278.884	104.37
279.115	103.97
279.347	109.17
279.579	109.77
279.81	119.97
280.042	136.37
280.273	141.77
280.505	145.37
280.736	122.17
280.968	108.17
281.199	107.57
281.431	102.77
281.662	102.77
281.894	108.57
282.125	104.97
282.356	114.57
282.588	114.77
282.819	103.77
283.051	114.77
283.282	120.97
283.513	127.17
283.745	120.37
283.976	104.17
284.207	101.17
284.439	99.57
284.67	100.77
284.901	96.37
285.132	95.17
285.364	99.57
285.595	101.17
285.826	98.17
286.057	100.57
286.288	100.97
286.52	105.77
286.751	104.17
286.982	112.57
287.213	119.97
287.444	117.77
287.675	111.57
287.906	104.57
288.138	107.17
288.369	97.77
288.6	99.97
288.831	95.37
289.062	93.37
289.293	96.77
289.524	95.77
289.755	97.77
289.986	98.57
290.217	103.17
290.448	101.97
290.679	97.57
290.91	103.77
291.141	95.77
291.371	96.77
291.602	99.97
291.833	98.57
292.064	93.57
292.295	103.57
292.526	93.77
292.757	96.57
292.987	102.57
293.218	96.97
293.449	91.77
293.68	97.37
293.91	96.37
294.141	107.17
294.372	98.57
294.603	100.37
294.833	97.57
295.064	99.37
295.295	98.97
295.525	99.17
295.756	97.57
295.987	99.57
296.217	95.77
296.448	96.57
296.679	92.97
296.909	98.37
297.14	93.17
297.37	96.77
297.601	96.97
297.831	98.17
298.062	102.17
298.292	99.77
298.523	96.97
298.753	93.97
298.984	99.97
299.214	105.77
299.445	104.17
299.675	96.57
299.905	94.17
300.136	90.57
300.366	99.97
300.597	102.17
300.827	104.97
301.057	97.77
301.288	98.17
301.518	98.77
301.748	102.57
301.979	114.97
302.209	99.57
302.439	100.77
302.669	103.17
302.9	101.77
303.13	99.17
303.36	101.97
303.59	103.17
303.82	98.17
304.051	104.77
304.281	99.17
304.511	99.17
304.741	97.97
304.971	97.17
305.201	107.97
305.431	101.37
305.661	101.37
305.891	98.77
306.121	98.17
306.352	99.97
306.582	100.77
306.812	93.77
307.042	98.97
307.272	97.77
307.502	97.97
307.731	102.97
307.961	106.37
308.191	95.77
308.421	95.77
308.651	101.97
308.881	97.77
309.111	98.37
309.341	98.57
309.571	99.77
309.8	96.17
310.03	99.77
310.26	101.37
310.49	101.17
310.72	96.97
310.949	102.97
311.179	99.97
311.409	99.57
311.639	101.17
311.868	97.37
312.098	100.37
312.328	99.17
312.557	97.37
312.787	98.37
313.017	106.97
313.246	102.97
313.476	98.17
313.706	104.97
313.935	98.57
314.165	103.17
314.394	101.97
314.624	104.17
314.853	107.37
315.083	107.97
315.312	103.57
315.542	105.57
315.771	105.57
316.001	105.77
316.23	106.37
316.46	102.77
316.689	104.97
316.919	102.77
317.148	103.77
317.377	109.37
317.607	108.77
317.836	101.77
318.065	105.57
318.295	97.17
318.524	103.17
318.753	102.77
318.983	93.57
319.212	103.37
319.441	99.57
319.67	99.17
319.9	103.17
320.129	99.37
320.358	101.77
320.587	100.17
320.816	94.37
321.046	97.37
321.275	98.57
321.504	102.17
321.733	106.57
321.962	96.97
322.191	94.77
322.42	95.97
322.649	110.17
322.878	100.77
323.108	96.77
323.337	101.97
323.566	102.77
323.795	98.57
324.024	99.77
324.253	96.37
324.482	99.37
324.71	99.57
324.939	97.17
325.168	101.17
325.397	101.37
325.626	101.17
325.855	101.37
326.084	98.57
326.313	105.77
326.542	99.17
326.77	96.37
326.999	101.57
327.228	101.57
327.457	100.57
327.686	102.17
327.914	100.57
328.143	99.57
328.372	100.77
328.6	96.57
328.829	94.97
329.058	99.17
329.287	101.57
329.515	98.97
329.744	103.37
329.972	97.37
330.201	104.57
330.43	94.57
330.658	95.57
330.887	99.97
331.115	99.17
331.344	104.57
331.572	103.57
331.801	102.77
332.03	96.17
332.258	107.37
332.486	99.57
332.715	97.77
332.943	106.97
333.172	105.57
333.4	100.97
333.629	102.97
333.857	104.17
334.085	103.17
334.314	104.77
334.542	99.97
334.771	100.37
334.999	102.77
335.227	97.17
335.455	95.97
335.684	102.57
335.912	108.57
336.14	98.97
336.369	91.37
336.597	98.17
336.825	103.97
337.053	98.77
337.281	99.17
337.51	93.17
337.738	96.77
337.966	101.77
338.194	99.17
338.422	92.97
338.65	104.17
338.878	101.37
339.106	95.17
339.334	95.17
339.562	105.57
339.79	99.97
340.018	101.37
340.246	98.97
340.474	101.77
340.702	91.77
340.93	96.97
341.158	105.97
341.386	100.57
341.614	96.97
341.842	99.97
342.07	107.57
342.298	101.77
342.526	101.37
342.754	98.37
342.981	100.17
343.209	99.57
343.437	111.37
343.665	99.37
343.893	104.77
344.12	99.77
344.348	104.17
344.576	103.57
344.804	101.57
345.031	95.77
345.259	104.37
345.487	98.57
345.714	98.77
345.942	98.97
346.17	103.97
346.397	100.77
346.625	100.37
346.853	99.17
347.08	98.17
347.308	99.77
347.535	110.77
347.763	99.77
347.99	106.17
348.218	98.57
348.445	95.37
348.673	99.37
348.9	104.17
349.128	101.17
349.355	102.77
349.583	99.37
349.81	97.77
350.037	97.97
350.265	94.17
350.492	107.77
350.72	99.17
350.947	102.77
351.174	98.17
351.402	97.37
351.629	95.37
351.856	99.37
352.083	103.37
352.311	100.37
352.538	96.97
352.765	102.37
352.992	103.97
353.22	97.17
353.447	94.17
353.674	98.97
353.901	100.17
354.128	106.97
354.355	103.57
354.583	97.97
354.81	98.97
355.037	101.97
355.264	100.37
355.491	109.57
355.718	104.57
355.945	103.77
356.172	99.17
356.399	110.77
356.626	110.97
356.853	115.77
357.08	135.57
357.307	154.97
357.534	151.77
357.761	120.77
357.988	123.37
358.215	117.37
358.441	111.77
358.668	114.37
358.895	106.57
359.122	109.77
359.349	113.97
359.576	109.77
359.802	96.37
360.029	108.17
360.256	103.17
360.483	102.57
360.709	105.17
360.936	112.57
361.163	100.77
361.39	101.97
361.616	107.37
361.843	104.37
362.07	108.17
362.296	107.97
362.523	106.17
362.749	101.97
362.976	109.37
363.203	112.57
363.429	116.37
363.656	130.97
363.882	159.17
364.109	176.37
364.335	151.77
364.562	126.57
364.788	114.37
365.015	108.97
365.241	115.17
365.468	113.57
365.694	114.77
365.92	112.57
366.147	107.97
366.373	116.17
366.599	110.77
366.826	111.57
367.052	117.17
367.278	128.97
367.505	121.57
367.731	131.37
367.957	142.77
368.184	177.97
368.41	205.17
368.636	193.77
368.862	148.97
369.089	130.57
369.315	118.37
369.541	116.57
369.767	112.17
369.993	108.37
370.219	106.97
370.445	109.77
370.672	108.17
370.898	111.17
371.124	101.37
371.35	103.77
371.576	104.97
371.802	104.17
372.028	106.37
372.254	100.57
372.48	103.77
372.706	105.17
372.932	114.37
373.158	116.17
373.384	112.37
373.61	123.37
373.835	150.37
374.061	165.57
374.287	151.37
374.513	131.77
374.739	119.37
374.965	106.77
375.191	111.77
375.416	105.17
375.642	108.17
375.868	104.17
376.094	102.97
376.319	101.97
376.545	107.57
376.771	100.37
376.997	102.17
377.222	100.97
377.448	99.37
377.674	105.57
377.899	104.57
378.125	104.57
378.35	103.57
378.576	100.57
378.802	99.17
379.027	105.37
379.253	106.17
379.478	110.97
379.704	108.37
379.929	100.17
380.155	100.97
380.38	100.17
380.606	114.37
380.831	99.97
381.057	110.17
381.282	94.37
381.507	98.57
381.733	109.37
381.958	103.97
382.184	101.17
382.409	109.37
382.634	104.97
382.86	102.97
383.085	101.57
383.31	107.97
383.535	107.57
383.761	104.77
383.986	102.17
384.211	97.97
384.436	107.57
384.662	104.17
384.887	107.77
385.112	98.77
385.337	102.37
385.562	107.97
385.787	105.77
386.013	103.77
386.238	114.37
386.463	102.97
386.688	113.77
386.913	103.57
387.138	110.17
387.363	99.77
387.588	106.97
387.813	102.17
388.038	106.57
388.263	99.37
388.488	112.57
388.713	101.37
388.938	102.57
389.163	103.77
389.387	109.37
389.612	103.97
389.837	106.37
390.062	108.57
390.287	102.77
390.512	102.57
390.736	100.77
390.961	98.57
391.186	102.77
391.411	100.57
391.636	101.97
391.86	107.57
392.085	110.77
392.31	104.77
392.534	104.37
392.759	108.17
392.984	103.97
393.208	101.17
393.433	97.37
393.658	106.37
393.882	101.37
394.107	104.97
394.331	104.97
394.556	102.37
394.78	103.17
395.005	100.37
395.229	106.37
395.454	101.77
395.678	107.77
395.903	104.57
396.127	109.17
396.352	106.37
396.576	100.57
396.801	102.97
397.025	103.77
397.249	104.17
397.474	104.37
397.698	107.97
397.922	97.37
398.147	107.37
398.371	104.97
398.595	104.37
398.82	107.57
399.044	104.77
399.268	105.77
399.492	110.17
399.717	111.77
399.941	115.57
400.165	111.97
400.389	108.97
400.613	108.57
400.837	108.77
401.062	104.57
401.286	105.17
401.51	111.97
401.734	113.17
401.958	120.37
402.182	118.77
402.406	111.17
402.63	116.57
402.854	109.97
403.078	105.77
403.302	112.17
403.526	110.37
403.75	115.57
403.974	112.57
404.198	115.37
404.422	108.17
404.645	111.77
404.869	118.77
405.093	128.57
405.317	143.77
405.541	195.97
405.765	268.97
405.988	289.17
406.212	233.17
406.436	185.17
406.66	144.97
406.883	136.97
407.107	130.57
407.331	121.57
407.555	120.97
407.778	115.37
408.002	116.97
408.226	128.17
408.449	115.37
408.673	116.17
408.896	112.57
409.12	115.37
409.344	108.97
409.567	115.97
409.791	117.57
410.014	113.97
410.238	110.77
410.461	109.17
410.685	107.97
410.908	108.37
411.132	116.57
411.355	113.37
411.578	108.77
411.802	109.37
412.025	113.97
412.249	111.77
412.472	112.77
412.695	108.57
412.919	107.37
413.142	106.57
413.365	108.57
413.589	107.17
413.812	103.77
414.035	106.97
414.258	108.37
414.482	104.17
414.705	113.17
414.928	114.77
415.151	109.77
415.374	99.77
415.597	113.17
415.821	116.37
416.044	114.17
416.267	111.37
416.49	110.57
416.713	103.57
416.936	111.17
417.159	105.57
417.382	104.57
417.605	106.57
417.828	111.77
418.051	104.37
418.274	111.57
418.497	106.37
418.72	109.17
418.943	108.77
419.166	106.17
419.389	111.57
419.611	113.57
419.834	111.17
420.057	113.97
420.28	113.37
420.503	111.17
420.726	107.17
420.948	109.17
421.171	103.77
421.394	103.57
421.617	120.37
421.839	115.37
422.062	112.57
422.285	115.77
422.507	115.77
422.73	114.17
422.953	112.77
423.175	125.57
423.398	122.77
423.621	131.97
423.843	128.97
424.066	132.37
424.288	149.37
424.511	169.37
424.733	186.97
424.956	159.77
425.178	152.57
425.401	147.17
425.623	141.57
425.846	132.77
426.068	134.77
426.291	128.97
426.513	124.97
426.735	119.97
426.958	121.97
427.18	122.97
427.402	118.17
427.625	115.77
427.847	111.17
428.069	119.37
428.292	114.17
428.514	114.77
428.736	109.57
428.958	105.77
429.181	117.77
429.403	115.57
429.625	113.37
429.847	112.77
430.069	113.77
430.292	119.97
430.514	108.57
430.736	112.17
430.958	109.57
431.18	110.77
431.402	105.37
431.624	108.37
431.846	106.97
432.068	111.77
432.29	111.77
432.512	108.97
432.734	111.77
432.956	111.97
433.178	110.77
433.4	115.77
433.622	116.17
433.844	116.77
434.066	110.37
434.287	112.97
434.509	106.17
434.731	110.97
434.953	114.77
435.175	115.37
435.397	114.17
435.618	115.77
435.84	120.37
436.062	109.77
436.284	117.57
436.505	114.17
436.727	118.37
436.949	110.77
437.17	111.37
437.392	123.37
437.614	119.77
437.835	127.97
438.057	126.17
438.278	132.97
438.5	143.77
438.721	157.57
438.943	177.77
439.165	157.17
439.386	139.17
439.608	146.97
439.829	139.77
440.05	138.37
440.272	132.17
440.493	137.77
440.715	142.37
440.936	139.77
441.158	139.77
441.379	127.77
441.6	131.17
441.822	123.97
442.043	129.57
442.264	123.17
442.486	114.17
442.707	111.17
442.928	117.37
443.149	118.57
443.371	116.77
443.592	119.77
443.813	121.37
444.034	114.57
444.255	127.17
444.476	123.97
444.698	120.77
444.919	124.77
445.14	174.57
445.361	151.17
445.582	123.97
445.803	112.97
446.024	115.37
446.245	112.57
446.466	113.77
446.687	115.57
446.908	112.97
447.129	114.17
447.35	114.17
447.571	113.77
447.792	109.77
448.013	115.57
448.234	110.17
448.455	112.97
448.675	101.77
448.896	106.97
449.117	105.77
449.338	111.77
449.559	112.77
449.779	110.97
450	114.97
450.221	107.57
450.442	110.97
450.662	111.57
450.883	108.57
451.104	118.57
451.324	107.97
451.545	108.97
451.766	111.57
451.986	103.17
452.207	108.17
452.428	103.77
452.648	106.37
452.869	107.77
453.089	104.97
453.31	113.17
453.53	107.57
453.751	109.17
453.971	105.97
454.192	103.17
454.412	111.57
454.633	110.97
454.853	106.77
455.073	107.77
455.294	108.77
455.514	108.57
455.734	108.17
455.955	109.57
456.175	101.77
456.395	105.97
456.616	102.17
456.836	103.77
457.056	103.77
457.276	105.57
457.497	97.77
457.717	105.37
457.937	105.97
458.157	96.57
458.377	103.17
458.598	102.37
458.818	99.97
459.038	104.17
459.258	105.97
459.478	101.97
459.698	103.57
459.918	105.57
460.138	108.17
460.358	107.77
460.578	107.57
460.798	107.97
461.018	107.17
461.238	110.57
461.458	107.77
461.678	105.57
461.898	110.77
462.118	106.37
462.338	110.97
462.558	111.97
462.777	110.57
462.997	113.17
463.217	114.57
463.437	108.57
463.657	112.77
463.876	111.57
464.096	114.57
464.316	106.97
464.536	105.97
464.755	115.57
464.975	109.57
465.195	111.97
465.414	107.17
465.634	108.97
465.854	100.37
466.073	111.37
466.293	106.37
466.512	107.17
466.732	105.17
466.951	110.77
467.171	110.57
467.391	102.37
467.61	107.77
467.829	105.37
468.049	107.97
468.268	104.57
468.488	105.57
468.707	106.97
468.927	106.57
469.146	110.57
469.365	106.37
469.585	108.77
469.804	111.37
470.023	100.37
470.243	105.37
470.462	110.97
470.681	109.97
470.901	112.17
471.12	110.57
471.339	107.77
471.558	109.17
471.777	109.57
471.997	102.37
472.216	104.97
472.435	107.77
472.654	101.97
472.873	104.97
473.092	105.97
473.311	106.57
473.53	102.17
473.749	110.77
473.968	107.97
474.187	111.17
474.406	104.17
474.625	107.17
474.844	112.77
475.063	112.77
475.282	105.57
475.501	102.77
475.72	111.37
475.939	108.37
476.158	104.97
476.377	110.57
476.596	105.57
476.814	112.17
477.033	112.97
477.252	113.57
477.471	109.77
477.69	109.37
477.908	112.37
478.127	114.77
478.346	115.37
478.564	111.17
478.783	107.77
479.002	105.97
479.22	108.37
479.439	111.97
479.658	112.17
479.876	115.57
480.095	114.77
480.313	120.17
480.532	113.37
480.751	118.37
480.969	113.97
481.188	110.57
481.406	108.57
481.624	115.17
481.843	110.57
482.061	114.17
482.28	110.37
482.498	113.97
482.717	116.17
482.935	112.57
483.153	115.17
483.372	114.37
483.59	113.17
483.808	113.77
484.027	113.57
484.245	117.37
484.463	112.37
484.681	115.17
484.9	110.57
485.118	118.57
485.336	112.37
485.554	112.37
485.772	113.57
485.99	108.37
486.209	111.97
486.427	120.37
486.645	109.57
486.863	118.77
487.081	109.77
487.299	110.57
487.517	114.37
487.735	116.77
487.953	117.57
488.171	118.77
488.389	113.77
488.607	113.77
488.825	115.37
489.043	115.17
489.261	114.77
489.479	118.17
489.696	111.37
489.914	108.77
490.132	113.37
490.35	120.17
490.568	117.17
490.786	112.57
491.003	118.97
491.221	125.17
491.439	117.37
491.657	122.57
491.874	124.77
492.092	122.17
492.31	119.17
492.527	117.97
492.745	125.37
492.963	126.57
493.18	111.37
493.398	118.37
493.615	118.97
493.833	116.17
494.05	120.17
494.268	118.97
494.485	119.57
494.703	118.57
494.92	125.97
495.138	115.57
495.355	119.77
495.573	125.77
495.79	125.17
496.008	119.57
496.225	118.97
496.442	124.77
496.66	131.17
496.877	116.97
497.094	124.57
497.312	120.57
497.529	121.17
497.746	123.17
497.963	117.77
498.181	116.37
498.398	125.37
498.615	123.77
498.832	120.77
499.049	129.97
499.267	122.37
499.484	125.97
499.701	133.77
499.918	134.37
500.135	137.97
500.352	138.37
500.569	151.37
500.786	165.57
501.003	145.77
501.22	136.57
501.437	129.17
501.654	133.97
501.871	127.57
502.088	130.17
502.305	129.57
502.522	130.57
502.739	122.57
502.956	126.77
503.172	130.57
503.389	127.17
503.606	125.37
503.823	128.57
504.04	131.37
504.256	130.77
504.473	132.77
504.69	129.97
504.907	126.77
505.123	130.77
505.34	121.97
505.557	121.57
505.773	122.37
505.99	121.77
506.207	124.57
506.423	119.17
506.64	119.57
506.856	119.17
507.073	120.37
507.289	122.37
507.506	122.37
507.722	119.37
