Data from ZeroMicroDelayPb_HRD10591_00015.txt Node
Date: Mon Nov 24 14:24:57 EST 2025
User: Yrep
Spectrometer: HR+D1059
Trigger mode: 0
Integration Time (sec): 1.000000E-1
Scans to average: 5
Electric dark correction enabled: true
Nonlinearity correction enabled: false
Boxcar width: 0
XAxis mode: Wavelengths
Number of Pixels in Spectrum: 2048
>>>>>Begin Spectral Data<<<<<
223.165	-17.21
223.4	-17.21
223.635	-17.21
223.869	-19.21
224.104	-17.41
224.338	-11.81
224.573	-14.01
224.808	-15.41
225.042	-7.21
225.277	-2.41
225.511	3.79
225.746	4.39
225.98	1.59
226.215	9.59
226.449	15.59
226.683	17.79
226.918	19.79
227.152	32.19
227.387	38.59
227.621	42.79
227.856	42.59
228.09	47.99
228.324	52.59
228.559	56.19
228.793	56.59
229.027	65.39
229.262	64.59
229.496	72.19
229.73	69.39
229.964	79.19
230.199	76.39
230.433	76.59
230.667	76.39
230.901	83.59
231.136	78.99
231.37	78.39
231.604	84.99
231.838	80.99
232.072	79.99
232.306	77.99
232.541	87.39
232.775	81.19
233.009	92.59
233.243	85.79
233.477	81.79
233.711	85.59
233.945	84.99
234.179	78.19
234.413	88.59
234.647	80.39
234.881	91.19
235.115	84.39
235.349	76.19
235.583	84.59
235.817	83.39
236.051	72.99
236.285	76.99
236.519	80.79
236.753	79.19
236.987	77.39
237.221	74.59
237.455	82.99
237.689	77.59
237.922	78.99
238.156	81.19
238.39	79.99
238.624	81.79
238.858	78.59
239.091	86.39
239.325	77.99
239.559	79.59
239.793	78.99
240.027	89.99
240.26	84.79
240.494	80.99
240.728	82.99
240.961	76.19
241.195	83.79
241.429	79.99
241.662	74.39
241.896	78.99
242.13	81.19
242.363	80.59
242.597	76.39
242.83	79.99
243.064	80.99
243.298	78.59
243.531	80.59
243.765	81.39
243.998	84.99
244.232	88.79
244.465	83.79
244.699	86.39
244.932	85.79
245.166	78.99
245.399	80.39
245.633	82.99
245.866	80.79
246.099	75.59
246.333	81.79
246.566	87.59
246.8	76.99
247.033	84.59
247.266	78.99
247.5	81.39
247.733	83.19
247.966	85.99
248.2	86.19
248.433	84.19
248.666	85.39
248.899	80.19
249.133	85.59
249.366	85.59
249.599	91.39
249.832	88.79
250.066	94.79
250.299	88.59
250.532	87.99
250.765	90.59
250.998	88.19
251.231	88.39
251.465	87.79
251.698	87.79
251.931	87.79
252.164	91.79
252.397	88.59
252.63	90.99
252.863	85.39
253.096	85.99
253.329	88.79
253.562	92.59
253.795	89.19
254.028	87.59
254.261	92.39
254.494	99.19
254.727	94.79
254.96	89.59
255.193	92.19
255.426	91.79
255.659	94.19
255.892	92.99
256.124	88.59
256.357	91.79
256.59	88.99
256.823	90.99
257.056	96.19
257.289	98.19
257.521	90.59
257.754	95.39
257.987	92.99
258.22	97.59
258.452	100.59
258.685	95.59
258.918	88.59
259.151	97.19
259.383	92.79
259.616	93.59
259.849	90.99
260.081	95.39
260.314	94.19
260.547	98.39
260.779	98.19
261.012	104.39
261.244	119.39
261.477	117.39
261.71	117.59
261.942	108.99
262.175	100.99
262.407	94.59
262.64	92.59
262.872	94.99
263.105	90.19
263.337	94.79
263.57	93.79
263.802	94.39
264.035	94.79
264.267	99.59
264.499	93.59
264.732	92.99
264.964	97.39
265.197	97.99
265.429	101.79
265.661	93.39
265.894	89.39
266.126	96.99
266.358	102.39
266.591	107.59
266.823	99.79
267.055	95.19
267.287	89.39
267.52	90.79
267.752	88.79
267.984	93.39
268.216	93.59
268.448	93.19
268.681	98.19
268.913	91.19
269.145	96.99
269.377	95.19
269.609	94.59
269.841	92.79
270.073	91.99
270.306	90.39
270.538	88.19
270.77	95.39
271.002	89.99
271.234	94.19
271.466	97.19
271.698	89.59
271.93	97.59
272.162	91.79
272.394	86.99
272.626	90.39
272.858	94.79
273.09	93.19
273.322	100.79
273.553	93.59
273.785	93.39
274.017	95.19
274.249	96.79
274.481	85.99
274.713	91.59
274.945	95.19
275.176	95.39
275.408	90.59
275.64	94.99
275.872	93.39
276.104	90.79
276.335	93.39
276.567	99.59
276.799	99.19
277.031	95.19
277.262	98.99
277.494	97.19
277.726	93.99
277.957	93.39
278.189	94.59
278.421	95.99
278.652	103.99
278.884	107.99
279.115	99.59
279.347	101.99
279.579	105.39
279.81	125.79
280.042	130.99
280.273	138.19
280.505	134.99
280.736	114.19
280.968	107.19
281.199	101.79
281.431	103.19
281.662	107.99
281.894	113.79
282.125	107.19
282.356	109.99
282.588	105.39
282.819	111.79
283.051	115.59
283.282	123.79
283.513	133.19
283.745	123.59
283.976	104.19
284.207	102.99
284.439	95.39
284.67	99.99
284.901	97.19
285.132	98.39
285.364	102.19
285.595	96.59
285.826	98.19
286.057	109.79
286.288	104.19
286.52	105.79
286.751	96.99
286.982	110.99
287.213	109.59
287.444	120.19
287.675	114.39
287.906	104.19
288.138	99.99
288.369	100.79
288.6	97.59
288.831	92.19
289.062	93.59
289.293	94.79
289.524	92.99
289.755	95.59
289.986	93.59
290.217	94.19
290.448	94.79
290.679	94.99
290.91	93.59
291.141	95.19
291.371	98.99
291.602	96.39
291.833	95.19
292.064	97.79
292.295	100.79
292.526	95.39
292.757	98.79
292.987	107.59
293.218	99.19
293.449	94.79
293.68	96.19
293.91	95.99
294.141	95.39
294.372	101.19
294.603	98.99
294.833	97.39
295.064	98.59
295.295	93.19
295.525	104.19
295.756	102.19
295.987	95.99
296.217	95.59
296.448	96.59
296.679	94.79
296.909	98.79
297.14	99.39
297.37	106.99
297.601	93.39
297.831	98.39
298.062	102.19
298.292	97.99
298.523	101.79
298.753	98.79
298.984	99.99
299.214	96.39
299.445	96.19
299.675	94.19
299.905	99.79
300.136	100.19
300.366	95.59
300.597	92.59
300.827	99.79
301.057	94.79
301.288	100.39
301.518	91.99
301.748	96.19
301.979	109.79
302.209	107.59
302.439	102.39
302.669	96.99
302.9	97.19
303.13	101.79
303.36	99.59
303.59	100.99
303.82	112.39
304.051	101.79
304.281	96.19
304.511	103.59
304.741	102.39
304.971	102.59
305.201	101.19
305.431	100.19
305.661	97.79
305.891	101.99
306.121	96.59
306.352	100.99
306.582	98.59
306.812	100.19
307.042	100.39
307.272	97.79
307.502	96.79
307.731	92.19
307.961	102.39
308.191	95.79
308.421	101.19
308.651	98.59
308.881	95.19
309.111	91.99
309.341	94.39
309.571	97.79
309.8	98.19
310.03	105.19
310.26	93.99
310.49	103.19
310.72	102.39
310.949	101.99
311.179	99.99
311.409	103.99
311.639	101.79
311.868	93.59
312.098	101.39
312.328	100.59
312.557	103.19
312.787	103.59
313.017	106.59
313.246	106.39
313.476	100.59
313.706	105.99
313.935	106.59
314.165	103.99
314.394	108.39
314.624	109.39
314.853	105.59
315.083	106.19
315.312	111.99
315.542	103.99
315.771	103.79
316.001	101.79
316.23	114.39
316.46	107.59
316.689	104.19
316.919	112.79
317.148	103.39
317.377	104.79
317.607	105.59
317.836	104.79
318.065	105.39
318.295	103.79
318.524	107.59
318.753	102.39
318.983	103.19
319.212	105.19
319.441	100.59
319.67	108.59
319.9	103.99
320.129	93.99
320.358	99.19
320.587	103.19
320.816	95.59
321.046	101.59
321.275	106.19
321.504	96.59
321.733	107.59
321.962	106.79
322.191	98.99
322.42	97.79
322.649	103.79
322.878	104.19
323.108	98.39
323.337	101.59
323.566	103.79
323.795	101.19
324.024	97.99
324.253	96.19
324.482	96.79
324.71	102.59
324.939	103.39
325.168	104.59
325.397	101.79
325.626	100.59
325.855	96.19
326.084	102.99
326.313	99.99
326.542	100.39
326.77	99.59
326.999	98.99
327.228	105.19
327.457	102.79
327.686	98.99
327.914	101.79
328.143	109.39
328.372	98.39
328.6	98.39
328.829	102.19
329.058	99.19
329.287	102.39
329.515	98.99
329.744	102.19
329.972	98.79
330.201	100.39
330.43	108.39
330.658	103.59
330.887	101.19
331.115	100.99
331.344	105.19
331.572	109.19
331.801	105.59
332.03	105.99
332.258	104.39
332.486	103.59
332.715	97.59
332.943	98.59
333.172	102.19
333.4	102.59
333.629	103.39
333.857	101.39
334.085	105.19
334.314	100.19
334.542	102.99
334.771	106.79
334.999	101.79
335.227	103.79
335.455	94.99
335.684	108.99
335.912	106.79
336.14	105.99
336.369	104.79
336.597	95.79
336.825	99.99
337.053	105.79
337.281	99.59
337.51	102.39
337.738	105.99
337.966	105.99
338.194	97.59
338.422	104.59
338.65	104.59
338.878	106.39
339.106	101.99
339.334	99.19
339.562	103.59
339.79	104.79
340.018	100.19
340.246	104.59
340.474	103.79
340.702	103.59
340.93	100.39
341.158	94.79
341.386	99.99
341.614	99.99
341.842	102.39
342.07	101.99
342.298	99.39
342.526	99.79
342.754	99.19
342.981	106.59
343.209	103.59
343.437	103.59
343.665	104.99
343.893	107.39
344.12	102.19
344.348	107.19
344.576	101.79
344.804	105.79
345.031	92.99
345.259	99.79
345.487	107.19
345.714	97.39
345.942	99.99
346.17	105.19
346.397	100.99
346.625	99.19
346.853	105.59
347.08	93.79
347.308	101.19
347.535	103.39
347.763	101.99
347.99	96.99
348.218	98.59
348.445	96.99
348.673	101.79
348.9	99.59
349.128	102.19
349.355	96.19
349.583	96.99
349.81	103.99
350.037	102.99
350.265	96.79
350.492	92.59
350.72	105.19
350.947	101.19
351.174	97.59
351.402	95.19
351.629	102.39
351.856	99.79
352.083	97.99
352.311	102.39
352.538	101.99
352.765	104.79
352.992	102.99
353.22	104.79
353.447	97.99
353.674	101.59
353.901	95.79
354.128	97.99
354.355	98.39
354.583	96.99
354.81	101.19
355.037	107.19
355.264	105.39
355.491	100.19
355.718	96.79
355.945	103.19
356.172	105.39
356.399	106.59
356.626	103.59
356.853	114.79
357.08	130.39
357.307	148.79
357.534	154.79
357.761	131.99
357.988	122.79
358.215	119.59
358.441	113.39
358.668	109.39
358.895	107.19
359.122	110.59
359.349	106.99
359.576	106.19
359.802	107.39
360.029	98.19
360.256	104.59
360.483	111.99
360.709	100.19
360.936	115.39
361.163	110.79
361.39	103.59
361.616	105.79
361.843	101.79
362.07	106.99
362.296	105.79
362.523	101.19
362.749	103.19
362.976	97.79
363.203	111.39
363.429	115.99
363.656	136.19
363.882	162.19
364.109	185.99
364.335	153.59
364.562	124.19
364.788	116.79
365.015	117.99
365.241	119.39
365.468	109.39
365.694	108.79
365.92	110.19
366.147	106.99
366.373	110.79
366.599	112.99
366.826	108.39
367.052	117.79
367.278	119.39
367.505	118.99
367.731	129.39
367.957	142.59
368.184	167.99
368.41	204.59
368.636	184.79
368.862	149.19
369.089	128.19
369.315	123.79
369.541	116.59
369.767	112.79
369.993	111.79
370.219	107.79
370.445	104.19
370.672	105.39
370.898	111.79
371.124	106.19
371.35	105.59
371.576	106.99
371.802	110.39
372.028	115.39
372.254	111.19
372.48	107.39
372.706	102.99
372.932	107.19
373.158	110.39
373.384	116.99
373.61	119.79
373.835	134.39
374.061	152.99
374.287	151.39
374.513	120.19
374.739	119.59
374.965	116.39
375.191	117.59
375.416	110.79
375.642	106.39
375.868	109.79
376.094	100.19
376.319	102.99
376.545	101.39
376.771	106.79
376.997	107.59
377.222	100.79
377.448	102.59
377.674	100.19
377.899	104.79
378.125	99.99
378.35	102.39
378.576	97.39
378.802	101.59
379.027	99.19
379.253	105.59
379.478	103.59
379.704	103.99
379.929	101.79
380.155	101.39
380.38	96.19
380.606	103.99
380.831	106.99
381.057	108.59
381.282	102.19
381.507	99.59
381.733	100.79
381.958	102.99
382.184	102.19
382.409	109.59
382.634	100.59
382.86	101.59
383.085	100.39
383.31	106.99
383.535	103.59
383.761	99.59
383.986	103.19
384.211	102.59
384.436	103.99
384.662	107.19
384.887	106.59
385.112	110.39
385.337	106.19
385.562	105.99
385.787	103.59
386.013	101.19
386.238	106.79
386.463	107.19
386.688	112.59
386.913	102.19
387.138	101.59
387.363	105.99
387.588	107.59
387.813	103.59
388.038	101.19
388.263	107.79
388.488	94.59
388.713	101.19
388.938	96.79
389.163	103.99
389.387	96.19
389.612	96.59
389.837	103.39
390.062	107.19
390.287	107.39
390.512	108.39
390.736	107.79
390.961	107.19
391.186	106.19
391.411	103.19
391.636	109.59
391.86	98.39
392.085	104.79
392.31	104.59
392.534	98.19
392.759	108.59
392.984	107.59
393.208	102.59
393.433	105.19
393.658	98.19
393.882	100.79
394.107	106.79
394.331	104.19
394.556	107.59
394.78	110.79
395.005	110.99
395.229	112.19
395.454	99.59
395.678	106.99
395.903	103.99
396.127	105.59
396.352	105.59
396.576	98.79
396.801	94.79
397.025	103.99
397.249	101.39
397.474	104.39
397.698	97.19
397.922	107.79
398.147	102.99
398.371	111.19
398.595	108.79
398.82	107.39
399.044	108.59
399.268	103.99
399.492	113.39
399.717	114.79
399.941	111.99
400.165	110.59
400.389	110.19
400.613	110.19
400.837	108.59
401.062	113.99
401.286	112.59
401.51	109.19
401.734	110.19
401.958	120.39
402.182	117.59
402.406	108.59
402.63	108.79
402.854	113.59
403.078	111.99
403.302	110.59
403.526	112.59
403.75	112.79
403.974	110.79
404.198	120.99
404.422	122.59
404.645	117.39
404.869	123.19
405.093	126.79
405.317	150.59
405.541	192.99
405.765	256.19
405.988	290.19
406.212	227.99
406.436	182.39
406.66	158.19
406.883	138.59
407.107	123.19
407.331	125.99
407.555	120.59
407.778	122.59
408.002	118.99
408.226	112.79
408.449	113.79
408.673	113.79
408.896	109.19
409.12	111.59
409.344	115.39
409.567	105.19
409.791	112.39
410.014	108.39
410.238	109.39
410.461	110.39
410.685	113.19
410.908	112.99
411.132	109.19
411.355	112.19
411.578	111.79
411.802	110.39
412.025	105.79
412.249	110.79
412.472	107.59
412.695	109.99
412.919	109.19
413.142	111.39
413.365	113.79
413.589	112.59
413.812	111.39
414.035	111.99
414.258	111.59
414.482	116.79
414.705	109.79
414.928	114.59
415.151	110.99
415.374	115.19
415.597	107.59
415.821	109.59
416.044	102.59
416.267	111.99
416.49	114.59
416.713	120.39
416.936	112.59
417.159	112.59
417.382	106.79
417.605	109.59
417.828	108.39
418.051	111.39
418.274	109.99
418.497	107.19
418.72	109.99
418.943	115.39
419.166	112.79
419.389	113.39
419.611	116.99
419.834	105.39
420.057	112.79
420.28	104.99
420.503	112.99
420.726	122.19
420.948	106.99
421.171	106.19
421.394	115.59
421.617	118.19
421.839	114.19
422.062	117.59
422.285	114.99
422.507	118.79
422.73	117.19
422.953	123.99
423.175	120.79
423.398	125.19
423.621	128.39
423.843	131.39
424.066	138.59
424.288	143.39
424.511	165.59
424.733	170.99
424.956	158.79
425.178	163.59
425.401	148.19
425.623	134.39
425.846	134.79
426.068	131.99
426.291	127.79
426.513	121.19
426.735	124.19
426.958	120.39
427.18	120.39
427.402	121.19
427.625	118.19
427.847	118.39
428.069	110.79
428.292	116.19
428.514	121.79
428.736	114.39
428.958	113.59
429.181	113.39
429.403	106.19
429.625	114.79
429.847	109.39
430.069	107.39
430.292	110.59
430.514	109.99
430.736	104.79
430.958	107.19
431.18	111.59
431.402	108.19
431.624	110.59
431.846	107.39
432.068	109.59
432.29	106.59
432.512	112.79
432.734	109.39
432.956	113.19
433.178	112.99
433.4	114.79
433.622	113.59
433.844	115.99
434.066	110.19
434.287	121.79
434.509	110.19
434.731	112.39
434.953	109.79
435.175	114.19
435.397	118.99
435.618	111.59
435.84	111.99
436.062	110.79
436.284	118.99
436.505	119.19
436.727	120.19
436.949	122.39
437.17	120.59
437.392	119.79
437.614	125.59
437.835	126.99
438.057	127.59
438.278	134.39
438.5	146.19
438.721	165.39
438.943	170.79
439.165	156.79
439.386	151.39
439.608	147.79
439.829	143.19
440.05	137.39
440.272	136.59
440.493	141.99
440.715	136.19
440.936	149.39
441.158	139.39
441.379	133.39
441.6	135.99
441.822	125.39
442.043	116.39
442.264	124.79
442.486	120.79
442.707	113.59
442.928	117.59
443.149	120.19
443.371	122.39
443.592	118.19
443.813	119.59
444.034	117.39
444.255	119.79
444.476	112.39
444.698	120.59
444.919	115.39
445.14	180.59
445.361	146.59
445.582	125.59
445.803	115.99
446.024	117.19
446.245	118.19
446.466	118.99
446.687	114.19
446.908	119.19
447.129	117.79
447.35	108.99
447.571	111.99
447.792	112.79
448.013	105.99
448.234	106.99
448.455	111.39
448.675	108.99
448.896	107.39
449.117	111.79
449.338	107.39
449.559	113.59
449.779	105.79
450	105.99
450.221	109.19
450.442	107.99
450.662	112.39
450.883	115.59
451.104	119.79
451.324	114.59
451.545	110.99
451.766	110.19
451.986	110.19
452.207	108.39
452.428	104.59
452.648	112.59
452.869	107.79
453.089	100.99
453.31	101.99
453.53	106.99
453.751	109.99
453.971	104.99
454.192	108.19
454.412	110.19
454.633	108.59
454.853	113.59
455.073	110.79
455.294	106.59
455.514	106.39
455.734	103.99
455.955	110.19
456.175	102.79
456.395	108.99
456.616	107.99
456.836	107.79
457.056	101.39
457.276	104.79
457.497	100.79
457.717	97.99
457.937	104.39
458.157	102.79
458.377	95.99
458.598	108.99
458.818	109.39
459.038	104.19
459.258	108.39
459.478	100.59
459.698	108.79
459.918	109.79
460.138	107.39
460.358	112.19
460.578	110.79
460.798	113.59
461.018	107.59
461.238	109.39
461.458	111.79
461.678	116.99
461.898	108.79
462.118	108.99
462.338	107.79
462.558	109.79
462.777	109.59
462.997	116.79
463.217	107.19
463.437	115.99
463.657	114.19
463.876	102.99
464.096	119.19
464.316	111.99
464.536	114.99
464.755	115.19
464.975	108.99
465.195	110.99
465.414	106.19
465.634	110.19
465.854	111.99
466.073	107.19
466.293	108.19
466.512	107.99
466.732	113.39
466.951	110.39
467.171	112.79
467.391	111.79
467.61	107.19
467.829	111.59
468.049	114.79
468.268	109.79
468.488	110.59
468.707	112.19
468.927	109.59
469.146	104.39
469.365	109.19
469.585	111.19
469.804	107.39
470.023	106.59
470.243	108.59
470.462	110.99
470.681	108.39
470.901	111.39
471.12	117.79
471.339	110.99
471.558	111.79
471.777	105.79
471.997	107.19
472.216	102.39
472.435	105.59
472.654	103.19
472.873	110.79
473.092	108.59
473.311	104.99
473.53	115.39
473.749	107.79
473.968	111.39
474.187	105.99
474.406	101.39
474.625	110.79
474.844	111.19
475.063	106.39
475.282	106.99
475.501	110.99
475.72	111.19
475.939	107.59
476.158	110.79
476.377	109.79
476.596	105.79
476.814	103.99
477.033	116.19
477.252	109.59
477.471	110.19
477.69	107.99
477.908	112.19
478.127	114.59
478.346	107.79
478.564	115.79
478.783	116.19
479.002	118.19
479.22	115.59
479.439	121.59
479.658	115.59
479.876	111.99
480.095	114.19
480.313	116.19
480.532	117.59
480.751	114.79
480.969	115.39
481.188	109.99
481.406	111.39
481.624	112.59
481.843	107.99
482.061	120.59
482.28	103.19
482.498	109.39
482.717	109.99
482.935	114.99
483.153	116.99
483.372	111.39
483.59	108.79
483.808	109.99
484.027	111.79
484.245	117.39
484.463	115.59
484.681	114.19
484.9	111.19
485.118	120.79
485.336	111.59
485.554	107.79
485.772	111.79
485.99	120.19
486.209	121.19
486.427	110.39
486.645	109.19
486.863	116.39
487.081	114.79
487.299	115.79
487.517	115.59
487.735	117.39
487.953	120.39
488.171	120.39
488.389	117.19
488.607	113.99
488.825	114.99
489.043	112.59
489.261	116.59
489.479	117.79
489.696	112.99
489.914	118.99
490.132	117.79
490.35	116.59
490.568	117.19
490.786	115.39
491.003	120.19
491.221	114.39
491.439	119.99
491.657	120.99
491.874	123.99
492.092	124.39
492.31	122.19
492.527	122.19
492.745	123.79
492.963	121.39
493.18	119.39
493.398	126.59
493.615	117.19
493.833	111.19
494.05	116.99
494.268	116.39
494.485	117.99
494.703	119.59
494.92	120.79
495.138	119.39
495.355	122.99
495.573	121.19
495.79	120.19
496.008	119.79
496.225	119.39
496.442	120.39
496.66	118.99
496.877	125.39
497.094	127.39
497.312	118.39
497.529	118.99
497.746	123.19
497.963	116.19
498.181	123.79
498.398	122.59
498.615	111.39
498.832	129.99
499.049	124.19
499.267	123.39
499.484	130.59
499.701	131.79
499.918	131.19
500.135	136.59
500.352	136.59
500.569	150.79
500.786	155.79
501.003	149.79
501.22	143.19
501.437	135.79
501.654	132.39
501.871	130.79
502.088	128.39
502.305	125.99
502.522	129.99
502.739	128.19
502.956	124.79
503.172	127.39
503.389	122.99
503.606	125.39
503.823	124.59
504.04	131.59
504.256	127.99
504.473	129.99
504.69	127.59
504.907	136.79
505.123	132.79
505.34	128.59
505.557	125.99
505.773	129.59
505.99	128.19
506.207	116.39
506.423	113.59
506.64	124.59
506.856	120.79
507.073	112.39
507.289	113.79
507.506	117.99
