Data from ZeroMicroDelayPb_HRD10591_00003.txt Node
Date: Mon Nov 24 14:24:51 EST 2025
User: Yrep
Spectrometer: HR+D1059
Trigger mode: 0
Integration Time (sec): 1.000000E-1
Scans to average: 5
Electric dark correction enabled: true
Nonlinearity correction enabled: false
Boxcar width: 0
XAxis mode: Wavelengths
Number of Pixels in Spectrum: 2048
>>>>>Begin Spectral Data<<<<<
223.165	-14.04
223.4	-14.04
223.635	-14.04
223.869	-22.04
224.104	-20.24
224.338	-14.24
224.573	-13.04
224.808	-15.84
225.042	-3.64
225.277	-7.84
225.511	-2.04
225.746	5.16
225.98	7.36
226.215	10.76
226.449	15.16
226.683	22.56
226.918	26.16
227.152	25.76
227.387	36.36
227.621	38.56
227.856	47.16
228.09	44.76
228.324	50.56
228.559	51.76
228.793	56.36
229.027	62.56
229.262	67.56
229.496	64.16
229.73	68.96
229.964	77.36
230.199	74.76
230.433	70.76
230.667	74.56
230.901	79.36
231.136	76.76
231.37	85.36
231.604	82.36
231.838	81.76
232.072	79.56
232.306	82.36
232.541	85.56
232.775	79.36
233.009	79.96
233.243	77.36
233.477	82.76
233.711	84.76
233.945	82.76
234.179	85.16
234.413	88.96
234.647	81.16
234.881	81.96
235.115	80.36
235.349	79.96
235.583	80.36
235.817	85.56
236.051	79.76
236.285	80.36
236.519	84.36
236.753	78.56
236.987	76.16
237.221	80.96
237.455	77.36
237.689	80.36
237.922	83.56
238.156	82.76
238.39	74.76
238.624	80.16
238.858	83.96
239.091	76.96
239.325	81.56
239.559	82.36
239.793	83.36
240.027	79.96
240.26	76.76
240.494	82.96
240.728	83.76
240.961	76.56
241.195	81.56
241.429	80.76
241.662	78.76
241.896	83.56
242.13	78.96
242.363	81.16
242.597	82.96
242.83	81.36
243.064	71.96
243.298	79.16
243.531	76.16
243.765	80.76
243.998	80.36
244.232	81.96
244.465	81.96
244.699	78.16
244.932	81.36
245.166	80.36
245.399	86.16
245.633	83.76
245.866	78.36
246.099	83.56
246.333	93.56
246.566	84.16
246.8	80.56
247.033	79.96
247.266	75.36
247.5	79.16
247.733	88.76
247.966	88.36
248.2	88.36
248.433	84.56
248.666	82.76
248.899	83.76
249.133	75.96
249.366	87.16
249.599	88.96
249.832	81.36
250.066	93.76
250.299	81.76
250.532	93.16
250.765	85.96
250.998	84.56
251.231	83.56
251.465	91.36
251.698	92.56
251.931	88.76
252.164	85.96
252.397	91.56
252.63	92.36
252.863	93.56
253.096	94.36
253.329	91.96
253.562	96.56
253.795	84.36
254.028	98.36
254.261	90.96
254.494	87.36
254.727	95.36
254.96	90.96
255.193	87.96
255.426	87.16
255.659	90.96
255.892	87.36
256.124	88.36
256.357	85.36
256.59	88.96
256.823	88.56
257.056	89.96
257.289	88.16
257.521	92.96
257.754	96.56
257.987	96.36
258.22	95.96
258.452	91.96
258.685	94.16
258.918	93.76
259.151	92.36
259.383	97.36
259.616	94.56
259.849	93.96
260.081	90.96
260.314	99.76
260.547	94.76
260.779	96.56
261.012	99.56
261.244	106.96
261.477	115.96
261.71	111.76
261.942	99.36
262.175	100.36
262.407	95.76
262.64	95.16
262.872	96.16
263.105	95.16
263.337	97.56
263.57	94.36
263.802	90.56
264.035	87.16
264.267	92.96
264.499	81.76
264.732	102.96
264.964	98.96
265.197	95.16
265.429	96.96
265.661	98.76
265.894	95.56
266.126	103.96
266.358	100.56
266.591	105.96
266.823	96.16
267.055	93.76
267.287	97.16
267.52	90.56
267.752	91.36
267.984	82.96
268.216	91.36
268.448	95.76
268.681	90.56
268.913	92.56
269.145	92.96
269.377	98.16
269.609	86.16
269.841	90.16
270.073	98.56
270.306	90.56
270.538	91.96
270.77	91.56
271.002	91.96
271.234	93.16
271.466	96.16
271.698	90.96
271.93	94.56
272.162	88.16
272.394	93.56
272.626	90.96
272.858	99.16
273.09	95.16
273.322	88.76
273.553	93.16
273.785	87.56
274.017	91.96
274.249	88.16
274.481	94.76
274.713	97.56
274.945	97.56
275.176	94.36
275.408	91.96
275.64	89.16
275.872	94.36
276.104	99.56
276.335	92.96
276.567	90.36
276.799	90.36
277.031	93.96
277.262	93.76
277.494	89.76
277.726	95.76
277.957	92.76
278.189	97.16
278.421	95.36
278.652	104.56
278.884	100.56
279.115	108.36
279.347	106.76
279.579	112.56
279.81	117.96
280.042	137.56
280.273	141.16
280.505	135.16
280.736	118.96
280.968	108.16
281.199	101.96
281.431	108.16
281.662	108.56
281.894	103.76
282.125	113.16
282.356	112.56
282.588	110.36
282.819	109.96
283.051	116.96
283.282	124.16
283.513	136.76
283.745	123.56
283.976	101.16
284.207	103.36
284.439	93.56
284.67	96.96
284.901	96.96
285.132	97.56
285.364	96.16
285.595	99.16
285.826	98.76
286.057	98.36
286.288	95.76
286.52	98.76
286.751	98.56
286.982	107.96
287.213	111.96
287.444	122.16
287.675	108.76
287.906	112.36
288.138	97.56
288.369	105.96
288.6	99.76
288.831	96.36
289.062	98.76
289.293	96.96
289.524	98.96
289.755	101.96
289.986	92.76
290.217	91.96
290.448	93.16
290.679	95.56
290.91	93.36
291.141	92.76
291.371	89.56
291.602	94.76
291.833	101.16
292.064	95.76
292.295	96.76
292.526	96.56
292.757	93.16
292.987	92.36
293.218	97.36
293.449	93.16
293.68	99.16
293.91	101.16
294.141	99.36
294.372	91.16
294.603	92.36
294.833	99.96
295.064	101.96
295.295	101.16
295.525	102.56
295.756	101.36
295.987	90.96
296.217	92.96
296.448	94.76
296.679	97.76
296.909	96.76
297.14	97.96
297.37	97.76
297.601	96.76
297.831	92.56
298.062	90.36
298.292	94.76
298.523	96.16
298.753	93.36
298.984	98.16
299.214	96.56
299.445	99.36
299.675	95.36
299.905	96.76
300.136	92.36
300.366	97.96
300.597	95.16
300.827	93.76
301.057	96.96
301.288	102.36
301.518	99.96
301.748	97.56
301.979	112.16
302.209	102.16
302.439	95.36
302.669	99.96
302.9	100.16
303.13	101.36
303.36	98.56
303.59	97.76
303.82	98.16
304.051	99.16
304.281	100.36
304.511	105.56
304.741	101.16
304.971	95.76
305.201	101.16
305.431	99.16
305.661	93.56
305.891	103.16
306.121	99.36
306.352	94.76
306.582	97.56
306.812	96.56
307.042	96.96
307.272	96.56
307.502	100.36
307.731	105.56
307.961	106.96
308.191	98.56
308.421	97.36
308.651	100.36
308.881	103.76
309.111	96.56
309.341	101.76
309.571	101.76
309.8	101.76
310.03	92.16
310.26	95.56
310.49	100.76
310.72	99.76
310.949	98.96
311.179	97.96
311.409	99.16
311.639	102.36
311.868	100.56
312.098	106.56
312.328	98.76
312.557	103.56
312.787	106.36
313.017	98.76
313.246	107.56
313.476	110.56
313.706	101.96
313.935	103.36
314.165	97.16
314.394	101.76
314.624	99.36
314.853	106.36
315.083	108.36
315.312	108.56
315.542	100.56
315.771	108.96
316.001	104.36
316.23	97.56
316.46	109.16
316.689	104.36
316.919	106.96
317.148	101.36
317.377	104.76
317.607	105.36
317.836	105.36
318.065	98.36
318.295	106.96
318.524	101.76
318.753	101.36
318.983	98.16
319.212	98.36
319.441	96.56
319.67	101.96
319.9	100.76
320.129	99.36
320.358	98.16
320.587	100.56
320.816	99.56
321.046	100.56
321.275	100.36
321.504	100.96
321.733	97.96
321.962	101.16
322.191	103.36
322.42	108.16
322.649	103.76
322.878	100.16
323.108	105.76
323.337	101.76
323.566	98.36
323.795	101.56
324.024	100.36
324.253	93.36
324.482	99.16
324.71	98.36
324.939	113.36
325.168	102.16
325.397	103.76
325.626	103.56
325.855	99.56
326.084	98.56
326.313	100.76
326.542	101.36
326.77	98.96
326.999	97.76
327.228	101.76
327.457	101.36
327.686	101.56
327.914	103.36
328.143	98.36
328.372	104.16
328.6	97.96
328.829	93.76
329.058	95.76
329.287	96.36
329.515	98.76
329.744	104.56
329.972	100.76
330.201	101.96
330.43	101.16
330.658	98.16
330.887	98.76
331.115	102.36
331.344	105.36
331.572	112.36
331.801	102.56
332.03	98.96
332.258	99.16
332.486	99.96
332.715	97.56
332.943	102.56
333.172	103.56
333.4	98.36
333.629	99.16
333.857	102.56
334.085	100.76
334.314	106.56
334.542	103.76
334.771	99.76
334.999	100.36
335.227	102.96
335.455	111.16
335.684	105.76
335.912	96.96
336.14	103.56
336.369	103.16
336.597	105.16
336.825	104.36
337.053	104.76
337.281	98.76
337.51	97.76
337.738	108.56
337.966	96.76
338.194	93.76
338.422	107.76
338.65	98.96
338.878	97.56
339.106	98.96
339.334	102.56
339.562	100.96
339.79	97.16
340.018	96.76
340.246	108.16
340.474	97.56
340.702	96.36
340.93	97.56
341.158	97.96
341.386	96.56
341.614	100.76
341.842	104.36
342.07	100.36
342.298	101.76
342.526	94.36
342.754	105.96
342.981	101.56
343.209	102.56
343.437	110.36
343.665	105.76
343.893	106.36
344.12	105.16
344.348	97.56
344.576	97.36
344.804	103.56
345.031	100.36
345.259	96.76
345.487	99.36
345.714	98.76
345.942	97.76
346.17	102.36
346.397	103.56
346.625	98.16
346.853	100.96
347.08	102.56
347.308	102.16
347.535	101.56
347.763	100.56
347.99	101.56
348.218	110.76
348.445	96.16
348.673	99.16
348.9	100.76
349.128	101.96
349.355	107.16
349.583	98.36
349.81	103.36
350.037	100.16
350.265	102.96
350.492	103.56
350.72	103.76
350.947	109.16
351.174	99.36
351.402	99.16
351.629	104.16
351.856	94.56
352.083	101.16
352.311	108.56
352.538	102.56
352.765	96.76
352.992	105.76
353.22	100.96
353.447	95.56
353.674	94.36
353.901	102.36
354.128	98.56
354.355	102.96
354.583	99.56
354.81	105.16
355.037	106.16
355.264	100.56
355.491	96.16
355.718	103.76
355.945	100.16
356.172	103.36
356.399	107.56
356.626	112.56
356.853	114.76
357.08	131.96
357.307	156.76
357.534	157.16
357.761	128.36
357.988	121.16
358.215	112.56
358.441	117.36
358.668	103.36
358.895	110.76
359.122	104.96
359.349	105.16
359.576	102.16
359.802	104.16
360.029	103.56
360.256	108.36
360.483	101.76
360.709	103.36
360.936	115.16
361.163	105.76
361.39	96.96
361.616	102.36
361.843	101.36
362.07	107.36
362.296	105.56
362.523	105.76
362.749	105.96
362.976	108.96
363.203	113.96
363.429	113.56
363.656	130.36
363.882	163.16
364.109	169.76
364.335	148.96
364.562	127.76
364.788	114.36
365.015	115.36
365.241	114.16
365.468	105.56
365.694	102.36
365.92	102.56
366.147	103.16
366.373	109.56
366.599	110.56
366.826	111.36
367.052	119.36
367.278	130.36
367.505	120.36
367.731	120.56
367.957	138.36
368.184	173.56
368.41	206.16
368.636	184.36
368.862	148.56
369.089	133.56
369.315	118.16
369.541	113.96
369.767	111.36
369.993	112.56
370.219	104.56
370.445	104.56
370.672	106.76
370.898	108.16
371.124	107.16
371.35	104.36
371.576	107.96
371.802	101.36
372.028	106.16
372.254	98.36
372.48	106.36
372.706	101.56
372.932	110.16
373.158	113.76
373.384	113.56
373.61	124.76
373.835	144.36
374.061	161.96
374.287	148.36
374.513	127.76
374.739	123.96
374.965	106.96
375.191	103.36
375.416	113.16
375.642	106.76
375.868	105.76
376.094	100.76
376.319	101.96
376.545	100.36
376.771	96.36
376.997	106.36
377.222	98.76
377.448	107.96
377.674	97.56
377.899	100.36
378.125	106.56
378.35	106.36
378.576	109.36
378.802	108.56
379.027	108.36
379.253	103.16
379.478	100.16
379.704	97.96
379.929	98.56
380.155	102.16
380.38	102.36
380.606	105.36
380.831	102.56
381.057	106.36
381.282	103.36
381.507	107.16
381.733	100.56
381.958	100.16
382.184	100.56
382.409	103.96
382.634	105.36
382.86	99.76
383.085	101.96
383.31	98.76
383.535	100.56
383.761	102.76
383.986	105.56
384.211	100.16
384.436	100.56
384.662	101.96
384.887	112.76
385.112	104.56
385.337	105.96
385.562	110.56
385.787	103.36
386.013	102.96
386.238	110.76
386.463	102.36
386.688	115.96
386.913	103.16
387.138	100.96
387.363	103.36
387.588	108.76
387.813	112.16
388.038	104.36
388.263	106.16
388.488	107.36
388.713	101.36
388.938	106.96
389.163	105.56
389.387	104.76
389.612	103.56
389.837	107.16
390.062	102.76
390.287	101.56
390.512	104.36
390.736	99.36
390.961	103.16
391.186	106.16
391.411	106.56
391.636	105.96
391.86	101.76
392.085	99.56
392.31	104.96
392.534	96.36
392.759	111.96
392.984	109.96
393.208	107.76
393.433	102.16
393.658	99.36
393.882	106.16
394.107	108.36
394.331	101.16
394.556	101.76
394.78	111.16
395.005	104.56
395.229	100.76
395.454	97.96
395.678	101.56
395.903	108.36
396.127	108.76
396.352	106.16
396.576	103.56
396.801	103.76
397.025	106.96
397.249	107.96
397.474	106.76
397.698	113.56
397.922	106.16
398.147	96.96
398.371	101.96
398.595	104.16
398.82	105.96
399.044	114.96
399.268	111.56
399.492	109.96
399.717	107.96
399.941	109.76
400.165	116.16
400.389	111.76
400.613	105.96
400.837	108.76
401.062	107.76
401.286	105.96
401.51	114.96
401.734	113.96
401.958	119.16
402.182	108.96
402.406	113.36
402.63	114.76
402.854	108.76
403.078	105.56
403.302	112.96
403.526	115.56
403.75	111.96
403.974	110.16
404.198	106.96
404.422	112.56
404.645	119.76
404.869	125.36
405.093	130.76
405.317	152.16
405.541	185.16
405.765	248.76
405.988	281.56
406.212	222.16
406.436	172.96
406.66	148.96
406.883	133.36
407.107	131.16
407.331	125.36
407.555	129.16
407.778	117.76
408.002	119.36
408.226	118.36
408.449	111.96
408.673	110.96
408.896	116.76
409.12	112.16
409.344	119.96
409.567	112.56
409.791	109.96
410.014	115.16
410.238	115.56
410.461	109.36
410.685	110.16
410.908	110.76
411.132	111.96
411.355	104.36
411.578	108.76
411.802	110.16
412.025	112.16
412.249	107.96
412.472	111.36
412.695	110.36
412.919	109.76
413.142	112.76
413.365	105.16
413.589	108.56
413.812	109.76
414.035	105.96
414.258	109.76
414.482	107.36
414.705	116.16
414.928	114.16
415.151	109.36
415.374	116.36
415.597	109.36
415.821	109.16
416.044	104.96
416.267	112.76
416.49	113.56
416.713	116.56
416.936	118.36
417.159	112.36
417.382	111.56
417.605	108.96
417.828	107.76
418.051	109.76
418.274	113.76
418.497	103.56
418.72	110.36
418.943	112.36
419.166	110.56
419.389	109.96
419.611	114.96
419.834	113.76
420.057	112.76
420.28	108.36
420.503	108.36
420.726	107.16
420.948	107.76
421.171	107.76
421.394	108.56
421.617	111.16
421.839	113.76
422.062	119.96
422.285	111.16
422.507	111.96
422.73	115.16
422.953	121.76
423.175	117.96
423.398	123.36
423.621	120.36
423.843	130.36
424.066	135.16
424.288	148.76
424.511	160.96
424.733	170.36
424.956	161.96
425.178	146.56
425.401	143.76
425.623	131.16
425.846	132.36
426.068	125.96
426.291	126.56
426.513	118.76
426.735	123.36
426.958	117.76
427.18	118.36
427.402	114.96
427.625	113.96
427.847	114.16
428.069	117.76
428.292	114.96
428.514	109.76
428.736	116.56
428.958	108.56
429.181	118.36
429.403	113.36
429.625	108.76
429.847	112.56
430.069	109.16
430.292	111.56
430.514	101.76
430.736	110.96
430.958	107.76
431.18	113.96
431.402	111.76
431.624	105.36
431.846	115.16
432.068	110.36
432.29	108.76
432.512	109.56
432.734	105.76
432.956	119.96
433.178	113.56
433.4	111.16
433.622	117.36
433.844	111.36
434.066	113.56
434.287	118.76
434.509	115.16
434.731	118.56
434.953	113.16
435.175	110.16
435.397	117.16
435.618	108.76
435.84	108.16
436.062	109.96
436.284	115.96
436.505	112.16
436.727	120.96
436.949	118.76
437.17	121.96
437.392	111.96
437.614	119.16
437.835	122.36
438.057	128.16
438.278	133.76
438.5	144.76
438.721	154.96
438.943	165.56
439.165	159.96
439.386	143.56
439.608	142.96
439.829	136.96
440.05	137.56
440.272	135.76
440.493	134.96
440.715	140.36
440.936	149.96
441.158	136.96
441.379	138.16
441.6	131.76
441.822	125.96
442.043	128.16
442.264	121.96
442.486	117.96
442.707	117.36
442.928	116.76
443.149	118.76
443.371	118.16
443.592	116.56
443.813	118.76
444.034	119.36
444.255	122.16
444.476	118.16
444.698	119.36
444.919	115.16
445.14	176.76
445.361	144.96
445.582	118.76
445.803	116.96
446.024	119.76
446.245	114.56
446.466	122.36
446.687	119.36
446.908	119.76
447.129	112.96
447.35	118.96
447.571	117.36
447.792	115.76
448.013	114.96
448.234	110.36
448.455	113.36
448.675	111.56
448.896	112.96
449.117	117.16
449.338	114.16
449.559	113.56
449.779	109.76
450	112.96
450.221	109.76
450.442	112.96
450.662	115.56
450.883	107.36
451.104	105.76
451.324	107.16
451.545	106.76
451.766	112.36
451.986	111.76
452.207	105.16
452.428	107.36
452.648	100.96
452.869	110.16
453.089	100.56
453.31	100.56
453.53	109.56
453.751	104.96
453.971	102.96
454.192	102.76
454.412	101.56
454.633	105.96
454.853	104.96
455.073	107.36
455.294	105.16
455.514	103.36
455.734	99.36
455.955	102.36
456.175	103.76
456.395	100.36
456.616	109.56
456.836	102.96
457.056	100.96
457.276	107.16
457.497	108.76
457.717	106.36
457.937	109.76
458.157	100.36
458.377	108.76
458.598	104.16
458.818	105.16
459.038	105.16
459.258	103.56
459.478	109.76
459.698	103.36
459.918	103.56
460.138	106.96
460.358	107.36
460.578	108.96
460.798	108.56
461.018	109.76
461.238	109.56
461.458	111.96
461.678	110.76
461.898	111.16
462.118	110.36
462.338	110.36
462.558	116.16
462.777	111.36
462.997	111.96
463.217	111.16
463.437	109.56
463.657	108.16
463.876	113.16
464.096	117.76
464.316	114.16
464.536	105.36
464.755	117.56
464.975	113.36
465.195	115.76
465.414	109.96
465.634	104.56
465.854	104.76
466.073	106.76
466.293	103.76
466.512	106.56
466.732	112.56
466.951	108.16
467.171	109.36
467.391	112.16
467.61	111.16
467.829	107.96
468.049	110.36
468.268	101.96
468.488	113.16
468.707	101.16
468.927	113.76
469.146	106.76
469.365	114.16
469.585	111.36
469.804	106.96
470.023	110.76
470.243	115.76
470.462	110.76
470.681	107.36
470.901	109.36
471.12	105.56
471.339	107.36
471.558	110.76
471.777	110.76
471.997	115.16
472.216	107.56
472.435	109.76
472.654	102.76
472.873	104.36
473.092	111.36
473.311	106.56
473.53	107.76
473.749	110.76
473.968	114.36
474.187	109.96
474.406	106.16
474.625	109.76
474.844	113.76
475.063	104.36
475.282	111.96
475.501	107.76
475.72	115.76
475.939	110.16
476.158	111.56
476.377	103.76
476.596	107.96
476.814	114.96
477.033	107.36
477.252	109.56
477.471	112.56
477.69	109.56
477.908	111.36
478.127	113.36
478.346	113.96
478.564	110.56
478.783	113.56
479.002	115.36
479.22	118.76
479.439	107.16
479.658	112.96
479.876	109.16
480.095	108.16
480.313	109.16
480.532	112.96
480.751	115.96
480.969	108.96
481.188	106.16
481.406	113.96
481.624	109.76
481.843	109.16
482.061	114.36
482.28	117.56
482.498	121.76
482.717	114.96
482.935	113.76
483.153	119.36
483.372	115.96
483.59	115.16
483.808	108.36
484.027	111.36
484.245	110.36
484.463	116.96
484.681	118.16
484.9	113.96
485.118	117.96
485.336	113.96
485.554	116.76
485.772	113.96
485.99	109.16
486.209	112.16
486.427	112.76
486.645	115.56
486.863	109.96
487.081	114.96
487.299	116.36
487.517	119.76
487.735	116.96
487.953	118.16
488.171	116.96
488.389	117.16
488.607	112.16
488.825	111.96
489.043	115.76
489.261	115.76
489.479	119.36
489.696	115.76
489.914	115.36
490.132	112.56
490.35	123.36
490.568	118.96
490.786	111.16
491.003	120.16
491.221	118.56
491.439	124.76
491.657	116.16
491.874	120.36
492.092	125.76
492.31	123.36
492.527	123.96
492.745	121.76
492.963	122.76
493.18	118.96
493.398	120.16
493.615	126.36
493.833	115.56
494.05	116.96
494.268	121.16
494.485	118.96
494.703	122.16
494.92	123.56
495.138	121.76
495.355	126.76
495.573	128.76
495.79	121.36
496.008	118.96
496.225	123.56
496.442	120.76
496.66	123.96
496.877	115.96
497.094	128.36
497.312	119.36
497.529	116.76
497.746	116.56
497.963	121.76
498.181	121.16
498.398	125.96
498.615	118.96
498.832	120.36
499.049	120.96
499.267	123.96
499.484	125.36
499.701	131.96
499.918	136.36
500.135	139.76
500.352	142.56
500.569	148.76
500.786	155.16
501.003	149.96
501.22	137.76
501.437	137.96
501.654	126.36
501.871	129.16
502.088	127.56
502.305	133.76
502.522	130.56
502.739	124.76
502.956	119.36
503.172	129.76
503.389	125.56
503.606	131.96
503.823	124.96
504.04	127.76
504.256	139.76
504.473	137.16
504.69	128.16
504.907	128.56
505.123	133.56
505.34	124.76
505.557	127.76
505.773	123.56
505.99	116.56
506.207	125.76
506.423	113.56
506.64	124.76
506.856	119.96
507.073	122.16
507.289	116.36
507.506	119.76
507.722	112.16
