Data from ZeroMicroDelayPb_HRD10591_00009.txt Node
Date: Mon Nov 24 14:24:54 EST 2025
User: Yrep
Spectrometer: HR+D1059
Trigger mode: 0
Integration Time (sec): 1.000000E-1
Scans to average: 5
Electric dark correction enabled: true
Nonlinearity correction enabled: false
Boxcar width: 0
XAxis mode: Wavelengths
Number of Pixels in Spectrum: 2048
>>>>>Begin Spectral Data<<<<<
223.165	-20.64
223.4	-20.64
223.635	-20.64
223.869	-17.44
224.104	-16.84
224.338	-12.04
224.573	-23.64
224.808	-12.24
225.042	-9.04
225.277	-0.84
225.511	-5.24
225.746	1.96
225.98	7.96
226.215	13.36
226.449	15.56
226.683	24.76
226.918	19.16
227.152	35.16
227.387	26.16
227.621	34.96
227.856	40.96
228.09	44.16
228.324	48.16
228.559	59.56
228.793	56.76
229.027	55.96
229.262	67.76
229.496	67.36
229.73	66.56
229.964	70.56
230.199	72.56
230.433	66.76
230.667	73.96
230.901	79.76
231.136	84.16
231.37	78.96
231.604	77.96
231.838	86.36
232.072	76.96
232.306	84.16
232.541	78.16
232.775	77.56
233.009	74.36
233.243	83.96
233.477	80.76
233.711	85.96
233.945	87.16
234.179	79.16
234.413	82.16
234.647	77.76
234.881	77.56
235.115	82.56
235.349	79.56
235.583	78.36
235.817	80.16
236.051	76.16
236.285	76.96
236.519	75.36
236.753	82.36
236.987	76.36
237.221	76.56
237.455	80.76
237.689	81.96
237.922	71.36
238.156	82.76
238.39	76.16
238.624	77.36
238.858	73.96
239.091	78.36
239.325	82.16
239.559	74.96
239.793	79.76
240.027	85.56
240.26	76.16
240.494	77.16
240.728	75.36
240.961	87.16
241.195	73.76
241.429	78.76
241.662	82.76
241.896	76.96
242.13	74.96
242.363	77.16
242.597	76.96
242.83	74.36
243.064	79.56
243.298	80.36
243.531	84.76
243.765	85.56
243.998	84.76
244.232	75.76
244.465	79.96
244.699	79.56
244.932	84.56
245.166	79.36
245.399	84.36
245.633	79.96
245.866	81.56
246.099	71.16
246.333	74.76
246.566	76.76
246.8	78.76
247.033	77.76
247.266	73.16
247.5	76.16
247.733	81.16
247.966	83.76
248.2	80.76
248.433	80.76
248.666	81.16
248.899	80.56
249.133	77.76
249.366	86.36
249.599	79.76
249.832	78.96
250.066	87.56
250.299	80.56
250.532	82.96
250.765	90.96
250.998	82.16
251.231	83.16
251.465	86.76
251.698	83.96
251.931	87.96
252.164	83.76
252.397	85.56
252.63	88.16
252.863	79.16
253.096	74.16
253.329	91.96
253.562	85.36
253.795	82.56
254.028	85.96
254.261	78.56
254.494	79.36
254.727	83.56
254.96	85.96
255.193	87.56
255.426	91.56
255.659	89.96
255.892	88.56
256.124	86.76
256.357	84.36
256.59	92.36
256.823	84.96
257.056	88.96
257.289	89.56
257.521	89.56
257.754	95.36
257.987	92.96
258.22	97.36
258.452	87.16
258.685	86.36
258.918	89.36
259.151	87.56
259.383	89.96
259.616	82.56
259.849	90.96
260.081	89.36
260.314	93.96
260.547	95.76
260.779	93.16
261.012	103.56
261.244	111.36
261.477	115.56
261.71	118.96
261.942	102.36
262.175	101.36
262.407	92.76
262.64	92.56
262.872	97.16
263.105	92.96
263.337	87.36
263.57	92.56
263.802	88.16
264.035	90.36
264.267	93.16
264.499	87.76
264.732	97.16
264.964	97.16
265.197	95.56
265.429	94.96
265.661	94.96
265.894	99.56
266.126	98.16
266.358	97.76
266.591	104.96
266.823	96.76
267.055	86.76
267.287	86.16
267.52	82.56
267.752	93.36
267.984	87.16
268.216	92.76
268.448	95.36
268.681	89.76
268.913	89.36
269.145	89.36
269.377	90.96
269.609	90.16
269.841	88.96
270.073	92.36
270.306	91.76
270.538	84.96
270.77	83.36
271.002	92.96
271.234	84.16
271.466	92.36
271.698	91.36
271.93	88.76
272.162	88.36
272.394	88.36
272.626	89.76
272.858	87.96
273.09	90.16
273.322	87.96
273.553	87.36
273.785	84.16
274.017	91.76
274.249	88.16
274.481	85.36
274.713	92.36
274.945	87.76
275.176	82.16
275.408	90.36
275.64	92.56
275.872	89.16
276.104	97.56
276.335	87.76
276.567	91.56
276.799	95.36
277.031	95.36
277.262	92.36
277.494	99.76
277.726	94.36
277.957	94.96
278.189	97.36
278.421	95.16
278.652	97.96
278.884	95.76
279.115	106.56
279.347	99.56
279.579	103.36
279.81	116.96
280.042	126.96
280.273	139.76
280.505	138.16
280.736	117.16
280.968	102.36
281.199	97.76
281.431	100.96
281.662	104.36
281.894	103.76
282.125	101.16
282.356	113.96
282.588	104.36
282.819	102.96
283.051	107.76
283.282	120.56
283.513	129.56
283.745	124.16
283.976	108.76
284.207	101.56
284.439	100.36
284.67	96.36
284.901	95.16
285.132	90.36
285.364	88.56
285.595	94.56
285.826	101.36
286.057	97.76
286.288	103.56
286.52	101.96
286.751	96.76
286.982	107.36
287.213	120.16
287.444	117.16
287.675	108.76
287.906	107.96
288.138	96.56
288.369	95.16
288.6	99.96
288.831	97.96
289.062	105.36
289.293	95.56
289.524	100.56
289.755	91.16
289.986	93.56
290.217	96.16
290.448	88.76
290.679	94.76
290.91	89.76
291.141	95.96
291.371	93.16
291.602	91.36
291.833	97.16
292.064	91.36
292.295	95.56
292.526	96.16
292.757	93.36
292.987	98.16
293.218	98.76
293.449	99.76
293.68	96.76
293.91	93.36
294.141	95.76
294.372	95.56
294.603	93.96
294.833	97.96
295.064	97.76
295.295	96.76
295.525	98.56
295.756	92.76
295.987	87.16
296.217	102.96
296.448	96.56
296.679	101.96
296.909	98.56
297.14	96.96
297.37	93.76
297.601	90.56
297.831	97.96
298.062	97.16
298.292	91.56
298.523	97.96
298.753	97.76
298.984	92.76
299.214	94.56
299.445	92.16
299.675	98.56
299.905	96.16
300.136	93.36
300.366	95.56
300.597	93.56
300.827	97.76
301.057	98.96
301.288	93.76
301.518	97.76
301.748	102.76
301.979	114.16
302.209	102.56
302.439	96.56
302.669	98.76
302.9	98.96
303.13	100.96
303.36	98.56
303.59	97.96
303.82	98.36
304.051	102.16
304.281	96.36
304.511	100.36
304.741	99.76
304.971	92.76
305.201	99.96
305.431	105.96
305.661	96.76
305.891	101.96
306.121	93.56
306.352	95.16
306.582	91.36
306.812	96.16
307.042	89.96
307.272	101.16
307.502	95.36
307.731	103.36
307.961	97.96
308.191	99.16
308.421	94.56
308.651	97.76
308.881	93.56
309.111	96.76
309.341	96.56
309.571	98.36
309.8	92.36
310.03	101.56
310.26	98.16
310.49	90.76
310.72	99.56
310.949	98.36
311.179	97.16
311.409	96.36
311.639	103.76
311.868	100.36
312.098	103.16
312.328	98.36
312.557	95.36
312.787	100.56
313.017	104.76
313.246	98.56
313.476	97.56
313.706	102.96
313.935	104.56
314.165	100.76
314.394	96.96
314.624	103.96
314.853	104.56
315.083	106.76
315.312	99.96
315.542	98.76
315.771	105.16
316.001	99.56
316.23	99.36
316.46	96.16
316.689	96.36
316.919	99.56
317.148	105.96
317.377	102.36
317.607	99.96
317.836	102.76
318.065	96.96
318.295	102.76
318.524	95.76
318.753	99.56
318.983	104.16
319.212	101.76
319.441	98.16
319.67	103.96
319.9	97.36
320.129	104.96
320.358	102.16
320.587	96.96
320.816	99.76
321.046	94.56
321.275	105.36
321.504	97.96
321.733	94.56
321.962	96.36
322.191	97.96
322.42	97.76
322.649	102.36
322.878	104.36
323.108	96.76
323.337	101.56
323.566	100.96
323.795	94.96
324.024	95.96
324.253	98.76
324.482	93.16
324.71	98.36
324.939	94.56
325.168	101.96
325.397	97.16
325.626	97.76
325.855	102.76
326.084	98.16
326.313	100.96
326.542	99.16
326.77	99.56
326.999	94.76
327.228	101.16
327.457	97.36
327.686	100.16
327.914	99.16
328.143	103.36
328.372	99.16
328.6	92.56
328.829	102.36
329.058	89.76
329.287	95.96
329.515	99.76
329.744	101.16
329.972	103.56
330.201	101.36
330.43	100.16
330.658	100.96
330.887	98.36
331.115	105.36
331.344	99.76
331.572	108.76
331.801	96.56
332.03	97.76
332.258	97.36
332.486	107.16
332.715	99.96
332.943	97.56
333.172	97.56
333.4	93.16
333.629	94.96
333.857	101.76
334.085	90.36
334.314	102.36
334.542	100.96
334.771	97.36
334.999	97.76
335.227	94.36
335.455	102.16
335.684	104.76
335.912	97.16
336.14	101.36
336.369	99.96
336.597	98.16
336.825	94.56
337.053	101.76
337.281	100.16
337.51	95.36
337.738	99.76
337.966	98.76
338.194	91.56
338.422	105.36
338.65	95.16
338.878	98.36
339.106	98.76
339.334	94.36
339.562	96.16
339.79	94.16
340.018	93.16
340.246	94.96
340.474	92.16
340.702	98.56
340.93	97.36
341.158	91.96
341.386	95.76
341.614	87.56
341.842	99.76
342.07	100.56
342.298	94.16
342.526	94.36
342.754	100.16
342.981	91.76
343.209	93.16
343.437	112.36
343.665	95.76
343.893	100.36
344.12	101.96
344.348	103.96
344.576	100.36
344.804	98.96
345.031	96.36
345.259	92.76
345.487	93.36
345.714	103.96
345.942	101.16
346.17	106.96
346.397	99.96
346.625	102.36
346.853	100.56
347.08	93.36
347.308	99.36
347.535	101.56
347.763	96.76
347.99	104.16
348.218	94.96
348.445	93.56
348.673	98.96
348.9	103.16
349.128	90.16
349.355	93.96
349.583	96.36
349.81	96.36
350.037	99.36
350.265	94.56
350.492	99.16
350.72	96.76
350.947	91.96
351.174	97.76
351.402	104.96
351.629	98.36
351.856	96.16
352.083	94.36
352.311	102.36
352.538	92.56
352.765	98.76
352.992	102.76
353.22	94.16
353.447	94.56
353.674	102.96
353.901	97.36
354.128	101.16
354.355	100.76
354.583	103.76
354.81	96.76
355.037	101.36
355.264	99.16
355.491	100.36
355.718	97.36
355.945	105.16
356.172	102.96
356.399	105.36
356.626	106.36
356.853	117.76
357.08	126.96
357.307	153.96
357.534	156.16
357.761	136.96
357.988	125.96
358.215	111.56
358.441	110.56
358.668	103.16
358.895	105.16
359.122	105.36
359.349	98.36
359.576	100.16
359.802	100.36
360.029	96.96
360.256	107.36
360.483	103.16
360.709	104.56
360.936	106.96
361.163	102.56
361.39	104.76
361.616	96.76
361.843	97.76
362.07	98.56
362.296	98.16
362.523	106.76
362.749	102.76
362.976	99.96
363.203	113.36
363.429	107.76
363.656	134.96
363.882	165.36
364.109	179.56
364.335	150.16
364.562	126.36
364.788	116.36
365.015	111.16
365.241	110.16
365.468	111.96
365.694	101.96
365.92	98.76
366.147	104.56
366.373	101.96
366.599	108.56
366.826	102.76
367.052	112.36
367.278	123.96
367.505	117.56
367.731	132.16
367.957	141.36
368.184	169.96
368.41	198.16
368.636	185.96
368.862	146.96
369.089	121.36
369.315	113.16
369.541	115.36
369.767	108.96
369.993	112.56
370.219	107.76
370.445	104.76
370.672	102.16
370.898	106.16
371.124	101.96
371.35	101.96
371.576	108.16
371.802	98.36
372.028	101.56
372.254	103.56
372.48	100.16
372.706	108.96
372.932	105.16
373.158	99.96
373.384	113.96
373.61	117.96
373.835	133.96
374.061	158.56
374.287	146.96
374.513	126.96
374.739	111.16
374.965	111.56
375.191	99.16
375.416	110.16
375.642	102.96
375.868	103.36
376.094	101.16
376.319	105.96
376.545	102.56
376.771	102.16
376.997	97.36
377.222	101.76
377.448	100.76
377.674	102.56
377.899	104.76
378.125	98.96
378.35	105.96
378.576	101.76
378.802	103.76
379.027	104.76
379.253	104.16
379.478	102.76
379.704	104.16
379.929	96.16
380.155	100.76
380.38	97.36
380.606	88.56
380.831	97.76
381.057	100.96
381.282	102.76
381.507	101.16
381.733	97.96
381.958	94.56
382.184	100.76
382.409	105.36
382.634	100.36
382.86	106.16
383.085	104.76
383.31	97.56
383.535	106.16
383.761	105.76
383.986	95.96
384.211	95.16
384.436	100.96
384.662	101.96
384.887	103.76
385.112	105.36
385.337	99.36
385.562	104.96
385.787	103.16
386.013	92.36
386.238	104.36
386.463	106.36
386.688	111.16
386.913	102.36
387.138	103.36
387.363	98.76
387.588	105.76
387.813	100.76
388.038	105.16
388.263	95.16
388.488	95.56
388.713	105.76
388.938	97.56
389.163	92.96
389.387	97.16
389.612	103.56
389.837	105.96
390.062	102.96
390.287	106.16
390.512	102.36
390.736	99.36
390.961	106.56
391.186	104.96
391.411	101.16
391.636	97.96
391.86	103.56
392.085	100.96
392.31	104.76
392.534	99.56
392.759	103.96
392.984	101.76
393.208	97.16
393.433	93.56
393.658	99.36
393.882	101.56
394.107	101.76
394.331	103.36
394.556	101.96
394.78	97.56
395.005	97.36
395.229	99.56
395.454	103.36
395.678	102.36
395.903	103.96
396.127	99.96
396.352	101.56
396.576	101.56
396.801	107.36
397.025	100.56
397.249	100.56
397.474	102.56
397.698	107.36
397.922	106.76
398.147	98.36
398.371	101.36
398.595	104.96
398.82	102.76
399.044	99.96
399.268	110.16
399.492	104.56
399.717	111.36
399.941	112.56
400.165	108.56
400.389	107.96
400.613	109.96
400.837	106.56
401.062	107.36
401.286	105.76
401.51	105.56
401.734	107.96
401.958	121.76
402.182	115.96
402.406	107.76
402.63	101.36
402.854	104.36
403.078	102.76
403.302	110.36
403.526	107.56
403.75	105.76
403.974	114.56
404.198	116.36
404.422	109.56
404.645	110.96
404.869	125.96
405.093	128.76
405.317	147.16
405.541	195.36
405.765	261.96
405.988	294.76
406.212	226.36
406.436	174.16
406.66	154.96
406.883	132.36
407.107	123.56
407.331	123.96
407.555	121.16
407.778	118.56
408.002	114.16
408.226	114.36
408.449	116.76
408.673	112.16
408.896	111.76
409.12	108.56
409.344	103.56
409.567	111.56
409.791	106.16
410.014	112.56
410.238	107.76
410.461	108.56
410.685	111.16
410.908	103.16
411.132	109.56
411.355	107.96
411.578	110.56
411.802	110.16
412.025	110.56
412.249	105.16
412.472	111.76
412.695	108.36
412.919	104.96
413.142	107.76
413.365	104.16
413.589	110.16
413.812	108.36
414.035	108.16
414.258	108.76
414.482	101.56
414.705	107.96
414.928	109.76
415.151	110.76
415.374	105.16
415.597	101.36
415.821	107.16
416.044	101.16
416.267	111.16
416.49	109.16
416.713	105.76
416.936	109.16
417.159	108.76
417.382	111.36
417.605	103.56
417.828	109.36
418.051	111.36
418.274	109.16
418.497	111.16
418.72	104.96
418.943	110.56
419.166	111.96
419.389	109.36
419.611	108.36
419.834	107.36
420.057	111.16
420.28	108.76
420.503	109.36
420.726	114.56
420.948	106.96
421.171	111.36
421.394	108.16
421.617	107.16
421.839	109.16
422.062	103.96
422.285	107.96
422.507	111.56
422.73	110.56
422.953	115.76
423.175	123.56
423.398	122.36
423.621	123.36
423.843	130.56
424.066	136.96
424.288	149.36
424.511	159.36
424.733	171.96
424.956	156.96
425.178	149.96
425.401	136.96
425.623	137.16
425.846	126.56
426.068	122.36
426.291	128.56
426.513	123.56
426.735	119.16
426.958	120.96
427.18	114.96
427.402	121.16
427.625	113.16
427.847	113.96
428.069	119.56
428.292	112.56
428.514	113.76
428.736	109.96
428.958	102.56
429.181	108.56
429.403	115.96
429.625	113.16
429.847	112.96
430.069	115.36
430.292	115.96
430.514	102.76
430.736	105.36
430.958	107.56
431.18	103.16
431.402	115.76
431.624	109.36
431.846	108.36
432.068	103.96
432.29	112.36
432.512	107.76
432.734	110.96
432.956	112.36
433.178	111.96
433.4	113.76
433.622	111.76
433.844	118.16
434.066	117.36
434.287	109.56
434.509	104.76
434.731	107.36
434.953	107.76
435.175	104.36
435.397	112.16
435.618	109.96
435.84	115.96
436.062	110.56
436.284	113.76
436.505	114.16
436.727	107.36
436.949	115.76
437.17	111.56
437.392	118.56
437.614	116.76
437.835	116.96
438.057	124.96
438.278	121.36
438.5	143.96
438.721	163.76
438.943	165.76
439.165	148.96
439.386	146.76
439.608	141.36
439.829	134.56
440.05	132.16
440.272	137.56
440.493	134.56
440.715	137.56
440.936	138.76
441.158	138.16
441.379	132.36
441.6	130.76
441.822	127.96
442.043	117.76
442.264	120.16
442.486	117.36
442.707	121.56
442.928	114.36
443.149	123.36
443.371	116.56
443.592	113.16
443.813	117.36
444.034	115.16
444.255	120.76
444.476	115.76
444.698	115.36
444.919	112.96
445.14	179.36
445.361	145.76
445.582	123.16
445.803	114.16
446.024	112.36
446.245	121.36
446.466	113.96
446.687	109.96
446.908	105.56
447.129	112.36
447.35	108.36
447.571	117.56
447.792	109.36
448.013	106.16
448.234	106.16
448.455	108.36
448.675	112.16
448.896	106.36
449.117	106.96
449.338	103.96
449.559	106.76
449.779	110.96
450	112.76
450.221	109.76
450.442	107.76
450.662	105.76
450.883	107.56
451.104	107.96
451.324	108.96
451.545	105.76
451.766	106.96
451.986	107.56
452.207	108.36
452.428	102.76
452.648	103.36
452.869	106.96
453.089	105.16
453.31	100.96
453.53	100.96
453.751	100.76
453.971	102.36
454.192	103.56
454.412	96.56
454.633	97.96
454.853	108.76
455.073	108.16
455.294	102.36
455.514	104.16
455.734	104.56
455.955	96.76
456.175	104.36
456.395	110.96
456.616	100.36
456.836	102.96
457.056	110.76
457.276	92.76
457.497	102.96
457.717	101.76
457.937	102.56
458.157	99.36
458.377	105.96
458.598	106.96
458.818	101.96
459.038	97.16
459.258	103.76
459.478	101.56
459.698	109.76
459.918	105.96
460.138	107.76
460.358	104.76
460.578	104.96
460.798	115.16
461.018	109.36
461.238	109.16
461.458	104.36
461.678	108.56
461.898	106.96
462.118	112.16
462.338	116.16
462.558	107.36
462.777	108.16
462.997	107.76
463.217	112.16
463.437	112.96
463.657	105.56
463.876	101.36
464.096	109.76
464.316	106.16
464.536	107.56
464.755	106.36
464.975	106.16
465.195	109.56
465.414	103.96
465.634	105.56
465.854	109.56
466.073	96.96
466.293	106.36
466.512	103.16
466.732	98.36
466.951	103.76
467.171	103.76
467.391	107.96
467.61	106.56
467.829	113.36
468.049	98.36
468.268	106.76
468.488	107.56
468.707	106.56
468.927	103.76
469.146	105.96
469.365	111.96
469.585	108.56
469.804	111.16
470.023	102.76
470.243	106.76
470.462	109.76
470.681	112.56
470.901	102.96
471.12	108.36
471.339	106.96
471.558	109.56
471.777	110.16
471.997	103.56
472.216	101.56
472.435	99.36
472.654	100.56
472.873	107.96
473.092	105.76
473.311	108.36
473.53	102.76
473.749	108.56
473.968	104.76
474.187	104.16
474.406	104.36
474.625	110.96
474.844	106.96
475.063	107.76
475.282	106.16
475.501	102.96
475.72	110.56
475.939	99.96
476.158	106.16
476.377	107.36
476.596	109.56
476.814	98.76
477.033	111.16
477.252	105.96
477.471	106.96
477.69	107.56
477.908	106.16
478.127	123.56
478.346	117.56
478.564	110.96
478.783	114.56
479.002	120.36
479.22	117.36
479.439	115.36
479.658	113.96
479.876	102.96
480.095	109.76
480.313	107.16
480.532	112.36
480.751	113.56
480.969	112.36
481.188	105.16
481.406	103.36
481.624	109.16
481.843	103.76
482.061	105.16
482.28	109.56
482.498	108.56
482.717	110.36
482.935	114.36
483.153	109.56
483.372	110.96
483.59	114.96
483.808	108.56
484.027	110.76
484.245	116.56
484.463	110.76
484.681	114.36
484.9	106.56
485.118	117.76
485.336	106.96
485.554	110.56
485.772	101.76
485.99	107.76
486.209	109.16
486.427	113.16
486.645	117.56
486.863	114.36
487.081	109.36
487.299	111.16
487.517	109.76
487.735	110.76
487.953	109.56
488.171	110.96
488.389	112.96
488.607	117.76
488.825	110.56
489.043	112.36
489.261	114.56
489.479	116.36
489.696	116.56
489.914	104.56
490.132	112.36
490.35	128.56
490.568	113.16
490.786	121.16
491.003	116.36
491.221	110.56
491.439	114.96
491.657	111.96
491.874	122.56
492.092	117.36
492.31	122.76
492.527	122.16
492.745	117.56
492.963	111.76
493.18	111.76
493.398	123.16
493.615	109.76
493.833	111.36
494.05	111.36
494.268	115.96
494.485	116.36
494.703	117.16
494.92	119.16
495.138	117.56
495.355	123.16
495.573	117.56
495.79	118.76
496.008	119.96
496.225	122.56
496.442	124.96
496.66	118.96
496.877	115.56
497.094	120.76
497.312	118.96
497.529	112.16
497.746	116.56
497.963	116.36
498.181	119.76
498.398	117.76
498.615	115.36
498.832	115.76
499.049	123.96
499.267	124.96
499.484	132.56
499.701	139.16
499.918	132.96
500.135	133.96
500.352	138.16
500.569	151.16
500.786	162.96
501.003	146.96
501.22	132.16
501.437	136.96
501.654	129.16
501.871	122.96
502.088	130.56
502.305	123.76
502.522	128.56
502.739	127.96
502.956	120.16
503.172	127.76
503.389	126.16
503.606	121.96
503.823	131.76
504.04	125.76
504.256	132.56
504.473	130.56
504.69	134.76
504.907	129.16
505.123	126.76
505.34	123.16
505.557	117.96
505.773	116.16
505.99	113.36
506.207	124.56
506.423	123.76
506.64	117.36
506.856	114.96
507.073	104.36
507.289	115.76
507.506	115.36
507.722	112.36
507.939	115.96
508.155	116.96
508.372	114.96
508.588	111.76
508.805	109.56
509.021	109.76
