Data from ZeroMicroDelayPb_HRD10591_00014.txt Node
Date: Mon Nov 24 14:24:56 EST 2025
User: Yrep
Spectrometer: HR+D1059
Trigger mode: 0
Integration Time (sec): 1.000000E-1
Scans to average: 5
Electric dark correction enabled: true
Nonlinearity correction enabled: false
Boxcar width: 0
XAxis mode: Wavelengths
Number of Pixels in Spectrum: 2048
>>>>>Begin Spectral Data<<<<<
223.165	-17.39
223.4	-17.39
223.635	-17.39
223.869	-21.79
224.104	-15.39
224.338	-7.19
224.573	-9.19
224.808	-12.79
225.042	-11.59
225.277	-5.19
225.511	-3.59
225.746	0.21
225.98	6.21
226.215	12.81
226.449	10.21
226.683	19.81
226.918	26.21
227.152	28.61
227.387	34.01
227.621	38.41
227.856	41.81
228.09	49.21
228.324	51.81
228.559	51.21
228.793	60.21
229.027	56.41
229.262	61.81
229.496	69.61
229.73	79.21
229.964	75.81
230.199	78.41
230.433	75.81
230.667	73.21
230.901	76.01
231.136	78.61
231.37	80.01
231.604	81.81
231.838	78.21
232.072	79.81
232.306	83.01
232.541	79.61
232.775	85.21
233.009	83.21
233.243	89.41
233.477	81.61
233.711	84.01
233.945	84.01
234.179	85.81
234.413	83.21
234.647	78.41
234.881	81.01
235.115	76.81
235.349	81.01
235.583	77.21
235.817	86.61
236.051	77.01
236.285	80.81
236.519	81.41
236.753	76.01
236.987	83.21
237.221	84.21
237.455	84.01
237.689	78.21
237.922	76.01
238.156	75.61
238.39	78.81
238.624	78.81
238.858	76.21
239.091	79.61
239.325	76.61
239.559	75.61
239.793	79.01
240.027	86.81
240.26	82.61
240.494	78.41
240.728	78.01
240.961	84.81
241.195	80.61
241.429	79.21
241.662	86.81
241.896	77.61
242.13	74.21
242.363	77.41
242.597	78.41
242.83	82.81
243.064	76.21
243.298	82.41
243.531	82.41
243.765	80.61
243.998	84.61
244.232	82.21
244.465	82.81
244.699	82.21
244.932	80.01
245.166	80.81
245.399	84.01
245.633	80.01
245.866	80.01
246.099	84.21
246.333	79.21
246.566	83.81
246.8	84.01
247.033	79.41
247.266	88.81
247.5	86.01
247.733	86.21
247.966	81.81
248.2	83.01
248.433	81.01
248.666	87.01
248.899	84.21
249.133	83.61
249.366	85.41
249.599	75.01
249.832	88.61
250.066	90.01
250.299	85.81
250.532	84.61
250.765	86.21
250.998	85.41
251.231	85.41
251.465	89.01
251.698	88.01
251.931	83.01
252.164	90.21
252.397	87.61
252.63	88.81
252.863	87.41
253.096	88.81
253.329	85.61
253.562	86.41
253.795	87.41
254.028	95.61
254.261	88.81
254.494	88.21
254.727	96.81
254.96	91.81
255.193	82.61
255.426	92.21
255.659	87.41
255.892	93.01
256.124	92.81
256.357	92.81
256.59	82.21
256.823	83.81
257.056	92.61
257.289	92.61
257.521	90.21
257.754	92.61
257.987	97.41
258.22	88.21
258.452	90.61
258.685	95.61
258.918	86.61
259.151	94.41
259.383	89.41
259.616	90.61
259.849	90.81
260.081	92.61
260.314	91.81
260.547	91.21
260.779	96.61
261.012	100.41
261.244	111.61
261.477	116.01
261.71	119.81
261.942	109.81
262.175	94.61
262.407	97.61
262.64	96.81
262.872	94.01
263.105	90.61
263.337	96.81
263.57	95.61
263.802	95.01
264.035	94.61
264.267	91.41
264.499	93.81
264.732	95.81
264.964	92.61
265.197	98.61
265.429	102.81
265.661	94.01
265.894	95.61
266.126	90.61
266.358	106.01
266.591	101.21
266.823	102.81
267.055	93.41
267.287	97.81
267.52	96.21
267.752	92.21
267.984	95.81
268.216	88.81
268.448	90.81
268.681	87.61
268.913	97.41
269.145	96.01
269.377	94.81
269.609	92.21
269.841	92.41
270.073	93.61
270.306	100.01
270.538	89.41
270.77	95.81
271.002	95.01
271.234	95.01
271.466	93.01
271.698	93.61
271.93	91.41
272.162	89.01
272.394	92.21
272.626	97.81
272.858	96.61
273.09	94.21
273.322	95.81
273.553	97.41
273.785	90.61
274.017	94.81
274.249	92.81
274.481	92.01
274.713	90.41
274.945	92.01
275.176	91.21
275.408	99.21
275.64	90.61
275.872	86.41
276.104	94.61
276.335	92.21
276.567	90.61
276.799	93.81
277.031	86.61
277.262	92.61
277.494	97.21
277.726	95.01
277.957	103.41
278.189	95.61
278.421	102.41
278.652	93.21
278.884	94.21
279.115	100.41
279.347	109.21
279.579	113.21
279.81	119.21
280.042	136.21
280.273	139.21
280.505	137.01
280.736	112.41
280.968	108.61
281.199	100.41
281.431	101.61
281.662	106.81
281.894	100.21
282.125	114.81
282.356	108.41
282.588	113.81
282.819	106.21
283.051	105.01
283.282	118.21
283.513	133.41
283.745	121.01
283.976	108.41
284.207	108.41
284.439	95.01
284.67	104.41
284.901	98.21
285.132	93.41
285.364	93.01
285.595	101.41
285.826	96.61
286.057	98.21
286.288	98.21
286.52	100.61
286.751	100.81
286.982	105.01
287.213	111.21
287.444	118.01
287.675	112.61
287.906	100.41
288.138	98.61
288.369	100.41
288.6	94.41
288.831	94.01
289.062	97.81
289.293	99.21
289.524	95.81
289.755	92.81
289.986	94.61
290.217	96.01
290.448	96.01
290.679	91.81
290.91	95.61
291.141	94.61
291.371	96.61
291.602	86.21
291.833	98.01
292.064	93.01
292.295	93.81
292.526	98.01
292.757	98.01
292.987	101.81
293.218	98.41
293.449	100.01
293.68	99.81
293.91	98.21
294.141	100.61
294.372	98.81
294.603	97.61
294.833	93.61
295.064	91.61
295.295	95.61
295.525	95.81
295.756	100.61
295.987	99.01
296.217	96.01
296.448	103.21
296.679	101.41
296.909	100.41
297.14	102.41
297.37	98.01
297.601	102.41
297.831	93.61
298.062	101.41
298.292	105.01
298.523	88.61
298.753	92.41
298.984	95.21
299.214	98.21
299.445	96.21
299.675	98.01
299.905	99.01
300.136	99.61
300.366	97.81
300.597	98.81
300.827	103.01
301.057	99.21
301.288	97.21
301.518	96.81
301.748	99.61
301.979	104.81
302.209	100.41
302.439	95.81
302.669	98.81
302.9	96.41
303.13	94.61
303.36	100.81
303.59	95.81
303.82	97.01
304.051	104.21
304.281	96.41
304.511	95.61
304.741	98.61
304.971	100.61
305.201	103.41
305.431	100.81
305.661	98.21
305.891	100.61
306.121	101.81
306.352	99.61
306.582	99.01
306.812	98.61
307.042	101.41
307.272	97.21
307.502	97.61
307.731	101.01
307.961	103.61
308.191	93.21
308.421	94.81
308.651	102.61
308.881	104.41
309.111	96.41
309.341	96.41
309.571	97.81
309.8	96.01
310.03	97.61
310.26	100.01
310.49	101.41
310.72	95.61
310.949	102.21
311.179	98.01
311.409	96.01
311.639	109.01
311.868	100.41
312.098	96.21
312.328	96.01
312.557	102.01
312.787	101.61
313.017	103.41
313.246	98.61
313.476	97.21
313.706	101.01
313.935	101.61
314.165	108.41
314.394	107.41
314.624	106.41
314.853	108.21
315.083	104.01
315.312	102.61
315.542	108.61
315.771	100.41
316.001	107.21
316.23	101.41
316.46	100.61
316.689	105.01
316.919	100.81
317.148	102.81
317.377	101.81
317.607	105.81
317.836	104.81
318.065	101.61
318.295	107.81
318.524	98.81
318.753	102.41
318.983	94.01
319.212	101.01
319.441	96.01
319.67	99.01
319.9	102.61
320.129	101.61
320.358	95.01
320.587	102.61
320.816	98.01
321.046	94.61
321.275	101.21
321.504	96.81
321.733	98.41
321.962	103.21
322.191	100.41
322.42	100.21
322.649	100.81
322.878	103.81
323.108	102.61
323.337	105.01
323.566	96.81
323.795	102.81
324.024	100.41
324.253	110.01
324.482	105.61
324.71	95.81
324.939	101.41
325.168	101.01
325.397	97.41
325.626	101.81
325.855	97.61
326.084	106.81
326.313	96.41
326.542	93.81
326.77	102.61
326.999	110.41
327.228	99.81
327.457	102.01
327.686	100.41
327.914	101.21
328.143	103.01
328.372	98.01
328.6	101.81
328.829	101.41
329.058	95.81
329.287	103.21
329.515	102.41
329.744	102.41
329.972	91.21
330.201	106.01
330.43	104.01
330.658	98.41
330.887	102.41
331.115	108.61
331.344	106.61
331.572	102.21
331.801	103.21
332.03	102.01
332.258	107.21
332.486	102.41
332.715	104.21
332.943	98.01
333.172	100.41
333.4	104.01
333.629	101.41
333.857	108.41
334.085	105.81
334.314	100.21
334.542	98.61
334.771	102.61
334.999	103.61
335.227	101.21
335.455	102.61
335.684	101.81
335.912	97.81
336.14	101.61
336.369	100.41
336.597	105.61
336.825	94.81
337.053	94.41
337.281	97.21
337.51	98.61
337.738	100.81
337.966	100.21
338.194	100.21
338.422	96.41
338.65	97.21
338.878	98.61
339.106	99.81
339.334	100.41
339.562	98.41
339.79	97.61
340.018	98.41
340.246	96.01
340.474	102.01
340.702	94.21
340.93	94.81
341.158	94.61
341.386	92.61
341.614	98.61
341.842	101.41
342.07	100.01
342.298	98.61
342.526	100.01
342.754	103.61
342.981	97.81
343.209	98.01
343.437	110.81
343.665	109.81
343.893	90.61
344.12	99.21
344.348	102.61
344.576	104.61
344.804	98.61
345.031	100.01
345.259	101.01
345.487	97.81
345.714	96.81
345.942	98.61
346.17	99.21
346.397	95.41
346.625	104.21
346.853	101.41
347.08	98.81
347.308	105.81
347.535	102.01
347.763	95.61
347.99	101.41
348.218	101.81
348.445	98.21
348.673	94.01
348.9	100.01
349.128	99.01
349.355	100.81
349.583	102.81
349.81	99.81
350.037	94.41
350.265	104.81
350.492	98.21
350.72	96.81
350.947	98.41
351.174	96.41
351.402	106.01
351.629	99.61
351.856	95.81
352.083	97.61
352.311	98.61
352.538	104.41
352.765	100.01
352.992	103.21
353.22	106.21
353.447	104.41
353.674	101.61
353.901	99.21
354.128	100.61
354.355	99.41
354.583	96.01
354.81	96.01
355.037	103.41
355.264	101.81
355.491	102.21
355.718	102.21
355.945	99.61
356.172	100.01
356.399	97.21
356.626	107.21
356.853	118.41
357.08	136.41
357.307	152.21
357.534	149.21
357.761	131.81
357.988	122.01
358.215	116.41
358.441	110.21
358.668	105.61
358.895	109.01
359.122	110.41
359.349	97.21
359.576	104.01
359.802	104.01
360.029	100.61
360.256	103.01
360.483	104.61
360.709	103.41
360.936	115.41
361.163	102.41
361.39	105.81
361.616	105.61
361.843	103.41
362.07	104.81
362.296	105.61
362.523	103.81
362.749	100.81
362.976	95.61
363.203	113.01
363.429	111.81
363.656	134.81
363.882	156.01
364.109	169.61
364.335	148.61
364.562	129.61
364.788	111.41
365.015	113.21
365.241	111.61
365.468	112.81
365.694	104.81
365.92	111.81
366.147	103.41
366.373	108.01
366.599	110.81
366.826	111.81
367.052	119.41
367.278	130.41
367.505	120.61
367.731	126.81
367.957	144.41
368.184	170.01
368.41	208.41
368.636	189.81
368.862	149.81
369.089	130.01
369.315	124.01
369.541	121.61
369.767	111.21
369.993	106.61
370.219	106.41
370.445	96.81
370.672	99.41
370.898	106.41
371.124	104.41
371.35	101.21
371.576	103.41
371.802	104.61
372.028	102.41
372.254	106.21
372.48	103.61
372.706	101.41
372.932	105.41
373.158	103.41
373.384	110.81
373.61	121.01
373.835	142.21
374.061	162.41
374.287	155.01
374.513	122.21
374.739	123.01
374.965	113.41
375.191	107.01
375.416	111.01
375.642	104.21
375.868	110.41
376.094	104.01
376.319	95.61
376.545	103.01
376.771	92.61
376.997	91.81
377.222	97.61
377.448	100.21
377.674	99.41
377.899	100.01
378.125	97.61
378.35	107.61
378.576	101.21
378.802	102.61
379.027	102.01
379.253	106.01
379.478	104.01
379.704	104.41
379.929	102.61
380.155	98.21
380.38	106.21
380.606	105.81
380.831	103.61
381.057	104.41
381.282	100.01
381.507	108.81
381.733	101.61
381.958	104.21
382.184	103.41
382.409	105.81
382.634	100.41
382.86	101.61
383.085	108.81
383.31	103.21
383.535	101.61
383.761	111.61
383.986	106.01
384.211	105.61
384.436	100.01
384.662	103.01
384.887	102.01
385.112	103.01
385.337	107.01
385.562	105.21
385.787	101.81
386.013	103.61
386.238	103.81
386.463	102.81
386.688	114.41
386.913	100.01
387.138	106.01
387.363	101.21
387.588	98.01
387.813	93.41
388.038	102.81
388.263	104.01
388.488	102.81
388.713	106.01
388.938	98.41
389.163	98.61
389.387	100.41
389.612	99.61
389.837	98.61
390.062	103.21
390.287	100.41
390.512	99.61
390.736	100.41
390.961	100.81
391.186	110.01
391.411	106.61
391.636	100.01
391.86	100.41
392.085	105.21
392.31	102.41
392.534	103.01
392.759	93.81
392.984	98.01
393.208	102.61
393.433	107.81
393.658	102.61
393.882	104.01
394.107	106.81
394.331	103.81
394.556	96.81
394.78	104.21
395.005	98.21
395.229	99.81
395.454	106.61
395.678	107.01
395.903	104.21
396.127	105.41
396.352	103.41
396.576	100.21
396.801	98.61
397.025	99.41
397.249	104.61
397.474	106.01
397.698	105.61
397.922	106.01
398.147	110.81
398.371	100.21
398.595	110.41
398.82	111.01
399.044	106.41
399.268	112.01
399.492	111.61
399.717	109.41
399.941	111.61
400.165	109.21
400.389	108.81
400.613	110.81
400.837	113.41
401.062	110.61
401.286	112.61
401.51	106.21
401.734	116.01
401.958	115.01
402.182	116.21
402.406	109.21
402.63	110.81
402.854	114.61
403.078	102.21
403.302	108.81
403.526	108.01
403.75	109.21
403.974	111.81
404.198	114.61
404.422	116.41
404.645	112.61
404.869	122.41
405.093	126.21
405.317	143.01
405.541	185.01
405.765	255.61
405.988	293.41
406.212	229.61
406.436	169.61
406.66	147.81
406.883	130.21
407.107	123.61
407.331	126.01
407.555	120.01
407.778	116.41
408.002	116.61
408.226	113.61
408.449	119.01
408.673	114.61
408.896	123.61
409.12	106.21
409.344	110.61
409.567	114.01
409.791	114.01
410.014	112.01
410.238	106.81
410.461	107.21
410.685	106.81
410.908	105.81
411.132	108.61
411.355	107.21
411.578	112.41
411.802	106.01
412.025	111.01
412.249	107.81
412.472	111.41
412.695	109.61
412.919	104.01
413.142	106.01
413.365	108.81
413.589	103.61
413.812	105.21
414.035	112.21
414.258	112.41
414.482	102.01
414.705	107.01
414.928	115.81
415.151	109.61
415.374	112.01
415.597	111.41
415.821	105.01
416.044	108.21
416.267	115.41
416.49	111.41
416.713	113.01
416.936	115.81
417.159	110.01
417.382	107.61
417.605	103.41
417.828	110.41
418.051	108.21
418.274	112.41
418.497	107.81
418.72	107.21
418.943	107.01
419.166	109.61
419.389	116.41
419.611	112.21
419.834	112.81
420.057	107.41
420.28	110.01
420.503	107.61
420.726	109.21
420.948	108.81
421.171	111.61
421.394	109.81
421.617	109.81
421.839	114.61
422.062	117.01
422.285	115.81
422.507	115.61
422.73	113.01
422.953	118.01
423.175	115.01
423.398	123.61
423.621	139.01
423.843	125.41
424.066	139.41
424.288	151.61
424.511	169.61
424.733	173.81
424.956	168.81
425.178	147.81
425.401	143.01
425.623	135.81
425.846	131.81
426.068	130.61
426.291	127.01
426.513	125.01
426.735	123.41
426.958	117.41
427.18	114.01
427.402	117.81
427.625	122.61
427.847	112.01
428.069	119.21
428.292	115.81
428.514	121.41
428.736	119.41
428.958	115.21
429.181	115.01
429.403	113.81
429.625	111.61
429.847	110.41
430.069	111.21
430.292	108.21
430.514	109.61
430.736	109.01
430.958	110.21
431.18	110.81
431.402	109.21
431.624	109.21
431.846	109.81
432.068	103.41
432.29	112.21
432.512	111.61
432.734	111.21
432.956	117.81
433.178	117.81
433.4	115.61
433.622	118.81
433.844	115.01
434.066	114.41
434.287	110.81
434.509	112.01
434.731	111.21
434.953	108.81
435.175	123.81
435.397	117.41
435.618	113.61
435.84	114.61
436.062	115.81
436.284	112.61
436.505	108.21
436.727	122.61
436.949	121.61
437.17	126.21
437.392	118.21
437.614	120.01
437.835	118.21
438.057	126.81
438.278	135.61
438.5	147.01
438.721	165.21
438.943	176.61
439.165	160.81
439.386	144.41
439.608	148.61
439.829	139.61
440.05	137.61
440.272	141.21
440.493	130.21
440.715	130.01
440.936	143.01
441.158	142.41
441.379	135.61
441.6	133.41
441.822	130.41
442.043	127.81
442.264	125.01
442.486	117.81
442.707	126.21
442.928	120.01
443.149	115.21
443.371	114.61
443.592	114.41
443.813	112.61
444.034	111.01
444.255	117.61
444.476	117.21
444.698	115.21
444.919	117.81
445.14	181.41
445.361	148.21
445.582	118.21
445.803	114.21
446.024	118.41
446.245	123.21
446.466	118.81
446.687	106.61
446.908	116.01
447.129	109.81
447.35	115.61
447.571	112.01
447.792	114.21
448.013	109.81
448.234	115.41
448.455	108.81
448.675	112.21
448.896	111.01
449.117	115.81
449.338	106.41
449.559	106.61
449.779	111.41
450	107.01
450.221	105.41
450.442	111.21
450.662	106.01
450.883	109.41
451.104	110.61
451.324	113.41
451.545	108.81
451.766	110.61
451.986	112.21
452.207	108.61
452.428	113.21
452.648	110.81
452.869	106.61
453.089	106.21
453.31	110.61
453.53	106.41
453.751	106.81
453.971	105.01
454.192	103.21
454.412	105.61
454.633	108.61
454.853	108.61
455.073	103.41
455.294	107.01
455.514	108.01
455.734	103.81
455.955	106.41
456.175	100.81
456.395	102.41
456.616	97.81
456.836	105.61
457.056	103.61
457.276	104.61
457.497	102.21
457.717	103.01
457.937	103.81
458.157	101.01
458.377	102.81
458.598	105.01
458.818	99.01
459.038	106.81
459.258	105.21
459.478	105.61
459.698	109.21
459.918	110.21
460.138	110.61
460.358	115.21
460.578	110.81
460.798	116.61
461.018	110.21
461.238	107.21
461.458	114.41
461.678	112.81
461.898	103.01
462.118	112.01
462.338	107.41
462.558	115.21
462.777	108.01
462.997	113.01
463.217	110.61
463.437	112.81
463.657	108.41
463.876	109.81
464.096	104.41
464.316	114.01
464.536	100.21
464.755	111.41
464.975	108.41
465.195	106.01
465.414	106.01
465.634	111.81
465.854	109.61
466.073	104.61
466.293	106.21
466.512	106.41
466.732	107.01
466.951	106.41
467.171	113.01
467.391	105.61
467.61	115.21
467.829	106.21
468.049	112.01
468.268	106.41
468.488	114.61
468.707	107.81
468.927	112.81
469.146	113.21
469.365	113.61
469.585	109.01
469.804	113.01
470.023	113.01
470.243	106.01
470.462	108.41
470.681	112.21
470.901	112.21
471.12	102.61
471.339	115.61
471.558	106.81
471.777	114.81
471.997	112.81
472.216	103.21
472.435	105.01
472.654	105.41
472.873	108.61
473.092	106.61
473.311	113.21
473.53	107.21
473.749	107.21
473.968	109.81
474.187	111.41
474.406	114.01
474.625	112.81
474.844	113.41
475.063	108.61
475.282	112.21
475.501	104.21
475.72	114.81
475.939	109.41
476.158	111.41
476.377	108.01
476.596	110.61
476.814	109.41
477.033	107.81
477.252	112.41
477.471	104.01
477.69	102.41
477.908	107.01
478.127	115.41
478.346	119.21
478.564	113.01
478.783	111.61
479.002	118.41
479.22	116.01
479.439	121.01
479.658	119.81
479.876	110.41
480.095	107.81
480.313	113.41
480.532	116.61
480.751	114.41
480.969	114.61
481.188	110.41
481.406	112.61
481.624	107.01
481.843	106.81
482.061	111.21
482.28	112.61
482.498	104.21
482.717	114.41
482.935	113.61
483.153	117.61
483.372	120.21
483.59	115.41
483.808	108.41
484.027	112.61
484.245	115.21
484.463	115.81
484.681	116.81
484.9	112.61
485.118	117.41
485.336	106.61
485.554	110.01
485.772	104.41
485.99	116.01
486.209	113.01
486.427	110.21
486.645	113.41
486.863	109.21
487.081	114.61
487.299	111.01
487.517	118.81
487.735	112.81
487.953	119.61
488.171	117.81
488.389	118.61
488.607	113.81
488.825	113.41
489.043	119.41
489.261	120.01
489.479	124.01
489.696	112.01
489.914	111.21
490.132	116.41
490.35	117.41
490.568	114.81
490.786	117.81
491.003	119.41
491.221	123.61
491.439	118.41
491.657	120.21
491.874	118.21
492.092	122.41
492.31	117.01
492.527	123.81
492.745	115.01
492.963	124.61
493.18	118.81
493.398	114.01
493.615	120.21
493.833	118.41
494.05	129.01
494.268	124.01
494.485	116.81
494.703	113.61
494.92	121.61
495.138	115.81
495.355	119.61
495.573	125.41
495.79	118.61
496.008	119.41
496.225	111.81
496.442	112.61
496.66	118.41
496.877	119.81
497.094	125.21
497.312	117.41
497.529	116.41
497.746	123.41
497.963	124.01
498.181	118.21
498.398	119.41
498.615	124.01
498.832	127.61
499.049	128.21
499.267	132.61
499.484	125.61
499.701	131.01
499.918	129.61
500.135	134.61
500.352	142.01
500.569	146.61
500.786	166.81
501.003	144.41
501.22	137.81
501.437	131.01
501.654	138.41
501.871	126.61
502.088	126.41
502.305	127.41
502.522	124.21
502.739	127.01
502.956	128.21
503.172	128.41
503.389	131.21
503.606	114.21
503.823	122.21
504.04	125.01
504.256	129.41
504.473	132.01
504.69	135.61
504.907	124.81
505.123	134.81
505.34	123.61
505.557	126.01
505.773	126.21
505.99	119.01
506.207	118.41
506.423	118.21
506.64	120.21
506.856	119.41
507.073	121.21
507.289	119.21
507.506	119.41
507.722	115.41
507.939	114.61
