Data from ZeroMicroDelayPb_HRD10591_00011.txt Node
Date: Mon Nov 24 14:24:55 EST 2025
User: Yrep
Spectrometer: HR+D1059
Trigger mode: 0
Integration Time (sec): 1.000000E-1
Scans to average: 5
Electric dark correction enabled: true
Nonlinearity correction enabled: false
Boxcar width: 0
XAxis mode: Wavelengths
Number of Pixels in Spectrum: 2048
>>>>>Begin Spectral Data<<<<<
223.165	-12.54
223.4	-12.54
223.635	-12.54
223.869	-21.54
224.104	-18.14
224.338	-20.94
224.573	-10.14
224.808	-18.14
225.042	-9.94
225.277	-15.14
225.511	-5.34
225.746	3.46
225.98	10.06
226.215	18.46
226.449	18.46
226.683	25.46
226.918	25.06
227.152	30.86
227.387	50.86
227.621	37.26
227.856	47.86
228.09	52.26
228.324	49.86
228.559	53.86
228.793	57.46
229.027	62.26
229.262	71.46
229.496	73.06
229.73	71.06
229.964	75.26
230.199	69.86
230.433	74.06
230.667	81.26
230.901	76.46
231.136	80.46
231.37	89.86
231.604	77.26
231.838	85.46
232.072	86.46
232.306	84.66
232.541	85.26
232.775	73.26
233.009	87.66
233.243	82.86
233.477	80.06
233.711	90.06
233.945	83.06
234.179	84.86
234.413	82.46
234.647	85.86
234.881	77.26
235.115	87.86
235.349	80.46
235.583	87.86
235.817	88.26
236.051	78.46
236.285	77.66
236.519	80.26
236.753	88.06
236.987	85.06
237.221	80.66
237.455	83.26
237.689	80.06
237.922	77.06
238.156	74.66
238.39	77.06
238.624	79.86
238.858	80.46
239.091	74.66
239.325	76.46
239.559	78.66
239.793	82.46
240.027	88.06
240.26	77.66
240.494	75.66
240.728	76.86
240.961	77.46
241.195	81.66
241.429	78.46
241.662	78.06
241.896	81.86
242.13	85.06
242.363	82.26
242.597	82.66
242.83	80.06
243.064	84.06
243.298	79.86
243.531	76.86
243.765	79.86
243.998	76.26
244.232	88.06
244.465	83.46
244.699	86.26
244.932	80.86
245.166	80.86
245.399	80.26
245.633	82.06
245.866	83.86
246.099	78.26
246.333	78.46
246.566	76.46
246.8	77.66
247.033	83.66
247.266	84.26
247.5	86.66
247.733	81.06
247.966	92.66
248.2	82.86
248.433	88.66
248.666	83.46
248.899	79.66
249.133	86.06
249.366	91.26
249.599	82.46
249.832	84.06
250.066	85.86
250.299	88.06
250.532	86.06
250.765	83.46
250.998	90.46
251.231	87.06
251.465	88.06
251.698	84.06
251.931	86.66
252.164	86.26
252.397	91.86
252.63	89.06
252.863	89.46
253.096	88.46
253.329	88.66
253.562	89.66
253.795	84.86
254.028	89.86
254.261	87.06
254.494	83.46
254.727	92.46
254.96	89.66
255.193	85.26
255.426	88.66
255.659	93.06
255.892	89.26
256.124	86.86
256.357	85.06
256.59	90.46
256.823	90.26
257.056	96.06
257.289	93.66
257.521	96.46
257.754	90.06
257.987	97.26
258.22	100.26
258.452	91.06
258.685	90.66
258.918	92.46
259.151	87.46
259.383	86.46
259.616	87.86
259.849	89.66
260.081	90.26
260.314	94.26
260.547	90.66
260.779	96.26
261.012	99.46
261.244	105.86
261.477	113.06
261.71	111.06
261.942	101.26
262.175	96.86
262.407	91.46
262.64	88.06
262.872	93.86
263.105	90.46
263.337	101.06
263.57	93.86
263.802	95.06
264.035	97.06
264.267	92.26
264.499	86.86
264.732	97.46
264.964	100.46
265.197	106.06
265.429	101.66
265.661	95.26
265.894	92.66
266.126	93.46
266.358	93.06
266.591	107.26
266.823	106.26
267.055	97.46
267.287	95.26
267.52	93.66
267.752	88.86
267.984	89.46
268.216	93.46
268.448	89.86
268.681	95.06
268.913	90.46
269.145	85.66
269.377	93.66
269.609	86.66
269.841	92.26
270.073	93.46
270.306	97.86
270.538	89.86
270.77	93.66
271.002	92.26
271.234	96.66
271.466	92.66
271.698	90.26
271.93	90.26
272.162	91.46
272.394	90.66
272.626	91.06
272.858	87.46
273.09	91.06
273.322	87.46
273.553	88.06
273.785	91.26
274.017	98.66
274.249	96.46
274.481	93.06
274.713	91.66
274.945	91.06
275.176	89.26
275.408	93.86
275.64	86.06
275.872	91.86
276.104	84.86
276.335	92.46
276.567	101.46
276.799	99.46
277.031	96.86
277.262	100.06
277.494	93.06
277.726	95.86
277.957	93.46
278.189	92.86
278.421	104.06
278.652	95.46
278.884	100.06
279.115	100.06
279.347	104.06
279.579	111.06
279.81	118.26
280.042	126.66
280.273	133.86
280.505	125.06
280.736	121.26
280.968	108.86
281.199	103.26
281.431	102.06
281.662	111.66
281.894	111.06
282.125	105.06
282.356	110.26
282.588	109.86
282.819	103.46
283.051	110.26
283.282	116.46
283.513	133.26
283.745	122.26
283.976	108.26
284.207	100.66
284.439	101.26
284.67	95.46
284.901	98.86
285.132	95.66
285.364	93.26
285.595	94.86
285.826	98.26
286.057	99.06
286.288	95.26
286.52	99.86
286.751	104.86
286.982	101.66
287.213	115.46
287.444	120.66
287.675	111.86
287.906	101.26
288.138	98.86
288.369	99.66
288.6	99.86
288.831	90.86
289.062	97.86
289.293	92.06
289.524	95.66
289.755	90.46
289.986	91.26
290.217	96.66
290.448	96.26
290.679	94.06
290.91	97.66
291.141	96.06
291.371	101.26
291.602	97.26
291.833	90.86
292.064	101.26
292.295	99.86
292.526	98.86
292.757	98.06
292.987	102.06
293.218	97.26
293.449	98.46
293.68	93.46
293.91	98.26
294.141	99.86
294.372	98.66
294.603	96.66
294.833	100.06
295.064	98.86
295.295	96.86
295.525	92.86
295.756	97.46
295.987	100.06
296.217	97.66
296.448	98.06
296.679	98.66
296.909	101.26
297.14	102.86
297.37	104.66
297.601	100.46
297.831	97.66
298.062	101.26
298.292	96.06
298.523	99.66
298.753	91.06
298.984	94.26
299.214	96.66
299.445	94.26
299.675	94.46
299.905	101.86
300.136	96.66
300.366	99.06
300.597	99.06
300.827	100.26
301.057	89.86
301.288	90.86
301.518	98.26
301.748	94.46
301.979	110.86
302.209	99.26
302.439	97.66
302.669	92.26
302.9	97.26
303.13	99.66
303.36	101.66
303.59	99.06
303.82	103.06
304.051	99.26
304.281	102.66
304.511	96.26
304.741	95.46
304.971	94.66
305.201	103.06
305.431	95.26
305.661	99.26
305.891	101.86
306.121	104.86
306.352	90.26
306.582	98.86
306.812	101.46
307.042	95.06
307.272	97.46
307.502	99.66
307.731	97.46
307.961	95.86
308.191	92.86
308.421	94.46
308.651	97.66
308.881	103.06
309.111	94.26
309.341	99.46
309.571	101.46
309.8	93.86
310.03	103.46
310.26	100.46
310.49	97.66
310.72	103.66
310.949	101.06
311.179	91.06
311.409	98.26
311.639	104.26
311.868	99.26
312.098	102.86
312.328	97.26
312.557	102.26
312.787	100.06
313.017	103.46
313.246	107.66
313.476	106.06
313.706	93.86
313.935	102.46
314.165	98.06
314.394	107.86
314.624	102.46
314.853	105.66
315.083	98.46
315.312	105.46
315.542	99.26
315.771	100.86
316.001	103.26
316.23	99.46
316.46	105.06
316.689	99.46
316.919	96.86
317.148	105.66
317.377	103.46
317.607	108.86
317.836	101.86
318.065	103.66
318.295	104.86
318.524	103.46
318.753	101.66
318.983	100.46
319.212	99.06
319.441	101.06
319.67	98.46
319.9	102.46
320.129	98.26
320.358	105.46
320.587	94.66
320.816	100.66
321.046	96.06
321.275	97.26
321.504	98.06
321.733	104.26
321.962	95.46
322.191	107.46
322.42	96.46
322.649	100.86
322.878	100.66
323.108	104.06
323.337	103.06
323.566	100.86
323.795	103.46
324.024	102.26
324.253	105.46
324.482	96.86
324.71	98.06
324.939	99.66
325.168	104.86
325.397	97.06
325.626	101.86
325.855	100.06
326.084	96.66
326.313	94.66
326.542	100.06
326.77	98.26
326.999	104.86
327.228	100.06
327.457	100.06
327.686	104.66
327.914	99.46
328.143	103.46
328.372	101.66
328.6	99.66
328.829	100.46
329.058	99.66
329.287	99.86
329.515	101.86
329.744	100.26
329.972	101.86
330.201	93.26
330.43	104.06
330.658	96.06
330.887	100.46
331.115	107.06
331.344	100.46
331.572	108.46
331.801	93.26
332.03	106.46
332.258	91.06
332.486	107.66
332.715	98.66
332.943	103.86
333.172	100.66
333.4	101.06
333.629	106.26
333.857	96.26
334.085	99.06
334.314	96.66
334.542	101.86
334.771	96.06
334.999	102.26
335.227	103.06
335.455	99.06
335.684	99.86
335.912	101.26
336.14	101.46
336.369	109.86
336.597	99.86
336.825	97.46
337.053	100.06
337.281	96.46
337.51	103.26
337.738	102.66
337.966	96.26
338.194	99.26
338.422	99.26
338.65	94.06
338.878	108.06
339.106	99.86
339.334	102.46
339.562	97.26
339.79	101.06
340.018	95.66
340.246	100.46
340.474	100.66
340.702	101.66
340.93	95.86
341.158	99.66
341.386	101.06
341.614	100.86
341.842	97.26
342.07	96.46
342.298	96.46
342.526	102.86
342.754	93.46
342.981	98.46
343.209	102.46
343.437	109.66
343.665	100.66
343.893	95.86
344.12	101.86
344.348	102.26
344.576	102.26
344.804	99.66
345.031	101.06
345.259	103.46
345.487	95.46
345.714	103.06
345.942	100.66
346.17	102.86
346.397	94.66
346.625	96.26
346.853	108.06
347.08	95.66
347.308	101.26
347.535	98.06
347.763	101.66
347.99	94.26
348.218	104.46
348.445	99.26
348.673	101.46
348.9	100.66
349.128	107.86
349.355	97.66
349.583	99.06
349.81	98.06
350.037	98.06
350.265	97.46
350.492	101.26
350.72	100.86
350.947	102.26
351.174	106.66
351.402	97.26
351.629	92.26
351.856	94.46
352.083	98.46
352.311	97.46
352.538	108.86
352.765	105.46
352.992	107.26
353.22	99.66
353.447	97.46
353.674	108.86
353.901	108.46
354.128	105.46
354.355	96.06
354.583	101.66
354.81	102.66
355.037	99.86
355.264	97.26
355.491	103.86
355.718	101.86
355.945	106.86
356.172	105.46
356.399	104.66
356.626	103.66
356.853	109.46
357.08	136.86
357.307	150.66
357.534	149.26
357.761	132.86
357.988	122.86
358.215	120.86
358.441	106.26
358.668	111.46
358.895	112.06
359.122	96.46
359.349	104.26
359.576	104.46
359.802	97.86
360.029	105.86
360.256	106.06
360.483	94.06
360.709	102.86
360.936	105.46
361.163	106.46
361.39	103.06
361.616	101.66
361.843	99.46
362.07	98.46
362.296	96.06
362.523	100.26
362.749	106.06
362.976	104.66
363.203	101.46
363.429	115.46
363.656	131.06
363.882	155.46
364.109	170.66
364.335	147.86
364.562	134.06
364.788	109.06
365.015	105.86
365.241	103.86
365.468	112.46
365.694	104.66
365.92	103.06
366.147	107.06
366.373	102.86
366.599	103.66
366.826	112.66
367.052	119.86
367.278	123.26
367.505	126.06
367.731	133.86
367.957	137.26
368.184	164.26
368.41	196.86
368.636	181.66
368.862	145.26
369.089	118.86
369.315	117.86
369.541	115.06
369.767	110.66
369.993	110.06
370.219	105.46
370.445	112.26
370.672	106.86
370.898	101.66
371.124	102.26
371.35	98.26
371.576	100.86
371.802	102.66
372.028	106.26
372.254	104.86
372.48	97.86
372.706	96.86
372.932	108.46
373.158	105.86
373.384	115.46
373.61	125.06
373.835	138.66
374.061	154.06
374.287	142.86
374.513	125.66
374.739	118.26
374.965	110.46
375.191	118.06
375.416	111.86
375.642	110.46
375.868	102.46
376.094	100.06
376.319	93.86
376.545	101.26
376.771	105.26
376.997	103.06
377.222	100.26
377.448	103.26
377.674	105.06
377.899	102.26
378.125	105.26
378.35	100.46
378.576	109.86
378.802	101.06
379.027	105.86
379.253	108.66
379.478	106.26
379.704	103.06
379.929	105.66
380.155	101.06
380.38	96.86
380.606	96.46
380.831	100.86
381.057	103.66
381.282	95.46
381.507	94.06
381.733	108.26
381.958	99.26
382.184	108.26
382.409	105.06
382.634	101.06
382.86	105.86
383.085	106.06
383.31	105.26
383.535	110.86
383.761	99.86
383.986	95.06
384.211	99.26
384.436	102.46
384.662	103.06
384.887	98.66
385.112	105.46
385.337	105.86
385.562	101.26
385.787	101.26
386.013	102.46
386.238	112.86
386.463	105.46
386.688	112.26
386.913	102.66
387.138	105.06
387.363	108.66
387.588	107.26
387.813	104.26
388.038	107.26
388.263	101.66
388.488	99.66
388.713	104.06
388.938	104.46
389.163	101.26
389.387	100.46
389.612	104.46
389.837	108.46
390.062	104.66
390.287	107.86
390.512	102.26
390.736	98.26
390.961	100.06
391.186	102.86
391.411	105.86
391.636	109.86
391.86	103.26
392.085	101.46
392.31	103.86
392.534	102.26
392.759	112.06
392.984	104.26
393.208	95.26
393.433	100.06
393.658	100.06
393.882	102.86
394.107	98.26
394.331	109.46
394.556	98.86
394.78	104.86
395.005	102.66
395.229	106.26
395.454	100.06
395.678	99.46
395.903	104.66
396.127	101.06
396.352	108.06
396.576	101.46
396.801	106.26
397.025	102.46
397.249	96.66
397.474	107.66
397.698	103.86
397.922	105.46
398.147	105.06
398.371	113.86
398.595	110.06
398.82	106.06
399.044	100.66
399.268	103.46
399.492	114.86
399.717	109.06
399.941	116.06
400.165	109.66
400.389	108.26
400.613	110.06
400.837	100.06
401.062	106.06
401.286	105.06
401.51	103.26
401.734	116.46
401.958	117.86
402.182	120.66
402.406	113.86
402.63	112.66
402.854	107.66
403.078	114.06
403.302	119.66
403.526	105.86
403.75	111.26
403.974	111.06
404.198	112.86
404.422	114.46
404.645	116.06
404.869	119.66
405.093	132.66
405.317	145.06
405.541	184.06
405.765	252.06
405.988	272.86
406.212	228.46
406.436	178.86
406.66	148.66
406.883	136.46
407.107	131.66
407.331	129.06
407.555	121.86
407.778	121.86
408.002	118.06
408.226	116.66
408.449	118.46
408.673	111.26
408.896	115.46
409.12	118.46
409.344	111.46
409.567	112.46
409.791	112.86
410.014	112.26
410.238	114.26
410.461	108.66
410.685	109.86
410.908	110.06
411.132	113.86
411.355	103.26
411.578	108.86
411.802	115.06
412.025	111.46
412.249	103.06
412.472	107.26
412.695	105.86
412.919	104.66
413.142	100.06
413.365	109.86
413.589	112.06
413.812	104.46
414.035	109.46
414.258	111.26
414.482	105.06
414.705	103.46
414.928	110.06
415.151	108.86
415.374	115.86
415.597	109.46
415.821	107.46
416.044	107.06
416.267	107.66
416.49	108.06
416.713	108.86
416.936	116.46
417.159	106.06
417.382	105.86
417.605	116.06
417.828	114.46
418.051	114.66
418.274	111.86
418.497	111.06
418.72	112.46
418.943	108.66
419.166	109.06
419.389	111.06
419.611	108.86
419.834	109.66
420.057	107.66
420.28	110.46
420.503	106.66
420.726	111.46
420.948	111.46
421.171	109.26
421.394	110.66
421.617	113.26
421.839	117.26
422.062	115.86
422.285	112.46
422.507	117.46
422.73	107.46
422.953	119.86
423.175	110.06
423.398	120.66
423.621	122.66
423.843	129.26
424.066	132.46
424.288	141.86
424.511	159.46
424.733	170.86
424.956	161.06
425.178	152.26
425.401	137.46
425.623	138.46
425.846	137.46
426.068	125.26
426.291	128.86
426.513	122.86
426.735	113.86
426.958	121.46
427.18	118.66
427.402	121.86
427.625	113.86
427.847	112.66
428.069	117.06
428.292	115.86
428.514	112.66
428.736	111.26
428.958	110.26
429.181	117.06
429.403	115.06
429.625	109.06
429.847	111.66
430.069	110.26
430.292	114.66
430.514	102.66
430.736	108.06
430.958	107.66
431.18	109.86
431.402	109.46
431.624	110.86
431.846	103.26
432.068	110.26
432.29	111.66
432.512	111.66
432.734	108.06
432.956	116.66
433.178	113.26
433.4	112.86
433.622	106.26
433.844	112.26
434.066	115.86
434.287	116.86
434.509	110.66
434.731	112.26
434.953	112.06
435.175	113.46
435.397	117.26
435.618	108.06
435.84	114.66
436.062	112.66
436.284	111.86
436.505	111.26
436.727	110.66
436.949	114.46
437.17	120.86
437.392	114.06
437.614	116.46
437.835	118.46
438.057	130.86
438.278	137.86
438.5	145.06
438.721	154.26
438.943	166.86
439.165	150.66
439.386	141.86
439.608	143.86
439.829	131.86
440.05	135.86
440.272	128.06
440.493	130.66
440.715	133.66
440.936	138.26
441.158	137.46
441.379	130.06
441.6	126.06
441.822	123.26
442.043	126.46
442.264	126.26
442.486	115.06
442.707	115.46
442.928	112.46
443.149	120.66
443.371	124.26
443.592	121.06
443.813	120.66
444.034	120.06
444.255	116.06
444.476	117.66
444.698	116.46
444.919	116.06
445.14	176.06
445.361	138.26
445.582	116.66
445.803	109.86
446.024	113.86
446.245	121.06
446.466	118.66
446.687	118.06
446.908	111.26
447.129	110.46
447.35	116.26
447.571	108.46
447.792	108.66
448.013	110.66
448.234	106.86
448.455	114.46
448.675	113.06
448.896	109.06
449.117	112.66
449.338	111.66
449.559	114.66
449.779	106.26
450	111.06
450.221	107.46
450.442	113.46
450.662	111.26
450.883	108.26
451.104	114.66
451.324	104.06
451.545	110.86
451.766	111.86
451.986	111.46
452.207	108.06
452.428	106.46
452.648	104.26
452.869	100.86
453.089	106.66
453.31	106.06
453.53	111.46
453.751	110.26
453.971	105.46
454.192	108.26
454.412	109.66
454.633	109.46
454.853	109.06
455.073	105.26
455.294	107.86
455.514	108.66
455.734	109.26
455.955	103.26
456.175	104.06
456.395	103.06
456.616	98.46
456.836	108.06
457.056	102.86
457.276	106.06
457.497	103.26
457.717	106.46
457.937	104.06
458.157	103.66
458.377	100.86
458.598	109.86
458.818	100.86
459.038	104.66
459.258	102.66
459.478	103.26
459.698	105.86
459.918	108.86
460.138	102.66
460.358	111.86
460.578	106.06
460.798	104.66
461.018	109.46
461.238	104.46
461.458	109.46
461.678	101.06
461.898	108.26
462.118	107.66
462.338	107.26
462.558	117.26
462.777	117.86
462.997	111.06
463.217	109.06
463.437	110.46
463.657	102.86
463.876	103.66
464.096	115.26
464.316	107.26
464.536	112.06
464.755	112.06
464.975	111.26
465.195	111.26
465.414	112.06
465.634	106.46
465.854	107.26
466.073	109.46
466.293	104.06
466.512	101.86
466.732	106.06
466.951	109.86
467.171	107.46
467.391	105.26
467.61	110.66
467.829	104.86
468.049	104.86
468.268	101.86
468.488	104.26
468.707	107.86
468.927	107.86
469.146	102.46
469.365	108.46
469.585	111.46
469.804	114.06
470.023	113.06
470.243	111.66
470.462	109.26
470.681	112.06
470.901	113.26
471.12	112.86
471.339	109.66
471.558	108.86
471.777	114.06
471.997	110.26
472.216	114.86
472.435	100.06
472.654	104.26
472.873	105.86
473.092	107.66
473.311	110.46
473.53	110.86
473.749	110.26
473.968	105.66
474.187	114.06
474.406	104.26
474.625	107.46
474.844	105.06
475.063	107.86
475.282	104.46
475.501	110.46
475.72	114.66
475.939	112.86
476.158	110.86
476.377	105.46
476.596	108.86
476.814	110.86
477.033	108.86
477.252	104.06
477.471	105.46
477.69	108.86
477.908	111.06
478.127	107.86
478.346	115.06
478.564	114.46
478.783	115.06
479.002	114.86
479.22	119.46
479.439	115.46
479.658	106.86
479.876	115.06
480.095	108.06
480.313	114.26
480.532	117.86
480.751	118.66
480.969	110.66
481.188	108.26
481.406	112.26
481.624	104.06
481.843	102.06
482.061	105.26
482.28	110.46
482.498	110.06
482.717	105.86
482.935	109.06
483.153	117.46
483.372	114.66
483.59	115.86
483.808	116.26
484.027	114.86
484.245	111.26
484.463	117.66
484.681	120.46
484.9	116.46
485.118	108.66
485.336	110.46
485.554	108.06
485.772	111.66
485.99	110.06
486.209	111.26
486.427	107.06
486.645	109.06
486.863	109.06
487.081	112.46
487.299	106.66
487.517	113.86
487.735	119.86
487.953	120.66
488.171	119.66
488.389	119.46
488.607	112.26
488.825	110.66
489.043	107.86
489.261	112.26
489.479	115.46
489.696	114.66
489.914	118.66
490.132	118.66
490.35	120.26
490.568	122.46
490.786	117.66
491.003	115.46
491.221	120.06
491.439	118.46
491.657	118.06
491.874	132.46
492.092	125.26
492.31	122.06
492.527	124.26
492.745	119.26
492.963	121.86
493.18	121.86
493.398	118.06
493.615	112.06
493.833	115.26
494.05	117.46
494.268	116.26
494.485	116.66
494.703	114.26
494.92	117.66
495.138	124.06
495.355	123.46
495.573	124.06
495.79	116.66
496.008	122.26
496.225	118.66
496.442	118.06
496.66	121.46
496.877	123.26
497.094	125.26
497.312	118.86
497.529	118.26
497.746	116.46
497.963	120.46
498.181	122.86
498.398	117.26
498.615	123.66
498.832	121.86
499.049	123.66
499.267	131.26
499.484	129.86
499.701	135.46
499.918	136.26
500.135	132.66
500.352	136.06
500.569	154.86
500.786	155.86
501.003	138.86
501.22	136.06
501.437	132.26
501.654	128.06
501.871	128.86
502.088	129.26
502.305	127.46
502.522	127.46
502.739	126.86
502.956	125.66
503.172	122.86
503.389	127.06
503.606	126.26
503.823	129.06
504.04	124.46
504.256	132.66
504.473	130.86
504.69	129.66
504.907	134.46
505.123	126.06
505.34	126.46
505.557	129.26
505.773	127.06
505.99	119.26
506.207	124.66
506.423	120.86
506.64	120.66
506.856	124.66
507.073	115.26
507.289	115.46
507.506	117.66
507.722	117.26
507.939	114.86
