Data from ZeroMicroDelayPb_HRD10591_00007.txt Node
Date: Mon Nov 24 14:24:53 EST 2025
User: Yrep
Spectrometer: HR+D1059
Trigger mode: 0
Integration Time (sec): 1.000000E-1
Scans to average: 5
Electric dark correction enabled: true
Nonlinearity correction enabled: false
Boxcar width: 0
XAxis mode: Wavelengths
Number of Pixels in Spectrum: 2048
>>>>>Begin Spectral Data<<<<<
223.165	-17.34
223.4	-17.34
223.635	-17.34
223.869	-15.14
224.104	-17.94
224.338	-10.54
224.573	-15.34
224.808	-13.54
225.042	-10.14
225.277	-8.74
225.511	-9.54
225.746	3.66
225.98	4.26
226.215	14.06
226.449	17.46
226.683	17.66
226.918	27.06
227.152	34.06
227.387	33.06
227.621	37.86
227.856	48.06
228.09	49.86
228.324	44.26
228.559	54.66
228.793	57.86
229.027	59.06
229.262	58.26
229.496	70.66
229.73	68.46
229.964	69.66
230.199	73.46
230.433	70.66
230.667	77.06
230.901	72.86
231.136	85.86
231.37	80.66
231.604	79.66
231.838	80.46
232.072	85.86
232.306	80.26
232.541	82.26
232.775	86.46
233.009	79.26
233.243	81.86
233.477	84.46
233.711	88.06
233.945	77.06
234.179	84.66
234.413	86.26
234.647	88.46
234.881	81.66
235.115	74.26
235.349	82.46
235.583	84.26
235.817	80.06
236.051	78.66
236.285	87.46
236.519	81.26
236.753	81.66
236.987	76.46
237.221	74.26
237.455	80.06
237.689	79.66
237.922	76.26
238.156	81.06
238.39	70.06
238.624	72.46
238.858	71.66
239.091	76.46
239.325	80.46
239.559	80.06
239.793	76.06
240.027	78.86
240.26	81.46
240.494	80.26
240.728	79.86
240.961	82.86
241.195	80.26
241.429	81.26
241.662	77.46
241.896	77.46
242.13	74.06
242.363	75.26
242.597	81.46
242.83	82.66
243.064	84.86
243.298	71.26
243.531	75.26
243.765	85.06
243.998	76.06
244.232	81.46
244.465	79.66
244.699	84.06
244.932	87.86
245.166	82.06
245.399	80.66
245.633	81.06
245.866	85.06
246.099	81.26
246.333	82.26
246.566	83.26
246.8	85.46
247.033	77.86
247.266	82.66
247.5	78.86
247.733	81.06
247.966	88.66
248.2	84.06
248.433	79.86
248.666	84.46
248.899	88.86
249.133	79.86
249.366	83.66
249.599	78.06
249.832	84.86
250.066	87.26
250.299	82.06
250.532	86.86
250.765	77.26
250.998	83.46
251.231	84.66
251.465	84.86
251.698	88.06
251.931	82.46
252.164	85.06
252.397	84.26
252.63	84.46
252.863	91.66
253.096	83.06
253.329	86.06
253.562	85.06
253.795	87.66
254.028	88.46
254.261	90.06
254.494	90.86
254.727	89.26
254.96	92.26
255.193	92.66
255.426	86.86
255.659	85.86
255.892	90.66
256.124	86.46
256.357	91.86
256.59	93.86
256.823	86.26
257.056	89.06
257.289	93.86
257.521	83.86
257.754	92.06
257.987	94.06
258.22	93.26
258.452	93.06
258.685	96.46
258.918	84.66
259.151	92.66
259.383	92.26
259.616	87.46
259.849	95.06
260.081	91.66
260.314	95.46
260.547	91.86
260.779	96.06
261.012	103.26
261.244	109.86
261.477	117.66
261.71	109.66
261.942	103.86
262.175	103.06
262.407	91.46
262.64	92.06
262.872	84.66
263.105	93.26
263.337	87.86
263.57	99.46
263.802	94.06
264.035	86.66
264.267	94.06
264.499	92.86
264.732	96.26
264.964	96.26
265.197	94.86
265.429	90.66
265.661	90.66
265.894	85.26
266.126	91.06
266.358	96.06
266.591	109.66
266.823	105.66
267.055	98.26
267.287	95.46
267.52	93.66
267.752	91.66
267.984	88.66
268.216	86.46
268.448	93.46
268.681	95.06
268.913	92.86
269.145	93.46
269.377	88.06
269.609	86.86
269.841	90.26
270.073	89.66
270.306	87.26
270.538	87.86
270.77	91.26
271.002	90.66
271.234	98.86
271.466	96.26
271.698	93.26
271.93	85.06
272.162	87.86
272.394	96.66
272.626	99.46
272.858	87.26
273.09	98.86
273.322	94.26
273.553	85.06
273.785	88.86
274.017	90.26
274.249	86.66
274.481	92.26
274.713	94.06
274.945	93.46
275.176	90.86
275.408	96.46
275.64	90.66
275.872	86.06
276.104	92.06
276.335	88.66
276.567	96.26
276.799	89.26
277.031	90.06
277.262	94.26
277.494	102.66
277.726	94.66
277.957	91.46
278.189	96.46
278.421	96.26
278.652	97.06
278.884	96.06
279.115	103.06
279.347	103.26
279.579	110.06
279.81	115.86
280.042	126.86
280.273	133.26
280.505	128.46
280.736	118.46
280.968	102.86
281.199	104.86
281.431	100.26
281.662	104.66
281.894	99.86
282.125	103.26
282.356	113.66
282.588	109.66
282.819	108.06
283.051	111.26
283.282	119.66
283.513	129.26
283.745	119.66
283.976	105.86
284.207	106.46
284.439	104.06
284.67	97.06
284.901	99.86
285.132	93.66
285.364	98.26
285.595	96.06
285.826	95.26
286.057	95.06
286.288	90.86
286.52	91.26
286.751	93.66
286.982	105.66
287.213	113.26
287.444	128.86
287.675	111.06
287.906	105.06
288.138	93.26
288.369	95.66
288.6	92.66
288.831	96.06
289.062	100.86
289.293	94.66
289.524	92.66
289.755	97.06
289.986	92.86
290.217	101.26
290.448	91.06
290.679	94.86
290.91	101.46
291.141	95.06
291.371	94.46
291.602	99.26
291.833	94.46
292.064	88.46
292.295	92.86
292.526	93.46
292.757	94.66
292.987	89.06
293.218	95.86
293.449	91.06
293.68	99.66
293.91	95.26
294.141	94.86
294.372	93.46
294.603	93.86
294.833	94.66
295.064	94.66
295.295	97.26
295.525	97.26
295.756	94.66
295.987	91.46
296.217	97.26
296.448	98.06
296.679	95.06
296.909	93.46
297.14	100.06
297.37	100.46
297.601	95.46
297.831	92.46
298.062	93.46
298.292	95.26
298.523	91.26
298.753	93.06
298.984	98.66
299.214	96.46
299.445	100.06
299.675	98.06
299.905	103.06
300.136	87.46
300.366	94.26
300.597	94.86
300.827	93.26
301.057	95.66
301.288	101.86
301.518	98.86
301.748	97.26
301.979	109.06
302.209	98.06
302.439	101.06
302.669	97.26
302.9	98.26
303.13	90.26
303.36	96.26
303.59	105.26
303.82	102.06
304.051	95.26
304.281	99.26
304.511	104.66
304.741	101.06
304.971	94.06
305.201	98.46
305.431	96.66
305.661	102.06
305.891	90.86
306.121	98.06
306.352	97.26
306.582	99.46
306.812	95.46
307.042	95.66
307.272	99.46
307.502	99.66
307.731	91.86
307.961	95.26
308.191	93.86
308.421	98.06
308.651	101.86
308.881	95.06
309.111	100.26
309.341	96.06
309.571	89.46
309.8	95.06
310.03	94.26
310.26	93.46
310.49	102.06
310.72	95.66
310.949	100.66
311.179	98.86
311.409	103.06
311.639	99.46
311.868	105.66
312.098	93.86
312.328	99.86
312.557	96.06
312.787	97.66
313.017	91.66
313.246	97.86
313.476	96.66
313.706	107.06
313.935	100.46
314.165	99.86
314.394	108.46
314.624	107.26
314.853	105.06
315.083	100.06
315.312	102.66
315.542	100.26
315.771	99.86
316.001	102.66
316.23	97.46
316.46	104.26
316.689	103.46
316.919	99.06
317.148	104.66
317.377	105.06
317.607	100.66
317.836	99.46
318.065	102.66
318.295	99.86
318.524	109.06
318.753	97.06
318.983	103.06
319.212	97.06
319.441	102.06
319.67	96.86
319.9	99.06
320.129	98.86
320.358	95.46
320.587	97.66
320.816	103.86
321.046	97.26
321.275	104.26
321.504	99.46
321.733	92.46
321.962	101.26
322.191	102.66
322.42	99.06
322.649	101.86
322.878	98.66
323.108	97.26
323.337	98.06
323.566	93.46
323.795	98.26
324.024	104.06
324.253	97.26
324.482	102.06
324.71	97.46
324.939	98.46
325.168	101.26
325.397	102.86
325.626	101.06
325.855	88.46
326.084	94.86
326.313	96.86
326.542	100.66
326.77	94.46
326.999	98.06
327.228	87.86
327.457	95.26
327.686	99.26
327.914	105.46
328.143	97.86
328.372	99.26
328.6	101.86
328.829	99.46
329.058	98.26
329.287	98.26
329.515	93.86
329.744	105.66
329.972	92.06
330.201	98.86
330.43	92.26
330.658	95.06
330.887	94.66
331.115	100.26
331.344	105.06
331.572	105.66
331.801	104.26
332.03	105.06
332.258	101.06
332.486	106.46
332.715	98.26
332.943	99.66
333.172	101.26
333.4	103.66
333.629	96.06
333.857	96.26
334.085	105.26
334.314	94.26
334.542	91.86
334.771	99.46
334.999	106.06
335.227	98.66
335.455	97.26
335.684	99.86
335.912	96.66
336.14	105.46
336.369	98.46
336.597	100.06
336.825	100.86
337.053	98.46
337.281	96.26
337.51	93.86
337.738	97.46
337.966	105.46
338.194	100.86
338.422	100.06
338.65	103.66
338.878	102.86
339.106	104.46
339.334	102.46
339.562	97.46
339.79	102.66
340.018	99.06
340.246	90.26
340.474	95.06
340.702	96.46
340.93	97.46
341.158	98.66
341.386	97.86
341.614	97.66
341.842	93.26
342.07	100.86
342.298	98.06
342.526	96.26
342.754	93.46
342.981	91.26
343.209	89.66
343.437	106.66
343.665	103.86
343.893	113.26
344.12	97.66
344.348	94.46
344.576	98.26
344.804	97.26
345.031	100.66
345.259	102.86
345.487	93.06
345.714	95.06
345.942	101.46
346.17	100.46
346.397	95.66
346.625	99.46
346.853	101.26
347.08	94.46
347.308	93.86
347.535	100.66
347.763	89.66
347.99	102.06
348.218	102.86
348.445	96.66
348.673	96.66
348.9	95.46
349.128	105.06
349.355	91.66
349.583	100.66
349.81	97.46
350.037	98.86
350.265	102.66
350.492	99.66
350.72	96.06
350.947	94.46
351.174	101.46
351.402	102.06
351.629	93.66
351.856	95.06
352.083	87.86
352.311	95.26
352.538	96.46
352.765	104.46
352.992	98.86
353.22	98.06
353.447	92.26
353.674	99.46
353.901	103.66
354.128	92.66
354.355	96.46
354.583	98.26
354.81	99.86
355.037	99.06
355.264	99.06
355.491	99.46
355.718	98.46
355.945	100.86
356.172	101.06
356.399	106.46
356.626	112.86
356.853	109.46
357.08	124.66
357.307	153.46
357.534	146.46
357.761	133.86
357.988	112.46
358.215	116.86
358.441	119.06
358.668	108.86
358.895	100.86
359.122	106.46
359.349	103.66
359.576	102.46
359.802	98.66
360.029	103.06
360.256	100.06
360.483	97.66
360.709	103.26
360.936	109.66
361.163	102.66
361.39	102.46
361.616	99.86
361.843	96.06
362.07	104.46
362.296	104.86
362.523	99.86
362.749	101.66
362.976	103.66
363.203	108.06
363.429	109.86
363.656	133.46
363.882	159.46
364.109	171.46
364.335	143.26
364.562	125.06
364.788	113.86
365.015	106.46
365.241	97.46
365.468	104.26
365.694	98.86
365.92	101.86
366.147	101.26
366.373	100.46
366.599	106.06
366.826	105.66
367.052	117.06
367.278	123.66
367.505	120.86
367.731	121.06
367.957	135.86
368.184	172.26
368.41	197.66
368.636	191.26
368.862	142.66
369.089	123.46
369.315	114.06
369.541	111.06
369.767	106.06
369.993	106.66
370.219	101.86
370.445	99.46
370.672	106.26
370.898	106.66
371.124	102.46
371.35	102.06
371.576	102.66
371.802	107.66
372.028	100.26
372.254	111.26
372.48	101.46
372.706	102.86
372.932	102.66
373.158	95.66
373.384	114.26
373.61	124.26
373.835	138.66
374.061	150.46
374.287	143.06
374.513	113.46
374.739	111.66
374.965	109.46
375.191	105.46
375.416	105.26
375.642	102.46
375.868	102.46
376.094	104.86
376.319	101.66
376.545	99.46
376.771	101.06
376.997	97.06
377.222	100.66
377.448	101.46
377.674	101.46
377.899	99.26
378.125	94.46
378.35	101.86
378.576	105.66
378.802	96.66
379.027	112.26
379.253	100.46
379.478	99.86
379.704	105.66
379.929	95.86
380.155	99.06
380.38	100.66
380.606	98.46
380.831	100.66
381.057	101.06
381.282	101.26
381.507	102.06
381.733	100.86
381.958	98.86
382.184	99.46
382.409	97.06
382.634	96.46
382.86	96.26
383.085	100.26
383.31	98.06
383.535	96.86
383.761	104.26
383.986	98.26
384.211	99.66
384.436	101.46
384.662	96.66
384.887	102.86
385.112	102.26
385.337	105.66
385.562	95.86
385.787	101.46
386.013	102.86
386.238	97.26
386.463	104.66
386.688	106.46
386.913	102.46
387.138	99.86
387.363	97.26
387.588	102.86
387.813	107.46
388.038	98.46
388.263	101.26
388.488	107.66
388.713	97.46
388.938	102.66
389.163	102.66
389.387	102.06
389.612	100.46
389.837	98.66
390.062	100.06
390.287	100.06
390.512	93.06
390.736	100.26
390.961	95.86
391.186	99.66
391.411	99.66
391.636	103.06
391.86	100.46
392.085	92.06
392.31	102.26
392.534	100.86
392.759	103.86
392.984	97.86
393.208	97.66
393.433	98.66
393.658	96.26
393.882	103.26
394.107	98.86
394.331	100.66
394.556	98.66
394.78	100.66
395.005	101.86
395.229	102.66
395.454	107.66
395.678	98.26
395.903	97.66
396.127	98.06
396.352	98.26
396.576	96.26
396.801	109.26
397.025	106.86
397.249	105.86
397.474	106.46
397.698	100.46
397.922	106.46
398.147	95.86
398.371	99.46
398.595	106.46
398.82	104.86
399.044	105.46
399.268	105.86
399.492	108.66
399.717	108.66
399.941	111.66
400.165	107.06
400.389	111.86
400.613	101.66
400.837	106.46
401.062	105.66
401.286	108.66
401.51	109.86
401.734	114.46
401.958	116.46
402.182	112.66
402.406	102.66
402.63	105.46
402.854	116.46
403.078	102.06
403.302	104.86
403.526	109.86
403.75	111.26
403.974	107.26
404.198	113.46
404.422	105.46
404.645	119.46
404.869	119.46
405.093	125.06
405.317	143.26
405.541	188.46
405.765	247.86
405.988	278.86
406.212	222.46
406.436	170.86
406.66	150.06
406.883	133.66
407.107	120.46
407.331	121.66
407.555	121.06
407.778	116.86
408.002	115.06
408.226	113.26
408.449	116.66
408.673	119.26
408.896	110.26
409.12	113.86
409.344	111.66
409.567	104.06
409.791	111.46
410.014	105.86
410.238	113.66
410.461	104.66
410.685	110.26
410.908	105.46
411.132	109.46
411.355	110.06
411.578	111.46
411.802	111.06
412.025	110.26
412.249	116.26
412.472	107.26
412.695	107.46
412.919	105.86
413.142	106.26
413.365	103.26
413.589	105.06
413.812	107.46
414.035	105.86
414.258	102.86
414.482	107.66
414.705	106.26
414.928	113.66
415.151	108.86
415.374	104.26
415.597	106.86
415.821	107.26
416.044	105.06
416.267	102.46
416.49	110.86
416.713	111.26
416.936	119.26
417.159	108.66
417.382	105.66
417.605	111.66
417.828	108.06
418.051	105.46
418.274	108.06
418.497	106.06
418.72	107.66
418.943	107.46
419.166	109.06
419.389	104.06
419.611	108.86
419.834	105.06
420.057	104.66
420.28	109.26
420.503	110.26
420.726	113.06
420.948	102.86
421.171	107.66
421.394	108.06
421.617	108.66
421.839	102.26
422.062	113.06
422.285	111.26
422.507	112.86
422.73	110.46
422.953	117.66
423.175	116.86
423.398	115.06
423.621	116.66
423.843	122.26
424.066	137.06
424.288	144.26
424.511	162.06
424.733	168.86
424.956	152.26
425.178	145.26
425.401	143.26
425.623	139.86
425.846	126.46
426.068	129.46
426.291	126.06
426.513	119.26
426.735	116.86
426.958	118.66
427.18	119.86
427.402	119.26
427.625	116.86
427.847	110.46
428.069	113.06
428.292	113.46
428.514	111.66
428.736	110.66
428.958	109.66
429.181	108.06
429.403	106.86
429.625	110.66
429.847	110.66
430.069	106.86
430.292	112.06
430.514	106.86
430.736	110.86
430.958	110.46
431.18	108.86
431.402	108.06
431.624	103.86
431.846	103.06
432.068	107.66
432.29	103.46
432.512	109.66
432.734	108.46
432.956	99.46
433.178	111.66
433.4	105.86
433.622	109.66
433.844	109.86
434.066	114.66
434.287	105.26
434.509	106.86
434.731	104.66
434.953	109.26
435.175	111.06
435.397	110.26
435.618	108.46
435.84	108.06
436.062	113.46
436.284	110.66
436.505	111.26
436.727	105.86
436.949	114.66
437.17	120.26
437.392	116.46
437.614	112.66
437.835	113.26
438.057	123.06
438.278	134.06
438.5	141.66
438.721	159.66
438.943	166.26
439.165	146.26
439.386	144.46
439.608	140.26
439.829	134.66
440.05	138.66
440.272	131.46
440.493	127.06
440.715	128.86
440.936	137.86
441.158	139.06
441.379	125.46
441.6	131.26
441.822	125.66
442.043	122.86
442.264	122.06
442.486	118.46
442.707	113.06
442.928	116.26
443.149	121.86
443.371	119.86
443.592	116.86
443.813	113.46
444.034	115.86
444.255	115.46
444.476	113.26
444.698	113.46
444.919	116.46
445.14	186.06
445.361	148.86
445.582	109.06
445.803	111.86
446.024	111.86
446.245	115.06
446.466	112.46
446.687	109.86
446.908	116.06
447.129	110.66
447.35	108.06
447.571	116.26
447.792	111.06
448.013	108.06
448.234	115.26
448.455	107.26
448.675	108.06
448.896	102.06
449.117	109.26
449.338	109.26
449.559	116.26
449.779	109.46
450	113.06
450.221	112.86
450.442	110.66
450.662	108.46
450.883	111.46
451.104	108.86
451.324	101.66
451.545	108.46
451.766	104.86
451.986	109.06
452.207	110.46
452.428	109.66
452.648	109.26
452.869	109.06
453.089	101.26
453.31	101.86
453.53	103.66
453.751	100.26
453.971	98.46
454.192	102.06
454.412	105.06
454.633	103.66
454.853	110.86
455.073	99.86
455.294	103.66
455.514	101.86
455.734	103.86
455.955	107.06
456.175	101.66
456.395	99.86
456.616	98.66
456.836	101.66
457.056	104.66
457.276	100.46
457.497	100.46
457.717	94.86
457.937	106.06
458.157	99.86
458.377	100.26
458.598	100.66
458.818	98.66
459.038	101.06
459.258	91.46
459.478	102.26
459.698	103.46
459.918	111.86
460.138	106.06
460.358	105.26
460.578	110.66
460.798	105.26
461.018	107.66
461.238	107.66
461.458	105.86
461.678	108.46
461.898	106.66
462.118	99.66
462.338	110.06
462.558	105.06
462.777	106.46
462.997	107.46
463.217	102.46
463.437	107.86
463.657	102.46
463.876	101.86
464.096	112.26
464.316	104.66
464.536	108.26
464.755	100.86
464.975	111.06
465.195	106.26
465.414	105.46
465.634	99.46
465.854	101.86
466.073	100.66
466.293	106.06
466.512	102.46
466.732	101.66
466.951	103.46
467.171	110.46
467.391	108.46
467.61	108.66
467.829	105.66
468.049	108.86
468.268	106.66
468.488	105.06
468.707	102.66
468.927	109.66
469.146	99.66
469.365	99.86
469.585	116.46
469.804	104.26
470.023	106.86
470.243	105.06
470.462	104.86
470.681	108.46
470.901	108.66
471.12	107.26
471.339	112.46
471.558	108.66
471.777	113.26
471.997	112.66
472.216	100.66
472.435	99.66
472.654	102.86
472.873	106.66
473.092	109.86
473.311	104.46
473.53	107.26
473.749	106.46
473.968	110.66
474.187	102.06
474.406	108.86
474.625	98.86
474.844	109.06
475.063	109.66
475.282	101.06
475.501	107.06
475.72	107.06
475.939	108.66
476.158	105.46
476.377	103.26
476.596	110.86
476.814	105.86
477.033	108.26
477.252	106.66
477.471	117.46
477.69	113.66
477.908	108.86
478.127	111.06
478.346	110.66
478.564	110.26
478.783	116.06
479.002	119.86
479.22	113.26
479.439	117.06
479.658	119.46
479.876	110.06
480.095	103.46
480.313	112.46
480.532	103.66
480.751	113.86
480.969	105.06
481.188	107.66
481.406	107.46
481.624	113.06
481.843	115.06
482.061	103.86
482.28	115.46
482.498	108.66
482.717	114.66
482.935	113.46
483.153	111.66
483.372	114.46
483.59	110.66
483.808	107.26
484.027	110.66
484.245	109.06
484.463	115.46
484.681	114.06
484.9	110.46
485.118	120.06
485.336	114.46
485.554	105.06
485.772	107.06
485.99	101.66
486.209	106.06
486.427	109.06
486.645	110.86
486.863	110.26
487.081	104.26
487.299	109.26
487.517	116.26
487.735	117.86
487.953	116.46
488.171	115.06
488.389	113.06
488.607	112.26
488.825	111.26
489.043	108.06
489.261	111.06
489.479	109.46
489.696	111.86
489.914	115.86
490.132	114.66
490.35	111.46
490.568	107.86
490.786	119.66
491.003	116.06
491.221	121.26
491.439	113.86
491.657	119.86
491.874	118.46
492.092	123.26
492.31	119.86
492.527	121.26
492.745	118.66
492.963	118.06
493.18	117.06
493.398	114.26
493.615	117.86
493.833	121.66
494.05	116.26
494.268	116.46
494.485	122.86
494.703	118.06
494.92	114.46
495.138	112.06
495.355	119.66
495.573	126.06
495.79	114.46
496.008	119.06
496.225	117.46
496.442	121.46
496.66	117.66
496.877	122.66
497.094	120.06
497.312	115.66
497.529	111.66
497.746	111.66
497.963	117.06
498.181	119.06
498.398	115.26
498.615	122.06
498.832	125.46
499.049	117.66
499.267	118.26
499.484	124.06
499.701	125.06
499.918	130.06
500.135	132.66
500.352	133.46
500.569	151.66
500.786	161.46
501.003	141.06
501.22	139.26
501.437	129.06
501.654	134.26
501.871	129.06
502.088	124.06
502.305	130.66
502.522	119.26
502.739	122.66
502.956	125.86
503.172	119.46
503.389	122.66
503.606	120.46
503.823	120.46
504.04	128.26
504.256	126.86
504.473	125.26
504.69	127.26
504.907	127.86
505.123	119.86
505.34	123.66
505.557	128.66
505.773	126.26
505.99	123.66
506.207	115.66
506.423	120.86
506.64	114.66
506.856	118.66
507.073	116.86
507.289	109.46
507.506	109.26
507.722	109.26
507.939	120.06
508.155	109.86
508.372	107.26
508.588	111.06
508.805	109.06
509.021	118.26
509.238	116.26
