Data from ZeroMicroDelayPb_HRD10591_00012.txt Node
Date: Mon Nov 24 14:24:55 EST 2025
User: Yrep
Spectrometer: HR+D1059
Trigger mode: 0
Integration Time (sec): 1.000000E-1
Scans to average: 5
Electric dark correction enabled: true
Nonlinearity correction enabled: false
Boxcar width: 0
XAxis mode: Wavelengths
Number of Pixels in Spectrum: 2048
>>>>>Begin Spectral Data<<<<<
223.165	-20.39
223.4	-20.39
223.635	-20.39
223.869	-15.79
224.104	-19.59
224.338	-12.39
224.573	-10.39
224.808	-15.79
225.042	-12.99
225.277	-1.99
225.511	-2.99
225.746	1.81
225.98	11.41
226.215	15.01
226.449	14.41
226.683	20.21
226.918	18.21
227.152	31.21
227.387	31.61
227.621	37.81
227.856	44.01
228.09	42.21
228.324	47.81
228.559	56.41
228.793	53.01
229.027	59.81
229.262	57.21
229.496	65.41
229.73	70.61
229.964	66.01
230.199	75.81
230.433	72.41
230.667	74.41
230.901	73.01
231.136	77.01
231.37	78.21
231.604	80.61
231.838	75.41
232.072	77.81
232.306	81.81
232.541	79.21
232.775	78.61
233.009	88.21
233.243	76.41
233.477	82.41
233.711	75.41
233.945	78.61
234.179	76.81
234.413	86.41
234.647	82.61
234.881	84.21
235.115	84.61
235.349	79.21
235.583	82.01
235.817	79.01
236.051	73.41
236.285	77.41
236.519	74.41
236.753	76.81
236.987	77.21
237.221	80.61
237.455	76.81
237.689	81.21
237.922	75.21
238.156	74.01
238.39	76.81
238.624	78.81
238.858	83.21
239.091	85.81
239.325	78.21
239.559	79.01
239.793	82.21
240.027	82.41
240.26	84.01
240.494	75.41
240.728	75.21
240.961	72.21
241.195	84.01
241.429	72.81
241.662	77.61
241.896	80.81
242.13	80.01
242.363	81.61
242.597	77.01
242.83	75.81
243.064	78.41
243.298	78.81
243.531	75.61
243.765	81.81
243.998	80.21
244.232	80.41
244.465	79.41
244.699	75.01
244.932	77.01
245.166	81.41
245.399	78.41
245.633	75.81
245.866	80.21
246.099	79.01
246.333	77.61
246.566	84.61
246.8	76.01
247.033	82.81
247.266	83.01
247.5	79.41
247.733	84.41
247.966	82.81
248.2	80.21
248.433	79.21
248.666	80.01
248.899	83.41
249.133	88.41
249.366	81.21
249.599	84.21
249.832	79.41
250.066	83.21
250.299	85.41
250.532	79.61
250.765	75.41
250.998	83.01
251.231	84.21
251.465	85.81
251.698	87.81
251.931	80.61
252.164	81.01
252.397	95.61
252.63	84.01
252.863	90.81
253.096	88.01
253.329	87.41
253.562	92.21
253.795	94.41
254.028	84.81
254.261	81.81
254.494	88.01
254.727	87.21
254.96	88.01
255.193	84.41
255.426	85.81
255.659	88.81
255.892	86.61
256.124	88.41
256.357	88.81
256.59	92.81
256.823	89.21
257.056	86.61
257.289	85.01
257.521	93.81
257.754	87.21
257.987	98.61
258.22	93.81
258.452	94.21
258.685	86.61
258.918	93.61
259.151	90.21
259.383	91.01
259.616	90.81
259.849	88.81
260.081	94.61
260.314	94.21
260.547	95.21
260.779	94.81
261.012	93.01
261.244	107.21
261.477	118.81
261.71	116.61
261.942	109.81
262.175	98.01
262.407	93.81
262.64	96.61
262.872	97.41
263.105	86.01
263.337	92.81
263.57	82.81
263.802	89.81
264.035	88.41
264.267	86.61
264.499	91.81
264.732	91.21
264.964	95.01
265.197	95.81
265.429	96.61
265.661	90.01
265.894	97.01
266.126	98.21
266.358	102.21
266.591	111.01
266.823	97.21
267.055	92.61
267.287	85.61
267.52	87.61
267.752	87.01
267.984	88.01
268.216	88.61
268.448	89.61
268.681	88.61
268.913	91.61
269.145	94.01
269.377	88.41
269.609	93.61
269.841	91.41
270.073	85.21
270.306	95.61
270.538	90.21
270.77	85.61
271.002	88.01
271.234	86.61
271.466	93.21
271.698	89.81
271.93	93.01
272.162	97.21
272.394	87.41
272.626	98.41
272.858	91.01
273.09	93.21
273.322	93.41
273.553	90.21
273.785	92.81
274.017	88.81
274.249	95.01
274.481	95.81
274.713	97.61
274.945	88.61
275.176	91.41
275.408	91.41
275.64	88.61
275.872	93.41
276.104	95.41
276.335	97.21
276.567	94.41
276.799	92.21
277.031	96.41
277.262	89.81
277.494	99.21
277.726	93.81
277.957	90.41
278.189	90.81
278.421	95.01
278.652	97.21
278.884	101.01
279.115	105.21
279.347	102.81
279.579	108.21
279.81	113.61
280.042	128.61
280.273	137.41
280.505	135.21
280.736	115.41
280.968	112.81
281.199	101.01
281.431	97.81
281.662	96.01
281.894	97.21
282.125	112.21
282.356	110.21
282.588	105.41
282.819	116.21
283.051	113.21
283.282	117.61
283.513	126.41
283.745	115.41
283.976	110.41
284.207	96.01
284.439	99.21
284.67	101.21
284.901	93.21
285.132	97.41
285.364	91.21
285.595	100.01
285.826	94.21
286.057	96.41
286.288	101.81
286.52	104.21
286.751	97.01
286.982	107.61
287.213	113.81
287.444	127.01
287.675	113.61
287.906	103.61
288.138	99.61
288.369	93.81
288.6	96.01
288.831	88.21
289.062	98.81
289.293	89.01
289.524	89.61
289.755	95.41
289.986	97.81
290.217	94.01
290.448	96.81
290.679	104.81
290.91	98.41
291.141	102.41
291.371	98.81
291.602	94.81
291.833	88.41
292.064	98.41
292.295	97.01
292.526	95.01
292.757	97.81
292.987	98.81
293.218	95.01
293.449	97.41
293.68	99.61
293.91	97.01
294.141	96.41
294.372	95.81
294.603	91.21
294.833	89.21
295.064	96.41
295.295	103.61
295.525	94.01
295.756	97.21
295.987	96.21
296.217	96.41
296.448	90.21
296.679	92.21
296.909	98.81
297.14	96.61
297.37	100.01
297.601	97.01
297.831	98.21
298.062	95.41
298.292	99.01
298.523	96.01
298.753	102.81
298.984	92.41
299.214	93.21
299.445	94.21
299.675	101.81
299.905	96.01
300.136	91.41
300.366	92.81
300.597	96.01
300.827	99.21
301.057	104.61
301.288	94.81
301.518	98.01
301.748	97.21
301.979	105.81
302.209	97.41
302.439	97.01
302.669	92.41
302.9	97.81
303.13	91.21
303.36	101.61
303.59	99.81
303.82	91.41
304.051	97.01
304.281	95.61
304.511	106.21
304.741	101.21
304.971	98.21
305.201	107.81
305.431	97.41
305.661	97.01
305.891	95.41
306.121	98.01
306.352	96.81
306.582	104.21
306.812	99.41
307.042	102.21
307.272	98.01
307.502	96.01
307.731	97.61
307.961	94.21
308.191	99.81
308.421	95.41
308.651	95.01
308.881	95.81
309.111	93.01
309.341	90.01
309.571	97.61
309.8	96.61
310.03	95.81
310.26	98.81
310.49	101.21
310.72	99.21
310.949	92.21
311.179	105.01
311.409	96.21
311.639	96.01
311.868	99.61
312.098	93.21
312.328	96.01
312.557	97.01
312.787	100.61
313.017	103.21
313.246	100.01
313.476	99.01
313.706	103.81
313.935	98.61
314.165	101.01
314.394	109.81
314.624	101.61
314.853	106.21
315.083	106.41
315.312	104.41
315.542	102.61
315.771	101.41
316.001	105.21
316.23	107.01
316.46	101.21
316.689	102.41
316.919	99.61
317.148	105.01
317.377	102.01
317.607	101.41
317.836	104.41
318.065	106.21
318.295	95.61
318.524	99.81
318.753	99.21
318.983	99.01
319.212	105.81
319.441	94.41
319.67	94.61
319.9	90.41
320.129	100.01
320.358	96.81
320.587	104.01
320.816	95.21
321.046	100.41
321.275	106.01
321.504	102.01
321.733	96.21
321.962	95.01
322.191	101.01
322.42	98.21
322.649	102.01
322.878	105.01
323.108	102.81
323.337	92.41
323.566	99.81
323.795	91.41
324.024	104.61
324.253	101.21
324.482	92.81
324.71	101.81
324.939	101.21
325.168	106.21
325.397	97.41
325.626	101.01
325.855	99.81
326.084	102.41
326.313	100.41
326.542	96.21
326.77	100.21
326.999	107.21
327.228	97.81
327.457	100.01
327.686	97.81
327.914	92.81
328.143	106.01
328.372	102.81
328.6	101.01
328.829	101.81
329.058	92.41
329.287	101.21
329.515	102.01
329.744	104.61
329.972	99.21
330.201	94.41
330.43	103.41
330.658	99.01
330.887	103.01
331.115	102.21
331.344	100.61
331.572	103.41
331.801	98.81
332.03	97.81
332.258	102.61
332.486	100.01
332.715	95.41
332.943	103.01
333.172	100.41
333.4	100.61
333.629	101.21
333.857	96.01
334.085	94.41
334.314	102.21
334.542	93.21
334.771	95.01
334.999	100.41
335.227	106.21
335.455	101.01
335.684	102.61
335.912	105.01
336.14	99.61
336.369	106.01
336.597	105.21
336.825	94.61
337.053	102.01
337.281	100.01
337.51	97.81
337.738	100.01
337.966	96.21
338.194	94.61
338.422	92.21
338.65	93.81
338.878	96.01
339.106	102.01
339.334	94.61
339.562	101.21
339.79	99.61
340.018	103.61
340.246	93.61
340.474	98.41
340.702	99.21
340.93	96.61
341.158	91.41
341.386	94.41
341.614	99.41
341.842	91.21
342.07	100.81
342.298	90.01
342.526	95.01
342.754	95.21
342.981	97.01
343.209	106.21
343.437	106.01
343.665	93.81
343.893	103.61
344.12	107.81
344.348	102.01
344.576	97.01
344.804	96.21
345.031	97.21
345.259	96.01
345.487	103.21
345.714	97.61
345.942	98.81
346.17	97.41
346.397	99.41
346.625	91.41
346.853	98.01
347.08	98.61
347.308	101.41
347.535	106.21
347.763	106.81
347.99	96.01
348.218	100.41
348.445	97.61
348.673	89.81
348.9	93.21
349.128	102.01
349.355	98.61
349.583	102.41
349.81	101.81
350.037	96.81
350.265	94.41
350.492	87.41
350.72	98.01
350.947	105.61
351.174	102.81
351.402	106.61
351.629	102.01
351.856	108.01
352.083	100.61
352.311	103.01
352.538	95.01
352.765	94.01
352.992	105.41
353.22	96.61
353.447	98.81
353.674	98.61
353.901	103.61
354.128	95.01
354.355	104.21
354.583	99.01
354.81	102.41
355.037	100.81
355.264	103.21
355.491	97.61
355.718	100.81
355.945	97.81
356.172	104.41
356.399	103.61
356.626	106.01
356.853	111.21
357.08	133.01
357.307	152.41
357.534	154.41
357.761	136.61
357.988	124.61
358.215	116.01
358.441	115.61
358.668	111.21
358.895	108.21
359.122	105.61
359.349	105.01
359.576	105.01
359.802	113.21
360.029	103.21
360.256	100.61
360.483	103.81
360.709	97.81
360.936	99.21
361.163	101.81
361.39	95.61
361.616	104.61
361.843	104.61
362.07	107.21
362.296	106.61
362.523	97.01
362.749	107.21
362.976	102.61
363.203	111.61
363.429	114.21
363.656	132.01
363.882	165.61
364.109	179.21
364.335	151.41
364.562	125.01
364.788	120.61
365.015	114.81
365.241	108.21
365.468	110.01
365.694	105.81
365.92	108.01
366.147	107.21
366.373	98.81
366.599	105.21
366.826	108.41
367.052	113.21
367.278	126.61
367.505	122.01
367.731	124.21
367.957	142.81
368.184	170.01
368.41	202.21
368.636	185.41
368.862	141.41
369.089	121.61
369.315	111.41
369.541	115.41
369.767	109.81
369.993	105.21
370.219	105.81
370.445	101.21
370.672	108.61
370.898	105.81
371.124	106.61
371.35	108.21
371.576	110.01
371.802	102.41
372.028	102.81
372.254	107.41
372.48	108.01
372.706	108.41
372.932	101.61
373.158	102.21
373.384	117.81
373.61	118.01
373.835	138.61
374.061	159.01
374.287	159.01
374.513	127.01
374.739	113.81
374.965	108.21
375.191	106.01
375.416	110.61
375.642	110.41
375.868	101.41
376.094	105.21
376.319	105.01
376.545	100.61
376.771	99.21
376.997	99.01
377.222	94.21
377.448	95.61
377.674	104.21
377.899	96.61
378.125	96.01
378.35	101.61
378.576	105.41
378.802	99.81
379.027	108.41
379.253	99.01
379.478	99.41
379.704	103.01
379.929	102.81
380.155	97.41
380.38	97.61
380.606	94.21
380.831	103.81
381.057	105.01
381.282	104.41
381.507	98.21
381.733	96.21
381.958	105.41
382.184	97.81
382.409	97.61
382.634	101.21
382.86	99.21
383.085	106.01
383.31	110.21
383.535	106.01
383.761	95.21
383.986	98.81
384.211	100.81
384.436	106.21
384.662	106.61
384.887	105.01
385.112	103.01
385.337	101.61
385.562	95.21
385.787	99.41
386.013	100.41
386.238	104.21
386.463	101.81
386.688	110.21
386.913	100.21
387.138	103.41
387.363	109.61
387.588	110.81
387.813	105.01
388.038	100.61
388.263	107.81
388.488	104.21
388.713	106.21
388.938	96.21
389.163	98.21
389.387	99.41
389.612	99.61
389.837	106.21
390.062	106.41
390.287	101.01
390.512	103.01
390.736	105.21
390.961	99.01
391.186	106.81
391.411	99.61
391.636	100.01
391.86	105.21
392.085	108.21
392.31	104.81
392.534	105.21
392.759	105.41
392.984	102.21
393.208	103.21
393.433	102.41
393.658	103.61
393.882	102.61
394.107	105.61
394.331	99.81
394.556	104.01
394.78	105.21
395.005	102.41
395.229	103.61
395.454	104.21
395.678	103.01
395.903	106.01
396.127	104.61
396.352	97.01
396.576	105.81
396.801	104.01
397.025	100.01
397.249	101.41
397.474	107.61
397.698	104.81
397.922	101.01
398.147	105.01
398.371	101.61
398.595	112.61
398.82	113.81
399.044	110.21
399.268	106.81
399.492	108.81
399.717	114.61
399.941	106.81
400.165	105.01
400.389	109.81
400.613	111.81
400.837	106.81
401.062	101.61
401.286	105.81
401.51	104.01
401.734	116.81
401.958	119.61
402.182	115.81
402.406	108.81
402.63	104.21
402.854	111.01
403.078	108.21
403.302	106.01
403.526	114.81
403.75	104.41
403.974	112.61
404.198	111.21
404.422	117.81
404.645	112.41
404.869	121.01
405.093	132.01
405.317	147.61
405.541	188.81
405.765	262.21
405.988	275.81
406.212	223.01
406.436	178.41
406.66	144.61
406.883	139.81
407.107	131.21
407.331	121.21
407.555	120.81
407.778	115.81
408.002	111.41
408.226	117.21
408.449	111.21
408.673	109.21
408.896	113.01
409.12	104.21
409.344	111.61
409.567	107.21
409.791	109.81
410.014	112.21
410.238	111.41
410.461	108.61
410.685	116.81
410.908	109.81
411.132	104.01
411.355	108.21
411.578	113.41
411.802	110.21
412.025	110.41
412.249	108.41
412.472	106.21
412.695	111.41
412.919	110.01
413.142	109.21
413.365	101.01
413.589	109.01
413.812	105.61
414.035	108.81
414.258	112.41
414.482	102.21
414.705	112.41
414.928	116.21
415.151	106.21
415.374	103.21
415.597	109.01
415.821	106.21
416.044	103.81
416.267	109.01
416.49	106.41
416.713	114.41
416.936	116.21
417.159	109.81
417.382	109.41
417.605	107.21
417.828	107.01
418.051	113.81
418.274	108.81
418.497	103.21
418.72	101.81
418.943	113.01
419.166	112.21
419.389	111.01
419.611	112.01
419.834	106.01
420.057	112.01
420.28	113.21
420.503	109.81
420.726	105.81
420.948	109.61
421.171	104.01
421.394	114.41
421.617	116.41
421.839	115.21
422.062	113.41
422.285	115.21
422.507	114.41
422.73	110.01
422.953	110.61
423.175	122.81
423.398	122.81
423.621	127.41
423.843	133.81
424.066	135.41
424.288	144.61
424.511	165.21
424.733	177.61
424.956	166.81
425.178	143.61
425.401	144.21
425.623	136.41
425.846	130.41
426.068	124.61
426.291	130.01
426.513	122.81
426.735	119.41
426.958	115.21
427.18	120.61
427.402	115.21
427.625	118.61
427.847	110.81
428.069	110.61
428.292	110.01
428.514	120.61
428.736	109.81
428.958	104.21
429.181	116.01
429.403	111.41
429.625	114.81
429.847	117.41
430.069	110.41
430.292	113.61
430.514	101.21
430.736	107.41
430.958	114.01
431.18	112.21
431.402	104.21
431.624	110.61
431.846	112.41
432.068	112.61
432.29	107.61
432.512	114.41
432.734	107.01
432.956	111.81
433.178	112.61
433.4	110.81
433.622	111.41
433.844	113.01
434.066	109.41
434.287	105.81
434.509	111.21
434.731	112.01
434.953	107.41
435.175	113.21
435.397	119.41
435.618	114.81
435.84	109.81
436.062	111.01
436.284	114.21
436.505	119.21
436.727	113.41
436.949	115.61
437.17	118.01
437.392	115.61
437.614	121.81
437.835	120.81
438.057	127.61
438.278	127.21
438.5	145.81
438.721	156.61
438.943	170.81
439.165	157.41
439.386	150.21
439.608	141.81
439.829	141.01
440.05	136.41
440.272	139.81
440.493	137.61
440.715	139.61
440.936	135.21
441.158	142.41
441.379	134.81
441.6	129.81
441.822	127.81
442.043	118.41
442.264	127.41
442.486	120.61
442.707	118.21
442.928	120.61
443.149	111.01
443.371	124.21
443.592	114.61
443.813	118.61
444.034	110.61
444.255	113.21
444.476	124.61
444.698	118.61
444.919	116.81
445.14	172.41
445.361	143.61
445.582	114.01
445.803	116.21
446.024	115.41
446.245	108.61
446.466	113.41
446.687	112.61
446.908	109.81
447.129	111.01
447.35	119.01
447.571	109.41
447.792	113.21
448.013	105.41
448.234	114.81
448.455	109.41
448.675	110.21
448.896	107.81
449.117	112.81
449.338	107.21
449.559	105.61
449.779	108.81
450	107.21
450.221	106.81
450.442	110.41
450.662	102.41
450.883	106.21
451.104	105.61
451.324	114.41
451.545	108.41
451.766	111.41
451.986	105.41
452.207	106.21
452.428	111.01
452.648	103.01
452.869	103.41
453.089	105.01
453.31	105.01
453.53	113.21
453.751	105.61
453.971	107.81
454.192	93.61
454.412	98.01
454.633	107.41
454.853	109.21
455.073	106.41
455.294	105.21
455.514	104.21
455.734	99.61
455.955	106.01
456.175	99.41
456.395	103.01
456.616	100.61
456.836	106.41
457.056	103.61
457.276	108.41
457.497	101.81
457.717	102.81
457.937	103.61
458.157	105.21
458.377	101.41
458.598	98.41
458.818	100.61
459.038	97.61
459.258	101.41
459.478	98.81
459.698	100.61
459.918	107.41
460.138	105.41
460.358	102.41
460.578	104.21
460.798	103.61
461.018	107.01
461.238	110.81
461.458	106.01
461.678	102.01
461.898	106.81
462.118	107.81
462.338	106.61
462.558	107.41
462.777	113.01
462.997	107.61
463.217	108.21
463.437	109.21
463.657	106.81
463.876	112.01
464.096	108.01
464.316	102.01
464.536	107.81
464.755	112.81
464.975	106.01
465.195	109.41
465.414	105.41
465.634	103.81
465.854	109.81
466.073	113.01
466.293	105.61
466.512	110.21
466.732	106.41
466.951	101.01
467.171	106.01
467.391	107.41
467.61	105.61
467.829	105.01
468.049	101.81
468.268	106.41
468.488	102.61
468.707	113.21
468.927	106.61
469.146	100.21
469.365	107.61
469.585	110.41
469.804	111.01
470.023	104.81
470.243	104.41
470.462	106.41
470.681	104.41
470.901	104.61
471.12	105.21
471.339	108.61
471.558	105.41
471.777	108.41
471.997	105.81
472.216	113.81
472.435	101.61
472.654	107.41
472.873	110.21
473.092	105.81
473.311	104.81
473.53	111.01
473.749	105.41
473.968	104.01
474.187	116.21
474.406	110.61
474.625	107.01
474.844	113.21
475.063	111.61
475.282	104.61
475.501	101.01
475.72	112.21
475.939	105.21
476.158	112.61
476.377	106.21
476.596	117.41
476.814	109.21
477.033	115.21
477.252	109.61
477.471	110.61
477.69	110.81
477.908	106.21
478.127	112.41
478.346	109.81
478.564	113.61
478.783	111.81
479.002	116.21
479.22	113.41
479.439	111.61
479.658	113.21
479.876	114.61
480.095	107.21
480.313	119.41
480.532	114.41
480.751	110.81
480.969	113.21
481.188	106.61
481.406	113.61
481.624	107.21
481.843	110.81
482.061	108.01
482.28	108.61
482.498	113.81
482.717	109.61
482.935	118.21
483.153	115.81
483.372	113.61
483.59	120.21
483.808	106.41
484.027	118.21
484.245	108.81
484.463	113.61
484.681	119.41
484.9	123.81
485.118	121.61
485.336	110.01
485.554	113.21
485.772	109.81
485.99	111.81
486.209	114.01
486.427	107.41
486.645	112.01
486.863	116.61
487.081	121.01
487.299	110.21
487.517	114.01
487.735	108.41
487.953	119.21
488.171	118.41
488.389	119.81
488.607	111.41
488.825	109.21
489.043	112.01
489.261	118.01
489.479	114.21
489.696	121.41
489.914	119.01
490.132	114.41
490.35	115.61
490.568	116.41
490.786	118.41
491.003	117.41
491.221	117.21
491.439	120.21
491.657	114.41
491.874	120.01
492.092	118.81
492.31	125.41
492.527	124.81
492.745	120.21
492.963	114.21
493.18	120.81
493.398	125.41
493.615	115.21
493.833	113.41
494.05	116.21
494.268	117.61
494.485	119.81
494.703	117.41
494.92	116.61
495.138	112.01
495.355	123.61
495.573	123.21
495.79	119.81
496.008	119.61
496.225	122.81
496.442	119.81
496.66	124.21
496.877	113.41
497.094	120.61
497.312	124.81
497.529	115.01
497.746	122.41
497.963	124.61
498.181	115.21
498.398	118.61
498.615	125.81
498.832	122.21
499.049	124.41
499.267	127.01
499.484	127.01
499.701	121.81
499.918	137.61
500.135	135.41
500.352	135.01
500.569	150.41
500.786	164.01
501.003	139.21
501.22	134.61
501.437	130.01
501.654	128.21
501.871	123.61
502.088	131.21
502.305	131.81
502.522	122.21
502.739	122.81
502.956	124.81
503.172	117.01
503.389	124.41
503.606	124.01
503.823	123.01
504.04	131.21
504.256	127.41
504.473	133.81
504.69	127.61
504.907	134.21
505.123	130.61
505.34	130.41
505.557	122.01
505.773	126.61
505.99	120.61
506.207	114.61
506.423	122.61
506.64	118.21
506.856	114.41
507.073	115.81
507.289	122.21
507.506	117.21
507.722	114.21
507.939	121.21
508.155	118.01
508.372	115.61
508.588	116.41
