Data from ZeroMicroDelayPb_HRD10591_00005.txt Node
Date: Mon Nov 24 14:24:52 EST 2025
User: Yrep
Spectrometer: HR+D1059
Trigger mode: 0
Integration Time (sec): 1.000000E-1
Scans to average: 5
Electric dark correction enabled: true
Nonlinearity correction enabled: false
Boxcar width: 0
XAxis mode: Wavelengths
Number of Pixels in Spectrum: 2048
>>>>>Begin Spectral Data<<<<<
223.165	-13.86
223.4	-13.86
223.635	-13.86
223.869	-19.46
224.104	-20.26
224.338	-14.86
224.573	-13.26
224.808	-12.66
225.042	-11.26
225.277	-10.46
225.511	-2.66
225.746	6.74
225.98	5.54
226.215	8.94
226.449	18.34
226.683	27.14
226.918	25.54
227.152	26.54
227.387	35.74
227.621	45.54
227.856	47.74
228.09	47.74
228.324	53.14
228.559	55.14
228.793	58.54
229.027	61.34
229.262	63.94
229.496	74.34
229.73	79.94
229.964	75.94
230.199	72.14
230.433	78.74
230.667	79.74
230.901	78.74
231.136	79.94
231.37	77.14
231.604	82.54
231.838	80.94
232.072	83.94
232.306	83.14
232.541	87.94
232.775	83.94
233.009	76.14
233.243	82.54
233.477	86.14
233.711	81.54
233.945	86.14
234.179	80.54
234.413	81.54
234.647	78.54
234.881	74.34
235.115	82.94
235.349	83.14
235.583	82.34
235.817	80.94
236.051	80.34
236.285	84.34
236.519	75.34
236.753	75.34
236.987	83.34
237.221	75.14
237.455	76.34
237.689	77.34
237.922	74.94
238.156	78.54
238.39	74.34
238.624	77.14
238.858	75.34
239.091	80.54
239.325	83.14
239.559	74.74
239.793	81.94
240.027	82.74
240.26	80.94
240.494	82.94
240.728	76.94
240.961	83.74
241.195	88.94
241.429	80.14
241.662	81.34
241.896	79.54
242.13	85.74
242.363	77.94
242.597	83.54
242.83	80.14
243.064	79.14
243.298	87.74
243.531	81.14
243.765	84.54
243.998	81.54
244.232	87.14
244.465	80.94
244.699	79.14
244.932	83.54
245.166	82.94
245.399	81.94
245.633	84.34
245.866	77.94
246.099	82.34
246.333	83.74
246.566	82.94
246.8	79.74
247.033	75.54
247.266	78.14
247.5	82.54
247.733	82.14
247.966	84.74
248.2	79.14
248.433	79.94
248.666	76.74
248.899	83.34
249.133	80.14
249.366	86.14
249.599	77.14
249.832	87.14
250.066	81.74
250.299	85.94
250.532	92.54
250.765	82.14
250.998	82.54
251.231	81.74
251.465	83.94
251.698	84.54
251.931	87.74
252.164	85.54
252.397	83.54
252.63	88.34
252.863	88.34
253.096	88.74
253.329	88.94
253.562	88.94
253.795	88.34
254.028	92.54
254.261	84.14
254.494	92.74
254.727	93.14
254.96	87.34
255.193	82.34
255.426	85.94
255.659	89.14
255.892	89.54
256.124	86.94
256.357	93.74
256.59	89.54
256.823	84.14
257.056	81.34
257.289	92.54
257.521	92.74
257.754	90.54
257.987	91.54
258.22	99.54
258.452	89.14
258.685	99.34
258.918	85.74
259.151	86.74
259.383	92.54
259.616	100.14
259.849	87.34
260.081	90.54
260.314	92.34
260.547	95.94
260.779	95.74
261.012	95.34
261.244	107.74
261.477	118.74
261.71	111.74
261.942	104.54
262.175	102.74
262.407	102.74
262.64	98.54
262.872	91.94
263.105	88.54
263.337	93.94
263.57	87.54
263.802	90.14
264.035	95.74
264.267	90.94
264.499	96.74
264.732	92.54
264.964	90.34
265.197	98.54
265.429	97.74
265.661	90.94
265.894	92.34
266.126	102.14
266.358	103.54
266.591	108.94
266.823	95.74
267.055	95.54
267.287	92.74
267.52	87.74
267.752	90.54
267.984	90.34
268.216	92.94
268.448	89.74
268.681	87.54
268.913	95.34
269.145	91.74
269.377	86.54
269.609	91.54
269.841	89.54
270.073	89.14
270.306	87.34
270.538	90.34
270.77	90.34
271.002	86.54
271.234	93.54
271.466	91.14
271.698	86.74
271.93	93.54
272.162	93.74
272.394	91.54
272.626	85.14
272.858	89.34
273.09	93.54
273.322	89.94
273.553	94.34
273.785	94.14
274.017	89.54
274.249	84.94
274.481	90.74
274.713	92.14
274.945	94.94
275.176	90.14
275.408	89.74
275.64	96.34
275.872	90.94
276.104	90.74
276.335	94.94
276.567	93.14
276.799	93.34
277.031	92.54
277.262	94.74
277.494	101.34
277.726	92.54
277.957	91.14
278.189	96.54
278.421	92.14
278.652	99.74
278.884	94.74
279.115	100.54
279.347	99.74
279.579	109.94
279.81	117.14
280.042	132.74
280.273	144.94
280.505	133.54
280.736	117.74
280.968	113.94
281.199	107.14
281.431	101.14
281.662	99.54
281.894	103.74
282.125	106.14
282.356	114.34
282.588	110.74
282.819	107.74
283.051	112.94
283.282	131.74
283.513	129.94
283.745	117.34
283.976	103.94
284.207	106.94
284.439	105.54
284.67	99.34
284.901	101.94
285.132	96.14
285.364	99.74
285.595	104.34
285.826	97.94
286.057	95.74
286.288	93.94
286.52	99.34
286.751	100.74
286.982	104.74
287.213	111.54
287.444	118.74
287.675	119.74
287.906	102.94
288.138	97.74
288.369	97.94
288.6	92.14
288.831	95.94
289.062	102.14
289.293	98.34
289.524	99.74
289.755	93.14
289.986	95.14
290.217	100.54
290.448	98.14
290.679	99.74
290.91	95.14
291.141	94.54
291.371	95.74
291.602	94.74
291.833	93.34
292.064	91.74
292.295	89.74
292.526	92.94
292.757	100.34
292.987	92.74
293.218	97.14
293.449	95.14
293.68	94.14
293.91	89.74
294.141	94.54
294.372	97.74
294.603	99.14
294.833	99.94
295.064	100.34
295.295	95.94
295.525	95.14
295.756	94.74
295.987	94.94
296.217	96.54
296.448	91.74
296.679	96.54
296.909	103.94
297.14	101.74
297.37	101.94
297.601	105.34
297.831	97.74
298.062	92.74
298.292	98.74
298.523	102.14
298.753	100.14
298.984	98.94
299.214	99.14
299.445	100.74
299.675	99.54
299.905	92.34
300.136	98.54
300.366	83.94
300.597	95.14
300.827	99.34
301.057	97.14
301.288	97.74
301.518	94.34
301.748	100.74
301.979	106.74
302.209	98.14
302.439	94.54
302.669	97.54
302.9	96.34
303.13	98.54
303.36	108.14
303.59	100.74
303.82	98.94
304.051	102.14
304.281	106.14
304.511	98.94
304.741	102.14
304.971	102.54
305.201	90.14
305.431	96.34
305.661	101.54
305.891	99.94
306.121	97.74
306.352	100.74
306.582	94.54
306.812	96.14
307.042	99.94
307.272	98.94
307.502	95.54
307.731	100.54
307.961	100.94
308.191	95.94
308.421	101.94
308.651	95.54
308.881	98.54
309.111	91.14
309.341	96.34
309.571	99.54
309.8	95.14
310.03	92.74
310.26	91.34
310.49	96.14
310.72	98.74
310.949	92.74
311.179	94.34
311.409	99.74
311.639	101.94
311.868	100.34
312.098	105.34
312.328	100.94
312.557	103.14
312.787	94.54
313.017	99.14
313.246	104.14
313.476	100.54
313.706	102.74
313.935	102.94
314.165	107.54
314.394	106.74
314.624	103.14
314.853	99.54
315.083	103.34
315.312	105.14
315.542	101.74
315.771	106.34
316.001	107.14
316.23	101.34
316.46	102.14
316.689	110.74
316.919	100.94
317.148	106.14
317.377	106.34
317.607	104.94
317.836	101.94
318.065	103.54
318.295	104.54
318.524	104.54
318.753	101.94
318.983	99.54
319.212	97.54
319.441	100.54
319.67	98.34
319.9	103.74
320.129	105.54
320.358	98.74
320.587	94.54
320.816	97.14
321.046	96.54
321.275	105.34
321.504	101.74
321.733	98.74
321.962	94.94
322.191	98.34
322.42	98.14
322.649	97.14
322.878	100.74
323.108	92.74
323.337	102.14
323.566	96.54
323.795	93.94
324.024	100.74
324.253	103.14
324.482	95.14
324.71	100.14
324.939	97.54
325.168	98.94
325.397	102.14
325.626	105.54
325.855	102.14
326.084	101.34
326.313	101.54
326.542	95.34
326.77	102.14
326.999	104.74
327.228	102.34
327.457	96.34
327.686	102.34
327.914	97.54
328.143	110.74
328.372	102.34
328.6	97.14
328.829	99.74
329.058	99.14
329.287	102.14
329.515	103.94
329.744	102.94
329.972	100.74
330.201	106.14
330.43	98.34
330.658	97.34
330.887	98.54
331.115	94.14
331.344	97.94
331.572	100.74
331.801	96.34
332.03	91.74
332.258	95.54
332.486	96.54
332.715	101.94
332.943	95.34
333.172	100.14
333.4	93.34
333.629	97.14
333.857	97.14
334.085	99.74
334.314	105.14
334.542	99.34
334.771	105.74
334.999	100.94
335.227	97.94
335.455	96.74
335.684	98.34
335.912	102.94
336.14	103.34
336.369	106.14
336.597	100.14
336.825	101.94
337.053	99.14
337.281	101.14
337.51	97.54
337.738	96.34
337.966	99.74
338.194	98.94
338.422	104.54
338.65	104.34
338.878	102.74
339.106	97.54
339.334	102.14
339.562	96.94
339.79	102.94
340.018	97.34
340.246	92.74
340.474	96.54
340.702	96.14
340.93	98.34
341.158	97.34
341.386	100.14
341.614	100.14
341.842	97.54
342.07	99.54
342.298	103.94
342.526	99.74
342.754	95.14
342.981	93.14
343.209	95.14
343.437	105.54
343.665	94.54
343.893	103.74
344.12	103.54
344.348	103.34
344.576	104.34
344.804	99.14
345.031	104.14
345.259	108.14
345.487	101.14
345.714	99.54
345.942	100.34
346.17	93.54
346.397	102.14
346.625	95.94
346.853	100.74
347.08	100.34
347.308	97.34
347.535	101.14
347.763	97.94
347.99	98.54
348.218	94.34
348.445	97.74
348.673	96.94
348.9	104.34
349.128	99.94
349.355	91.74
349.583	97.34
349.81	101.74
350.037	97.74
350.265	106.54
350.492	96.94
350.72	93.74
350.947	97.74
351.174	108.14
351.402	99.14
351.629	99.94
351.856	92.14
352.083	100.34
352.311	97.94
352.538	91.14
352.765	103.14
352.992	101.14
353.22	105.74
353.447	96.34
353.674	96.34
353.901	99.94
354.128	100.94
354.355	96.54
354.583	100.54
354.81	99.34
355.037	107.94
355.264	104.54
355.491	99.94
355.718	95.54
355.945	98.34
356.172	102.74
356.399	101.94
356.626	106.74
356.853	117.34
357.08	132.74
357.307	152.74
357.534	156.74
357.761	133.14
357.988	123.54
358.215	117.14
358.441	109.74
358.668	109.34
358.895	113.14
359.122	98.94
359.349	101.14
359.576	100.74
359.802	102.74
360.029	104.94
360.256	104.74
360.483	100.34
360.709	100.94
360.936	107.54
361.163	105.54
361.39	102.94
361.616	99.94
361.843	101.34
362.07	106.54
362.296	104.34
362.523	103.54
362.749	105.34
362.976	101.34
363.203	109.34
363.429	108.74
363.656	134.74
363.882	170.34
364.109	178.34
364.335	150.34
364.562	123.74
364.788	116.54
365.015	113.34
365.241	106.14
365.468	109.34
365.694	104.94
365.92	103.94
366.147	106.54
366.373	102.54
366.599	102.34
366.826	118.34
367.052	114.34
367.278	118.34
367.505	120.34
367.731	127.94
367.957	141.14
368.184	164.34
368.41	210.34
368.636	190.54
368.862	151.34
369.089	128.94
369.315	117.54
369.541	114.34
369.767	105.14
369.993	108.94
370.219	100.34
370.445	113.34
370.672	101.94
370.898	105.34
371.124	107.34
371.35	102.54
371.576	101.74
371.802	99.94
372.028	102.74
372.254	108.34
372.48	107.34
372.706	104.54
372.932	109.74
373.158	107.34
373.384	110.94
373.61	119.74
373.835	140.34
374.061	159.14
374.287	151.14
374.513	134.94
374.739	113.94
374.965	110.94
375.191	103.94
375.416	104.34
375.642	105.54
375.868	112.14
376.094	102.94
376.319	97.14
376.545	105.14
376.771	104.74
376.997	105.74
377.222	98.94
377.448	105.54
377.674	100.54
377.899	104.14
378.125	102.74
378.35	105.14
378.576	107.54
378.802	104.14
379.027	101.34
379.253	102.94
379.478	98.14
379.704	98.54
379.929	99.14
380.155	97.94
380.38	99.54
380.606	105.14
380.831	101.14
381.057	106.14
381.282	101.74
381.507	108.34
381.733	110.74
381.958	97.94
382.184	101.14
382.409	100.74
382.634	106.34
382.86	102.54
383.085	97.14
383.31	100.14
383.535	99.74
383.761	93.14
383.986	102.34
384.211	104.34
384.436	104.94
384.662	105.34
384.887	108.54
385.112	102.74
385.337	99.54
385.562	101.34
385.787	103.54
386.013	100.14
386.238	109.14
386.463	103.34
386.688	110.34
386.913	105.54
387.138	99.14
387.363	95.94
387.588	99.74
387.813	96.14
388.038	103.14
388.263	97.34
388.488	100.94
388.713	100.34
388.938	102.54
389.163	104.14
389.387	97.34
389.612	106.54
389.837	107.34
390.062	106.74
390.287	99.34
390.512	104.34
390.736	98.34
390.961	101.54
391.186	94.94
391.411	105.34
391.636	101.94
391.86	108.94
392.085	102.74
392.31	102.34
392.534	102.14
392.759	107.94
392.984	104.54
393.208	97.34
393.433	100.74
393.658	103.74
393.882	103.74
394.107	106.74
394.331	108.14
394.556	95.14
394.78	103.94
395.005	103.14
395.229	101.94
395.454	100.54
395.678	96.54
395.903	108.54
396.127	99.94
396.352	105.34
396.576	112.14
396.801	103.54
397.025	99.54
397.249	101.94
397.474	110.14
397.698	106.14
397.922	106.54
398.147	101.34
398.371	104.94
398.595	103.94
398.82	105.74
399.044	111.34
399.268	111.94
399.492	109.34
399.717	111.74
399.941	103.54
400.165	109.34
400.389	111.34
400.613	107.94
400.837	105.34
401.062	105.34
401.286	101.54
401.51	113.94
401.734	109.74
401.958	118.94
402.182	120.94
402.406	115.34
402.63	103.74
402.854	103.54
403.078	109.54
403.302	103.54
403.526	114.94
403.75	115.74
403.974	109.94
404.198	114.34
404.422	111.54
404.645	110.54
404.869	119.94
405.093	135.14
405.317	145.34
405.541	195.74
405.765	266.34
405.988	298.94
406.212	229.94
406.436	182.14
406.66	149.54
406.883	142.14
407.107	127.54
407.331	114.34
407.555	126.34
407.778	118.74
408.002	115.74
408.226	117.74
408.449	112.34
408.673	117.54
408.896	114.74
409.12	108.54
409.344	107.94
409.567	105.14
409.791	107.54
410.014	115.74
410.238	108.94
410.461	115.54
410.685	104.54
410.908	98.74
411.132	117.54
411.355	107.74
411.578	112.74
411.802	103.94
412.025	105.34
412.249	114.94
412.472	111.54
412.695	111.54
412.919	109.74
413.142	102.54
413.365	101.54
413.589	107.94
413.812	108.94
414.035	113.14
414.258	106.54
414.482	104.34
414.705	106.54
414.928	112.34
415.151	110.94
415.374	110.14
415.597	106.94
415.821	104.34
416.044	107.74
416.267	112.14
416.49	112.74
416.713	124.34
416.936	116.54
417.159	107.34
417.382	112.94
417.605	105.14
417.828	108.14
418.051	105.94
418.274	108.74
418.497	106.74
418.72	107.34
418.943	107.94
419.166	107.74
419.389	102.94
419.611	110.94
419.834	112.94
420.057	109.74
420.28	109.54
420.503	114.54
420.726	106.14
420.948	102.94
421.171	107.14
421.394	106.54
421.617	110.34
421.839	113.34
422.062	114.74
422.285	110.14
422.507	115.94
422.73	115.94
422.953	121.34
423.175	120.34
423.398	123.14
423.621	127.54
423.843	125.74
424.066	132.34
424.288	144.94
424.511	163.54
424.733	175.14
424.956	162.34
425.178	138.94
425.401	136.54
425.623	131.94
425.846	128.94
426.068	127.74
426.291	123.94
426.513	122.54
426.735	131.54
426.958	118.54
427.18	120.14
427.402	117.14
427.625	118.94
427.847	117.74
428.069	118.94
428.292	118.14
428.514	112.54
428.736	113.14
428.958	119.54
429.181	113.74
429.403	117.74
429.625	112.14
429.847	116.74
430.069	103.54
430.292	103.34
430.514	105.94
430.736	108.94
430.958	112.34
431.18	105.34
431.402	110.14
431.624	108.74
431.846	105.74
432.068	108.74
432.29	112.74
432.512	113.14
432.734	112.74
432.956	109.34
433.178	116.74
433.4	112.94
433.622	119.74
433.844	116.74
434.066	110.54
434.287	109.94
434.509	110.14
434.731	104.34
434.953	103.14
435.175	110.54
435.397	114.54
435.618	109.94
435.84	109.74
436.062	112.54
436.284	117.54
436.505	110.74
436.727	110.54
436.949	116.14
437.17	121.34
437.392	115.34
437.614	118.74
437.835	120.94
438.057	123.34
438.278	129.94
438.5	149.34
438.721	157.14
438.943	169.94
439.165	161.14
439.386	148.94
439.608	148.94
439.829	145.94
440.05	138.34
440.272	132.74
440.493	138.14
440.715	140.54
440.936	136.74
441.158	139.74
441.379	126.14
441.6	126.74
441.822	128.54
442.043	123.74
442.264	120.54
442.486	121.34
442.707	118.94
442.928	116.74
443.149	120.94
443.371	119.74
443.592	113.34
443.813	122.14
444.034	122.14
444.255	122.94
444.476	125.94
444.698	116.14
444.919	114.34
445.14	178.74
445.361	147.34
445.582	114.94
445.803	114.14
446.024	111.34
446.245	114.54
446.466	115.74
446.687	114.74
446.908	113.74
447.129	115.74
447.35	115.14
447.571	119.34
447.792	115.94
448.013	110.74
448.234	109.94
448.455	113.94
448.675	108.54
448.896	106.54
449.117	107.54
449.338	116.34
449.559	119.74
449.779	112.34
450	115.54
450.221	114.34
450.442	106.94
450.662	103.74
450.883	103.34
451.104	109.94
451.324	106.54
451.545	106.54
451.766	110.34
451.986	105.14
452.207	112.14
452.428	109.94
452.648	116.34
452.869	108.34
453.089	100.34
453.31	109.94
453.53	107.94
453.751	106.74
453.971	107.94
454.192	106.94
454.412	103.54
454.633	107.74
454.853	106.34
455.073	100.54
455.294	109.14
455.514	108.34
455.734	104.34
455.955	114.54
456.175	104.74
456.395	105.94
456.616	97.94
456.836	97.34
457.056	103.14
457.276	106.34
457.497	109.94
457.717	105.14
457.937	103.34
458.157	101.14
458.377	104.94
458.598	106.54
458.818	101.74
459.038	104.14
459.258	105.74
459.478	106.14
459.698	104.54
459.918	98.54
460.138	103.34
460.358	108.34
460.578	110.94
460.798	111.74
461.018	106.14
461.238	107.94
461.458	103.54
461.678	103.34
461.898	111.54
462.118	112.74
462.338	107.54
462.558	111.74
462.777	103.74
462.997	110.74
463.217	112.94
463.437	106.54
463.657	111.94
463.876	111.14
464.096	111.54
464.316	107.14
464.536	106.34
464.755	112.74
464.975	109.34
465.195	110.14
465.414	106.14
465.634	104.94
465.854	109.54
466.073	103.94
466.293	104.14
466.512	106.74
466.732	103.34
466.951	107.34
467.171	106.74
467.391	107.74
467.61	108.34
467.829	105.94
468.049	102.94
468.268	111.54
468.488	110.14
468.707	104.14
468.927	109.94
469.146	106.34
469.365	110.54
469.585	109.14
469.804	110.54
470.023	105.14
470.243	104.94
470.462	105.94
470.681	102.94
470.901	106.14
471.12	108.74
471.339	103.54
471.558	109.34
471.777	110.74
471.997	110.54
472.216	108.34
472.435	104.34
472.654	105.14
472.873	106.14
473.092	106.54
473.311	108.94
473.53	107.14
473.749	100.54
473.968	107.34
474.187	100.34
474.406	101.54
474.625	109.74
474.844	109.14
475.063	104.74
475.282	104.54
475.501	102.74
475.72	109.74
475.939	106.54
476.158	105.54
476.377	109.34
476.596	105.74
476.814	111.94
477.033	108.34
477.252	107.74
477.471	109.14
477.69	108.74
477.908	111.34
478.127	122.34
478.346	111.14
478.564	106.94
478.783	105.74
479.002	113.14
479.22	118.54
479.439	115.94
479.658	110.74
479.876	111.34
480.095	111.94
480.313	109.34
480.532	109.54
480.751	115.54
480.969	108.74
481.188	114.54
481.406	112.14
481.624	109.74
481.843	113.94
482.061	110.94
482.28	116.54
482.498	109.14
482.717	113.14
482.935	118.14
483.153	114.14
483.372	102.54
483.59	111.54
483.808	116.34
484.027	118.54
484.245	110.54
484.463	114.94
484.681	118.14
484.9	117.14
485.118	116.54
485.336	110.54
485.554	107.34
485.772	113.54
485.99	108.54
486.209	112.74
486.427	109.54
486.645	119.74
486.863	115.14
487.081	107.94
487.299	110.34
487.517	119.94
487.735	117.34
487.953	114.14
488.171	112.14
488.389	120.74
488.607	109.74
488.825	110.34
489.043	108.94
489.261	110.54
489.479	112.14
489.696	116.74
489.914	116.34
490.132	116.74
490.35	114.74
490.568	112.34
490.786	114.94
491.003	117.54
491.221	117.54
491.439	114.74
491.657	120.14
491.874	118.94
492.092	121.74
492.31	127.54
492.527	124.34
492.745	120.54
492.963	122.34
493.18	119.34
493.398	114.74
493.615	111.94
493.833	117.34
494.05	120.54
494.268	118.54
494.485	119.34
494.703	115.34
494.92	111.34
495.138	125.74
495.355	121.94
495.573	124.14
495.79	121.14
496.008	120.94
496.225	119.34
496.442	111.94
496.66	124.94
496.877	116.94
497.094	119.94
497.312	117.74
497.529	116.94
497.746	120.54
497.963	120.14
498.181	111.54
498.398	120.94
498.615	124.94
498.832	126.94
499.049	122.14
499.267	128.34
499.484	121.54
499.701	127.54
499.918	125.94
500.135	135.14
500.352	139.34
500.569	150.74
500.786	162.54
501.003	143.34
501.22	134.74
501.437	138.14
501.654	128.34
501.871	125.54
502.088	128.74
502.305	133.94
502.522	128.94
502.739	126.54
502.956	123.34
503.172	126.74
503.389	117.14
503.606	122.74
503.823	125.34
504.04	124.54
504.256	126.94
504.473	129.54
504.69	129.14
504.907	128.94
505.123	124.94
505.34	126.94
505.557	124.14
505.773	125.14
505.99	119.94
506.207	119.94
506.423	110.34
506.64	118.74
506.856	121.74
507.073	116.94
507.289	116.54
507.506	116.74
507.722	118.94
507.939	116.74
508.155	118.14
508.372	111.54
