Data from Foil_2_HRD10591_00001.txt Node
Date: Wed Nov 05 16:17:22 EST 2025
User: Yrep
Spectrometer: HR+D1059
Trigger mode: 1
Integration Time (sec): 1.000000E-1
Scans to average: 1
Electric dark correction enabled: true
Nonlinearity correction enabled: false
Boxcar width: 0
XAxis mode: Wavelengths
Number of Pixels in Spectrum: 2048
>>>>>Begin Spectral Data<<<<<
223.165	-26.94
223.4	-26.94
223.635	-26.94
223.869	-27.94
224.104	-14.94
224.338	-13.94
224.573	-16.94
224.808	-3.94
225.042	15.06
225.277	2.06
225.511	8.06
225.746	3.06
225.98	-4.94
226.215	9.06
226.449	10.06
226.683	12.06
226.918	26.06
227.152	24.06
227.387	40.06
227.621	44.06
227.856	54.06
228.09	35.06
228.324	37.06
228.559	46.06
228.793	67.06
229.027	60.06
229.262	61.06
229.496	60.06
229.73	64.06
229.964	64.06
230.199	79.06
230.433	54.06
230.667	80.06
230.901	82.06
231.136	81.06
231.37	79.06
231.604	76.06
231.838	92.06
232.072	73.06
232.306	69.06
232.541	78.06
232.775	72.06
233.009	90.06
233.243	84.06
233.477	75.06
233.711	84.06
233.945	76.06
234.179	74.06
234.413	77.06
234.647	86.06
234.881	70.06
235.115	75.06
235.349	70.06
235.583	76.06
235.817	58.06
236.051	86.06
236.285	78.06
236.519	81.06
236.753	79.06
236.987	75.06
237.221	83.06
237.455	78.06
237.689	76.06
237.922	70.06
238.156	68.06
238.39	69.06
238.624	67.06
238.858	69.06
239.091	69.06
239.325	58.06
239.559	64.06
239.793	75.06
240.027	86.06
240.26	76.06
240.494	69.06
240.728	77.06
240.961	76.06
241.195	74.06
241.429	72.06
241.662	78.06
241.896	75.06
242.13	59.06
242.363	68.06
242.597	65.06
242.83	70.06
243.064	78.06
243.298	65.06
243.531	73.06
243.765	67.06
243.998	63.06
244.232	78.06
244.465	73.06
244.699	64.06
244.932	64.06
245.166	70.06
245.399	73.06
245.633	68.06
245.866	64.06
246.099	64.06
246.333	66.06
246.566	87.06
246.8	72.06
247.033	80.06
247.266	75.06
247.5	64.06
247.733	69.06
247.966	79.06
248.2	62.06
248.433	77.06
248.666	76.06
248.899	70.06
249.133	70.06
249.366	75.06
249.599	71.06
249.832	76.06
250.066	88.06
250.299	74.06
250.532	87.06
250.765	73.06
250.998	79.06
251.231	67.06
251.465	78.06
251.698	62.06
251.931	80.06
252.164	62.06
252.397	85.06
252.63	76.06
252.863	66.06
253.096	74.06
253.329	64.06
253.562	76.06
253.795	66.06
254.028	68.06
254.261	84.06
254.494	76.06
254.727	68.06
254.96	66.06
255.193	72.06
255.426	73.06
255.659	64.06
255.892	61.06
256.124	68.06
256.357	75.06
256.59	83.06
256.823	74.06
257.056	85.06
257.289	85.06
257.521	88.06
257.754	62.06
257.987	82.06
258.22	70.06
258.452	68.06
258.685	81.06
258.918	86.06
259.151	86.06
259.383	85.06
259.616	77.06
259.849	82.06
260.081	84.06
260.314	69.06
260.547	70.06
260.779	67.06
261.012	87.06
261.244	72.06
261.477	72.06
261.71	72.06
261.942	84.06
262.175	82.06
262.407	85.06
262.64	67.06
262.872	74.06
263.105	72.06
263.337	82.06
263.57	79.06
263.802	79.06
264.035	83.06
264.267	70.06
264.499	84.06
264.732	77.06
264.964	78.06
265.197	86.06
265.429	71.06
265.661	71.06
265.894	84.06
266.126	70.06
266.358	71.06
266.591	84.06
266.823	78.06
267.055	81.06
267.287	82.06
267.52	70.06
267.752	87.06
267.984	73.06
268.216	79.06
268.448	69.06
268.681	75.06
268.913	58.06
269.145	56.06
269.377	71.06
269.609	70.06
269.841	84.06
270.073	69.06
270.306	80.06
270.538	70.06
270.77	77.06
271.002	86.06
271.234	79.06
271.466	76.06
271.698	87.06
271.93	77.06
272.162	83.06
272.394	76.06
272.626	61.06
272.858	68.06
273.09	69.06
273.322	77.06
273.553	55.06
273.785	81.06
274.017	79.06
274.249	89.06
274.481	85.06
274.713	84.06
274.945	74.06
275.176	77.06
275.408	86.06
275.64	75.06
275.872	76.06
276.104	81.06
276.335	73.06
276.567	81.06
276.799	70.06
277.031	90.06
277.262	75.06
277.494	84.06
277.726	77.06
277.957	84.06
278.189	68.06
278.421	60.06
278.652	83.06
278.884	71.06
279.115	85.06
279.347	71.06
279.579	86.06
279.81	77.06
280.042	86.06
280.273	88.06
280.505	95.06
280.736	65.06
280.968	84.06
281.199	76.06
281.431	86.06
281.662	80.06
281.894	89.06
282.125	76.06
282.356	90.06
282.588	79.06
282.819	66.06
283.051	72.06
283.282	73.06
283.513	84.06
283.745	91.06
283.976	75.06
284.207	85.06
284.439	94.06
284.67	80.06
284.901	84.06
285.132	73.06
285.364	88.06
285.595	77.06
285.826	82.06
286.057	88.06
286.288	68.06
286.52	68.06
286.751	84.06
286.982	86.06
287.213	65.06
287.444	76.06
287.675	62.06
287.906	86.06
288.138	85.06
288.369	85.06
288.6	70.06
288.831	78.06
289.062	78.06
289.293	78.06
289.524	75.06
289.755	79.06
289.986	73.06
290.217	81.06
290.448	76.06
290.679	79.06
290.91	84.06
291.141	82.06
291.371	78.06
291.602	87.06
291.833	78.06
292.064	69.06
292.295	90.06
292.526	85.06
292.757	82.06
292.987	73.06
293.218	78.06
293.449	68.06
293.68	79.06
293.91	75.06
294.141	80.06
294.372	87.06
294.603	84.06
294.833	83.06
295.064	87.06
295.295	73.06
295.525	73.06
295.756	84.06
295.987	86.06
296.217	63.06
296.448	77.06
296.679	74.06
296.909	86.06
297.14	84.06
297.37	73.06
297.601	80.06
297.831	91.06
298.062	76.06
298.292	75.06
298.523	84.06
298.753	93.06
298.984	90.06
299.214	70.06
299.445	70.06
299.675	76.06
299.905	73.06
300.136	88.06
300.366	84.06
300.597	72.06
300.827	85.06
301.057	90.06
301.288	81.06
301.518	74.06
301.748	92.06
301.979	82.06
302.209	82.06
302.439	86.06
302.669	81.06
302.9	74.06
303.13	79.06
303.36	88.06
303.59	67.06
303.82	79.06
304.051	85.06
304.281	93.06
304.511	91.06
304.741	67.06
304.971	74.06
305.201	86.06
305.431	80.06
305.661	75.06
305.891	84.06
306.121	89.06
306.352	96.06
306.582	90.06
306.812	84.06
307.042	78.06
307.272	94.06
307.502	81.06
307.731	94.06
307.961	81.06
308.191	87.06
308.421	86.06
308.651	87.06
308.881	82.06
309.111	115.06
309.341	92.06
309.571	100.06
309.8	93.06
310.03	92.06
310.26	77.06
310.49	89.06
310.72	77.06
310.949	87.06
311.179	78.06
311.409	106.06
311.639	80.06
311.868	78.06
312.098	81.06
312.328	67.06
312.557	84.06
312.787	83.06
313.017	82.06
313.246	74.06
313.476	89.06
313.706	84.06
313.935	78.06
314.165	82.06
314.394	76.06
314.624	78.06
314.853	65.06
315.083	76.06
315.312	82.06
315.542	72.06
315.771	79.06
316.001	81.06
316.23	81.06
316.46	78.06
316.689	73.06
316.919	64.06
317.148	72.06
317.377	85.06
317.607	88.06
317.836	91.06
318.065	77.06
318.295	68.06
318.524	79.06
318.753	69.06
318.983	82.06
319.212	68.06
319.441	83.06
319.67	76.06
319.9	81.06
320.129	86.06
320.358	79.06
320.587	87.06
320.816	71.06
321.046	83.06
321.275	88.06
321.504	78.06
321.733	68.06
321.962	83.06
322.191	82.06
322.42	75.06
322.649	84.06
322.878	86.06
323.108	97.06
323.337	68.06
323.566	94.06
323.795	86.06
324.024	87.06
324.253	87.06
324.482	84.06
324.71	84.06
324.939	85.06
325.168	93.06
325.397	61.06
325.626	84.06
325.855	76.06
326.084	84.06
326.313	78.06
326.542	85.06
326.77	73.06
326.999	73.06
327.228	56.06
327.457	91.06
327.686	82.06
327.914	76.06
328.143	84.06
328.372	70.06
328.6	81.06
328.829	68.06
329.058	68.06
329.287	65.06
329.515	77.06
329.744	76.06
329.972	79.06
330.201	67.06
330.43	78.06
330.658	79.06
330.887	88.06
331.115	83.06
331.344	87.06
331.572	69.06
331.801	78.06
332.03	86.06
332.258	76.06
332.486	67.06
332.715	94.06
332.943	74.06
333.172	76.06
333.4	67.06
333.629	84.06
333.857	82.06
334.085	88.06
334.314	77.06
334.542	91.06
334.771	76.06
334.999	88.06
335.227	84.06
335.455	77.06
335.684	71.06
335.912	85.06
336.14	94.06
336.369	82.06
336.597	83.06
336.825	75.06
337.053	84.06
337.281	90.06
337.51	86.06
337.738	81.06
337.966	85.06
338.194	72.06
338.422	87.06
338.65	86.06
338.878	79.06
339.106	82.06
339.334	74.06
339.562	69.06
339.79	71.06
340.018	84.06
340.246	89.06
340.474	76.06
340.702	73.06
340.93	78.06
341.158	66.06
341.386	78.06
341.614	92.06
341.842	97.06
342.07	80.06
342.298	83.06
342.526	77.06
342.754	66.06
342.981	66.06
343.209	82.06
343.437	90.06
343.665	76.06
343.893	96.06
344.12	76.06
344.348	75.06
344.576	85.06
344.804	90.06
345.031	65.06
345.259	79.06
345.487	72.06
345.714	82.06
345.942	87.06
346.17	64.06
346.397	80.06
346.625	75.06
346.853	76.06
347.08	96.06
347.308	76.06
347.535	89.06
347.763	66.06
347.99	65.06
348.218	90.06
348.445	90.06
348.673	82.06
348.9	67.06
349.128	78.06
349.355	74.06
349.583	84.06
349.81	79.06
350.037	78.06
350.265	84.06
350.492	82.06
350.72	84.06
350.947	72.06
351.174	85.06
351.402	82.06
351.629	88.06
351.856	74.06
352.083	76.06
352.311	75.06
352.538	77.06
352.765	94.06
352.992	85.06
353.22	76.06
353.447	79.06
353.674	79.06
353.901	88.06
354.128	77.06
354.355	79.06
354.583	78.06
354.81	82.06
355.037	85.06
355.264	82.06
355.491	78.06
355.718	87.06
355.945	77.06
356.172	76.06
356.399	84.06
356.626	64.06
356.853	68.06
357.08	63.06
357.307	87.06
357.534	87.06
357.761	73.06
357.988	91.06
358.215	86.06
358.441	64.06
358.668	70.06
358.895	78.06
359.122	68.06
359.349	75.06
359.576	87.06
359.802	72.06
360.029	78.06
360.256	78.06
360.483	89.06
360.709	72.06
360.936	88.06
361.163	70.06
361.39	90.06
361.616	85.06
361.843	84.06
362.07	94.06
362.296	83.06
362.523	61.06
362.749	76.06
362.976	91.06
363.203	81.06
363.429	83.06
363.656	78.06
363.882	74.06
364.109	80.06
364.335	84.06
364.562	87.06
364.788	86.06
365.015	83.06
365.241	74.06
365.468	74.06
365.694	85.06
365.92	94.06
366.147	71.06
366.373	84.06
366.599	73.06
366.826	88.06
367.052	79.06
367.278	77.06
367.505	75.06
367.731	90.06
367.957	87.06
368.184	86.06
368.41	73.06
368.636	76.06
368.862	76.06
369.089	76.06
369.315	82.06
369.541	64.06
369.767	78.06
369.993	76.06
370.219	76.06
370.445	74.06
370.672	84.06
370.898	78.06
371.124	82.06
371.35	60.06
371.576	88.06
371.802	80.06
372.028	68.06
372.254	85.06
372.48	78.06
372.706	72.06
372.932	75.06
373.158	71.06
373.384	100.06
373.61	88.06
373.835	72.06
374.061	74.06
374.287	61.06
374.513	94.06
374.739	90.06
374.965	83.06
375.191	94.06
375.416	78.06
375.642	83.06
375.868	78.06
376.094	81.06
376.319	70.06
376.545	83.06
376.771	72.06
376.997	72.06
377.222	96.06
377.448	81.06
377.674	75.06
377.899	87.06
378.125	82.06
378.35	97.06
378.576	75.06
378.802	82.06
379.027	77.06
379.253	74.06
379.478	90.06
379.704	80.06
379.929	81.06
380.155	92.06
380.38	97.06
380.606	88.06
380.831	88.06
381.057	94.06
381.282	82.06
381.507	80.06
381.733	79.06
381.958	92.06
382.184	95.06
382.409	78.06
382.634	82.06
382.86	79.06
383.085	90.06
383.31	92.06
383.535	82.06
383.761	84.06
383.986	103.06
384.211	73.06
384.436	81.06
384.662	88.06
384.887	90.06
385.112	76.06
385.337	75.06
385.562	79.06
385.787	83.06
386.013	84.06
386.238	97.06
386.463	89.06
386.688	92.06
386.913	90.06
387.138	96.06
387.363	81.06
387.588	88.06
387.813	83.06
388.038	101.06
388.263	82.06
388.488	91.06
388.713	88.06
388.938	86.06
389.163	85.06
389.387	87.06
389.612	89.06
389.837	103.06
390.062	88.06
390.287	81.06
390.512	92.06
390.736	86.06
390.961	83.06
391.186	76.06
391.411	86.06
391.636	89.06
391.86	92.06
392.085	89.06
392.31	74.06
392.534	81.06
392.759	70.06
392.984	82.06
393.208	94.06
393.433	90.06
393.658	78.06
393.882	82.06
394.107	121.06
394.331	152.06
394.556	163.06
394.78	116.06
395.005	83.06
395.229	86.06
395.454	97.06
395.678	105.06
395.903	139.06
396.127	206.06
396.352	198.06
396.576	110.06
396.801	92.06
397.025	89.06
397.249	106.06
397.474	89.06
397.698	99.06
397.922	92.06
398.147	83.06
398.371	85.06
398.595	112.06
398.82	98.06
399.044	91.06
399.268	82.06
399.492	93.06
399.717	89.06
399.941	91.06
400.165	93.06
400.389	110.06
400.613	80.06
400.837	82.06
401.062	101.06
401.286	85.06
401.51	92.06
401.734	91.06
401.958	92.06
402.182	81.06
402.406	93.06
402.63	93.06
402.854	101.06
403.078	103.06
403.302	98.06
403.526	90.06
403.75	103.06
403.974	81.06
404.198	91.06
404.422	108.06
404.645	101.06
404.869	95.06
405.093	94.06
405.317	96.06
405.541	90.06
405.765	92.06
405.988	99.06
406.212	90.06
406.436	86.06
406.66	83.06
406.883	104.06
407.107	95.06
407.331	94.06
407.555	98.06
407.778	105.06
408.002	99.06
408.226	89.06
408.449	118.06
408.673	106.06
408.896	109.06
409.12	91.06
409.344	95.06
409.567	95.06
409.791	99.06
410.014	106.06
410.238	89.06
410.461	105.06
410.685	108.06
410.908	92.06
411.132	92.06
411.355	92.06
411.578	104.06
411.802	93.06
412.025	86.06
412.249	93.06
412.472	89.06
412.695	95.06
412.919	110.06
413.142	105.06
413.365	90.06
413.589	100.06
413.812	82.06
414.035	116.06
414.258	100.06
414.482	85.06
414.705	98.06
414.928	105.06
415.151	102.06
415.374	92.06
415.597	100.06
415.821	108.06
416.044	86.06
416.267	94.06
416.49	99.06
416.713	90.06
416.936	96.06
417.159	100.06
417.382	96.06
417.605	93.06
417.828	96.06
418.051	112.06
418.274	115.06
418.497	109.06
418.72	106.06
418.943	88.06
419.166	104.06
419.389	120.06
419.611	107.06
419.834	100.06
420.057	100.06
420.28	99.06
420.503	101.06
420.726	105.06
420.948	86.06
421.171	97.06
421.394	83.06
421.617	104.06
421.839	96.06
422.062	105.06
422.285	101.06
422.507	95.06
422.73	84.06
422.953	81.06
423.175	97.06
423.398	105.06
423.621	97.06
423.843	105.06
424.066	105.06
424.288	97.06
424.511	105.06
424.733	96.06
424.956	109.06
425.178	89.06
425.401	98.06
425.623	105.06
425.846	94.06
426.068	93.06
426.291	93.06
426.513	103.06
426.735	103.06
426.958	100.06
427.18	98.06
427.402	107.06
427.625	106.06
427.847	98.06
428.069	92.06
428.292	103.06
428.514	106.06
428.736	90.06
428.958	113.06
429.181	109.06
429.403	105.06
429.625	109.06
429.847	97.06
430.069	100.06
430.292	105.06
430.514	105.06
430.736	86.06
430.958	104.06
431.18	96.06
431.402	91.06
431.624	86.06
431.846	87.06
432.068	100.06
432.29	78.06
432.512	90.06
432.734	99.06
432.956	100.06
433.178	117.06
433.4	106.06
433.622	86.06
433.844	102.06
434.066	84.06
434.287	81.06
434.509	75.06
434.731	85.06
434.953	88.06
435.175	92.06
435.397	96.06
435.618	92.06
435.84	88.06
436.062	92.06
436.284	96.06
436.505	103.06
436.727	98.06
436.949	101.06
437.17	112.06
437.392	92.06
437.614	101.06
437.835	90.06
438.057	77.06
438.278	92.06
438.5	90.06
438.721	97.06
438.943	103.06
439.165	98.06
439.386	103.06
439.608	93.06
439.829	106.06
440.05	101.06
440.272	98.06
440.493	96.06
440.715	107.06
440.936	104.06
441.158	112.06
441.379	101.06
441.6	92.06
441.822	120.06
442.043	112.06
442.264	92.06
442.486	98.06
442.707	93.06
442.928	94.06
443.149	111.06
443.371	112.06
443.592	113.06
443.813	90.06
444.034	100.06
444.255	107.06
444.476	110.06
444.698	113.06
444.919	113.06
445.14	169.06
445.361	115.06
445.582	111.06
445.803	107.06
446.024	103.06
446.245	99.06
446.466	98.06
446.687	102.06
446.908	89.06
447.129	97.06
447.35	103.06
447.571	96.06
447.792	116.06
448.013	108.06
448.234	102.06
448.455	105.06
448.675	98.06
448.896	104.06
449.117	120.06
449.338	109.06
449.559	100.06
449.779	102.06
450	105.06
450.221	121.06
450.442	110.06
450.662	101.06
450.883	100.06
451.104	94.06
451.324	96.06
451.545	116.06
451.766	94.06
451.986	98.06
452.207	94.06
452.428	93.06
452.648	100.06
452.869	108.06
453.089	88.06
453.31	85.06
453.53	81.06
453.751	97.06
453.971	85.06
454.192	82.06
454.412	106.06
454.633	87.06
454.853	99.06
455.073	89.06
455.294	88.06
455.514	96.06
455.734	99.06
455.955	87.06
456.175	85.06
456.395	88.06
456.616	87.06
456.836	78.06
457.056	82.06
457.276	84.06
457.497	78.06
457.717	74.06
457.937	85.06
458.157	89.06
458.377	71.06
458.598	74.06
458.818	78.06
459.038	71.06
459.258	65.06
459.478	75.06
459.698	76.06
459.918	74.06
460.138	89.06
460.358	92.06
460.578	87.06
460.798	77.06
461.018	76.06
461.238	95.06
461.458	87.06
461.678	81.06
461.898	105.06
462.118	92.06
462.338	95.06
462.558	90.06
462.777	86.06
462.997	101.06
463.217	99.06
463.437	91.06
463.657	76.06
463.876	87.06
464.096	88.06
464.316	79.06
464.536	89.06
464.755	94.06
464.975	91.06
465.195	84.06
465.414	93.06
465.634	94.06
465.854	100.06
466.073	102.06
466.293	98.06
466.512	101.06
466.732	116.06
466.951	106.06
467.171	108.06
467.391	126.06
467.61	125.06
467.829	126.06
468.049	116.06
468.268	119.06
468.488	106.06
468.707	108.06
468.927	100.06
469.146	115.06
469.365	117.06
469.585	105.06
469.804	116.06
470.023	122.06
470.243	108.06
470.462	116.06
470.681	115.06
470.901	113.06
471.12	96.06
471.339	111.06
471.558	107.06
471.777	106.06
471.997	105.06
472.216	89.06
472.435	95.06
472.654	96.06
472.873	91.06
473.092	100.06
473.311	107.06
473.53	97.06
473.749	115.06
473.968	106.06
474.187	104.06
474.406	83.06
474.625	99.06
474.844	96.06
475.063	97.06
475.282	107.06
475.501	80.06
475.72	101.06
475.939	104.06
476.158	103.06
476.377	95.06
476.596	96.06
476.814	76.06
477.033	88.06
477.252	79.06
477.471	95.06
477.69	98.06
477.908	105.06
478.127	101.06
478.346	110.06
478.564	96.06
478.783	99.06
479.002	94.06
479.22	96.06
479.439	105.06
479.658	100.06
479.876	92.06
480.095	95.06
480.313	79.06
480.532	94.06
480.751	110.06
480.969	81.06
481.188	84.06
481.406	86.06
481.624	84.06
481.843	69.06
482.061	81.06
482.28	88.06
482.498	79.06
482.717	88.06
482.935	106.06
483.153	123.06
483.372	104.06
483.59	112.06
483.808	105.06
484.027	106.06
484.245	94.06
484.463	104.06
484.681	107.06
484.9	100.06
485.118	80.06
485.336	99.06
485.554	96.06
485.772	90.06
485.99	81.06
486.209	91.06
486.427	83.06
486.645	103.06
486.863	106.06
487.081	94.06
487.299	79.06
487.517	109.06
487.735	109.06
487.953	124.06
488.171	118.06
488.389	106.06
488.607	104.06
488.825	88.06
489.043	73.06
489.261	106.06
489.479	108.06
489.696	99.06
489.914	100.06
490.132	113.06
490.35	122.06
490.568	120.06
490.786	114.06
491.003	131.06
491.221	127.06
491.439	130.06
491.657	145.06
491.874	161.06
492.092	135.06
492.31	130.06
492.527	127.06
492.745	138.06
492.963	141.06
493.18	130.06
493.398	145.06
493.615	142.06
493.833	147.06
494.05	139.06
494.268	131.06
494.485	130.06
494.703	135.06
494.92	128.06
495.138	119.06
495.355	130.06
495.573	132.06
495.79	118.06
496.008	133.06
496.225	130.06
496.442	119.06
496.66	135.06
496.877	129.06
497.094	130.06
497.312	106.06
497.529	104.06
497.746	113.06
497.963	106.06
498.181	96.06
498.398	97.06
498.615	74.06
498.832	90.06
499.049	95.06
499.267	95.06
499.484	102.06
499.701	96.06
499.918	100.06
500.135	106.06
500.352	102.06
500.569	98.06
500.786	104.06
501.003	102.06
501.22	100.06
501.437	99.06
501.654	101.06
501.871	112.06
502.088	110.06
502.305	102.06
502.522	101.06
502.739	105.06
502.956	111.06
503.172	107.06
503.389	103.06
503.606	88.06
503.823	83.06
504.04	90.06
504.256	78.06
504.473	102.06
504.69	85.06
504.907	101.06
505.123	96.06
505.34	90.06
505.557	106.06
505.773	96.06
505.99	99.06
506.207	101.06
506.423	99.06
506.64	88.06
506.856	97.06
507.073	94.06
507.289	102.06
507.506	88.06
507.722	89.06
507.939	82.06
508.155	99.06
508.372	92.06
508.588	81.06
508.805	90.06
509.021	92.06
509.238	79.06
509.454	87.06
509.67	86.06
509.887	99.06
510.103	70.06
510.319	84.06
510.536	97.06
510.752	75.06
510.968	76.06
511.184	85.06
511.401	77.06
511.617	75.06
511.833	80.06
512.049	78.06
512.265	79.06
512.481	81.06
512.698	76.06
512.914	114.06
513.13	78.06
513.346	88.06
513.562	94.06
513.778	98.06
513.994	92.06
514.21	87.06
514.426	85.06
514.642	79.06
514.858	78.06
515.074	91.06
515.29	116.06
515.506	74.06
515.721	73.06
515.937	90.06
516.153	86.06
516.369	74.06
516.585	72.06
