Data from Foil_2_HRD10591_00002.txt Node
Date: Wed Nov 05 16:17:22 EST 2025
User: Yrep
Spectrometer: HR+D1059
Trigger mode: 1
Integration Time (sec): 1.000000E-1
Scans to average: 1
Electric dark correction enabled: true
Nonlinearity correction enabled: false
Boxcar width: 0
XAxis mode: Wavelengths
Number of Pixels in Spectrum: 2048
>>>>>Begin Spectral Data<<<<<
223.165	-22.44
223.4	-22.44
223.635	-22.44
223.869	-1.44
224.104	-19.44
224.338	-10.44
224.573	-11.44
224.808	-13.44
225.042	-21.44
225.277	-6.44
225.511	12.56
225.746	4.56
225.98	6.56
226.215	13.56
226.449	4.56
226.683	21.56
226.918	20.56
227.152	22.56
227.387	45.56
227.621	45.56
227.856	40.56
228.09	36.56
228.324	46.56
228.559	58.56
228.793	56.56
229.027	58.56
229.262	68.56
229.496	70.56
229.73	61.56
229.964	73.56
230.199	71.56
230.433	66.56
230.667	72.56
230.901	79.56
231.136	76.56
231.37	78.56
231.604	88.56
231.838	74.56
232.072	76.56
232.306	83.56
232.541	81.56
232.775	68.56
233.009	81.56
233.243	80.56
233.477	82.56
233.711	100.56
233.945	89.56
234.179	81.56
234.413	98.56
234.647	78.56
234.881	85.56
235.115	84.56
235.349	80.56
235.583	78.56
235.817	81.56
236.051	72.56
236.285	82.56
236.519	69.56
236.753	92.56
236.987	74.56
237.221	72.56
237.455	76.56
237.689	76.56
237.922	81.56
238.156	62.56
238.39	74.56
238.624	76.56
238.858	82.56
239.091	84.56
239.325	66.56
239.559	76.56
239.793	77.56
240.027	71.56
240.26	78.56
240.494	75.56
240.728	90.56
240.961	79.56
241.195	82.56
241.429	62.56
241.662	62.56
241.896	73.56
242.13	76.56
242.363	62.56
242.597	86.56
242.83	76.56
243.064	76.56
243.298	69.56
243.531	85.56
243.765	80.56
243.998	76.56
244.232	84.56
244.465	83.56
244.699	75.56
244.932	96.56
245.166	85.56
245.399	69.56
245.633	76.56
245.866	63.56
246.099	71.56
246.333	64.56
246.566	67.56
246.8	82.56
247.033	79.56
247.266	76.56
247.5	80.56
247.733	74.56
247.966	89.56
248.2	84.56
248.433	69.56
248.666	77.56
248.899	65.56
249.133	85.56
249.366	76.56
249.599	77.56
249.832	89.56
250.066	75.56
250.299	86.56
250.532	86.56
250.765	78.56
250.998	81.56
251.231	93.56
251.465	82.56
251.698	84.56
251.931	70.56
252.164	80.56
252.397	78.56
252.63	68.56
252.863	76.56
253.096	76.56
253.329	91.56
253.562	72.56
253.795	68.56
254.028	76.56
254.261	65.56
254.494	76.56
254.727	97.56
254.96	90.56
255.193	72.56
255.426	86.56
255.659	76.56
255.892	80.56
256.124	76.56
256.357	81.56
256.59	84.56
256.823	72.56
257.056	76.56
257.289	86.56
257.521	67.56
257.754	86.56
257.987	76.56
258.22	66.56
258.452	69.56
258.685	80.56
258.918	79.56
259.151	92.56
259.383	83.56
259.616	80.56
259.849	81.56
260.081	92.56
260.314	77.56
260.547	82.56
260.779	76.56
261.012	76.56
261.244	79.56
261.477	88.56
261.71	74.56
261.942	88.56
262.175	89.56
262.407	78.56
262.64	82.56
262.872	89.56
263.105	88.56
263.337	89.56
263.57	81.56
263.802	81.56
264.035	85.56
264.267	82.56
264.499	79.56
264.732	78.56
264.964	80.56
265.197	89.56
265.429	68.56
265.661	92.56
265.894	91.56
266.126	78.56
266.358	88.56
266.591	84.56
266.823	81.56
267.055	78.56
267.287	75.56
267.52	86.56
267.752	78.56
267.984	73.56
268.216	82.56
268.448	78.56
268.681	79.56
268.913	89.56
269.145	80.56
269.377	78.56
269.609	88.56
269.841	81.56
270.073	89.56
270.306	84.56
270.538	92.56
270.77	86.56
271.002	78.56
271.234	84.56
271.466	87.56
271.698	75.56
271.93	98.56
272.162	77.56
272.394	80.56
272.626	72.56
272.858	74.56
273.09	91.56
273.322	78.56
273.553	86.56
273.785	86.56
274.017	81.56
274.249	86.56
274.481	89.56
274.713	79.56
274.945	88.56
275.176	82.56
275.408	88.56
275.64	75.56
275.872	79.56
276.104	87.56
276.335	94.56
276.567	87.56
276.799	98.56
277.031	100.56
277.262	76.56
277.494	78.56
277.726	75.56
277.957	87.56
278.189	90.56
278.421	72.56
278.652	94.56
278.884	88.56
279.115	80.56
279.347	77.56
279.579	72.56
279.81	86.56
280.042	78.56
280.273	89.56
280.505	86.56
280.736	88.56
280.968	83.56
281.199	88.56
281.431	70.56
281.662	74.56
281.894	79.56
282.125	90.56
282.356	86.56
282.588	81.56
282.819	68.56
283.051	86.56
283.282	88.56
283.513	89.56
283.745	73.56
283.976	88.56
284.207	97.56
284.439	78.56
284.67	87.56
284.901	89.56
285.132	79.56
285.364	93.56
285.595	86.56
285.826	90.56
286.057	87.56
286.288	86.56
286.52	75.56
286.751	87.56
286.982	78.56
287.213	86.56
287.444	81.56
287.675	74.56
287.906	88.56
288.138	96.56
288.369	97.56
288.6	88.56
288.831	83.56
289.062	98.56
289.293	82.56
289.524	79.56
289.755	78.56
289.986	77.56
290.217	67.56
290.448	81.56
290.679	69.56
290.91	89.56
291.141	80.56
291.371	92.56
291.602	95.56
291.833	84.56
292.064	89.56
292.295	77.56
292.526	82.56
292.757	84.56
292.987	74.56
293.218	91.56
293.449	80.56
293.68	82.56
293.91	80.56
294.141	88.56
294.372	86.56
294.603	87.56
294.833	86.56
295.064	86.56
295.295	75.56
295.525	80.56
295.756	71.56
295.987	85.56
296.217	86.56
296.448	83.56
296.679	76.56
296.909	80.56
297.14	77.56
297.37	89.56
297.601	101.56
297.831	72.56
298.062	88.56
298.292	93.56
298.523	78.56
298.753	78.56
298.984	88.56
299.214	79.56
299.445	74.56
299.675	96.56
299.905	83.56
300.136	87.56
300.366	75.56
300.597	90.56
300.827	91.56
301.057	89.56
301.288	95.56
301.518	82.56
301.748	75.56
301.979	96.56
302.209	90.56
302.439	79.56
302.669	80.56
302.9	85.56
303.13	83.56
303.36	86.56
303.59	91.56
303.82	87.56
304.051	90.56
304.281	81.56
304.511	98.56
304.741	95.56
304.971	77.56
305.201	85.56
305.431	87.56
305.661	96.56
305.891	81.56
306.121	85.56
306.352	94.56
306.582	91.56
306.812	91.56
307.042	93.56
307.272	88.56
307.502	98.56
307.731	88.56
307.961	97.56
308.191	113.56
308.421	95.56
308.651	92.56
308.881	82.56
309.111	109.56
309.341	114.56
309.571	101.56
309.8	86.56
310.03	92.56
310.26	87.56
310.49	90.56
310.72	73.56
310.949	80.56
311.179	92.56
311.409	75.56
311.639	87.56
311.868	100.56
312.098	84.56
312.328	81.56
312.557	83.56
312.787	90.56
313.017	74.56
313.246	76.56
313.476	85.56
313.706	86.56
313.935	77.56
314.165	96.56
314.394	83.56
314.624	74.56
314.853	77.56
315.083	83.56
315.312	89.56
315.542	77.56
315.771	93.56
316.001	94.56
316.23	92.56
316.46	87.56
316.689	79.56
316.919	84.56
317.148	88.56
317.377	93.56
317.607	78.56
317.836	81.56
318.065	81.56
318.295	90.56
318.524	92.56
318.753	97.56
318.983	74.56
319.212	92.56
319.441	79.56
319.67	88.56
319.9	64.56
320.129	86.56
320.358	82.56
320.587	90.56
320.816	88.56
321.046	100.56
321.275	94.56
321.504	81.56
321.733	85.56
321.962	86.56
322.191	84.56
322.42	74.56
322.649	100.56
322.878	89.56
323.108	92.56
323.337	77.56
323.566	98.56
323.795	85.56
324.024	82.56
324.253	80.56
324.482	85.56
324.71	75.56
324.939	96.56
325.168	90.56
325.397	86.56
325.626	83.56
325.855	83.56
326.084	90.56
326.313	85.56
326.542	86.56
326.77	93.56
326.999	83.56
327.228	89.56
327.457	98.56
327.686	96.56
327.914	89.56
328.143	84.56
328.372	77.56
328.6	92.56
328.829	87.56
329.058	94.56
329.287	90.56
329.515	82.56
329.744	89.56
329.972	70.56
330.201	94.56
330.43	93.56
330.658	76.56
330.887	82.56
331.115	75.56
331.344	90.56
331.572	84.56
331.801	97.56
332.03	84.56
332.258	85.56
332.486	83.56
332.715	97.56
332.943	81.56
333.172	85.56
333.4	90.56
333.629	88.56
333.857	92.56
334.085	80.56
334.314	92.56
334.542	83.56
334.771	91.56
334.999	83.56
335.227	83.56
335.455	81.56
335.684	84.56
335.912	76.56
336.14	89.56
336.369	88.56
336.597	86.56
336.825	74.56
337.053	88.56
337.281	88.56
337.51	87.56
337.738	89.56
337.966	84.56
338.194	78.56
338.422	94.56
338.65	87.56
338.878	91.56
339.106	83.56
339.334	91.56
339.562	81.56
339.79	96.56
340.018	76.56
340.246	81.56
340.474	96.56
340.702	83.56
340.93	94.56
341.158	85.56
341.386	95.56
341.614	80.56
341.842	84.56
342.07	92.56
342.298	84.56
342.526	93.56
342.754	94.56
342.981	90.56
343.209	82.56
343.437	94.56
343.665	90.56
343.893	91.56
344.12	98.56
344.348	82.56
344.576	82.56
344.804	81.56
345.031	83.56
345.259	81.56
345.487	78.56
345.714	97.56
345.942	89.56
346.17	83.56
346.397	81.56
346.625	86.56
346.853	94.56
347.08	83.56
347.308	93.56
347.535	87.56
347.763	88.56
347.99	97.56
348.218	82.56
348.445	78.56
348.673	95.56
348.9	78.56
349.128	87.56
349.355	80.56
349.583	83.56
349.81	76.56
350.037	70.56
350.265	73.56
350.492	89.56
350.72	78.56
350.947	91.56
351.174	75.56
351.402	85.56
351.629	94.56
351.856	76.56
352.083	84.56
352.311	81.56
352.538	80.56
352.765	84.56
352.992	88.56
353.22	90.56
353.447	81.56
353.674	85.56
353.901	84.56
354.128	83.56
354.355	88.56
354.583	81.56
354.81	84.56
355.037	86.56
355.264	77.56
355.491	82.56
355.718	83.56
355.945	83.56
356.172	77.56
356.399	88.56
356.626	94.56
356.853	86.56
357.08	80.56
357.307	81.56
357.534	73.56
357.761	91.56
357.988	98.56
358.215	94.56
358.441	82.56
358.668	89.56
358.895	85.56
359.122	77.56
359.349	83.56
359.576	91.56
359.802	69.56
360.029	85.56
360.256	90.56
360.483	81.56
360.709	78.56
360.936	83.56
361.163	98.56
361.39	80.56
361.616	79.56
361.843	77.56
362.07	88.56
362.296	94.56
362.523	80.56
362.749	93.56
362.976	86.56
363.203	89.56
363.429	75.56
363.656	83.56
363.882	87.56
364.109	89.56
364.335	73.56
364.562	84.56
364.788	89.56
365.015	86.56
365.241	71.56
365.468	76.56
365.694	73.56
365.92	102.56
366.147	81.56
366.373	78.56
366.599	104.56
366.826	82.56
367.052	91.56
367.278	86.56
367.505	92.56
367.731	75.56
367.957	82.56
368.184	84.56
368.41	81.56
368.636	93.56
368.862	88.56
369.089	83.56
369.315	88.56
369.541	103.56
369.767	83.56
369.993	87.56
370.219	85.56
370.445	86.56
370.672	86.56
370.898	75.56
371.124	81.56
371.35	81.56
371.576	77.56
371.802	81.56
372.028	72.56
372.254	76.56
372.48	88.56
372.706	93.56
372.932	82.56
373.158	94.56
373.384	91.56
373.61	99.56
373.835	94.56
374.061	78.56
374.287	88.56
374.513	74.56
374.739	86.56
374.965	89.56
375.191	96.56
375.416	94.56
375.642	91.56
375.868	82.56
376.094	92.56
376.319	80.56
376.545	96.56
376.771	96.56
376.997	89.56
377.222	90.56
377.448	88.56
377.674	83.56
377.899	81.56
378.125	86.56
378.35	86.56
378.576	92.56
378.802	88.56
379.027	94.56
379.253	100.56
379.478	90.56
379.704	78.56
379.929	69.56
380.155	86.56
380.38	90.56
380.606	84.56
380.831	83.56
381.057	90.56
381.282	88.56
381.507	100.56
381.733	105.56
381.958	102.56
382.184	85.56
382.409	86.56
382.634	89.56
382.86	76.56
383.085	78.56
383.31	84.56
383.535	87.56
383.761	101.56
383.986	80.56
384.211	77.56
384.436	82.56
384.662	97.56
384.887	89.56
385.112	100.56
385.337	98.56
385.562	101.56
385.787	82.56
386.013	96.56
386.238	96.56
386.463	83.56
386.688	96.56
386.913	78.56
387.138	90.56
387.363	86.56
387.588	96.56
387.813	89.56
388.038	96.56
388.263	84.56
388.488	84.56
388.713	95.56
388.938	94.56
389.163	89.56
389.387	90.56
389.612	94.56
389.837	92.56
390.062	91.56
390.287	88.56
390.512	90.56
390.736	96.56
390.961	94.56
391.186	103.56
391.411	92.56
391.636	88.56
391.86	91.56
392.085	83.56
392.31	88.56
392.534	90.56
392.759	106.56
392.984	93.56
393.208	90.56
393.433	106.56
393.658	102.56
393.882	109.56
394.107	120.56
394.331	162.56
394.556	186.56
394.78	125.56
395.005	103.56
395.229	102.56
395.454	92.56
395.678	93.56
395.903	146.56
396.127	189.56
396.352	216.56
396.576	108.56
396.801	94.56
397.025	96.56
397.249	91.56
397.474	101.56
397.698	101.56
397.922	100.56
398.147	97.56
398.371	103.56
398.595	100.56
398.82	101.56
399.044	95.56
399.268	93.56
399.492	94.56
399.717	96.56
399.941	91.56
400.165	96.56
400.389	79.56
400.613	97.56
400.837	104.56
401.062	110.56
401.286	110.56
401.51	94.56
401.734	92.56
401.958	96.56
402.182	95.56
402.406	79.56
402.63	95.56
402.854	101.56
403.078	96.56
403.302	97.56
403.526	104.56
403.75	115.56
403.974	109.56
404.198	95.56
404.422	102.56
404.645	97.56
404.869	102.56
405.093	105.56
405.317	96.56
405.541	109.56
405.765	109.56
405.988	109.56
406.212	107.56
406.436	88.56
406.66	105.56
406.883	87.56
407.107	95.56
407.331	98.56
407.555	105.56
407.778	92.56
408.002	97.56
408.226	107.56
408.449	104.56
408.673	118.56
408.896	104.56
409.12	110.56
409.344	103.56
409.567	100.56
409.791	102.56
410.014	101.56
410.238	90.56
410.461	86.56
410.685	80.56
410.908	106.56
411.132	112.56
411.355	105.56
411.578	97.56
411.802	86.56
412.025	96.56
412.249	106.56
412.472	95.56
412.695	94.56
412.919	98.56
413.142	103.56
413.365	109.56
413.589	88.56
413.812	98.56
414.035	112.56
414.258	101.56
414.482	103.56
414.705	109.56
414.928	98.56
415.151	104.56
415.374	101.56
415.597	110.56
415.821	96.56
416.044	100.56
416.267	105.56
416.49	102.56
416.713	102.56
416.936	102.56
417.159	113.56
417.382	103.56
417.605	114.56
417.828	106.56
418.051	95.56
418.274	99.56
418.497	97.56
418.72	91.56
418.943	94.56
419.166	112.56
419.389	113.56
419.611	112.56
419.834	115.56
420.057	96.56
420.28	98.56
420.503	120.56
420.726	82.56
420.948	116.56
421.171	88.56
421.394	90.56
421.617	105.56
421.839	92.56
422.062	112.56
422.285	100.56
422.507	96.56
422.73	100.56
422.953	113.56
423.175	86.56
423.398	102.56
423.621	107.56
423.843	122.56
424.066	89.56
424.288	102.56
424.511	106.56
424.733	96.56
424.956	104.56
425.178	111.56
425.401	96.56
425.623	102.56
425.846	105.56
426.068	102.56
426.291	104.56
426.513	101.56
426.735	97.56
426.958	118.56
427.18	110.56
427.402	94.56
427.625	115.56
427.847	105.56
428.069	113.56
428.292	111.56
428.514	88.56
428.736	109.56
428.958	105.56
429.181	102.56
429.403	96.56
429.625	102.56
429.847	106.56
430.069	104.56
430.292	104.56
430.514	110.56
430.736	108.56
430.958	112.56
431.18	90.56
431.402	101.56
431.624	113.56
431.846	80.56
432.068	87.56
432.29	104.56
432.512	104.56
432.734	103.56
432.956	108.56
433.178	113.56
433.4	105.56
433.622	100.56
433.844	97.56
434.066	90.56
434.287	98.56
434.509	81.56
434.731	82.56
434.953	105.56
435.175	104.56
435.397	105.56
435.618	98.56
435.84	93.56
436.062	97.56
436.284	98.56
436.505	104.56
436.727	103.56
436.949	87.56
437.17	95.56
437.392	106.56
437.614	97.56
437.835	88.56
438.057	84.56
438.278	97.56
438.5	93.56
438.721	99.56
438.943	112.56
439.165	121.56
439.386	107.56
439.608	113.56
439.829	122.56
440.05	107.56
440.272	118.56
440.493	108.56
440.715	122.56
440.936	126.56
441.158	118.56
441.379	116.56
441.6	103.56
441.822	101.56
442.043	107.56
442.264	115.56
442.486	101.56
442.707	124.56
442.928	108.56
443.149	118.56
443.371	121.56
443.592	121.56
443.813	118.56
444.034	105.56
444.255	122.56
444.476	113.56
444.698	111.56
444.919	106.56
445.14	174.56
445.361	140.56
445.582	113.56
445.803	127.56
446.024	100.56
446.245	110.56
446.466	114.56
446.687	105.56
446.908	121.56
447.129	120.56
447.35	106.56
447.571	124.56
447.792	107.56
448.013	104.56
448.234	99.56
448.455	108.56
448.675	110.56
448.896	105.56
449.117	100.56
449.338	110.56
449.559	105.56
449.779	124.56
450	116.56
450.221	133.56
450.442	120.56
450.662	112.56
450.883	108.56
451.104	108.56
451.324	111.56
451.545	110.56
451.766	110.56
451.986	102.56
452.207	97.56
452.428	86.56
452.648	120.56
452.869	110.56
453.089	93.56
453.31	104.56
453.53	86.56
453.751	85.56
453.971	89.56
454.192	81.56
454.412	82.56
454.633	97.56
454.853	83.56
455.073	94.56
455.294	99.56
455.514	108.56
455.734	90.56
455.955	102.56
456.175	97.56
456.395	80.56
456.616	91.56
456.836	104.56
457.056	96.56
457.276	80.56
457.497	94.56
457.717	107.56
457.937	104.56
458.157	86.56
458.377	93.56
458.598	87.56
458.818	92.56
459.038	86.56
459.258	85.56
459.478	101.56
459.698	88.56
459.918	84.56
460.138	78.56
460.358	83.56
460.578	89.56
460.798	88.56
461.018	97.56
461.238	91.56
461.458	88.56
461.678	85.56
461.898	89.56
462.118	95.56
462.338	110.56
462.558	105.56
462.777	92.56
462.997	96.56
463.217	91.56
463.437	83.56
463.657	97.56
463.876	96.56
464.096	93.56
464.316	102.56
464.536	96.56
464.755	84.56
464.975	87.56
465.195	100.56
465.414	87.56
465.634	97.56
465.854	100.56
466.073	111.56
466.293	103.56
466.512	104.56
466.732	107.56
466.951	107.56
467.171	108.56
467.391	146.56
467.61	133.56
467.829	120.56
468.049	126.56
468.268	113.56
468.488	116.56
468.707	120.56
468.927	111.56
469.146	122.56
469.365	117.56
469.585	114.56
469.804	102.56
470.023	125.56
470.243	119.56
470.462	129.56
470.681	114.56
470.901	114.56
471.12	122.56
471.339	133.56
471.558	110.56
471.777	102.56
471.997	105.56
472.216	96.56
472.435	89.56
472.654	100.56
472.873	91.56
473.092	97.56
473.311	111.56
473.53	96.56
473.749	116.56
473.968	105.56
474.187	96.56
474.406	82.56
474.625	111.56
474.844	102.56
475.063	94.56
475.282	100.56
475.501	101.56
475.72	104.56
475.939	114.56
476.158	87.56
476.377	103.56
476.596	88.56
476.814	101.56
477.033	90.56
477.252	86.56
477.471	112.56
477.69	104.56
477.908	125.56
478.127	112.56
478.346	118.56
478.564	117.56
478.783	105.56
479.002	121.56
479.22	109.56
479.439	97.56
479.658	103.56
479.876	95.56
480.095	98.56
480.313	111.56
480.532	106.56
480.751	99.56
480.969	86.56
481.188	82.56
481.406	82.56
481.624	87.56
481.843	100.56
482.061	84.56
482.28	104.56
482.498	87.56
482.717	86.56
482.935	109.56
483.153	107.56
483.372	110.56
483.59	98.56
483.808	104.56
484.027	92.56
484.245	104.56
484.463	102.56
484.681	108.56
484.9	101.56
485.118	94.56
485.336	97.56
485.554	83.56
485.772	88.56
485.99	100.56
486.209	89.56
486.427	110.56
486.645	108.56
486.863	120.56
487.081	95.56
487.299	96.56
487.517	117.56
487.735	129.56
487.953	126.56
488.171	133.56
488.389	122.56
488.607	96.56
488.825	92.56
489.043	94.56
489.261	118.56
489.479	96.56
489.696	106.56
489.914	113.56
490.132	105.56
490.35	121.56
490.568	145.56
490.786	123.56
491.003	132.56
491.221	142.56
491.439	138.56
491.657	146.56
491.874	168.56
492.092	151.56
492.31	146.56
492.527	138.56
492.745	147.56
492.963	144.56
493.18	144.56
493.398	150.56
493.615	132.56
493.833	130.56
494.05	139.56
494.268	138.56
494.485	134.56
494.703	111.56
494.92	130.56
495.138	144.56
495.355	143.56
495.573	145.56
495.79	129.56
496.008	132.56
496.225	138.56
496.442	128.56
496.66	116.56
496.877	113.56
497.094	127.56
497.312	114.56
497.529	126.56
497.746	114.56
497.963	105.56
498.181	95.56
498.398	92.56
498.615	101.56
498.832	92.56
499.049	105.56
499.267	110.56
499.484	102.56
499.701	116.56
499.918	101.56
500.135	104.56
500.352	106.56
500.569	109.56
500.786	112.56
501.003	103.56
501.22	88.56
501.437	108.56
501.654	102.56
501.871	109.56
502.088	106.56
502.305	97.56
502.522	106.56
502.739	117.56
502.956	111.56
503.172	89.56
503.389	103.56
503.606	96.56
503.823	96.56
504.04	106.56
504.256	102.56
504.473	88.56
504.69	84.56
504.907	109.56
505.123	94.56
505.34	103.56
505.557	96.56
505.773	103.56
505.99	96.56
506.207	99.56
506.423	104.56
506.64	84.56
506.856	96.56
507.073	76.56
507.289	88.56
507.506	105.56
507.722	106.56
507.939	98.56
508.155	111.56
508.372	108.56
508.588	89.56
508.805	105.56
509.021	89.56
509.238	79.56
509.454	77.56
509.67	81.56
509.887	90.56
510.103	76.56
510.319	90.56
510.536	102.56
510.752	97.56
510.968	74.56
511.184	86.56
511.401	86.56
511.617	82.56
511.833	105.56
512.049	94.56
512.265	84.56
512.481	86.56
512.698	85.56
512.914	89.56
513.13	90.56
513.346	82.56
513.562	81.56
513.778	85.56
513.994	85.56
514.21	88.56
514.426	97.56
514.642	92.56
514.858	102.56
515.074	98.56
