Data from Foil_2_HRD10591_00012.txt Node
Date: Wed Nov 05 16:17:27 EST 2025
User: Yrep
Spectrometer: HR+D1059
Trigger mode: 1
Integration Time (sec): 1.000000E-1
Scans to average: 1
Electric dark correction enabled: true
Nonlinearity correction enabled: false
Boxcar width: 0
XAxis mode: Wavelengths
Number of Pixels in Spectrum: 2048
>>>>>Begin Spectral Data<<<<<
223.165	-20.94
223.4	-20.94
223.635	-20.94
223.869	-15.94
224.104	-20.94
224.338	-20.94
224.573	-15.94
224.808	-26.94
225.042	-13.94
225.277	1.06
225.511	0.06
225.746	8.06
225.98	17.06
226.215	6.06
226.449	23.06
226.683	13.06
226.918	32.06
227.152	35.06
227.387	24.06
227.621	55.06
227.856	54.06
228.09	49.06
228.324	43.06
228.559	59.06
228.793	59.06
229.027	55.06
229.262	62.06
229.496	66.06
229.73	75.06
229.964	82.06
230.199	73.06
230.433	76.06
230.667	77.06
230.901	74.06
231.136	65.06
231.37	82.06
231.604	78.06
231.838	79.06
232.072	83.06
232.306	64.06
232.541	80.06
232.775	99.06
233.009	85.06
233.243	89.06
233.477	90.06
233.711	83.06
233.945	88.06
234.179	88.06
234.413	75.06
234.647	77.06
234.881	80.06
235.115	78.06
235.349	69.06
235.583	81.06
235.817	93.06
236.051	73.06
236.285	77.06
236.519	88.06
236.753	80.06
236.987	70.06
237.221	70.06
237.455	94.06
237.689	77.06
237.922	82.06
238.156	74.06
238.39	72.06
238.624	79.06
238.858	81.06
239.091	74.06
239.325	72.06
239.559	75.06
239.793	78.06
240.027	92.06
240.26	88.06
240.494	85.06
240.728	96.06
240.961	69.06
241.195	82.06
241.429	76.06
241.662	73.06
241.896	80.06
242.13	78.06
242.363	93.06
242.597	84.06
242.83	64.06
243.064	72.06
243.298	79.06
243.531	77.06
243.765	85.06
243.998	78.06
244.232	81.06
244.465	89.06
244.699	87.06
244.932	74.06
245.166	76.06
245.399	76.06
245.633	70.06
245.866	79.06
246.099	79.06
246.333	79.06
246.566	77.06
246.8	78.06
247.033	81.06
247.266	98.06
247.5	73.06
247.733	79.06
247.966	84.06
248.2	77.06
248.433	83.06
248.666	88.06
248.899	87.06
249.133	81.06
249.366	76.06
249.599	80.06
249.832	77.06
250.066	77.06
250.299	89.06
250.532	94.06
250.765	81.06
250.998	83.06
251.231	76.06
251.465	81.06
251.698	82.06
251.931	93.06
252.164	80.06
252.397	88.06
252.63	94.06
252.863	74.06
253.096	83.06
253.329	83.06
253.562	78.06
253.795	87.06
254.028	87.06
254.261	71.06
254.494	84.06
254.727	82.06
254.96	76.06
255.193	88.06
255.426	76.06
255.659	72.06
255.892	88.06
256.124	81.06
256.357	92.06
256.59	80.06
256.823	90.06
257.056	92.06
257.289	89.06
257.521	80.06
257.754	84.06
257.987	72.06
258.22	76.06
258.452	78.06
258.685	77.06
258.918	82.06
259.151	78.06
259.383	80.06
259.616	90.06
259.849	79.06
260.081	78.06
260.314	80.06
260.547	73.06
260.779	82.06
261.012	88.06
261.244	89.06
261.477	83.06
261.71	73.06
261.942	70.06
262.175	91.06
262.407	79.06
262.64	81.06
262.872	83.06
263.105	77.06
263.337	82.06
263.57	88.06
263.802	93.06
264.035	79.06
264.267	77.06
264.499	72.06
264.732	76.06
264.964	80.06
265.197	86.06
265.429	80.06
265.661	91.06
265.894	81.06
266.126	89.06
266.358	94.06
266.591	80.06
266.823	76.06
267.055	89.06
267.287	78.06
267.52	79.06
267.752	81.06
267.984	93.06
268.216	87.06
268.448	88.06
268.681	85.06
268.913	84.06
269.145	88.06
269.377	86.06
269.609	85.06
269.841	104.06
270.073	84.06
270.306	79.06
270.538	80.06
270.77	77.06
271.002	96.06
271.234	91.06
271.466	79.06
271.698	81.06
271.93	86.06
272.162	82.06
272.394	82.06
272.626	105.06
272.858	81.06
273.09	74.06
273.322	89.06
273.553	85.06
273.785	85.06
274.017	73.06
274.249	78.06
274.481	88.06
274.713	78.06
274.945	82.06
275.176	78.06
275.408	72.06
275.64	70.06
275.872	93.06
276.104	74.06
276.335	83.06
276.567	84.06
276.799	88.06
277.031	84.06
277.262	88.06
277.494	90.06
277.726	84.06
277.957	82.06
278.189	84.06
278.421	87.06
278.652	88.06
278.884	81.06
279.115	99.06
279.347	94.06
279.579	99.06
279.81	88.06
280.042	88.06
280.273	79.06
280.505	95.06
280.736	93.06
280.968	83.06
281.199	69.06
281.431	86.06
281.662	80.06
281.894	86.06
282.125	79.06
282.356	78.06
282.588	80.06
282.819	80.06
283.051	87.06
283.282	81.06
283.513	81.06
283.745	89.06
283.976	90.06
284.207	95.06
284.439	88.06
284.67	88.06
284.901	85.06
285.132	78.06
285.364	82.06
285.595	92.06
285.826	74.06
286.057	92.06
286.288	76.06
286.52	81.06
286.751	69.06
286.982	90.06
287.213	82.06
287.444	73.06
287.675	82.06
287.906	86.06
288.138	82.06
288.369	100.06
288.6	94.06
288.831	80.06
289.062	91.06
289.293	83.06
289.524	82.06
289.755	75.06
289.986	80.06
290.217	82.06
290.448	83.06
290.679	88.06
290.91	85.06
291.141	88.06
291.371	79.06
291.602	85.06
291.833	86.06
292.064	80.06
292.295	73.06
292.526	80.06
292.757	95.06
292.987	96.06
293.218	94.06
293.449	84.06
293.68	76.06
293.91	80.06
294.141	83.06
294.372	72.06
294.603	95.06
294.833	81.06
295.064	86.06
295.295	90.06
295.525	82.06
295.756	81.06
295.987	85.06
296.217	88.06
296.448	89.06
296.679	77.06
296.909	88.06
297.14	87.06
297.37	78.06
297.601	72.06
297.831	70.06
298.062	98.06
298.292	90.06
298.523	86.06
298.753	83.06
298.984	90.06
299.214	94.06
299.445	95.06
299.675	101.06
299.905	81.06
300.136	92.06
300.366	68.06
300.597	82.06
300.827	81.06
301.057	91.06
301.288	90.06
301.518	88.06
301.748	88.06
301.979	102.06
302.209	77.06
302.439	98.06
302.669	90.06
302.9	80.06
303.13	90.06
303.36	77.06
303.59	86.06
303.82	84.06
304.051	78.06
304.281	80.06
304.511	82.06
304.741	90.06
304.971	87.06
305.201	92.06
305.431	79.06
305.661	95.06
305.891	88.06
306.121	79.06
306.352	86.06
306.582	80.06
306.812	82.06
307.042	80.06
307.272	89.06
307.502	82.06
307.731	95.06
307.961	104.06
308.191	111.06
308.421	105.06
308.651	101.06
308.881	96.06
309.111	96.06
309.341	125.06
309.571	108.06
309.8	90.06
310.03	81.06
310.26	80.06
310.49	86.06
310.72	68.06
310.949	80.06
311.179	81.06
311.409	86.06
311.639	86.06
311.868	91.06
312.098	86.06
312.328	84.06
312.557	74.06
312.787	89.06
313.017	90.06
313.246	99.06
313.476	81.06
313.706	84.06
313.935	73.06
314.165	75.06
314.394	79.06
314.624	89.06
314.853	83.06
315.083	95.06
315.312	89.06
315.542	89.06
315.771	85.06
316.001	103.06
316.23	83.06
316.46	78.06
316.689	83.06
316.919	98.06
317.148	78.06
317.377	88.06
317.607	82.06
317.836	88.06
318.065	85.06
318.295	94.06
318.524	80.06
318.753	90.06
318.983	88.06
319.212	96.06
319.441	77.06
319.67	92.06
319.9	92.06
320.129	87.06
320.358	88.06
320.587	81.06
320.816	94.06
321.046	80.06
321.275	77.06
321.504	80.06
321.733	88.06
321.962	82.06
322.191	83.06
322.42	78.06
322.649	82.06
322.878	83.06
323.108	88.06
323.337	81.06
323.566	83.06
323.795	73.06
324.024	82.06
324.253	85.06
324.482	84.06
324.71	88.06
324.939	94.06
325.168	82.06
325.397	88.06
325.626	82.06
325.855	88.06
326.084	80.06
326.313	68.06
326.542	96.06
326.77	90.06
326.999	98.06
327.228	95.06
327.457	82.06
327.686	92.06
327.914	75.06
328.143	91.06
328.372	91.06
328.6	85.06
328.829	92.06
329.058	80.06
329.287	94.06
329.515	92.06
329.744	96.06
329.972	82.06
330.201	94.06
330.43	78.06
330.658	74.06
330.887	81.06
331.115	86.06
331.344	83.06
331.572	80.06
331.801	80.06
332.03	81.06
332.258	94.06
332.486	77.06
332.715	83.06
332.943	79.06
333.172	95.06
333.4	81.06
333.629	81.06
333.857	82.06
334.085	86.06
334.314	88.06
334.542	85.06
334.771	86.06
334.999	85.06
335.227	95.06
335.455	86.06
335.684	90.06
335.912	72.06
336.14	96.06
336.369	76.06
336.597	79.06
336.825	97.06
337.053	90.06
337.281	91.06
337.51	79.06
337.738	84.06
337.966	74.06
338.194	80.06
338.422	84.06
338.65	74.06
338.878	87.06
339.106	83.06
339.334	89.06
339.562	75.06
339.79	70.06
340.018	70.06
340.246	85.06
340.474	84.06
340.702	89.06
340.93	74.06
341.158	81.06
341.386	79.06
341.614	80.06
341.842	82.06
342.07	86.06
342.298	87.06
342.526	69.06
342.754	80.06
342.981	90.06
343.209	71.06
343.437	112.06
343.665	73.06
343.893	66.06
344.12	84.06
344.348	80.06
344.576	86.06
344.804	86.06
345.031	88.06
345.259	81.06
345.487	64.06
345.714	88.06
345.942	76.06
346.17	78.06
346.397	89.06
346.625	74.06
346.853	75.06
347.08	86.06
347.308	92.06
347.535	84.06
347.763	97.06
347.99	78.06
348.218	66.06
348.445	83.06
348.673	74.06
348.9	91.06
349.128	80.06
349.355	68.06
349.583	86.06
349.81	86.06
350.037	80.06
350.265	81.06
350.492	94.06
350.72	81.06
350.947	80.06
351.174	76.06
351.402	84.06
351.629	70.06
351.856	77.06
352.083	76.06
352.311	73.06
352.538	73.06
352.765	76.06
352.992	88.06
353.22	94.06
353.447	86.06
353.674	88.06
353.901	72.06
354.128	75.06
354.355	66.06
354.583	79.06
354.81	96.06
355.037	77.06
355.264	84.06
355.491	80.06
355.718	92.06
355.945	88.06
356.172	80.06
356.399	85.06
356.626	89.06
356.853	77.06
357.08	82.06
357.307	78.06
357.534	105.06
357.761	84.06
357.988	93.06
358.215	81.06
358.441	72.06
358.668	79.06
358.895	85.06
359.122	82.06
359.349	88.06
359.576	79.06
359.802	77.06
360.029	78.06
360.256	67.06
360.483	80.06
360.709	85.06
360.936	84.06
361.163	74.06
361.39	93.06
361.616	81.06
361.843	69.06
362.07	85.06
362.296	61.06
362.523	86.06
362.749	83.06
362.976	72.06
363.203	68.06
363.429	91.06
363.656	75.06
363.882	90.06
364.109	95.06
364.335	78.06
364.562	84.06
364.788	89.06
365.015	94.06
365.241	76.06
365.468	103.06
365.694	79.06
365.92	80.06
366.147	76.06
366.373	86.06
366.599	88.06
366.826	79.06
367.052	86.06
367.278	82.06
367.505	87.06
367.731	97.06
367.957	88.06
368.184	84.06
368.41	88.06
368.636	89.06
368.862	93.06
369.089	78.06
369.315	67.06
369.541	90.06
369.767	85.06
369.993	75.06
370.219	94.06
370.445	82.06
370.672	89.06
370.898	85.06
371.124	62.06
371.35	97.06
371.576	77.06
371.802	97.06
372.028	94.06
372.254	87.06
372.48	77.06
372.706	74.06
372.932	90.06
373.158	89.06
373.384	106.06
373.61	78.06
373.835	81.06
374.061	91.06
374.287	88.06
374.513	80.06
374.739	90.06
374.965	82.06
375.191	83.06
375.416	82.06
375.642	79.06
375.868	73.06
376.094	89.06
376.319	82.06
376.545	88.06
376.771	86.06
376.997	95.06
377.222	90.06
377.448	67.06
377.674	77.06
377.899	97.06
378.125	84.06
378.35	90.06
378.576	92.06
378.802	78.06
379.027	83.06
379.253	75.06
379.478	79.06
379.704	92.06
379.929	80.06
380.155	88.06
380.38	98.06
380.606	84.06
380.831	89.06
381.057	103.06
381.282	85.06
381.507	92.06
381.733	99.06
381.958	86.06
382.184	88.06
382.409	90.06
382.634	97.06
382.86	89.06
383.085	80.06
383.31	76.06
383.535	89.06
383.761	90.06
383.986	83.06
384.211	86.06
384.436	86.06
384.662	83.06
384.887	106.06
385.112	83.06
385.337	78.06
385.562	102.06
385.787	76.06
386.013	93.06
386.238	90.06
386.463	94.06
386.688	96.06
386.913	89.06
387.138	90.06
387.363	87.06
387.588	96.06
387.813	98.06
388.038	85.06
388.263	92.06
388.488	101.06
388.713	95.06
388.938	97.06
389.163	85.06
389.387	92.06
389.612	97.06
389.837	92.06
390.062	104.06
390.287	113.06
390.512	93.06
390.736	90.06
390.961	109.06
391.186	102.06
391.411	86.06
391.636	98.06
391.86	104.06
392.085	100.06
392.31	94.06
392.534	82.06
392.759	89.06
392.984	97.06
393.208	99.06
393.433	74.06
393.658	101.06
393.882	100.06
394.107	128.06
394.331	153.06
394.556	172.06
394.78	132.06
395.005	111.06
395.229	109.06
395.454	100.06
395.678	107.06
395.903	141.06
396.127	199.06
396.352	187.06
396.576	106.06
396.801	98.06
397.025	104.06
397.249	96.06
397.474	100.06
397.698	93.06
397.922	88.06
398.147	103.06
398.371	105.06
398.595	107.06
398.82	94.06
399.044	97.06
399.268	81.06
399.492	99.06
399.717	96.06
399.941	98.06
400.165	105.06
400.389	103.06
400.613	103.06
400.837	106.06
401.062	106.06
401.286	94.06
401.51	100.06
401.734	96.06
401.958	89.06
402.182	89.06
402.406	110.06
402.63	87.06
402.854	98.06
403.078	116.06
403.302	94.06
403.526	100.06
403.75	105.06
403.974	102.06
404.198	93.06
404.422	83.06
404.645	111.06
404.869	107.06
405.093	106.06
405.317	98.06
405.541	113.06
405.765	110.06
405.988	103.06
406.212	99.06
406.436	96.06
406.66	104.06
406.883	106.06
407.107	109.06
407.331	90.06
407.555	114.06
407.778	85.06
408.002	101.06
408.226	91.06
408.449	95.06
408.673	101.06
408.896	117.06
409.12	107.06
409.344	92.06
409.567	85.06
409.791	90.06
410.014	89.06
410.238	105.06
410.461	89.06
410.685	99.06
410.908	96.06
411.132	104.06
411.355	100.06
411.578	124.06
411.802	110.06
412.025	96.06
412.249	107.06
412.472	108.06
412.695	117.06
412.919	106.06
413.142	105.06
413.365	94.06
413.589	104.06
413.812	102.06
414.035	104.06
414.258	106.06
414.482	100.06
414.705	113.06
414.928	104.06
415.151	106.06
415.374	86.06
415.597	99.06
415.821	104.06
416.044	118.06
416.267	111.06
416.49	104.06
416.713	104.06
416.936	107.06
417.159	104.06
417.382	109.06
417.605	97.06
417.828	103.06
418.051	104.06
418.274	94.06
418.497	99.06
418.72	100.06
418.943	101.06
419.166	105.06
419.389	110.06
419.611	112.06
419.834	100.06
420.057	120.06
420.28	111.06
420.503	110.06
420.726	108.06
420.948	107.06
421.171	104.06
421.394	105.06
421.617	88.06
421.839	92.06
422.062	107.06
422.285	117.06
422.507	107.06
422.73	111.06
422.953	104.06
423.175	110.06
423.398	102.06
423.621	95.06
423.843	109.06
424.066	113.06
424.288	89.06
424.511	94.06
424.733	107.06
424.956	102.06
425.178	111.06
425.401	109.06
425.623	102.06
425.846	109.06
426.068	108.06
426.291	95.06
426.513	106.06
426.735	104.06
426.958	112.06
427.18	96.06
427.402	98.06
427.625	107.06
427.847	96.06
428.069	112.06
428.292	96.06
428.514	116.06
428.736	107.06
428.958	97.06
429.181	100.06
429.403	92.06
429.625	113.06
429.847	114.06
430.069	104.06
430.292	110.06
430.514	104.06
430.736	111.06
430.958	104.06
431.18	103.06
431.402	101.06
431.624	100.06
431.846	81.06
432.068	86.06
432.29	89.06
432.512	89.06
432.734	102.06
432.956	98.06
433.178	95.06
433.4	106.06
433.622	86.06
433.844	84.06
434.066	99.06
434.287	98.06
434.509	101.06
434.731	92.06
434.953	83.06
435.175	77.06
435.397	100.06
435.618	102.06
435.84	81.06
436.062	95.06
436.284	97.06
436.505	95.06
436.727	108.06
436.949	104.06
437.17	113.06
437.392	107.06
437.614	101.06
437.835	97.06
438.057	95.06
438.278	83.06
438.5	88.06
438.721	112.06
438.943	82.06
439.165	111.06
439.386	108.06
439.608	109.06
439.829	113.06
440.05	103.06
440.272	112.06
440.493	108.06
440.715	90.06
440.936	109.06
441.158	107.06
441.379	110.06
441.6	105.06
441.822	100.06
442.043	100.06
442.264	103.06
442.486	112.06
442.707	109.06
442.928	97.06
443.149	105.06
443.371	116.06
443.592	124.06
443.813	112.06
444.034	126.06
444.255	109.06
444.476	118.06
444.698	101.06
444.919	111.06
445.14	188.06
445.361	146.06
445.582	122.06
445.803	121.06
446.024	131.06
446.245	102.06
446.466	119.06
446.687	100.06
446.908	116.06
447.129	113.06
447.35	111.06
447.571	113.06
447.792	101.06
448.013	94.06
448.234	104.06
448.455	108.06
448.675	124.06
448.896	116.06
449.117	107.06
449.338	111.06
449.559	101.06
449.779	116.06
450	127.06
450.221	120.06
450.442	116.06
450.662	121.06
450.883	109.06
451.104	125.06
451.324	98.06
451.545	117.06
451.766	108.06
451.986	110.06
452.207	101.06
452.428	89.06
452.648	109.06
452.869	110.06
453.089	96.06
453.31	94.06
453.53	86.06
453.751	94.06
453.971	99.06
454.192	92.06
454.412	87.06
454.633	94.06
454.853	91.06
455.073	100.06
455.294	94.06
455.514	100.06
455.734	92.06
455.955	98.06
456.175	103.06
456.395	91.06
456.616	94.06
456.836	99.06
457.056	91.06
457.276	100.06
457.497	91.06
457.717	91.06
457.937	86.06
458.157	79.06
458.377	84.06
458.598	78.06
458.818	81.06
459.038	79.06
459.258	65.06
459.478	82.06
459.698	86.06
459.918	98.06
460.138	81.06
460.358	82.06
460.578	96.06
460.798	94.06
461.018	96.06
461.238	80.06
461.458	90.06
461.678	95.06
461.898	107.06
462.118	94.06
462.338	92.06
462.558	89.06
462.777	99.06
462.997	100.06
463.217	99.06
463.437	86.06
463.657	97.06
463.876	77.06
464.096	107.06
464.316	102.06
464.536	103.06
464.755	100.06
464.975	102.06
465.195	125.06
465.414	90.06
465.634	88.06
465.854	95.06
466.073	99.06
466.293	106.06
466.512	102.06
466.732	103.06
466.951	103.06
467.171	130.06
467.391	126.06
467.61	114.06
467.829	114.06
468.049	129.06
468.268	130.06
468.488	113.06
468.707	112.06
468.927	114.06
469.146	114.06
469.365	108.06
469.585	124.06
469.804	132.06
470.023	124.06
470.243	114.06
470.462	121.06
470.681	126.06
470.901	109.06
471.12	107.06
471.339	119.06
471.558	120.06
471.777	113.06
471.997	102.06
472.216	108.06
472.435	100.06
472.654	86.06
472.873	88.06
473.092	94.06
473.311	95.06
473.53	119.06
473.749	113.06
473.968	102.06
474.187	96.06
474.406	106.06
474.625	107.06
474.844	102.06
475.063	100.06
475.282	95.06
475.501	94.06
475.72	109.06
475.939	113.06
476.158	112.06
476.377	112.06
476.596	94.06
476.814	101.06
477.033	87.06
477.252	94.06
477.471	110.06
477.69	101.06
477.908	109.06
478.127	100.06
478.346	116.06
478.564	105.06
478.783	116.06
479.002	104.06
479.22	102.06
479.439	111.06
479.658	98.06
479.876	102.06
480.095	101.06
480.313	92.06
480.532	96.06
480.751	90.06
480.969	97.06
481.188	81.06
481.406	80.06
481.624	102.06
481.843	85.06
482.061	93.06
482.28	83.06
482.498	101.06
482.717	103.06
482.935	91.06
483.153	116.06
483.372	112.06
483.59	110.06
483.808	102.06
484.027	91.06
484.245	102.06
484.463	96.06
484.681	106.06
484.9	81.06
485.118	102.06
485.336	96.06
485.554	92.06
485.772	97.06
485.99	97.06
486.209	94.06
486.427	102.06
486.645	105.06
486.863	109.06
487.081	111.06
487.299	98.06
487.517	121.06
487.735	114.06
487.953	133.06
488.171	118.06
488.389	116.06
488.607	109.06
488.825	98.06
489.043	96.06
489.261	113.06
489.479	112.06
489.696	99.06
489.914	110.06
490.132	110.06
490.35	117.06
490.568	133.06
490.786	117.06
491.003	129.06
491.221	146.06
491.439	136.06
491.657	141.06
491.874	147.06
492.092	156.06
492.31	161.06
492.527	138.06
492.745	145.06
492.963	160.06
493.18	141.06
493.398	148.06
493.615	145.06
493.833	146.06
494.05	116.06
494.268	120.06
494.485	156.06
494.703	138.06
494.92	130.06
495.138	138.06
495.355	123.06
495.573	133.06
495.79	125.06
496.008	144.06
496.225	128.06
496.442	121.06
496.66	134.06
496.877	121.06
497.094	126.06
497.312	116.06
497.529	127.06
497.746	101.06
497.963	116.06
498.181	113.06
498.398	113.06
498.615	104.06
498.832	86.06
499.049	98.06
499.267	93.06
499.484	106.06
499.701	104.06
499.918	116.06
500.135	104.06
500.352	107.06
500.569	99.06
500.786	124.06
501.003	110.06
501.22	118.06
501.437	109.06
501.654	101.06
501.871	121.06
502.088	118.06
502.305	107.06
502.522	96.06
502.739	100.06
502.956	112.06
503.172	93.06
503.389	98.06
503.606	107.06
503.823	100.06
504.04	106.06
504.256	91.06
504.473	93.06
504.69	98.06
504.907	113.06
505.123	109.06
505.34	107.06
505.557	96.06
505.773	97.06
505.99	105.06
506.207	125.06
506.423	100.06
506.64	102.06
506.856	89.06
507.073	91.06
507.289	109.06
507.506	114.06
507.722	104.06
507.939	98.06
508.155	92.06
508.372	90.06
508.588	85.06
508.805	90.06
509.021	103.06
509.238	87.06
509.454	91.06
509.67	96.06
509.887	95.06
510.103	85.06
510.319	91.06
510.536	94.06
510.752	81.06
510.968	86.06
511.184	78.06
511.401	76.06
511.617	87.06
511.833	88.06
512.049	105.06
512.265	83.06
512.481	88.06
512.698	91.06
512.914	74.06
513.13	87.06
513.346	77.06
513.562	82.06
513.778	82.06
513.994	85.06
514.21	90.06
514.426	94.06
514.642	98.06
514.858	76.06
