Data from Foil_2_HRD10591_00007.txt Node
Date: Wed Nov 05 16:17:25 EST 2025
User: Yrep
Spectrometer: HR+D1059
Trigger mode: 1
Integration Time (sec): 1.000000E-1
Scans to average: 1
Electric dark correction enabled: true
Nonlinearity correction enabled: false
Boxcar width: 0
XAxis mode: Wavelengths
Number of Pixels in Spectrum: 2048
>>>>>Begin Spectral Data<<<<<
223.165	-15
223.4	-15
223.635	-15
223.869	-25
224.104	-19
224.338	-22
224.573	-18
224.808	-12
225.042	-16
225.277	-1
225.511	9
225.746	6
225.98	4
226.215	15
226.449	16
226.683	20
226.918	18
227.152	40
227.387	49
227.621	36
227.856	44
228.09	34
228.324	54
228.559	57
228.793	58
229.027	57
229.262	58
229.496	76
229.73	64
229.964	75
230.199	66
230.433	74
230.667	64
230.901	88
231.136	84
231.37	91
231.604	79
231.838	84
232.072	79
232.306	75
232.541	82
232.775	75
233.009	92
233.243	80
233.477	93
233.711	87
233.945	81
234.179	81
234.413	84
234.647	85
234.881	85
235.115	90
235.349	76
235.583	80
235.817	92
236.051	89
236.285	74
236.519	81
236.753	73
236.987	79
237.221	88
237.455	79
237.689	81
237.922	83
238.156	73
238.39	85
238.624	83
238.858	81
239.091	82
239.325	91
239.559	63
239.793	75
240.027	73
240.26	81
240.494	75
240.728	84
240.961	70
241.195	69
241.429	84
241.662	89
241.896	83
242.13	82
242.363	84
242.597	75
242.83	100
243.064	83
243.298	79
243.531	85
243.765	89
243.998	84
244.232	83
244.465	81
244.699	76
244.932	95
245.166	78
245.399	85
245.633	85
245.866	85
246.099	73
246.333	70
246.566	73
246.8	68
247.033	80
247.266	81
247.5	77
247.733	73
247.966	89
248.2	81
248.433	84
248.666	77
248.899	79
249.133	98
249.366	75
249.599	66
249.832	71
250.066	93
250.299	67
250.532	79
250.765	89
250.998	72
251.231	77
251.465	85
251.698	85
251.931	82
252.164	85
252.397	86
252.63	95
252.863	86
253.096	69
253.329	81
253.562	80
253.795	75
254.028	85
254.261	90
254.494	91
254.727	84
254.96	88
255.193	80
255.426	90
255.659	77
255.892	94
256.124	81
256.357	90
256.59	71
256.823	82
257.056	86
257.289	75
257.521	97
257.754	87
257.987	79
258.22	72
258.452	75
258.685	75
258.918	84
259.151	91
259.383	83
259.616	94
259.849	95
260.081	70
260.314	92
260.547	60
260.779	88
261.012	80
261.244	93
261.477	86
261.71	85
261.942	80
262.175	97
262.407	74
262.64	92
262.872	85
263.105	75
263.337	95
263.57	94
263.802	99
264.035	90
264.267	63
264.499	93
264.732	98
264.964	89
265.197	79
265.429	73
265.661	91
265.894	80
266.126	93
266.358	85
266.591	88
266.823	93
267.055	92
267.287	68
267.52	75
267.752	90
267.984	99
268.216	84
268.448	87
268.681	91
268.913	87
269.145	86
269.377	85
269.609	93
269.841	75
270.073	81
270.306	89
270.538	84
270.77	69
271.002	91
271.234	84
271.466	87
271.698	98
271.93	77
272.162	97
272.394	82
272.626	91
272.858	78
273.09	89
273.322	99
273.553	81
273.785	83
274.017	90
274.249	87
274.481	77
274.713	82
274.945	92
275.176	91
275.408	87
275.64	108
275.872	89
276.104	79
276.335	89
276.567	100
276.799	89
277.031	75
277.262	91
277.494	85
277.726	91
277.957	92
278.189	87
278.421	87
278.652	76
278.884	77
279.115	89
279.347	77
279.579	91
279.81	79
280.042	82
280.273	89
280.505	87
280.736	101
280.968	84
281.199	86
281.431	84
281.662	93
281.894	88
282.125	77
282.356	81
282.588	82
282.819	88
283.051	81
283.282	91
283.513	87
283.745	84
283.976	88
284.207	89
284.439	90
284.67	85
284.901	91
285.132	97
285.364	91
285.595	96
285.826	85
286.057	94
286.288	89
286.52	91
286.751	87
286.982	76
287.213	89
287.444	97
287.675	94
287.906	98
288.138	91
288.369	91
288.6	82
288.831	91
289.062	100
289.293	81
289.524	85
289.755	93
289.986	91
290.217	81
290.448	86
290.679	82
290.91	101
291.141	101
291.371	97
291.602	99
291.833	85
292.064	75
292.295	86
292.526	84
292.757	89
292.987	88
293.218	92
293.449	95
293.68	96
293.91	91
294.141	98
294.372	92
294.603	91
294.833	84
295.064	80
295.295	96
295.525	86
295.756	90
295.987	91
296.217	77
296.448	79
296.679	75
296.909	90
297.14	75
297.37	97
297.601	83
297.831	87
298.062	84
298.292	90
298.523	96
298.753	84
298.984	90
299.214	84
299.445	86
299.675	86
299.905	86
300.136	82
300.366	89
300.597	91
300.827	95
301.057	98
301.288	83
301.518	88
301.748	91
301.979	88
302.209	93
302.439	85
302.669	81
302.9	93
303.13	100
303.36	106
303.59	80
303.82	89
304.051	82
304.281	84
304.511	78
304.741	72
304.971	81
305.201	93
305.431	83
305.661	71
305.891	97
306.121	84
306.352	91
306.582	84
306.812	86
307.042	77
307.272	93
307.502	97
307.731	96
307.961	104
308.191	108
308.421	113
308.651	114
308.881	112
309.111	112
309.341	109
309.571	119
309.8	91
310.03	93
310.26	93
310.49	84
310.72	91
310.949	71
311.179	79
311.409	85
311.639	85
311.868	77
312.098	84
312.328	85
312.557	89
312.787	88
313.017	85
313.246	93
313.476	91
313.706	77
313.935	65
314.165	80
314.394	99
314.624	91
314.853	100
315.083	82
315.312	97
315.542	101
315.771	99
316.001	93
316.23	89
316.46	91
316.689	86
316.919	81
317.148	81
317.377	77
317.607	89
317.836	86
318.065	99
318.295	90
318.524	89
318.753	72
318.983	95
319.212	97
319.441	104
319.67	89
319.9	91
320.129	90
320.358	82
320.587	88
320.816	75
321.046	97
321.275	98
321.504	96
321.733	97
321.962	86
322.191	82
322.42	91
322.649	84
322.878	71
323.108	77
323.337	94
323.566	95
323.795	94
324.024	92
324.253	85
324.482	97
324.71	93
324.939	93
325.168	83
325.397	104
325.626	91
325.855	103
326.084	73
326.313	94
326.542	94
326.77	96
326.999	87
327.228	99
327.457	69
327.686	85
327.914	100
328.143	106
328.372	82
328.6	100
328.829	91
329.058	96
329.287	84
329.515	80
329.744	77
329.972	79
330.201	84
330.43	97
330.658	79
330.887	79
331.115	73
331.344	80
331.572	82
331.801	78
332.03	84
332.258	80
332.486	92
332.715	86
332.943	94
333.172	80
333.4	77
333.629	83
333.857	80
334.085	85
334.314	88
334.542	93
334.771	103
334.999	80
335.227	91
335.455	89
335.684	94
335.912	81
336.14	86
336.369	77
336.597	88
336.825	75
337.053	89
337.281	86
337.51	87
337.738	89
337.966	85
338.194	83
338.422	100
338.65	85
338.878	96
339.106	92
339.334	93
339.562	78
339.79	75
340.018	83
340.246	72
340.474	91
340.702	81
340.93	95
341.158	91
341.386	90
341.614	78
341.842	85
342.07	83
342.298	81
342.526	96
342.754	82
342.981	101
343.209	86
343.437	97
343.665	69
343.893	76
344.12	75
344.348	85
344.576	89
344.804	94
345.031	91
345.259	87
345.487	100
345.714	98
345.942	77
346.17	86
346.397	90
346.625	78
346.853	103
347.08	90
347.308	93
347.535	90
347.763	89
347.99	98
348.218	75
348.445	81
348.673	82
348.9	97
349.128	95
349.355	89
349.583	84
349.81	90
350.037	86
350.265	88
350.492	94
350.72	83
350.947	90
351.174	91
351.402	95
351.629	87
351.856	99
352.083	96
352.311	103
352.538	87
352.765	95
352.992	86
353.22	75
353.447	82
353.674	91
353.901	107
354.128	86
354.355	83
354.583	69
354.81	75
355.037	87
355.264	97
355.491	87
355.718	98
355.945	75
356.172	97
356.399	79
356.626	83
356.853	79
357.08	85
357.307	70
357.534	86
357.761	82
357.988	93
358.215	91
358.441	90
358.668	63
358.895	93
359.122	85
359.349	77
359.576	103
359.802	97
360.029	93
360.256	86
360.483	83
360.709	72
360.936	85
361.163	94
361.39	99
361.616	98
361.843	80
362.07	95
362.296	95
362.523	84
362.749	76
362.976	84
363.203	89
363.429	93
363.656	83
363.882	89
364.109	67
364.335	84
364.562	80
364.788	87
365.015	84
365.241	78
365.468	101
365.694	93
365.92	92
366.147	100
366.373	100
366.599	91
366.826	73
367.052	80
367.278	89
367.505	78
367.731	86
367.957	78
368.184	83
368.41	84
368.636	93
368.862	82
369.089	97
369.315	91
369.541	76
369.767	91
369.993	88
370.219	88
370.445	95
370.672	95
370.898	87
371.124	107
371.35	85
371.576	87
371.802	101
372.028	93
372.254	88
372.48	86
372.706	95
372.932	93
373.158	102
373.384	81
373.61	99
373.835	95
374.061	80
374.287	88
374.513	97
374.739	78
374.965	100
375.191	83
375.416	81
375.642	95
375.868	99
376.094	94
376.319	77
376.545	89
376.771	84
376.997	89
377.222	84
377.448	92
377.674	103
377.899	100
378.125	93
378.35	98
378.576	91
378.802	91
379.027	81
379.253	94
379.478	83
379.704	86
379.929	92
380.155	94
380.38	91
380.606	93
380.831	95
381.057	107
381.282	95
381.507	93
381.733	102
381.958	84
382.184	87
382.409	105
382.634	104
382.86	91
383.085	114
383.31	88
383.535	79
383.761	87
383.986	99
384.211	100
384.436	96
384.662	94
384.887	81
385.112	101
385.337	100
385.562	77
385.787	104
386.013	85
386.238	91
386.463	99
386.688	96
386.913	97
387.138	98
387.363	107
387.588	102
387.813	99
388.038	97
388.263	96
388.488	109
388.713	89
388.938	99
389.163	84
389.387	87
389.612	79
389.837	89
390.062	91
390.287	100
390.512	89
390.736	95
390.961	100
391.186	93
391.411	112
391.636	98
391.86	95
392.085	93
392.31	92
392.534	108
392.759	99
392.984	104
393.208	87
393.433	91
393.658	109
393.882	101
394.107	122
394.331	169
394.556	182
394.78	116
395.005	95
395.229	91
395.454	105
395.678	116
395.903	145
396.127	192
396.352	213
396.576	134
396.801	115
397.025	93
397.249	98
397.474	111
397.698	87
397.922	115
398.147	88
398.371	109
398.595	98
398.82	93
399.044	105
399.268	99
399.492	97
399.717	95
399.941	85
400.165	93
400.389	92
400.613	97
400.837	91
401.062	94
401.286	111
401.51	106
401.734	94
401.958	109
402.182	104
402.406	96
402.63	108
402.854	103
403.078	109
403.302	95
403.526	95
403.75	99
403.974	103
404.198	109
404.422	103
404.645	109
404.869	95
405.093	89
405.317	120
405.541	94
405.765	97
405.988	91
406.212	95
406.436	98
406.66	96
406.883	103
407.107	100
407.331	105
407.555	109
407.778	115
408.002	97
408.226	93
408.449	99
408.673	84
408.896	101
409.12	98
409.344	117
409.567	115
409.791	103
410.014	105
410.238	105
410.461	98
410.685	107
410.908	96
411.132	111
411.355	109
411.578	99
411.802	109
412.025	104
412.249	107
412.472	111
412.695	99
412.919	107
413.142	101
413.365	103
413.589	101
413.812	104
414.035	97
414.258	101
414.482	110
414.705	108
414.928	113
415.151	102
415.374	97
415.597	109
415.821	105
416.044	98
416.267	105
416.49	103
416.713	113
416.936	119
417.159	103
417.382	106
417.605	112
417.828	95
418.051	106
418.274	115
418.497	130
418.72	116
418.943	114
419.166	111
419.389	112
419.611	100
419.834	95
420.057	93
420.28	108
420.503	107
420.726	105
420.948	106
421.171	107
421.394	124
421.617	117
421.839	94
422.062	111
422.285	85
422.507	92
422.73	112
422.953	97
423.175	106
423.398	127
423.621	113
423.843	125
424.066	106
424.288	96
424.511	105
424.733	103
424.956	103
425.178	106
425.401	101
425.623	102
425.846	109
426.068	122
426.291	101
426.513	112
426.735	107
426.958	109
427.18	112
427.402	98
427.625	100
427.847	113
428.069	95
428.292	119
428.514	115
428.736	106
428.958	112
429.181	101
429.403	101
429.625	108
429.847	119
430.069	95
430.292	99
430.514	121
430.736	110
430.958	106
431.18	101
431.402	110
431.624	105
431.846	85
432.068	84
432.29	75
432.512	99
432.734	96
432.956	116
433.178	109
433.4	105
433.622	107
433.844	109
434.066	106
434.287	94
434.509	77
434.731	81
434.953	82
435.175	98
435.397	99
435.618	99
435.84	109
436.062	95
436.284	99
436.505	111
436.727	108
436.949	111
437.17	113
437.392	111
437.614	98
437.835	91
438.057	89
438.278	106
438.5	105
438.721	113
438.943	122
439.165	111
439.386	111
439.608	102
439.829	103
440.05	120
440.272	103
440.493	104
440.715	108
440.936	118
441.158	134
441.379	116
441.6	118
441.822	131
442.043	114
442.264	129
442.486	106
442.707	132
442.928	123
443.149	120
443.371	128
443.592	123
443.813	136
444.034	108
444.255	106
444.476	112
444.698	119
444.919	123
445.14	179
445.361	133
445.582	129
445.803	108
446.024	111
446.245	106
446.466	107
446.687	107
446.908	118
447.129	115
447.35	108
447.571	125
447.792	126
448.013	120
448.234	113
448.455	115
448.675	115
448.896	115
449.117	114
449.338	117
449.559	114
449.779	115
450	135
450.221	125
450.442	121
450.662	101
450.883	108
451.104	100
451.324	99
451.545	108
451.766	115
451.986	107
452.207	108
452.428	119
452.648	103
452.869	103
453.089	92
453.31	107
453.53	103
453.751	85
453.971	95
454.192	89
454.412	95
454.633	93
454.853	100
455.073	99
455.294	99
455.514	93
455.734	111
455.955	92
456.175	105
456.395	95
456.616	97
456.836	108
457.056	95
457.276	91
457.497	94
457.717	88
457.937	90
458.157	99
458.377	93
458.598	71
458.818	91
459.038	87
459.258	79
459.478	99
459.698	78
459.918	74
460.138	92
460.358	103
460.578	96
460.798	86
461.018	96
461.238	106
461.458	103
461.678	100
461.898	97
462.118	101
462.338	99
462.558	100
462.777	106
462.997	107
463.217	87
463.437	100
463.657	108
463.876	83
464.096	99
464.316	97
464.536	97
464.755	100
464.975	94
465.195	103
465.414	93
465.634	103
465.854	109
466.073	92
466.293	121
466.512	108
466.732	107
466.951	108
467.171	115
467.391	130
467.61	113
467.829	104
468.049	142
468.268	121
468.488	109
468.707	119
468.927	122
469.146	129
469.365	128
469.585	121
469.804	131
470.023	117
470.243	130
470.462	123
470.681	132
470.901	120
471.12	115
471.339	103
471.558	114
471.777	107
471.997	110
472.216	109
472.435	95
472.654	101
472.873	94
473.092	95
473.311	109
473.53	117
473.749	103
473.968	111
474.187	101
474.406	93
474.625	116
474.844	114
475.063	106
475.282	104
475.501	103
475.72	116
475.939	112
476.158	101
476.377	111
476.596	115
476.814	87
477.033	111
477.252	99
477.471	115
477.69	109
477.908	97
478.127	116
478.346	108
478.564	104
478.783	112
479.002	114
479.22	117
479.439	105
479.658	84
479.876	89
480.095	99
480.313	101
480.532	100
480.751	84
480.969	87
481.188	94
481.406	85
481.624	86
481.843	91
482.061	93
482.28	108
482.498	97
482.717	86
482.935	120
483.153	122
483.372	119
483.59	116
483.808	107
484.027	100
484.245	98
484.463	103
484.681	90
484.9	105
485.118	98
485.336	99
485.554	104
485.772	89
485.99	88
486.209	104
486.427	113
486.645	93
486.863	112
487.081	128
487.299	110
487.517	108
487.735	114
487.953	128
488.171	122
488.389	121
488.607	103
488.825	105
489.043	99
489.261	107
489.479	114
489.696	114
489.914	110
490.132	107
490.35	127
490.568	129
490.786	131
491.003	131
491.221	125
491.439	140
491.657	144
491.874	163
492.092	155
492.31	149
492.527	141
492.745	139
492.963	147
493.18	161
493.398	154
493.615	142
493.833	123
494.05	141
494.268	140
494.485	148
494.703	125
494.92	129
495.138	140
495.355	137
495.573	136
495.79	129
496.008	131
496.225	128
496.442	124
496.66	138
496.877	131
497.094	119
497.312	107
497.529	116
497.746	119
497.963	109
498.181	108
498.398	111
498.615	107
498.832	100
499.049	92
499.267	106
499.484	108
499.701	104
499.918	113
500.135	115
500.352	111
500.569	115
500.786	113
501.003	121
501.22	123
501.437	112
501.654	97
501.871	116
502.088	97
502.305	113
502.522	94
502.739	112
502.956	111
503.172	113
503.389	119
503.606	111
503.823	104
504.04	102
504.256	104
504.473	106
504.69	93
504.907	98
505.123	104
505.34	113
505.557	111
505.773	113
505.99	122
506.207	115
506.423	111
506.64	97
506.856	108
507.073	101
507.289	108
507.506	111
507.722	102
507.939	109
508.155	91
508.372	104
508.588	90
508.805	86
509.021	89
509.238	95
509.454	94
509.67	91
509.887	88
510.103	90
510.319	84
510.536	81
510.752	95
510.968	86
511.184	85
511.401	103
511.617	82
511.833	88
512.049	91
512.265	87
512.481	91
512.698	91
512.914	86
513.13	77
513.346	93
513.562	96
513.778	97
513.994	86
514.21	80
514.426	78
514.642	96
514.858	85
515.074	99
515.29	92
515.506	76
515.721	80
515.937	83
516.153	95
516.369	80
516.585	90
516.801	79
517.016	92
517.232	94
517.448	90
517.664	99
517.879	88
518.095	92
518.311	84
518.527	93
518.742	98
518.958	81
519.173	94
519.389	89
519.605	98
519.82	96
520.036	102
520.251	96
520.467	94
520.682	83
520.898	79
521.113	105
521.329	100
521.544	78
521.76	101
521.975	103
522.19	89
522.406	95
522.621	96
522.836	95
523.052	83
523.267	101
523.482	115
523.698	91
523.913	89
524.128	90
524.343	111
524.559	109
524.774	101
524.989	105
525.204	101
525.419	102
525.634	107
525.849	96
526.064	74
526.28	91
526.495	86
526.71	95
526.925	90
527.14	75
527.355	73
527.57	83
527.785	94
527.999	91
528.214	97
528.429	88
528.644	103
528.859	114
529.074	104
529.289	96
529.503	115
529.718	107
529.933	85
530.148	88
530.363	91
530.577	76
530.792	97
531.007	92
531.221	97
531.436	85
531.651	94
531.865	84
532.08	82
532.295	87
532.509	79
532.724	87
532.938	91
533.153	99
533.367	96
533.582	103
533.796	99
534.011	81
534.225	91
534.44	71
534.654	87
534.868	79
535.083	80
535.297	93
535.511	98
535.726	85
535.94	100
536.154	85
536.369	101
536.583	98
536.797	100
537.011	100
537.225	96
537.44	102
537.654	94
537.868	91
538.082	95
538.296	83
538.51	94
538.724	92
538.938	101
539.153	124
539.367	108
539.581	107
539.795	92
540.009	93
540.222	88
540.436	105
540.65	121
540.864	122
541.078	108
541.292	123
541.506	111
541.72	121
541.934	135
542.147	131
542.361	108
542.575	111
542.789	109
543.002	98
543.216	85
543.43	108
543.644	117
543.857	120
544.071	111
544.285	108
544.498	133
544.712	141
544.925	122
545.139	109
545.352	135
545.566	139
545.779	115
545.993	131
546.206	128
546.42	128
546.633	129
546.847	120
547.06	135
547.274	138
547.487	137
547.7	125
547.914	137
548.127	143
548.34	121
548.554	124
548.767	138
548.98	128
549.193	119
549.407	125
549.62	125
549.833	127
550.046	119
550.259	126
550.473	147
550.686	129
550.899	111
551.112	119
551.325	119
551.538	113
551.751	100
551.964	130
552.177	112
552.39	109
552.603	129
552.816	123
553.029	130
553.242	106
553.455	109
553.667	130
553.88	125
554.093	126
554.306	135
554.519	127
554.732	134
554.944	135
555.157	120
555.37	113
555.583	121
555.795	131
556.008	117
556.221	114
556.433	112
556.646	117
556.859	118
557.071	124
557.284	116
557.496	114
557.709	128
557.921	127
558.134	103
558.346	113
558.559	115
558.771	121
558.984	116
559.196	106
559.409	119
559.621	111
559.833	111
560.046	117
560.258	109
560.47	116
560.683	106
560.895	113
561.107	108
561.32	115
561.532	100
561.744	119
561.956	116
562.168	112
562.381	122
562.593	125
562.805	116
563.017	120
563.229	99
563.441	125
563.653	102
563.865	121
564.077	108
564.289	111
564.501	101
564.713	100
564.925	100
565.137	101
565.349	100
565.561	97
565.773	120
565.985	111
566.197	105
566.408	116
566.62	105
566.832	112
567.044	107
567.255	109
567.467	99
567.679	92
567.891	92
568.102	93
568.314	97
568.526	97
568.737	89
568.949	95
569.161	80
569.372	91
569.584	77
569.795	91
570.007	85
570.218	80
570.43	96
570.641	80
570.853	99
571.064	87
571.276	104
571.487	100
571.698	84
571.91	100
572.121	97
572.333	93
572.544	94
572.755	85
572.966	83
573.178	89
573.389	81
573.6	83
573.811	95
574.023	84
574.234	93
574.445	92
574.656	89
574.867	70
575.078	94
575.289	88
575.501	101
575.712	83
575.923	105
576.134	107
576.345	91
576.556	82
576.767	100
576.978	99
577.188	96
577.399	91
577.61	95
577.821	98
578.032	94
578.243	90
578.454	86
578.665	88
578.875	95
579.086	84
579.297	82
579.508	103
579.718	89
579.929	83
580.14	91
580.35	73
580.561	77
