Data from Foil_2_HRD10591_00018.txt Node
Date: Wed Nov 05 16:17:30 EST 2025
User: Yrep
Spectrometer: HR+D1059
Trigger mode: 1
Integration Time (sec): 1.000000E-1
Scans to average: 1
Electric dark correction enabled: true
Nonlinearity correction enabled: false
Boxcar width: 0
XAxis mode: Wavelengths
Number of Pixels in Spectrum: 2048
>>>>>Begin Spectral Data<<<<<
223.165	-14.38
223.4	-14.38
223.635	-14.38
223.869	-14.38
224.104	-30.38
224.338	-18.38
224.573	-19.38
224.808	5.62
225.042	-11.38
225.277	-6.38
225.511	3.62
225.746	-0.38
225.98	19.62
226.215	15.62
226.449	14.62
226.683	2.62
226.918	18.62
227.152	34.62
227.387	26.62
227.621	34.62
227.856	47.62
228.09	41.62
228.324	46.62
228.559	52.62
228.793	48.62
229.027	61.62
229.262	62.62
229.496	62.62
229.73	63.62
229.964	65.62
230.199	67.62
230.433	70.62
230.667	84.62
230.901	58.62
231.136	75.62
231.37	76.62
231.604	60.62
231.838	77.62
232.072	78.62
232.306	92.62
232.541	84.62
232.775	74.62
233.009	77.62
233.243	86.62
233.477	85.62
233.711	65.62
233.945	72.62
234.179	93.62
234.413	82.62
234.647	83.62
234.881	82.62
235.115	83.62
235.349	79.62
235.583	88.62
235.817	70.62
236.051	68.62
236.285	70.62
236.519	60.62
236.753	75.62
236.987	67.62
237.221	63.62
237.455	83.62
237.689	70.62
237.922	61.62
238.156	67.62
238.39	71.62
238.624	77.62
238.858	77.62
239.091	73.62
239.325	64.62
239.559	73.62
239.793	71.62
240.027	73.62
240.26	71.62
240.494	76.62
240.728	85.62
240.961	74.62
241.195	70.62
241.429	78.62
241.662	72.62
241.896	74.62
242.13	81.62
242.363	74.62
242.597	65.62
242.83	85.62
243.064	78.62
243.298	74.62
243.531	76.62
243.765	60.62
243.998	71.62
244.232	64.62
244.465	72.62
244.699	62.62
244.932	66.62
245.166	76.62
245.399	86.62
245.633	92.62
245.866	70.62
246.099	68.62
246.333	63.62
246.566	67.62
246.8	74.62
247.033	83.62
247.266	82.62
247.5	71.62
247.733	67.62
247.966	66.62
248.2	60.62
248.433	85.62
248.666	83.62
248.899	75.62
249.133	70.62
249.366	85.62
249.599	73.62
249.832	71.62
250.066	73.62
250.299	86.62
250.532	79.62
250.765	83.62
250.998	89.62
251.231	68.62
251.465	81.62
251.698	67.62
251.931	77.62
252.164	75.62
252.397	79.62
252.63	89.62
252.863	76.62
253.096	72.62
253.329	74.62
253.562	63.62
253.795	62.62
254.028	78.62
254.261	76.62
254.494	79.62
254.727	62.62
254.96	77.62
255.193	64.62
255.426	73.62
255.659	84.62
255.892	91.62
256.124	75.62
256.357	87.62
256.59	71.62
256.823	86.62
257.056	83.62
257.289	65.62
257.521	73.62
257.754	72.62
257.987	75.62
258.22	78.62
258.452	70.62
258.685	75.62
258.918	61.62
259.151	77.62
259.383	70.62
259.616	64.62
259.849	73.62
260.081	77.62
260.314	89.62
260.547	83.62
260.779	82.62
261.012	75.62
261.244	74.62
261.477	81.62
261.71	80.62
261.942	84.62
262.175	95.62
262.407	81.62
262.64	70.62
262.872	85.62
263.105	72.62
263.337	77.62
263.57	74.62
263.802	71.62
264.035	77.62
264.267	87.62
264.499	78.62
264.732	77.62
264.964	83.62
265.197	72.62
265.429	78.62
265.661	92.62
265.894	78.62
266.126	91.62
266.358	84.62
266.591	94.62
266.823	85.62
267.055	73.62
267.287	63.62
267.52	60.62
267.752	74.62
267.984	72.62
268.216	74.62
268.448	88.62
268.681	80.62
268.913	88.62
269.145	95.62
269.377	76.62
269.609	73.62
269.841	81.62
270.073	84.62
270.306	86.62
270.538	87.62
270.77	95.62
271.002	77.62
271.234	85.62
271.466	69.62
271.698	74.62
271.93	80.62
272.162	78.62
272.394	73.62
272.626	73.62
272.858	64.62
273.09	73.62
273.322	84.62
273.553	65.62
273.785	87.62
274.017	69.62
274.249	64.62
274.481	66.62
274.713	78.62
274.945	80.62
275.176	93.62
275.408	85.62
275.64	84.62
275.872	74.62
276.104	87.62
276.335	82.62
276.567	73.62
276.799	78.62
277.031	70.62
277.262	72.62
277.494	67.62
277.726	85.62
277.957	84.62
278.189	70.62
278.421	64.62
278.652	70.62
278.884	74.62
279.115	82.62
279.347	68.62
279.579	72.62
279.81	88.62
280.042	74.62
280.273	82.62
280.505	83.62
280.736	93.62
280.968	72.62
281.199	80.62
281.431	71.62
281.662	78.62
281.894	87.62
282.125	89.62
282.356	82.62
282.588	78.62
282.819	77.62
283.051	73.62
283.282	87.62
283.513	96.62
283.745	65.62
283.976	82.62
284.207	75.62
284.439	95.62
284.67	61.62
284.901	87.62
285.132	84.62
285.364	82.62
285.595	63.62
285.826	91.62
286.057	68.62
286.288	75.62
286.52	84.62
286.751	94.62
286.982	85.62
287.213	79.62
287.444	91.62
287.675	69.62
287.906	72.62
288.138	84.62
288.369	69.62
288.6	83.62
288.831	77.62
289.062	83.62
289.293	73.62
289.524	81.62
289.755	83.62
289.986	81.62
290.217	78.62
290.448	76.62
290.679	57.62
290.91	86.62
291.141	61.62
291.371	73.62
291.602	80.62
291.833	76.62
292.064	83.62
292.295	78.62
292.526	69.62
292.757	80.62
292.987	84.62
293.218	88.62
293.449	90.62
293.68	90.62
293.91	85.62
294.141	83.62
294.372	85.62
294.603	79.62
294.833	94.62
295.064	76.62
295.295	78.62
295.525	94.62
295.756	83.62
295.987	79.62
296.217	76.62
296.448	95.62
296.679	85.62
296.909	76.62
297.14	71.62
297.37	77.62
297.601	87.62
297.831	66.62
298.062	79.62
298.292	86.62
298.523	78.62
298.753	79.62
298.984	80.62
299.214	73.62
299.445	77.62
299.675	72.62
299.905	64.62
300.136	72.62
300.366	75.62
300.597	81.62
300.827	79.62
301.057	79.62
301.288	70.62
301.518	83.62
301.748	83.62
301.979	105.62
302.209	94.62
302.439	86.62
302.669	82.62
302.9	84.62
303.13	92.62
303.36	86.62
303.59	70.62
303.82	73.62
304.051	64.62
304.281	75.62
304.511	77.62
304.741	90.62
304.971	79.62
305.201	90.62
305.431	85.62
305.661	84.62
305.891	99.62
306.121	81.62
306.352	76.62
306.582	93.62
306.812	75.62
307.042	74.62
307.272	80.62
307.502	74.62
307.731	78.62
307.961	85.62
308.191	107.62
308.421	99.62
308.651	86.62
308.881	85.62
309.111	107.62
309.341	114.62
309.571	104.62
309.8	81.62
310.03	82.62
310.26	72.62
310.49	92.62
310.72	80.62
310.949	79.62
311.179	65.62
311.409	72.62
311.639	67.62
311.868	86.62
312.098	66.62
312.328	91.62
312.557	76.62
312.787	86.62
313.017	90.62
313.246	75.62
313.476	67.62
313.706	75.62
313.935	68.62
314.165	79.62
314.394	79.62
314.624	79.62
314.853	86.62
315.083	79.62
315.312	70.62
315.542	73.62
315.771	75.62
316.001	76.62
316.23	93.62
316.46	90.62
316.689	86.62
316.919	75.62
317.148	85.62
317.377	81.62
317.607	86.62
317.836	75.62
318.065	82.62
318.295	67.62
318.524	79.62
318.753	85.62
318.983	69.62
319.212	86.62
319.441	82.62
319.67	84.62
319.9	74.62
320.129	62.62
320.358	72.62
320.587	91.62
320.816	82.62
321.046	73.62
321.275	78.62
321.504	82.62
321.733	85.62
321.962	83.62
322.191	92.62
322.42	78.62
322.649	87.62
322.878	85.62
323.108	96.62
323.337	95.62
323.566	76.62
323.795	78.62
324.024	84.62
324.253	74.62
324.482	75.62
324.71	66.62
324.939	77.62
325.168	79.62
325.397	75.62
325.626	78.62
325.855	73.62
326.084	73.62
326.313	76.62
326.542	71.62
326.77	79.62
326.999	78.62
327.228	68.62
327.457	83.62
327.686	82.62
327.914	68.62
328.143	86.62
328.372	81.62
328.6	77.62
328.829	91.62
329.058	80.62
329.287	77.62
329.515	71.62
329.744	78.62
329.972	89.62
330.201	92.62
330.43	82.62
330.658	79.62
330.887	79.62
331.115	77.62
331.344	76.62
331.572	90.62
331.801	69.62
332.03	75.62
332.258	78.62
332.486	80.62
332.715	85.62
332.943	88.62
333.172	84.62
333.4	85.62
333.629	79.62
333.857	79.62
334.085	78.62
334.314	76.62
334.542	74.62
334.771	92.62
334.999	69.62
335.227	79.62
335.455	89.62
335.684	87.62
335.912	85.62
336.14	83.62
336.369	82.62
336.597	73.62
336.825	72.62
337.053	88.62
337.281	86.62
337.51	71.62
337.738	87.62
337.966	70.62
338.194	90.62
338.422	78.62
338.65	71.62
338.878	94.62
339.106	72.62
339.334	82.62
339.562	77.62
339.79	79.62
340.018	71.62
340.246	75.62
340.474	76.62
340.702	83.62
340.93	79.62
341.158	79.62
341.386	79.62
341.614	60.62
341.842	77.62
342.07	72.62
342.298	70.62
342.526	76.62
342.754	77.62
342.981	81.62
343.209	71.62
343.437	97.62
343.665	79.62
343.893	71.62
344.12	66.62
344.348	73.62
344.576	84.62
344.804	83.62
345.031	81.62
345.259	79.62
345.487	77.62
345.714	72.62
345.942	74.62
346.17	65.62
346.397	73.62
346.625	92.62
346.853	79.62
347.08	70.62
347.308	77.62
347.535	76.62
347.763	78.62
347.99	80.62
348.218	85.62
348.445	82.62
348.673	80.62
348.9	70.62
349.128	77.62
349.355	84.62
349.583	83.62
349.81	79.62
350.037	74.62
350.265	82.62
350.492	79.62
350.72	84.62
350.947	87.62
351.174	72.62
351.402	83.62
351.629	83.62
351.856	78.62
352.083	83.62
352.311	75.62
352.538	83.62
352.765	90.62
352.992	94.62
353.22	88.62
353.447	69.62
353.674	72.62
353.901	84.62
354.128	69.62
354.355	78.62
354.583	84.62
354.81	69.62
355.037	71.62
355.264	81.62
355.491	78.62
355.718	87.62
355.945	81.62
356.172	78.62
356.399	81.62
356.626	75.62
356.853	73.62
357.08	73.62
357.307	74.62
357.534	61.62
357.761	76.62
357.988	78.62
358.215	85.62
358.441	85.62
358.668	82.62
358.895	76.62
359.122	88.62
359.349	88.62
359.576	75.62
359.802	77.62
360.029	89.62
360.256	87.62
360.483	72.62
360.709	75.62
360.936	93.62
361.163	99.62
361.39	85.62
361.616	77.62
361.843	81.62
362.07	83.62
362.296	64.62
362.523	81.62
362.749	61.62
362.976	79.62
363.203	83.62
363.429	62.62
363.656	91.62
363.882	86.62
364.109	81.62
364.335	93.62
364.562	92.62
364.788	76.62
365.015	80.62
365.241	86.62
365.468	80.62
365.694	83.62
365.92	77.62
366.147	71.62
366.373	71.62
366.599	79.62
366.826	62.62
367.052	88.62
367.278	81.62
367.505	79.62
367.731	83.62
367.957	77.62
368.184	81.62
368.41	72.62
368.636	87.62
368.862	87.62
369.089	67.62
369.315	74.62
369.541	83.62
369.767	92.62
369.993	65.62
370.219	83.62
370.445	84.62
370.672	91.62
370.898	76.62
371.124	77.62
371.35	84.62
371.576	77.62
371.802	83.62
372.028	86.62
372.254	83.62
372.48	73.62
372.706	81.62
372.932	92.62
373.158	72.62
373.384	77.62
373.61	81.62
373.835	79.62
374.061	76.62
374.287	93.62
374.513	68.62
374.739	91.62
374.965	81.62
375.191	76.62
375.416	73.62
375.642	88.62
375.868	87.62
376.094	86.62
376.319	88.62
376.545	74.62
376.771	78.62
376.997	78.62
377.222	88.62
377.448	89.62
377.674	86.62
377.899	73.62
378.125	78.62
378.35	84.62
378.576	78.62
378.802	97.62
379.027	88.62
379.253	84.62
379.478	85.62
379.704	86.62
379.929	94.62
380.155	88.62
380.38	82.62
380.606	75.62
380.831	83.62
381.057	95.62
381.282	79.62
381.507	90.62
381.733	77.62
381.958	86.62
382.184	91.62
382.409	75.62
382.634	72.62
382.86	74.62
383.085	90.62
383.31	94.62
383.535	88.62
383.761	77.62
383.986	88.62
384.211	92.62
384.436	73.62
384.662	82.62
384.887	93.62
385.112	69.62
385.337	100.62
385.562	98.62
385.787	93.62
386.013	74.62
386.238	91.62
386.463	75.62
386.688	97.62
386.913	80.62
387.138	78.62
387.363	91.62
387.588	94.62
387.813	90.62
388.038	93.62
388.263	95.62
388.488	69.62
388.713	72.62
388.938	84.62
389.163	81.62
389.387	82.62
389.612	76.62
389.837	73.62
390.062	81.62
390.287	97.62
390.512	101.62
390.736	76.62
390.961	87.62
391.186	82.62
391.411	91.62
391.636	96.62
391.86	93.62
392.085	83.62
392.31	102.62
392.534	86.62
392.759	101.62
392.984	74.62
393.208	82.62
393.433	76.62
393.658	84.62
393.882	103.62
394.107	143.62
394.331	156.62
394.556	198.62
394.78	118.62
395.005	103.62
395.229	100.62
395.454	93.62
395.678	114.62
395.903	147.62
396.127	193.62
396.352	202.62
396.576	101.62
396.801	97.62
397.025	93.62
397.249	86.62
397.474	102.62
397.698	98.62
397.922	102.62
398.147	93.62
398.371	98.62
398.595	102.62
398.82	94.62
399.044	72.62
399.268	94.62
399.492	98.62
399.717	90.62
399.941	92.62
400.165	89.62
400.389	93.62
400.613	85.62
400.837	93.62
401.062	95.62
401.286	97.62
401.51	106.62
401.734	88.62
401.958	86.62
402.182	105.62
402.406	92.62
402.63	73.62
402.854	95.62
403.078	102.62
403.302	93.62
403.526	106.62
403.75	96.62
403.974	101.62
404.198	107.62
404.422	97.62
404.645	86.62
404.869	82.62
405.093	98.62
405.317	102.62
405.541	101.62
405.765	98.62
405.988	96.62
406.212	86.62
406.436	93.62
406.66	107.62
406.883	108.62
407.107	75.62
407.331	88.62
407.555	103.62
407.778	102.62
408.002	109.62
408.226	95.62
408.449	84.62
408.673	96.62
408.896	115.62
409.12	99.62
409.344	95.62
409.567	100.62
409.791	107.62
410.014	92.62
410.238	100.62
410.461	87.62
410.685	103.62
410.908	86.62
411.132	113.62
411.355	104.62
411.578	101.62
411.802	114.62
412.025	109.62
412.249	101.62
412.472	86.62
412.695	85.62
412.919	95.62
413.142	104.62
413.365	96.62
413.589	107.62
413.812	105.62
414.035	94.62
414.258	101.62
414.482	102.62
414.705	110.62
414.928	95.62
415.151	103.62
415.374	89.62
415.597	98.62
415.821	103.62
416.044	87.62
416.267	103.62
416.49	107.62
416.713	94.62
416.936	97.62
417.159	85.62
417.382	99.62
417.605	104.62
417.828	116.62
418.051	103.62
418.274	106.62
418.497	93.62
418.72	95.62
418.943	95.62
419.166	114.62
419.389	96.62
419.611	109.62
419.834	91.62
420.057	91.62
420.28	91.62
420.503	105.62
420.726	105.62
420.948	102.62
421.171	99.62
421.394	104.62
421.617	102.62
421.839	108.62
422.062	104.62
422.285	87.62
422.507	96.62
422.73	99.62
422.953	119.62
423.175	85.62
423.398	91.62
423.621	89.62
423.843	89.62
424.066	94.62
424.288	101.62
424.511	101.62
424.733	107.62
424.956	90.62
425.178	86.62
425.401	99.62
425.623	83.62
425.846	97.62
426.068	98.62
426.291	98.62
426.513	93.62
426.735	103.62
426.958	99.62
427.18	97.62
427.402	112.62
427.625	104.62
427.847	102.62
428.069	94.62
428.292	102.62
428.514	84.62
428.736	105.62
428.958	85.62
429.181	86.62
429.403	88.62
429.625	101.62
429.847	91.62
430.069	89.62
430.292	94.62
430.514	101.62
430.736	82.62
430.958	100.62
431.18	92.62
431.402	98.62
431.624	89.62
431.846	92.62
432.068	82.62
432.29	79.62
432.512	92.62
432.734	97.62
432.956	104.62
433.178	100.62
433.4	105.62
433.622	94.62
433.844	81.62
434.066	105.62
434.287	94.62
434.509	83.62
434.731	91.62
434.953	88.62
435.175	89.62
435.397	105.62
435.618	77.62
435.84	93.62
436.062	111.62
436.284	101.62
436.505	108.62
436.727	111.62
436.949	99.62
437.17	99.62
437.392	87.62
437.614	89.62
437.835	90.62
438.057	81.62
438.278	84.62
438.5	91.62
438.721	102.62
438.943	97.62
439.165	91.62
439.386	109.62
439.608	108.62
439.829	100.62
440.05	119.62
440.272	113.62
440.493	112.62
440.715	111.62
440.936	108.62
441.158	104.62
441.379	116.62
441.6	124.62
441.822	85.62
442.043	99.62
442.264	97.62
442.486	97.62
442.707	119.62
442.928	104.62
443.149	99.62
443.371	109.62
443.592	93.62
443.813	116.62
444.034	97.62
444.255	111.62
444.476	93.62
444.698	97.62
444.919	117.62
445.14	177.62
445.361	149.62
445.582	113.62
445.803	106.62
446.024	98.62
446.245	112.62
446.466	115.62
446.687	111.62
446.908	101.62
447.129	105.62
447.35	101.62
447.571	112.62
447.792	101.62
448.013	99.62
448.234	115.62
448.455	105.62
448.675	106.62
448.896	100.62
449.117	117.62
449.338	120.62
449.559	117.62
449.779	103.62
450	106.62
450.221	97.62
450.442	125.62
450.662	110.62
450.883	102.62
451.104	116.62
451.324	108.62
451.545	98.62
451.766	103.62
451.986	108.62
452.207	103.62
452.428	92.62
452.648	102.62
452.869	93.62
453.089	89.62
453.31	79.62
453.53	73.62
453.751	90.62
453.971	91.62
454.192	79.62
454.412	94.62
454.633	102.62
454.853	77.62
455.073	102.62
455.294	107.62
455.514	96.62
455.734	97.62
455.955	91.62
456.175	103.62
456.395	78.62
456.616	84.62
456.836	89.62
457.056	103.62
457.276	91.62
457.497	82.62
457.717	100.62
457.937	79.62
458.157	83.62
458.377	79.62
458.598	87.62
458.818	85.62
459.038	80.62
459.258	74.62
459.478	79.62
459.698	86.62
459.918	73.62
460.138	82.62
460.358	67.62
460.578	75.62
460.798	84.62
461.018	85.62
461.238	91.62
461.458	92.62
461.678	88.62
461.898	98.62
462.118	92.62
462.338	111.62
462.558	98.62
462.777	73.62
462.997	82.62
463.217	91.62
463.437	80.62
463.657	85.62
463.876	86.62
464.096	90.62
464.316	98.62
464.536	101.62
464.755	97.62
464.975	97.62
465.195	114.62
465.414	87.62
465.634	89.62
465.854	97.62
466.073	95.62
466.293	104.62
466.512	90.62
466.732	107.62
466.951	112.62
467.171	115.62
467.391	122.62
467.61	135.62
467.829	127.62
468.049	103.62
468.268	119.62
468.488	111.62
468.707	107.62
468.927	113.62
469.146	102.62
469.365	99.62
469.585	113.62
469.804	103.62
470.023	99.62
470.243	120.62
470.462	124.62
470.681	106.62
470.901	108.62
471.12	99.62
471.339	109.62
471.558	106.62
471.777	103.62
471.997	107.62
472.216	102.62
472.435	90.62
472.654	85.62
472.873	97.62
473.092	94.62
473.311	91.62
473.53	106.62
473.749	101.62
473.968	100.62
474.187	89.62
474.406	97.62
474.625	98.62
474.844	108.62
475.063	105.62
475.282	119.62
475.501	101.62
475.72	101.62
475.939	108.62
476.158	88.62
476.377	105.62
476.596	100.62
476.814	89.62
477.033	90.62
477.252	97.62
477.471	92.62
477.69	90.62
477.908	104.62
478.127	108.62
478.346	93.62
478.564	101.62
478.783	100.62
479.002	109.62
479.22	99.62
479.439	106.62
479.658	92.62
479.876	88.62
480.095	87.62
480.313	108.62
480.532	105.62
480.751	89.62
480.969	75.62
481.188	81.62
481.406	86.62
481.624	77.62
481.843	82.62
482.061	91.62
482.28	94.62
482.498	93.62
482.717	99.62
482.935	104.62
483.153	99.62
483.372	126.62
483.59	108.62
483.808	102.62
484.027	92.62
484.245	87.62
484.463	103.62
484.681	98.62
484.9	103.62
485.118	103.62
485.336	90.62
485.554	78.62
485.772	86.62
485.99	97.62
486.209	90.62
486.427	91.62
486.645	94.62
486.863	111.62
487.081	96.62
487.299	100.62
487.517	92.62
487.735	109.62
487.953	110.62
488.171	105.62
488.389	113.62
488.607	94.62
488.825	98.62
489.043	96.62
489.261	108.62
489.479	102.62
489.696	99.62
489.914	115.62
490.132	106.62
490.35	114.62
490.568	119.62
490.786	118.62
491.003	130.62
491.221	116.62
491.439	103.62
491.657	128.62
491.874	142.62
492.092	143.62
492.31	142.62
492.527	141.62
492.745	135.62
492.963	157.62
493.18	147.62
493.398	148.62
493.615	142.62
493.833	126.62
494.05	126.62
494.268	136.62
494.485	140.62
494.703	129.62
494.92	123.62
495.138	144.62
495.355	142.62
495.573	126.62
495.79	129.62
496.008	139.62
496.225	127.62
496.442	129.62
496.66	127.62
496.877	123.62
497.094	117.62
497.312	115.62
497.529	109.62
497.746	110.62
497.963	93.62
498.181	106.62
498.398	89.62
498.615	93.62
498.832	82.62
499.049	92.62
499.267	90.62
499.484	92.62
499.701	95.62
499.918	105.62
500.135	110.62
500.352	92.62
500.569	105.62
500.786	131.62
501.003	101.62
501.22	115.62
501.437	105.62
501.654	113.62
501.871	95.62
502.088	89.62
502.305	109.62
502.522	108.62
502.739	96.62
502.956	100.62
503.172	99.62
503.389	100.62
503.606	93.62
503.823	90.62
504.04	99.62
504.256	106.62
504.473	88.62
504.69	97.62
504.907	104.62
505.123	89.62
505.34	89.62
505.557	81.62
505.773	106.62
505.99	93.62
506.207	87.62
506.423	95.62
506.64	100.62
506.856	94.62
507.073	94.62
507.289	101.62
507.506	98.62
507.722	91.62
507.939	79.62
508.155	92.62
508.372	103.62
508.588	95.62
508.805	90.62
509.021	86.62
509.238	101.62
509.454	87.62
509.67	89.62
509.887	80.62
510.103	101.62
510.319	75.62
510.536	94.62
510.752	78.62
510.968	79.62
511.184	82.62
511.401	78.62
511.617	84.62
511.833	97.62
512.049	80.62
512.265	79.62
512.481	91.62
512.698	81.62
512.914	72.62
513.13	79.62
513.346	86.62
513.562	75.62
513.778	80.62
513.994	87.62
514.21	91.62
514.426	80.62
514.642	87.62
514.858	90.62
515.074	93.62
515.29	83.62
515.506	88.62
515.721	83.62
515.937	89.62
516.153	81.62
516.369	74.62
516.585	74.62
