Data from Foil_2_HRD10591_00019.txt Node
Date: Wed Nov 05 16:17:31 EST 2025
User: Yrep
Spectrometer: HR+D1059
Trigger mode: 1
Integration Time (sec): 1.000000E-1
Scans to average: 1
Electric dark correction enabled: true
Nonlinearity correction enabled: false
Boxcar width: 0
XAxis mode: Wavelengths
Number of Pixels in Spectrum: 2048
>>>>>Begin Spectral Data<<<<<
223.165	-20.25
223.4	-20.25
223.635	-20.25
223.869	-14.25
224.104	-11.25
224.338	-27.25
224.573	-20.25
224.808	-16.25
225.042	-11.25
225.277	-4.25
225.511	-10.25
225.746	11.75
225.98	7.75
226.215	13.75
226.449	14.75
226.683	25.75
226.918	32.75
227.152	28.75
227.387	34.75
227.621	33.75
227.856	46.75
228.09	48.75
228.324	52.75
228.559	49.75
228.793	52.75
229.027	52.75
229.262	64.75
229.496	73.75
229.73	86.75
229.964	73.75
230.199	70.75
230.433	57.75
230.667	68.75
230.901	72.75
231.136	82.75
231.37	75.75
231.604	76.75
231.838	84.75
232.072	74.75
232.306	92.75
232.541	86.75
232.775	79.75
233.009	86.75
233.243	67.75
233.477	77.75
233.711	71.75
233.945	76.75
234.179	92.75
234.413	75.75
234.647	69.75
234.881	71.75
235.115	81.75
235.349	72.75
235.583	68.75
235.817	60.75
236.051	70.75
236.285	81.75
236.519	69.75
236.753	87.75
236.987	79.75
237.221	76.75
237.455	78.75
237.689	85.75
237.922	86.75
238.156	72.75
238.39	72.75
238.624	76.75
238.858	79.75
239.091	65.75
239.325	88.75
239.559	68.75
239.793	67.75
240.027	87.75
240.26	66.75
240.494	78.75
240.728	82.75
240.961	86.75
241.195	90.75
241.429	65.75
241.662	70.75
241.896	81.75
242.13	87.75
242.363	85.75
242.597	76.75
242.83	75.75
243.064	64.75
243.298	75.75
243.531	77.75
243.765	70.75
243.998	90.75
244.232	72.75
244.465	68.75
244.699	67.75
244.932	62.75
245.166	73.75
245.399	70.75
245.633	64.75
245.866	72.75
246.099	64.75
246.333	81.75
246.566	85.75
246.8	78.75
247.033	72.75
247.266	67.75
247.5	73.75
247.733	68.75
247.966	64.75
248.2	65.75
248.433	80.75
248.666	73.75
248.899	78.75
249.133	78.75
249.366	89.75
249.599	90.75
249.832	80.75
250.066	73.75
250.299	80.75
250.532	68.75
250.765	72.75
250.998	85.75
251.231	87.75
251.465	89.75
251.698	78.75
251.931	75.75
252.164	77.75
252.397	86.75
252.63	77.75
252.863	71.75
253.096	70.75
253.329	75.75
253.562	83.75
253.795	83.75
254.028	89.75
254.261	72.75
254.494	77.75
254.727	82.75
254.96	88.75
255.193	76.75
255.426	70.75
255.659	76.75
255.892	85.75
256.124	74.75
256.357	72.75
256.59	81.75
256.823	79.75
257.056	74.75
257.289	79.75
257.521	75.75
257.754	94.75
257.987	78.75
258.22	82.75
258.452	74.75
258.685	87.75
258.918	68.75
259.151	90.75
259.383	80.75
259.616	82.75
259.849	91.75
260.081	72.75
260.314	84.75
260.547	86.75
260.779	75.75
261.012	86.75
261.244	92.75
261.477	86.75
261.71	60.75
261.942	83.75
262.175	83.75
262.407	79.75
262.64	76.75
262.872	93.75
263.105	64.75
263.337	90.75
263.57	83.75
263.802	97.75
264.035	89.75
264.267	84.75
264.499	77.75
264.732	82.75
264.964	77.75
265.197	89.75
265.429	82.75
265.661	73.75
265.894	85.75
266.126	88.75
266.358	77.75
266.591	74.75
266.823	77.75
267.055	72.75
267.287	80.75
267.52	81.75
267.752	63.75
267.984	83.75
268.216	83.75
268.448	80.75
268.681	86.75
268.913	86.75
269.145	73.75
269.377	79.75
269.609	85.75
269.841	74.75
270.073	84.75
270.306	81.75
270.538	71.75
270.77	77.75
271.002	80.75
271.234	90.75
271.466	94.75
271.698	81.75
271.93	84.75
272.162	76.75
272.394	83.75
272.626	73.75
272.858	73.75
273.09	80.75
273.322	90.75
273.553	86.75
273.785	93.75
274.017	82.75
274.249	87.75
274.481	72.75
274.713	71.75
274.945	78.75
275.176	78.75
275.408	75.75
275.64	74.75
275.872	68.75
276.104	68.75
276.335	76.75
276.567	82.75
276.799	76.75
277.031	74.75
277.262	78.75
277.494	79.75
277.726	80.75
277.957	105.75
278.189	82.75
278.421	74.75
278.652	77.75
278.884	86.75
279.115	78.75
279.347	82.75
279.579	76.75
279.81	75.75
280.042	89.75
280.273	81.75
280.505	83.75
280.736	80.75
280.968	103.75
281.199	80.75
281.431	82.75
281.662	82.75
281.894	87.75
282.125	75.75
282.356	80.75
282.588	86.75
282.819	80.75
283.051	83.75
283.282	97.75
283.513	90.75
283.745	86.75
283.976	79.75
284.207	68.75
284.439	81.75
284.67	89.75
284.901	76.75
285.132	74.75
285.364	87.75
285.595	73.75
285.826	87.75
286.057	84.75
286.288	88.75
286.52	76.75
286.751	88.75
286.982	92.75
287.213	87.75
287.444	85.75
287.675	77.75
287.906	83.75
288.138	76.75
288.369	72.75
288.6	89.75
288.831	82.75
289.062	79.75
289.293	90.75
289.524	81.75
289.755	86.75
289.986	68.75
290.217	76.75
290.448	82.75
290.679	93.75
290.91	76.75
291.141	86.75
291.371	74.75
291.602	86.75
291.833	72.75
292.064	83.75
292.295	69.75
292.526	87.75
292.757	82.75
292.987	91.75
293.218	92.75
293.449	77.75
293.68	83.75
293.91	85.75
294.141	85.75
294.372	85.75
294.603	83.75
294.833	80.75
295.064	83.75
295.295	75.75
295.525	75.75
295.756	80.75
295.987	99.75
296.217	84.75
296.448	86.75
296.679	106.75
296.909	83.75
297.14	90.75
297.37	96.75
297.601	93.75
297.831	90.75
298.062	89.75
298.292	70.75
298.523	74.75
298.753	81.75
298.984	87.75
299.214	78.75
299.445	78.75
299.675	91.75
299.905	78.75
300.136	85.75
300.366	78.75
300.597	94.75
300.827	82.75
301.057	79.75
301.288	89.75
301.518	88.75
301.748	93.75
301.979	97.75
302.209	71.75
302.439	83.75
302.669	88.75
302.9	85.75
303.13	73.75
303.36	90.75
303.59	85.75
303.82	92.75
304.051	78.75
304.281	87.75
304.511	88.75
304.741	67.75
304.971	82.75
305.201	80.75
305.431	84.75
305.661	86.75
305.891	87.75
306.121	91.75
306.352	68.75
306.582	78.75
306.812	79.75
307.042	98.75
307.272	84.75
307.502	82.75
307.731	87.75
307.961	88.75
308.191	101.75
308.421	97.75
308.651	80.75
308.881	90.75
309.111	102.75
309.341	102.75
309.571	95.75
309.8	91.75
310.03	81.75
310.26	83.75
310.49	82.75
310.72	80.75
310.949	83.75
311.179	82.75
311.409	80.75
311.639	90.75
311.868	71.75
312.098	70.75
312.328	92.75
312.557	81.75
312.787	83.75
313.017	85.75
313.246	84.75
313.476	86.75
313.706	81.75
313.935	72.75
314.165	91.75
314.394	87.75
314.624	97.75
314.853	82.75
315.083	80.75
315.312	81.75
315.542	89.75
315.771	79.75
316.001	95.75
316.23	87.75
316.46	101.75
316.689	70.75
316.919	77.75
317.148	80.75
317.377	78.75
317.607	75.75
317.836	72.75
318.065	89.75
318.295	105.75
318.524	86.75
318.753	89.75
318.983	73.75
319.212	87.75
319.441	77.75
319.67	77.75
319.9	80.75
320.129	96.75
320.358	86.75
320.587	86.75
320.816	98.75
321.046	93.75
321.275	90.75
321.504	80.75
321.733	92.75
321.962	88.75
322.191	69.75
322.42	86.75
322.649	90.75
322.878	90.75
323.108	84.75
323.337	91.75
323.566	86.75
323.795	90.75
324.024	80.75
324.253	81.75
324.482	67.75
324.71	90.75
324.939	92.75
325.168	81.75
325.397	83.75
325.626	84.75
325.855	98.75
326.084	83.75
326.313	79.75
326.542	91.75
326.77	83.75
326.999	90.75
327.228	74.75
327.457	85.75
327.686	82.75
327.914	82.75
328.143	85.75
328.372	82.75
328.6	85.75
328.829	76.75
329.058	88.75
329.287	79.75
329.515	77.75
329.744	91.75
329.972	84.75
330.201	70.75
330.43	69.75
330.658	82.75
330.887	87.75
331.115	77.75
331.344	64.75
331.572	84.75
331.801	85.75
332.03	70.75
332.258	95.75
332.486	92.75
332.715	89.75
332.943	79.75
333.172	90.75
333.4	81.75
333.629	83.75
333.857	70.75
334.085	89.75
334.314	68.75
334.542	82.75
334.771	92.75
334.999	87.75
335.227	76.75
335.455	77.75
335.684	85.75
335.912	87.75
336.14	83.75
336.369	86.75
336.597	92.75
336.825	89.75
337.053	86.75
337.281	82.75
337.51	86.75
337.738	86.75
337.966	71.75
338.194	80.75
338.422	76.75
338.65	79.75
338.878	85.75
339.106	78.75
339.334	85.75
339.562	90.75
339.79	74.75
340.018	91.75
340.246	87.75
340.474	78.75
340.702	88.75
340.93	82.75
341.158	79.75
341.386	77.75
341.614	90.75
341.842	87.75
342.07	90.75
342.298	80.75
342.526	84.75
342.754	84.75
342.981	79.75
343.209	95.75
343.437	90.75
343.665	82.75
343.893	76.75
344.12	75.75
344.348	84.75
344.576	86.75
344.804	98.75
345.031	88.75
345.259	68.75
345.487	80.75
345.714	83.75
345.942	73.75
346.17	66.75
346.397	87.75
346.625	82.75
346.853	71.75
347.08	89.75
347.308	106.75
347.535	83.75
347.763	93.75
347.99	90.75
348.218	83.75
348.445	77.75
348.673	80.75
348.9	78.75
349.128	74.75
349.355	74.75
349.583	73.75
349.81	78.75
350.037	78.75
350.265	66.75
350.492	71.75
350.72	85.75
350.947	82.75
351.174	85.75
351.402	93.75
351.629	82.75
351.856	80.75
352.083	76.75
352.311	88.75
352.538	74.75
352.765	75.75
352.992	96.75
353.22	83.75
353.447	81.75
353.674	71.75
353.901	78.75
354.128	78.75
354.355	78.75
354.583	82.75
354.81	77.75
355.037	90.75
355.264	77.75
355.491	78.75
355.718	89.75
355.945	81.75
356.172	84.75
356.399	83.75
356.626	71.75
356.853	79.75
357.08	80.75
357.307	81.75
357.534	86.75
357.761	98.75
357.988	82.75
358.215	74.75
358.441	92.75
358.668	78.75
358.895	74.75
359.122	64.75
359.349	83.75
359.576	77.75
359.802	81.75
360.029	81.75
360.256	88.75
360.483	70.75
360.709	63.75
360.936	66.75
361.163	85.75
361.39	84.75
361.616	88.75
361.843	80.75
362.07	72.75
362.296	90.75
362.523	69.75
362.749	72.75
362.976	86.75
363.203	86.75
363.429	83.75
363.656	80.75
363.882	84.75
364.109	89.75
364.335	85.75
364.562	77.75
364.788	80.75
365.015	67.75
365.241	88.75
365.468	81.75
365.694	80.75
365.92	87.75
366.147	86.75
366.373	71.75
366.599	65.75
366.826	69.75
367.052	79.75
367.278	85.75
367.505	88.75
367.731	88.75
367.957	88.75
368.184	79.75
368.41	92.75
368.636	96.75
368.862	92.75
369.089	79.75
369.315	84.75
369.541	80.75
369.767	93.75
369.993	81.75
370.219	84.75
370.445	76.75
370.672	81.75
370.898	80.75
371.124	82.75
371.35	76.75
371.576	67.75
371.802	93.75
372.028	90.75
372.254	81.75
372.48	85.75
372.706	68.75
372.932	80.75
373.158	76.75
373.384	94.75
373.61	92.75
373.835	88.75
374.061	89.75
374.287	97.75
374.513	86.75
374.739	102.75
374.965	104.75
375.191	76.75
375.416	78.75
375.642	90.75
375.868	86.75
376.094	99.75
376.319	83.75
376.545	70.75
376.771	82.75
376.997	81.75
377.222	65.75
377.448	82.75
377.674	82.75
377.899	95.75
378.125	93.75
378.35	96.75
378.576	94.75
378.802	79.75
379.027	87.75
379.253	94.75
379.478	78.75
379.704	88.75
379.929	90.75
380.155	82.75
380.38	82.75
380.606	93.75
380.831	90.75
381.057	85.75
381.282	83.75
381.507	85.75
381.733	80.75
381.958	97.75
382.184	100.75
382.409	78.75
382.634	85.75
382.86	93.75
383.085	75.75
383.31	87.75
383.535	86.75
383.761	84.75
383.986	93.75
384.211	90.75
384.436	78.75
384.662	86.75
384.887	89.75
385.112	85.75
385.337	88.75
385.562	82.75
385.787	85.75
386.013	90.75
386.238	79.75
386.463	80.75
386.688	88.75
386.913	102.75
387.138	96.75
387.363	97.75
387.588	96.75
387.813	105.75
388.038	94.75
388.263	98.75
388.488	92.75
388.713	93.75
388.938	93.75
389.163	99.75
389.387	92.75
389.612	85.75
389.837	91.75
390.062	89.75
390.287	80.75
390.512	97.75
390.736	106.75
390.961	87.75
391.186	84.75
391.411	92.75
391.636	104.75
391.86	65.75
392.085	78.75
392.31	93.75
392.534	88.75
392.759	107.75
392.984	103.75
393.208	95.75
393.433	95.75
393.658	80.75
393.882	94.75
394.107	121.75
394.331	161.75
394.556	162.75
394.78	113.75
395.005	104.75
395.229	98.75
395.454	113.75
395.678	105.75
395.903	129.75
396.127	169.75
396.352	193.75
396.576	104.75
396.801	96.75
397.025	90.75
397.249	105.75
397.474	88.75
397.698	92.75
397.922	86.75
398.147	88.75
398.371	99.75
398.595	85.75
398.82	88.75
399.044	105.75
399.268	88.75
399.492	89.75
399.717	96.75
399.941	83.75
400.165	85.75
400.389	110.75
400.613	110.75
400.837	93.75
401.062	105.75
401.286	90.75
401.51	88.75
401.734	95.75
401.958	100.75
402.182	90.75
402.406	97.75
402.63	109.75
402.854	98.75
403.078	86.75
403.302	101.75
403.526	95.75
403.75	101.75
403.974	77.75
404.198	96.75
404.422	100.75
404.645	93.75
404.869	93.75
405.093	105.75
405.317	101.75
405.541	99.75
405.765	100.75
405.988	95.75
406.212	94.75
406.436	91.75
406.66	92.75
406.883	114.75
407.107	92.75
407.331	97.75
407.555	96.75
407.778	93.75
408.002	102.75
408.226	109.75
408.449	98.75
408.673	84.75
408.896	102.75
409.12	93.75
409.344	111.75
409.567	89.75
409.791	106.75
410.014	99.75
410.238	112.75
410.461	100.75
410.685	97.75
410.908	98.75
411.132	105.75
411.355	101.75
411.578	108.75
411.802	97.75
412.025	112.75
412.249	95.75
412.472	102.75
412.695	104.75
412.919	120.75
413.142	113.75
413.365	106.75
413.589	108.75
413.812	88.75
414.035	100.75
414.258	105.75
414.482	97.75
414.705	100.75
414.928	104.75
415.151	105.75
415.374	100.75
415.597	87.75
415.821	111.75
416.044	109.75
416.267	93.75
416.49	96.75
416.713	110.75
416.936	111.75
417.159	84.75
417.382	102.75
417.605	89.75
417.828	101.75
418.051	92.75
418.274	100.75
418.497	95.75
418.72	106.75
418.943	104.75
419.166	98.75
419.389	93.75
419.611	94.75
419.834	101.75
420.057	113.75
420.28	117.75
420.503	111.75
420.726	110.75
420.948	104.75
421.171	97.75
421.394	94.75
421.617	88.75
421.839	112.75
422.062	101.75
422.285	103.75
422.507	95.75
422.73	74.75
422.953	100.75
423.175	103.75
423.398	98.75
423.621	92.75
423.843	90.75
424.066	94.75
424.288	107.75
424.511	102.75
424.733	103.75
424.956	104.75
425.178	97.75
425.401	92.75
425.623	97.75
425.846	99.75
426.068	100.75
426.291	107.75
426.513	94.75
426.735	104.75
426.958	112.75
427.18	97.75
427.402	101.75
427.625	94.75
427.847	107.75
428.069	102.75
428.292	103.75
428.514	112.75
428.736	108.75
428.958	90.75
429.181	99.75
429.403	99.75
429.625	108.75
429.847	107.75
430.069	94.75
430.292	94.75
430.514	82.75
430.736	95.75
430.958	106.75
431.18	94.75
431.402	103.75
431.624	109.75
431.846	76.75
432.068	88.75
432.29	80.75
432.512	89.75
432.734	107.75
432.956	112.75
433.178	109.75
433.4	107.75
433.622	104.75
433.844	100.75
434.066	89.75
434.287	74.75
434.509	80.75
434.731	97.75
434.953	95.75
435.175	107.75
435.397	91.75
435.618	91.75
435.84	82.75
436.062	82.75
436.284	98.75
436.505	89.75
436.727	107.75
436.949	104.75
437.17	95.75
437.392	104.75
437.614	85.75
437.835	83.75
438.057	92.75
438.278	106.75
438.5	108.75
438.721	97.75
438.943	116.75
439.165	121.75
439.386	107.75
439.608	101.75
439.829	91.75
440.05	100.75
440.272	100.75
440.493	94.75
440.715	100.75
440.936	110.75
441.158	114.75
441.379	105.75
441.6	108.75
441.822	112.75
442.043	111.75
442.264	96.75
442.486	103.75
442.707	111.75
442.928	117.75
443.149	110.75
443.371	101.75
443.592	110.75
443.813	88.75
444.034	110.75
444.255	116.75
444.476	128.75
444.698	108.75
444.919	104.75
445.14	188.75
445.361	143.75
445.582	112.75
445.803	121.75
446.024	108.75
446.245	109.75
446.466	108.75
446.687	93.75
446.908	97.75
447.129	98.75
447.35	101.75
447.571	101.75
447.792	110.75
448.013	121.75
448.234	102.75
448.455	109.75
448.675	110.75
448.896	117.75
449.117	107.75
449.338	104.75
449.559	121.75
449.779	104.75
450	118.75
450.221	105.75
450.442	127.75
450.662	120.75
450.883	111.75
451.104	98.75
451.324	99.75
451.545	110.75
451.766	101.75
451.986	102.75
452.207	95.75
452.428	110.75
452.648	114.75
452.869	109.75
453.089	95.75
453.31	90.75
453.53	85.75
453.751	92.75
453.971	101.75
454.192	86.75
454.412	98.75
454.633	98.75
454.853	93.75
455.073	107.75
455.294	110.75
455.514	116.75
455.734	95.75
455.955	93.75
456.175	104.75
456.395	97.75
456.616	76.75
456.836	90.75
457.056	92.75
457.276	75.75
457.497	103.75
457.717	85.75
457.937	105.75
458.157	88.75
458.377	87.75
458.598	71.75
458.818	92.75
459.038	81.75
459.258	82.75
459.478	75.75
459.698	84.75
459.918	98.75
460.138	90.75
460.358	81.75
460.578	100.75
460.798	93.75
461.018	98.75
461.238	79.75
461.458	96.75
461.678	94.75
461.898	104.75
462.118	95.75
462.338	94.75
462.558	90.75
462.777	100.75
462.997	97.75
463.217	97.75
463.437	95.75
463.657	102.75
463.876	98.75
464.096	100.75
464.316	91.75
464.536	95.75
464.755	87.75
464.975	97.75
465.195	104.75
465.414	96.75
465.634	100.75
465.854	102.75
466.073	117.75
466.293	129.75
466.512	124.75
466.732	110.75
466.951	126.75
467.171	113.75
467.391	134.75
467.61	129.75
467.829	116.75
468.049	106.75
468.268	114.75
468.488	125.75
468.707	104.75
468.927	110.75
469.146	100.75
469.365	112.75
469.585	104.75
469.804	108.75
470.023	129.75
470.243	130.75
470.462	130.75
470.681	120.75
470.901	108.75
471.12	113.75
471.339	116.75
471.558	115.75
471.777	125.75
471.997	106.75
472.216	108.75
472.435	93.75
472.654	96.75
472.873	105.75
473.092	93.75
473.311	109.75
473.53	100.75
473.749	92.75
473.968	110.75
474.187	98.75
474.406	100.75
474.625	112.75
474.844	110.75
475.063	89.75
475.282	105.75
475.501	92.75
475.72	103.75
475.939	102.75
476.158	105.75
476.377	103.75
476.596	85.75
476.814	103.75
477.033	98.75
477.252	95.75
477.471	100.75
477.69	106.75
477.908	108.75
478.127	109.75
478.346	87.75
478.564	105.75
478.783	122.75
479.002	101.75
479.22	88.75
479.439	103.75
479.658	94.75
479.876	90.75
480.095	92.75
480.313	96.75
480.532	95.75
480.751	89.75
480.969	94.75
481.188	99.75
481.406	97.75
481.624	82.75
481.843	81.75
482.061	98.75
482.28	97.75
482.498	100.75
482.717	73.75
482.935	98.75
483.153	112.75
483.372	101.75
483.59	107.75
483.808	95.75
484.027	94.75
484.245	87.75
484.463	96.75
484.681	111.75
484.9	98.75
485.118	109.75
485.336	95.75
485.554	90.75
485.772	82.75
485.99	89.75
486.209	100.75
486.427	95.75
486.645	112.75
486.863	116.75
487.081	117.75
487.299	105.75
487.517	112.75
487.735	98.75
487.953	110.75
488.171	121.75
488.389	120.75
488.607	100.75
488.825	102.75
489.043	85.75
489.261	106.75
489.479	115.75
489.696	114.75
489.914	111.75
490.132	111.75
490.35	113.75
490.568	114.75
490.786	116.75
491.003	150.75
491.221	130.75
491.439	137.75
491.657	137.75
491.874	142.75
492.092	129.75
492.31	141.75
492.527	141.75
492.745	132.75
492.963	161.75
493.18	148.75
493.398	133.75
493.615	118.75
493.833	121.75
494.05	138.75
494.268	133.75
494.485	142.75
494.703	134.75
494.92	141.75
495.138	130.75
495.355	131.75
495.573	125.75
495.79	132.75
496.008	139.75
496.225	113.75
496.442	134.75
496.66	140.75
496.877	119.75
497.094	127.75
497.312	109.75
497.529	111.75
497.746	107.75
497.963	103.75
498.181	95.75
498.398	110.75
498.615	95.75
498.832	99.75
499.049	101.75
499.267	97.75
499.484	96.75
499.701	103.75
499.918	100.75
500.135	101.75
500.352	112.75
500.569	102.75
500.786	104.75
501.003	113.75
501.22	116.75
501.437	104.75
501.654	106.75
501.871	108.75
502.088	120.75
502.305	104.75
502.522	92.75
502.739	112.75
502.956	96.75
503.172	109.75
503.389	81.75
503.606	104.75
503.823	88.75
504.04	91.75
504.256	112.75
504.473	92.75
504.69	98.75
504.907	102.75
505.123	104.75
505.34	108.75
505.557	86.75
505.773	92.75
505.99	97.75
506.207	91.75
506.423	96.75
506.64	99.75
506.856	83.75
507.073	93.75
507.289	98.75
507.506	105.75
507.722	97.75
507.939	98.75
508.155	84.75
508.372	100.75
508.588	108.75
508.805	92.75
509.021	82.75
509.238	96.75
509.454	85.75
509.67	90.75
509.887	93.75
510.103	92.75
510.319	88.75
510.536	79.75
510.752	98.75
510.968	73.75
511.184	83.75
511.401	80.75
511.617	88.75
511.833	79.75
512.049	97.75
512.265	82.75
512.481	101.75
512.698	68.75
512.914	84.75
513.13	85.75
513.346	82.75
513.562	84.75
513.778	88.75
513.994	85.75
514.21	87.75
514.426	73.75
514.642	81.75
514.858	97.75
515.074	87.75
515.29	91.75
515.506	84.75
515.721	81.75
