Data from Foil_2_HRD10591_00004.txt Node
Date: Wed Nov 05 16:17:23 EST 2025
User: Yrep
Spectrometer: HR+D1059
Trigger mode: 1
Integration Time (sec): 1.000000E-1
Scans to average: 1
Electric dark correction enabled: true
Nonlinearity correction enabled: false
Boxcar width: 0
XAxis mode: Wavelengths
Number of Pixels in Spectrum: 2048
>>>>>Begin Spectral Data<<<<<
223.165	-13.19
223.4	-13.19
223.635	-13.19
223.869	-12.19
224.104	-32.19
224.338	-4.19
224.573	-11.19
224.808	-6.19
225.042	-5.19
225.277	-12.19
225.511	-5.19
225.746	-2.19
225.98	7.81
226.215	10.81
226.449	15.81
226.683	9.81
226.918	21.81
227.152	37.81
227.387	34.81
227.621	43.81
227.856	46.81
228.09	28.81
228.324	34.81
228.559	61.81
228.793	57.81
229.027	65.81
229.262	60.81
229.496	67.81
229.73	67.81
229.964	80.81
230.199	63.81
230.433	71.81
230.667	72.81
230.901	77.81
231.136	87.81
231.37	78.81
231.604	84.81
231.838	74.81
232.072	81.81
232.306	76.81
232.541	79.81
232.775	86.81
233.009	87.81
233.243	84.81
233.477	69.81
233.711	80.81
233.945	92.81
234.179	81.81
234.413	88.81
234.647	88.81
234.881	82.81
235.115	82.81
235.349	79.81
235.583	87.81
235.817	86.81
236.051	71.81
236.285	81.81
236.519	68.81
236.753	62.81
236.987	82.81
237.221	82.81
237.455	83.81
237.689	73.81
237.922	80.81
238.156	71.81
238.39	78.81
238.624	77.81
238.858	65.81
239.091	88.81
239.325	72.81
239.559	80.81
239.793	72.81
240.027	70.81
240.26	73.81
240.494	77.81
240.728	81.81
240.961	86.81
241.195	79.81
241.429	80.81
241.662	84.81
241.896	75.81
242.13	71.81
242.363	69.81
242.597	80.81
242.83	79.81
243.064	59.81
243.298	94.81
243.531	79.81
243.765	64.81
243.998	88.81
244.232	82.81
244.465	87.81
244.699	67.81
244.932	83.81
245.166	67.81
245.399	74.81
245.633	74.81
245.866	74.81
246.099	71.81
246.333	67.81
246.566	71.81
246.8	67.81
247.033	63.81
247.266	78.81
247.5	72.81
247.733	91.81
247.966	87.81
248.2	88.81
248.433	86.81
248.666	85.81
248.899	71.81
249.133	70.81
249.366	81.81
249.599	93.81
249.832	81.81
250.066	82.81
250.299	83.81
250.532	72.81
250.765	84.81
250.998	70.81
251.231	70.81
251.465	65.81
251.698	74.81
251.931	82.81
252.164	83.81
252.397	73.81
252.63	78.81
252.863	74.81
253.096	90.81
253.329	89.81
253.562	92.81
253.795	73.81
254.028	84.81
254.261	82.81
254.494	75.81
254.727	84.81
254.96	65.81
255.193	77.81
255.426	75.81
255.659	80.81
255.892	81.81
256.124	77.81
256.357	82.81
256.59	88.81
256.823	79.81
257.056	75.81
257.289	74.81
257.521	70.81
257.754	85.81
257.987	96.81
258.22	79.81
258.452	85.81
258.685	97.81
258.918	91.81
259.151	77.81
259.383	79.81
259.616	65.81
259.849	84.81
260.081	89.81
260.314	71.81
260.547	87.81
260.779	78.81
261.012	81.81
261.244	87.81
261.477	87.81
261.71	81.81
261.942	65.81
262.175	77.81
262.407	72.81
262.64	81.81
262.872	75.81
263.105	87.81
263.337	76.81
263.57	77.81
263.802	91.81
264.035	71.81
264.267	83.81
264.499	84.81
264.732	90.81
264.964	80.81
265.197	79.81
265.429	87.81
265.661	78.81
265.894	89.81
266.126	85.81
266.358	86.81
266.591	79.81
266.823	75.81
267.055	94.81
267.287	82.81
267.52	79.81
267.752	84.81
267.984	76.81
268.216	84.81
268.448	88.81
268.681	80.81
268.913	68.81
269.145	89.81
269.377	87.81
269.609	86.81
269.841	87.81
270.073	78.81
270.306	81.81
270.538	74.81
270.77	81.81
271.002	83.81
271.234	89.81
271.466	79.81
271.698	92.81
271.93	87.81
272.162	83.81
272.394	89.81
272.626	80.81
272.858	77.81
273.09	75.81
273.322	90.81
273.553	87.81
273.785	81.81
274.017	88.81
274.249	88.81
274.481	71.81
274.713	76.81
274.945	83.81
275.176	76.81
275.408	80.81
275.64	77.81
275.872	85.81
276.104	80.81
276.335	77.81
276.567	91.81
276.799	82.81
277.031	80.81
277.262	93.81
277.494	87.81
277.726	84.81
277.957	75.81
278.189	79.81
278.421	85.81
278.652	83.81
278.884	81.81
279.115	61.81
279.347	70.81
279.579	76.81
279.81	78.81
280.042	72.81
280.273	88.81
280.505	95.81
280.736	75.81
280.968	70.81
281.199	87.81
281.431	93.81
281.662	80.81
281.894	72.81
282.125	78.81
282.356	87.81
282.588	83.81
282.819	81.81
283.051	79.81
283.282	86.81
283.513	94.81
283.745	73.81
283.976	84.81
284.207	85.81
284.439	72.81
284.67	77.81
284.901	87.81
285.132	73.81
285.364	91.81
285.595	87.81
285.826	77.81
286.057	72.81
286.288	99.81
286.52	96.81
286.751	86.81
286.982	84.81
287.213	65.81
287.444	77.81
287.675	71.81
287.906	77.81
288.138	76.81
288.369	79.81
288.6	84.81
288.831	63.81
289.062	83.81
289.293	91.81
289.524	83.81
289.755	78.81
289.986	88.81
290.217	83.81
290.448	86.81
290.679	98.81
290.91	83.81
291.141	87.81
291.371	78.81
291.602	93.81
291.833	87.81
292.064	97.81
292.295	95.81
292.526	93.81
292.757	83.81
292.987	77.81
293.218	74.81
293.449	73.81
293.68	72.81
293.91	81.81
294.141	89.81
294.372	96.81
294.603	86.81
294.833	87.81
295.064	88.81
295.295	92.81
295.525	84.81
295.756	73.81
295.987	86.81
296.217	77.81
296.448	93.81
296.679	89.81
296.909	81.81
297.14	70.81
297.37	68.81
297.601	85.81
297.831	85.81
298.062	85.81
298.292	74.81
298.523	91.81
298.753	86.81
298.984	101.81
299.214	85.81
299.445	88.81
299.675	94.81
299.905	95.81
300.136	83.81
300.366	74.81
300.597	85.81
300.827	88.81
301.057	78.81
301.288	95.81
301.518	92.81
301.748	86.81
301.979	97.81
302.209	105.81
302.439	89.81
302.669	78.81
302.9	82.81
303.13	99.81
303.36	76.81
303.59	80.81
303.82	87.81
304.051	83.81
304.281	93.81
304.511	75.81
304.741	82.81
304.971	87.81
305.201	84.81
305.431	95.81
305.661	79.81
305.891	73.81
306.121	94.81
306.352	103.81
306.582	98.81
306.812	87.81
307.042	82.81
307.272	77.81
307.502	92.81
307.731	101.81
307.961	104.81
308.191	102.81
308.421	112.81
308.651	81.81
308.881	72.81
309.111	110.81
309.341	128.81
309.571	102.81
309.8	89.81
310.03	88.81
310.26	80.81
310.49	84.81
310.72	90.81
310.949	73.81
311.179	90.81
311.409	82.81
311.639	83.81
311.868	81.81
312.098	88.81
312.328	94.81
312.557	77.81
312.787	77.81
313.017	79.81
313.246	90.81
313.476	81.81
313.706	94.81
313.935	98.81
314.165	88.81
314.394	91.81
314.624	77.81
314.853	72.81
315.083	83.81
315.312	84.81
315.542	78.81
315.771	77.81
316.001	89.81
316.23	79.81
316.46	82.81
316.689	87.81
316.919	77.81
317.148	85.81
317.377	84.81
317.607	74.81
317.836	92.81
318.065	96.81
318.295	74.81
318.524	74.81
318.753	76.81
318.983	87.81
319.212	86.81
319.441	87.81
319.67	91.81
319.9	84.81
320.129	81.81
320.358	78.81
320.587	80.81
320.816	96.81
321.046	75.81
321.275	83.81
321.504	82.81
321.733	77.81
321.962	84.81
322.191	89.81
322.42	89.81
322.649	82.81
322.878	89.81
323.108	81.81
323.337	79.81
323.566	74.81
323.795	80.81
324.024	86.81
324.253	87.81
324.482	85.81
324.71	80.81
324.939	98.81
325.168	72.81
325.397	93.81
325.626	77.81
325.855	85.81
326.084	74.81
326.313	84.81
326.542	85.81
326.77	89.81
326.999	77.81
327.228	74.81
327.457	89.81
327.686	86.81
327.914	88.81
328.143	85.81
328.372	90.81
328.6	90.81
328.829	72.81
329.058	83.81
329.287	79.81
329.515	76.81
329.744	90.81
329.972	90.81
330.201	95.81
330.43	92.81
330.658	89.81
330.887	92.81
331.115	87.81
331.344	67.81
331.572	83.81
331.801	80.81
332.03	102.81
332.258	88.81
332.486	95.81
332.715	75.81
332.943	78.81
333.172	94.81
333.4	85.81
333.629	87.81
333.857	89.81
334.085	82.81
334.314	73.81
334.542	88.81
334.771	84.81
334.999	72.81
335.227	77.81
335.455	87.81
335.684	81.81
335.912	82.81
336.14	92.81
336.369	80.81
336.597	88.81
336.825	88.81
337.053	77.81
337.281	73.81
337.51	75.81
337.738	86.81
337.966	83.81
338.194	87.81
338.422	89.81
338.65	79.81
338.878	97.81
339.106	96.81
339.334	87.81
339.562	90.81
339.79	86.81
340.018	80.81
340.246	77.81
340.474	90.81
340.702	97.81
340.93	89.81
341.158	80.81
341.386	73.81
341.614	76.81
341.842	94.81
342.07	86.81
342.298	94.81
342.526	80.81
342.754	83.81
342.981	81.81
343.209	68.81
343.437	96.81
343.665	96.81
343.893	85.81
344.12	88.81
344.348	89.81
344.576	87.81
344.804	69.81
345.031	88.81
345.259	80.81
345.487	81.81
345.714	89.81
345.942	73.81
346.17	76.81
346.397	82.81
346.625	83.81
346.853	77.81
347.08	80.81
347.308	86.81
347.535	87.81
347.763	87.81
347.99	88.81
348.218	83.81
348.445	77.81
348.673	97.81
348.9	97.81
349.128	109.81
349.355	83.81
349.583	87.81
349.81	89.81
350.037	73.81
350.265	75.81
350.492	79.81
350.72	94.81
350.947	83.81
351.174	73.81
351.402	72.81
351.629	82.81
351.856	85.81
352.083	87.81
352.311	89.81
352.538	82.81
352.765	82.81
352.992	89.81
353.22	86.81
353.447	83.81
353.674	89.81
353.901	91.81
354.128	77.81
354.355	71.81
354.583	77.81
354.81	90.81
355.037	83.81
355.264	84.81
355.491	78.81
355.718	91.81
355.945	93.81
356.172	94.81
356.399	83.81
356.626	80.81
356.853	79.81
357.08	76.81
357.307	86.81
357.534	84.81
357.761	87.81
357.988	102.81
358.215	90.81
358.441	84.81
358.668	79.81
358.895	82.81
359.122	93.81
359.349	78.81
359.576	89.81
359.802	77.81
360.029	85.81
360.256	76.81
360.483	80.81
360.709	91.81
360.936	89.81
361.163	79.81
361.39	75.81
361.616	85.81
361.843	73.81
362.07	114.81
362.296	75.81
362.523	83.81
362.749	87.81
362.976	82.81
363.203	77.81
363.429	82.81
363.656	71.81
363.882	83.81
364.109	85.81
364.335	69.81
364.562	87.81
364.788	86.81
365.015	82.81
365.241	73.81
365.468	77.81
365.694	81.81
365.92	91.81
366.147	89.81
366.373	93.81
366.599	78.81
366.826	76.81
367.052	80.81
367.278	78.81
367.505	71.81
367.731	83.81
367.957	89.81
368.184	91.81
368.41	95.81
368.636	95.81
368.862	97.81
369.089	80.81
369.315	82.81
369.541	83.81
369.767	97.81
369.993	96.81
370.219	80.81
370.445	97.81
370.672	83.81
370.898	93.81
371.124	82.81
371.35	95.81
371.576	75.81
371.802	79.81
372.028	78.81
372.254	93.81
372.48	84.81
372.706	89.81
372.932	85.81
373.158	88.81
373.384	88.81
373.61	92.81
373.835	90.81
374.061	87.81
374.287	90.81
374.513	78.81
374.739	85.81
374.965	93.81
375.191	79.81
375.416	82.81
375.642	89.81
375.868	71.81
376.094	91.81
376.319	94.81
376.545	73.81
376.771	97.81
376.997	87.81
377.222	87.81
377.448	90.81
377.674	98.81
377.899	87.81
378.125	94.81
378.35	75.81
378.576	82.81
378.802	90.81
379.027	81.81
379.253	85.81
379.478	87.81
379.704	91.81
379.929	94.81
380.155	75.81
380.38	97.81
380.606	90.81
380.831	102.81
381.057	82.81
381.282	101.81
381.507	95.81
381.733	73.81
381.958	78.81
382.184	78.81
382.409	84.81
382.634	96.81
382.86	97.81
383.085	97.81
383.31	88.81
383.535	79.81
383.761	87.81
383.986	96.81
384.211	76.81
384.436	89.81
384.662	97.81
384.887	94.81
385.112	77.81
385.337	90.81
385.562	97.81
385.787	87.81
386.013	87.81
386.238	89.81
386.463	82.81
386.688	91.81
386.913	95.81
387.138	80.81
387.363	94.81
387.588	98.81
387.813	95.81
388.038	94.81
388.263	89.81
388.488	103.81
388.713	100.81
388.938	96.81
389.163	98.81
389.387	96.81
389.612	86.81
389.837	90.81
390.062	90.81
390.287	91.81
390.512	97.81
390.736	96.81
390.961	90.81
391.186	99.81
391.411	90.81
391.636	95.81
391.86	89.81
392.085	88.81
392.31	91.81
392.534	108.81
392.759	103.81
392.984	105.81
393.208	93.81
393.433	93.81
393.658	118.81
393.882	106.81
394.107	119.81
394.331	176.81
394.556	177.81
394.78	122.81
395.005	98.81
395.229	90.81
395.454	92.81
395.678	110.81
395.903	164.81
396.127	213.81
396.352	201.81
396.576	118.81
396.801	97.81
397.025	107.81
397.249	101.81
397.474	103.81
397.698	93.81
397.922	82.81
398.147	107.81
398.371	93.81
398.595	86.81
398.82	96.81
399.044	108.81
399.268	95.81
399.492	107.81
399.717	92.81
399.941	89.81
400.165	88.81
400.389	84.81
400.613	102.81
400.837	98.81
401.062	108.81
401.286	103.81
401.51	92.81
401.734	92.81
401.958	93.81
402.182	94.81
402.406	98.81
402.63	101.81
402.854	103.81
403.078	109.81
403.302	105.81
403.526	102.81
403.75	91.81
403.974	89.81
404.198	105.81
404.422	92.81
404.645	94.81
404.869	104.81
405.093	101.81
405.317	98.81
405.541	94.81
405.765	118.81
405.988	94.81
406.212	88.81
406.436	95.81
406.66	107.81
406.883	105.81
407.107	96.81
407.331	92.81
407.555	115.81
407.778	109.81
408.002	93.81
408.226	97.81
408.449	89.81
408.673	98.81
408.896	123.81
409.12	105.81
409.344	114.81
409.567	106.81
409.791	91.81
410.014	103.81
410.238	113.81
410.461	94.81
410.685	97.81
410.908	101.81
411.132	105.81
411.355	99.81
411.578	108.81
411.802	111.81
412.025	95.81
412.249	101.81
412.472	94.81
412.695	111.81
412.919	105.81
413.142	96.81
413.365	103.81
413.589	102.81
413.812	103.81
414.035	101.81
414.258	95.81
414.482	97.81
414.705	98.81
414.928	106.81
415.151	105.81
415.374	104.81
415.597	107.81
415.821	106.81
416.044	99.81
416.267	114.81
416.49	103.81
416.713	99.81
416.936	102.81
417.159	90.81
417.382	112.81
417.605	127.81
417.828	107.81
418.051	105.81
418.274	106.81
418.497	83.81
418.72	97.81
418.943	88.81
419.166	96.81
419.389	111.81
419.611	98.81
419.834	98.81
420.057	100.81
420.28	99.81
420.503	109.81
420.726	92.81
420.948	110.81
421.171	97.81
421.394	99.81
421.617	98.81
421.839	111.81
422.062	110.81
422.285	111.81
422.507	102.81
422.73	88.81
422.953	108.81
423.175	104.81
423.398	104.81
423.621	105.81
423.843	107.81
424.066	106.81
424.288	87.81
424.511	99.81
424.733	104.81
424.956	110.81
425.178	103.81
425.401	97.81
425.623	107.81
425.846	89.81
426.068	106.81
426.291	108.81
426.513	101.81
426.735	111.81
426.958	119.81
427.18	103.81
427.402	104.81
427.625	90.81
427.847	101.81
428.069	107.81
428.292	102.81
428.514	104.81
428.736	123.81
428.958	101.81
429.181	117.81
429.403	95.81
429.625	106.81
429.847	98.81
430.069	104.81
430.292	108.81
430.514	108.81
430.736	114.81
430.958	100.81
431.18	110.81
431.402	103.81
431.624	90.81
431.846	83.81
432.068	96.81
432.29	93.81
432.512	97.81
432.734	98.81
432.956	101.81
433.178	119.81
433.4	113.81
433.622	109.81
433.844	98.81
434.066	105.81
434.287	89.81
434.509	73.81
434.731	94.81
434.953	93.81
435.175	85.81
435.397	95.81
435.618	107.81
435.84	92.81
436.062	101.81
436.284	104.81
436.505	96.81
436.727	106.81
436.949	123.81
437.17	119.81
437.392	79.81
437.614	93.81
437.835	97.81
438.057	98.81
438.278	103.81
438.5	95.81
438.721	105.81
438.943	101.81
439.165	109.81
439.386	109.81
439.608	99.81
439.829	111.81
440.05	111.81
440.272	120.81
440.493	118.81
440.715	125.81
440.936	115.81
441.158	106.81
441.379	121.81
441.6	113.81
441.822	121.81
442.043	118.81
442.264	120.81
442.486	122.81
442.707	114.81
442.928	107.81
443.149	103.81
443.371	117.81
443.592	112.81
443.813	93.81
444.034	110.81
444.255	117.81
444.476	101.81
444.698	122.81
444.919	113.81
445.14	183.81
445.361	141.81
445.582	122.81
445.803	110.81
446.024	125.81
446.245	116.81
446.466	97.81
446.687	103.81
446.908	104.81
447.129	123.81
447.35	109.81
447.571	106.81
447.792	101.81
448.013	106.81
448.234	114.81
448.455	102.81
448.675	112.81
448.896	104.81
449.117	94.81
449.338	112.81
449.559	107.81
449.779	111.81
450	109.81
450.221	117.81
450.442	114.81
450.662	113.81
450.883	100.81
451.104	115.81
451.324	113.81
451.545	106.81
451.766	110.81
451.986	90.81
452.207	109.81
452.428	97.81
452.648	96.81
452.869	103.81
453.089	109.81
453.31	94.81
453.53	93.81
453.751	89.81
453.971	103.81
454.192	97.81
454.412	77.81
454.633	108.81
454.853	90.81
455.073	90.81
455.294	101.81
455.514	98.81
455.734	99.81
455.955	101.81
456.175	91.81
456.395	97.81
456.616	89.81
456.836	96.81
457.056	87.81
457.276	97.81
457.497	93.81
457.717	106.81
457.937	93.81
458.157	90.81
458.377	83.81
458.598	81.81
458.818	77.81
459.038	71.81
459.258	78.81
459.478	74.81
459.698	89.81
459.918	96.81
460.138	96.81
460.358	91.81
460.578	120.81
460.798	87.81
461.018	85.81
461.238	88.81
461.458	107.81
461.678	99.81
461.898	100.81
462.118	88.81
462.338	99.81
462.558	97.81
462.777	95.81
462.997	93.81
463.217	91.81
463.437	101.81
463.657	90.81
463.876	89.81
464.096	112.81
464.316	88.81
464.536	100.81
464.755	99.81
464.975	89.81
465.195	104.81
465.414	115.81
465.634	93.81
465.854	97.81
466.073	96.81
466.293	97.81
466.512	101.81
466.732	119.81
466.951	117.81
467.171	104.81
467.391	133.81
467.61	129.81
467.829	113.81
468.049	120.81
468.268	121.81
468.488	121.81
468.707	129.81
468.927	105.81
469.146	113.81
469.365	115.81
469.585	127.81
469.804	106.81
470.023	105.81
470.243	113.81
470.462	111.81
470.681	112.81
470.901	119.81
471.12	111.81
471.339	115.81
471.558	118.81
471.777	124.81
471.997	112.81
472.216	106.81
472.435	103.81
472.654	87.81
472.873	87.81
473.092	90.81
473.311	103.81
473.53	113.81
473.749	124.81
473.968	113.81
474.187	105.81
474.406	87.81
474.625	98.81
474.844	110.81
475.063	102.81
475.282	99.81
475.501	99.81
475.72	104.81
475.939	99.81
476.158	112.81
476.377	108.81
476.596	95.81
476.814	100.81
477.033	86.81
477.252	97.81
477.471	121.81
477.69	101.81
477.908	110.81
478.127	113.81
478.346	98.81
478.564	109.81
478.783	109.81
479.002	102.81
479.22	113.81
479.439	107.81
479.658	100.81
479.876	101.81
480.095	89.81
480.313	102.81
480.532	89.81
480.751	102.81
480.969	79.81
481.188	83.81
481.406	83.81
481.624	94.81
481.843	84.81
482.061	86.81
482.28	101.81
482.498	86.81
482.717	101.81
482.935	110.81
483.153	103.81
483.372	119.81
483.59	107.81
483.808	105.81
484.027	93.81
484.245	94.81
484.463	105.81
484.681	104.81
484.9	117.81
485.118	107.81
485.336	95.81
485.554	81.81
485.772	93.81
485.99	95.81
486.209	92.81
486.427	107.81
486.645	98.81
486.863	124.81
487.081	108.81
487.299	119.81
487.517	99.81
487.735	113.81
487.953	133.81
488.171	125.81
488.389	108.81
488.607	96.81
488.825	106.81
489.043	95.81
489.261	110.81
489.479	103.81
489.696	105.81
489.914	107.81
490.132	136.81
490.35	123.81
490.568	117.81
490.786	128.81
491.003	132.81
491.221	145.81
491.439	133.81
491.657	145.81
491.874	150.81
492.092	155.81
492.31	153.81
492.527	130.81
492.745	155.81
492.963	150.81
493.18	133.81
493.398	152.81
493.615	150.81
493.833	120.81
494.05	142.81
494.268	133.81
494.485	130.81
494.703	128.81
494.92	138.81
495.138	125.81
495.355	127.81
495.573	131.81
495.79	119.81
496.008	136.81
496.225	119.81
496.442	132.81
496.66	112.81
496.877	124.81
497.094	137.81
497.312	108.81
497.529	110.81
497.746	116.81
497.963	116.81
498.181	99.81
498.398	97.81
498.615	105.81
498.832	88.81
499.049	106.81
499.267	106.81
499.484	102.81
499.701	106.81
499.918	104.81
500.135	117.81
500.352	110.81
500.569	106.81
500.786	101.81
501.003	107.81
501.22	119.81
501.437	103.81
501.654	102.81
501.871	109.81
502.088	106.81
502.305	103.81
502.522	101.81
502.739	105.81
502.956	104.81
503.172	101.81
503.389	109.81
503.606	105.81
503.823	104.81
504.04	114.81
504.256	91.81
504.473	103.81
504.69	102.81
504.907	103.81
505.123	97.81
505.34	112.81
505.557	101.81
505.773	96.81
505.99	109.81
506.207	97.81
506.423	97.81
506.64	88.81
506.856	98.81
507.073	98.81
507.289	96.81
507.506	95.81
507.722	109.81
507.939	104.81
508.155	109.81
508.372	94.81
508.588	79.81
508.805	94.81
509.021	87.81
509.238	89.81
509.454	78.81
509.67	92.81
509.887	77.81
510.103	76.81
510.319	105.81
510.536	85.81
510.752	87.81
510.968	89.81
511.184	80.81
511.401	85.81
511.617	96.81
511.833	90.81
512.049	98.81
512.265	88.81
512.481	96.81
512.698	96.81
512.914	104.81
513.13	95.81
513.346	81.81
513.562	84.81
513.778	99.81
513.994	89.81
514.21	80.81
514.426	77.81
514.642	102.81
514.858	84.81
515.074	102.81
