Data from Foil_2_HRD10591_00005.txt Node
Date: Wed Nov 05 16:17:24 EST 2025
User: Yrep
Spectrometer: HR+D1059
Trigger mode: 1
Integration Time (sec): 1.000000E-1
Scans to average: 1
Electric dark correction enabled: true
Nonlinearity correction enabled: false
Boxcar width: 0
XAxis mode: Wavelengths
Number of Pixels in Spectrum: 2048
>>>>>Begin Spectral Data<<<<<
223.165	-21.19
223.4	-21.19
223.635	-21.19
223.869	-2.19
224.104	-19.19
224.338	-21.19
224.573	-19.19
224.808	-15.19
225.042	-3.19
225.277	-15.19
225.511	2.81
225.746	10.81
225.98	-1.19
226.215	7.81
226.449	3.81
226.683	16.81
226.918	32.81
227.152	42.81
227.387	35.81
227.621	42.81
227.856	50.81
228.09	55.81
228.324	65.81
228.559	63.81
228.793	64.81
229.027	50.81
229.262	66.81
229.496	63.81
229.73	67.81
229.964	75.81
230.199	72.81
230.433	78.81
230.667	85.81
230.901	79.81
231.136	79.81
231.37	73.81
231.604	86.81
231.838	96.81
232.072	85.81
232.306	83.81
232.541	87.81
232.775	81.81
233.009	67.81
233.243	78.81
233.477	85.81
233.711	90.81
233.945	83.81
234.179	82.81
234.413	88.81
234.647	69.81
234.881	73.81
235.115	82.81
235.349	72.81
235.583	101.81
235.817	67.81
236.051	70.81
236.285	77.81
236.519	68.81
236.753	79.81
236.987	70.81
237.221	78.81
237.455	80.81
237.689	92.81
237.922	86.81
238.156	74.81
238.39	69.81
238.624	79.81
238.858	77.81
239.091	72.81
239.325	59.81
239.559	73.81
239.793	86.81
240.027	80.81
240.26	79.81
240.494	60.81
240.728	86.81
240.961	78.81
241.195	89.81
241.429	84.81
241.662	76.81
241.896	89.81
242.13	78.81
242.363	68.81
242.597	73.81
242.83	78.81
243.064	79.81
243.298	79.81
243.531	89.81
243.765	83.81
243.998	70.81
244.232	78.81
244.465	69.81
244.699	86.81
244.932	81.81
245.166	82.81
245.399	72.81
245.633	68.81
245.866	82.81
246.099	84.81
246.333	71.81
246.566	86.81
246.8	79.81
247.033	106.81
247.266	86.81
247.5	68.81
247.733	68.81
247.966	82.81
248.2	76.81
248.433	100.81
248.666	90.81
248.899	74.81
249.133	85.81
249.366	85.81
249.599	75.81
249.832	86.81
250.066	83.81
250.299	74.81
250.532	90.81
250.765	78.81
250.998	77.81
251.231	85.81
251.465	88.81
251.698	92.81
251.931	89.81
252.164	71.81
252.397	69.81
252.63	81.81
252.863	86.81
253.096	87.81
253.329	79.81
253.562	94.81
253.795	84.81
254.028	84.81
254.261	77.81
254.494	75.81
254.727	87.81
254.96	80.81
255.193	78.81
255.426	91.81
255.659	76.81
255.892	80.81
256.124	71.81
256.357	75.81
256.59	81.81
256.823	82.81
257.056	86.81
257.289	85.81
257.521	80.81
257.754	78.81
257.987	82.81
258.22	80.81
258.452	76.81
258.685	73.81
258.918	71.81
259.151	68.81
259.383	83.81
259.616	90.81
259.849	86.81
260.081	79.81
260.314	91.81
260.547	86.81
260.779	82.81
261.012	80.81
261.244	80.81
261.477	80.81
261.71	71.81
261.942	76.81
262.175	79.81
262.407	79.81
262.64	90.81
262.872	78.81
263.105	93.81
263.337	91.81
263.57	89.81
263.802	84.81
264.035	88.81
264.267	79.81
264.499	74.81
264.732	81.81
264.964	77.81
265.197	84.81
265.429	71.81
265.661	76.81
265.894	73.81
266.126	81.81
266.358	84.81
266.591	79.81
266.823	84.81
267.055	72.81
267.287	69.81
267.52	70.81
267.752	82.81
267.984	80.81
268.216	68.81
268.448	90.81
268.681	81.81
268.913	85.81
269.145	76.81
269.377	99.81
269.609	76.81
269.841	87.81
270.073	81.81
270.306	79.81
270.538	92.81
270.77	70.81
271.002	81.81
271.234	66.81
271.466	73.81
271.698	88.81
271.93	88.81
272.162	84.81
272.394	102.81
272.626	82.81
272.858	88.81
273.09	78.81
273.322	81.81
273.553	70.81
273.785	89.81
274.017	93.81
274.249	85.81
274.481	78.81
274.713	70.81
274.945	93.81
275.176	81.81
275.408	90.81
275.64	77.81
275.872	78.81
276.104	82.81
276.335	90.81
276.567	87.81
276.799	83.81
277.031	84.81
277.262	80.81
277.494	87.81
277.726	74.81
277.957	84.81
278.189	81.81
278.421	101.81
278.652	100.81
278.884	96.81
279.115	81.81
279.347	72.81
279.579	85.81
279.81	86.81
280.042	77.81
280.273	85.81
280.505	79.81
280.736	80.81
280.968	86.81
281.199	96.81
281.431	91.81
281.662	84.81
281.894	72.81
282.125	80.81
282.356	92.81
282.588	88.81
282.819	75.81
283.051	86.81
283.282	86.81
283.513	80.81
283.745	81.81
283.976	80.81
284.207	77.81
284.439	78.81
284.67	76.81
284.901	75.81
285.132	83.81
285.364	71.81
285.595	89.81
285.826	92.81
286.057	85.81
286.288	86.81
286.52	100.81
286.751	79.81
286.982	97.81
287.213	92.81
287.444	89.81
287.675	89.81
287.906	77.81
288.138	80.81
288.369	63.81
288.6	75.81
288.831	80.81
289.062	79.81
289.293	72.81
289.524	85.81
289.755	80.81
289.986	98.81
290.217	90.81
290.448	83.81
290.679	94.81
290.91	95.81
291.141	90.81
291.371	86.81
291.602	82.81
291.833	75.81
292.064	93.81
292.295	91.81
292.526	91.81
292.757	88.81
292.987	79.81
293.218	102.81
293.449	82.81
293.68	83.81
293.91	81.81
294.141	77.81
294.372	81.81
294.603	81.81
294.833	72.81
295.064	80.81
295.295	93.81
295.525	90.81
295.756	80.81
295.987	80.81
296.217	83.81
296.448	91.81
296.679	83.81
296.909	84.81
297.14	84.81
297.37	98.81
297.601	80.81
297.831	82.81
298.062	92.81
298.292	85.81
298.523	84.81
298.753	72.81
298.984	85.81
299.214	70.81
299.445	97.81
299.675	93.81
299.905	93.81
300.136	91.81
300.366	82.81
300.597	72.81
300.827	84.81
301.057	75.81
301.288	93.81
301.518	93.81
301.748	84.81
301.979	101.81
302.209	86.81
302.439	83.81
302.669	89.81
302.9	74.81
303.13	87.81
303.36	86.81
303.59	87.81
303.82	78.81
304.051	92.81
304.281	93.81
304.511	90.81
304.741	103.81
304.971	97.81
305.201	81.81
305.431	89.81
305.661	81.81
305.891	70.81
306.121	89.81
306.352	83.81
306.582	90.81
306.812	94.81
307.042	72.81
307.272	90.81
307.502	76.81
307.731	88.81
307.961	94.81
308.191	103.81
308.421	103.81
308.651	100.81
308.881	82.81
309.111	107.81
309.341	130.81
309.571	109.81
309.8	97.81
310.03	96.81
310.26	88.81
310.49	99.81
310.72	94.81
310.949	84.81
311.179	89.81
311.409	86.81
311.639	78.81
311.868	88.81
312.098	88.81
312.328	89.81
312.557	85.81
312.787	90.81
313.017	76.81
313.246	85.81
313.476	87.81
313.706	80.81
313.935	83.81
314.165	90.81
314.394	93.81
314.624	86.81
314.853	101.81
315.083	102.81
315.312	72.81
315.542	82.81
315.771	81.81
316.001	82.81
316.23	75.81
316.46	86.81
316.689	84.81
316.919	88.81
317.148	83.81
317.377	83.81
317.607	78.81
317.836	89.81
318.065	97.81
318.295	97.81
318.524	74.81
318.753	77.81
318.983	64.81
319.212	88.81
319.441	92.81
319.67	90.81
319.9	78.81
320.129	93.81
320.358	73.81
320.587	96.81
320.816	85.81
321.046	92.81
321.275	92.81
321.504	80.81
321.733	88.81
321.962	81.81
322.191	80.81
322.42	67.81
322.649	83.81
322.878	81.81
323.108	94.81
323.337	94.81
323.566	67.81
323.795	94.81
324.024	102.81
324.253	80.81
324.482	75.81
324.71	76.81
324.939	87.81
325.168	80.81
325.397	82.81
325.626	100.81
325.855	106.81
326.084	83.81
326.313	110.81
326.542	104.81
326.77	76.81
326.999	92.81
327.228	81.81
327.457	88.81
327.686	84.81
327.914	81.81
328.143	84.81
328.372	76.81
328.6	91.81
328.829	73.81
329.058	78.81
329.287	91.81
329.515	81.81
329.744	82.81
329.972	81.81
330.201	86.81
330.43	97.81
330.658	82.81
330.887	88.81
331.115	83.81
331.344	96.81
331.572	89.81
331.801	73.81
332.03	90.81
332.258	91.81
332.486	74.81
332.715	101.81
332.943	82.81
333.172	84.81
333.4	82.81
333.629	85.81
333.857	94.81
334.085	79.81
334.314	75.81
334.542	86.81
334.771	92.81
334.999	71.81
335.227	76.81
335.455	84.81
335.684	80.81
335.912	80.81
336.14	89.81
336.369	92.81
336.597	79.81
336.825	86.81
337.053	75.81
337.281	73.81
337.51	79.81
337.738	99.81
337.966	90.81
338.194	78.81
338.422	81.81
338.65	103.81
338.878	85.81
339.106	71.81
339.334	90.81
339.562	90.81
339.79	76.81
340.018	90.81
340.246	84.81
340.474	78.81
340.702	84.81
340.93	78.81
341.158	70.81
341.386	100.81
341.614	97.81
341.842	91.81
342.07	98.81
342.298	99.81
342.526	92.81
342.754	91.81
342.981	80.81
343.209	82.81
343.437	96.81
343.665	79.81
343.893	94.81
344.12	100.81
344.348	84.81
344.576	89.81
344.804	85.81
345.031	86.81
345.259	82.81
345.487	106.81
345.714	81.81
345.942	98.81
346.17	88.81
346.397	84.81
346.625	88.81
346.853	84.81
347.08	70.81
347.308	80.81
347.535	75.81
347.763	89.81
347.99	82.81
348.218	90.81
348.445	77.81
348.673	90.81
348.9	80.81
349.128	84.81
349.355	75.81
349.583	79.81
349.81	87.81
350.037	86.81
350.265	80.81
350.492	61.81
350.72	73.81
350.947	77.81
351.174	88.81
351.402	80.81
351.629	101.81
351.856	87.81
352.083	70.81
352.311	88.81
352.538	70.81
352.765	90.81
352.992	97.81
353.22	83.81
353.447	81.81
353.674	86.81
353.901	92.81
354.128	86.81
354.355	94.81
354.583	72.81
354.81	81.81
355.037	101.81
355.264	86.81
355.491	83.81
355.718	87.81
355.945	87.81
356.172	85.81
356.399	84.81
356.626	84.81
356.853	86.81
357.08	80.81
357.307	91.81
357.534	103.81
357.761	77.81
357.988	75.81
358.215	83.81
358.441	83.81
358.668	84.81
358.895	79.81
359.122	100.81
359.349	81.81
359.576	81.81
359.802	89.81
360.029	75.81
360.256	79.81
360.483	81.81
360.709	90.81
360.936	84.81
361.163	86.81
361.39	76.81
361.616	78.81
361.843	77.81
362.07	81.81
362.296	91.81
362.523	85.81
362.749	74.81
362.976	80.81
363.203	72.81
363.429	87.81
363.656	74.81
363.882	76.81
364.109	89.81
364.335	84.81
364.562	90.81
364.788	88.81
365.015	83.81
365.241	93.81
365.468	80.81
365.694	81.81
365.92	102.81
366.147	91.81
366.373	77.81
366.599	84.81
366.826	94.81
367.052	74.81
367.278	72.81
367.505	82.81
367.731	102.81
367.957	90.81
368.184	86.81
368.41	79.81
368.636	92.81
368.862	88.81
369.089	84.81
369.315	76.81
369.541	98.81
369.767	81.81
369.993	87.81
370.219	78.81
370.445	88.81
370.672	98.81
370.898	93.81
371.124	78.81
371.35	84.81
371.576	92.81
371.802	85.81
372.028	86.81
372.254	102.81
372.48	79.81
372.706	100.81
372.932	82.81
373.158	95.81
373.384	96.81
373.61	76.81
373.835	103.81
374.061	82.81
374.287	96.81
374.513	89.81
374.739	84.81
374.965	81.81
375.191	91.81
375.416	80.81
375.642	90.81
375.868	84.81
376.094	74.81
376.319	88.81
376.545	92.81
376.771	74.81
376.997	74.81
377.222	89.81
377.448	91.81
377.674	88.81
377.899	79.81
378.125	92.81
378.35	89.81
378.576	82.81
378.802	95.81
379.027	82.81
379.253	99.81
379.478	96.81
379.704	96.81
379.929	112.81
380.155	97.81
380.38	95.81
380.606	106.81
380.831	82.81
381.057	97.81
381.282	90.81
381.507	95.81
381.733	72.81
381.958	84.81
382.184	83.81
382.409	97.81
382.634	92.81
382.86	91.81
383.085	87.81
383.31	93.81
383.535	98.81
383.761	92.81
383.986	90.81
384.211	87.81
384.436	93.81
384.662	84.81
384.887	95.81
385.112	85.81
385.337	105.81
385.562	106.81
385.787	92.81
386.013	88.81
386.238	76.81
386.463	99.81
386.688	114.81
386.913	98.81
387.138	102.81
387.363	94.81
387.588	92.81
387.813	75.81
388.038	81.81
388.263	91.81
388.488	91.81
388.713	91.81
388.938	91.81
389.163	90.81
389.387	94.81
389.612	84.81
389.837	95.81
390.062	95.81
390.287	82.81
390.512	89.81
390.736	89.81
390.961	87.81
391.186	93.81
391.411	101.81
391.636	97.81
391.86	97.81
392.085	107.81
392.31	96.81
392.534	99.81
392.759	103.81
392.984	84.81
393.208	96.81
393.433	107.81
393.658	111.81
393.882	102.81
394.107	128.81
394.331	158.81
394.556	160.81
394.78	114.81
395.005	118.81
395.229	110.81
395.454	100.81
395.678	111.81
395.903	155.81
396.127	203.81
396.352	208.81
396.576	124.81
396.801	108.81
397.025	98.81
397.249	101.81
397.474	103.81
397.698	94.81
397.922	92.81
398.147	96.81
398.371	96.81
398.595	92.81
398.82	100.81
399.044	93.81
399.268	100.81
399.492	86.81
399.717	92.81
399.941	106.81
400.165	91.81
400.389	95.81
400.613	98.81
400.837	94.81
401.062	92.81
401.286	97.81
401.51	102.81
401.734	104.81
401.958	107.81
402.182	104.81
402.406	87.81
402.63	92.81
402.854	97.81
403.078	84.81
403.302	94.81
403.526	90.81
403.75	92.81
403.974	101.81
404.198	108.81
404.422	97.81
404.645	106.81
404.869	103.81
405.093	98.81
405.317	111.81
405.541	103.81
405.765	104.81
405.988	101.81
406.212	103.81
406.436	102.81
406.66	89.81
406.883	95.81
407.107	119.81
407.331	102.81
407.555	107.81
407.778	92.81
408.002	100.81
408.226	97.81
408.449	90.81
408.673	99.81
408.896	104.81
409.12	90.81
409.344	114.81
409.567	103.81
409.791	103.81
410.014	99.81
410.238	100.81
410.461	103.81
410.685	113.81
410.908	97.81
411.132	122.81
411.355	119.81
411.578	114.81
411.802	100.81
412.025	96.81
412.249	99.81
412.472	103.81
412.695	91.81
412.919	100.81
413.142	118.81
413.365	95.81
413.589	98.81
413.812	110.81
414.035	108.81
414.258	119.81
414.482	106.81
414.705	102.81
414.928	107.81
415.151	105.81
415.374	102.81
415.597	121.81
415.821	107.81
416.044	89.81
416.267	107.81
416.49	95.81
416.713	117.81
416.936	97.81
417.159	97.81
417.382	89.81
417.605	105.81
417.828	119.81
418.051	113.81
418.274	111.81
418.497	106.81
418.72	118.81
418.943	110.81
419.166	104.81
419.389	102.81
419.611	106.81
419.834	94.81
420.057	112.81
420.28	104.81
420.503	90.81
420.726	106.81
420.948	112.81
421.171	108.81
421.394	100.81
421.617	109.81
421.839	104.81
422.062	107.81
422.285	103.81
422.507	110.81
422.73	97.81
422.953	92.81
423.175	86.81
423.398	115.81
423.621	109.81
423.843	112.81
424.066	119.81
424.288	110.81
424.511	106.81
424.733	106.81
424.956	105.81
425.178	98.81
425.401	98.81
425.623	104.81
425.846	107.81
426.068	120.81
426.291	107.81
426.513	104.81
426.735	111.81
426.958	117.81
427.18	96.81
427.402	102.81
427.625	99.81
427.847	124.81
428.069	104.81
428.292	103.81
428.514	114.81
428.736	105.81
428.958	99.81
429.181	123.81
429.403	103.81
429.625	106.81
429.847	109.81
430.069	108.81
430.292	123.81
430.514	97.81
430.736	107.81
430.958	106.81
431.18	102.81
431.402	121.81
431.624	92.81
431.846	82.81
432.068	91.81
432.29	106.81
432.512	96.81
432.734	104.81
432.956	109.81
433.178	107.81
433.4	111.81
433.622	97.81
433.844	105.81
434.066	98.81
434.287	94.81
434.509	93.81
434.731	104.81
434.953	84.81
435.175	110.81
435.397	97.81
435.618	87.81
435.84	87.81
436.062	102.81
436.284	112.81
436.505	118.81
436.727	112.81
436.949	111.81
437.17	105.81
437.392	114.81
437.614	97.81
437.835	94.81
438.057	97.81
438.278	112.81
438.5	103.81
438.721	97.81
438.943	116.81
439.165	103.81
439.386	115.81
439.608	105.81
439.829	106.81
440.05	113.81
440.272	114.81
440.493	116.81
440.715	119.81
440.936	124.81
441.158	107.81
441.379	126.81
441.6	120.81
441.822	121.81
442.043	110.81
442.264	104.81
442.486	114.81
442.707	110.81
442.928	98.81
443.149	95.81
443.371	111.81
443.592	102.81
443.813	119.81
444.034	122.81
444.255	116.81
444.476	108.81
444.698	103.81
444.919	114.81
445.14	171.81
445.361	136.81
445.582	124.81
445.803	123.81
446.024	111.81
446.245	120.81
446.466	119.81
446.687	95.81
446.908	115.81
447.129	111.81
447.35	97.81
447.571	110.81
447.792	102.81
448.013	115.81
448.234	118.81
448.455	103.81
448.675	115.81
448.896	96.81
449.117	123.81
449.338	106.81
449.559	116.81
449.779	123.81
450	125.81
450.221	130.81
450.442	125.81
450.662	120.81
450.883	122.81
451.104	124.81
451.324	112.81
451.545	112.81
451.766	108.81
451.986	101.81
452.207	100.81
452.428	98.81
452.648	107.81
452.869	96.81
453.089	84.81
453.31	102.81
453.53	88.81
453.751	85.81
453.971	92.81
454.192	90.81
454.412	107.81
454.633	94.81
454.853	96.81
455.073	100.81
455.294	104.81
455.514	89.81
455.734	106.81
455.955	125.81
456.175	99.81
456.395	94.81
456.616	95.81
456.836	105.81
457.056	102.81
457.276	96.81
457.497	99.81
457.717	80.81
457.937	90.81
458.157	93.81
458.377	99.81
458.598	87.81
458.818	76.81
459.038	93.81
459.258	77.81
459.478	68.81
459.698	78.81
459.918	78.81
460.138	88.81
460.358	92.81
460.578	79.81
460.798	104.81
461.018	102.81
461.238	97.81
461.458	102.81
461.678	96.81
461.898	102.81
462.118	108.81
462.338	92.81
462.558	97.81
462.777	92.81
462.997	96.81
463.217	98.81
463.437	96.81
463.657	89.81
463.876	102.81
464.096	84.81
464.316	86.81
464.536	111.81
464.755	97.81
464.975	90.81
465.195	102.81
465.414	95.81
465.634	103.81
465.854	96.81
466.073	114.81
466.293	108.81
466.512	102.81
466.732	107.81
466.951	105.81
467.171	115.81
467.391	135.81
467.61	135.81
467.829	108.81
468.049	124.81
468.268	139.81
468.488	119.81
468.707	127.81
468.927	119.81
469.146	90.81
469.365	107.81
469.585	102.81
469.804	115.81
470.023	123.81
470.243	126.81
470.462	125.81
470.681	112.81
470.901	108.81
471.12	113.81
471.339	129.81
471.558	119.81
471.777	118.81
471.997	103.81
472.216	107.81
472.435	96.81
472.654	90.81
472.873	106.81
473.092	97.81
473.311	118.81
473.53	109.81
473.749	110.81
473.968	123.81
474.187	95.81
474.406	107.81
474.625	102.81
474.844	114.81
475.063	109.81
475.282	88.81
475.501	94.81
475.72	114.81
475.939	106.81
476.158	97.81
476.377	102.81
476.596	114.81
476.814	94.81
477.033	80.81
477.252	115.81
477.471	97.81
477.69	96.81
477.908	109.81
478.127	110.81
478.346	104.81
478.564	115.81
478.783	99.81
479.002	109.81
479.22	110.81
479.439	107.81
479.658	112.81
479.876	102.81
480.095	106.81
480.313	102.81
480.532	96.81
480.751	100.81
480.969	84.81
481.188	82.81
481.406	90.81
481.624	74.81
481.843	84.81
482.061	99.81
482.28	81.81
482.498	88.81
482.717	96.81
482.935	87.81
483.153	91.81
483.372	94.81
483.59	101.81
483.808	92.81
484.027	97.81
484.245	100.81
484.463	100.81
484.681	94.81
484.9	95.81
485.118	106.81
485.336	101.81
485.554	96.81
485.772	89.81
485.99	94.81
486.209	99.81
486.427	91.81
486.645	108.81
486.863	96.81
487.081	110.81
487.299	110.81
487.517	104.81
487.735	107.81
487.953	114.81
488.171	118.81
488.389	99.81
488.607	100.81
488.825	117.81
489.043	102.81
489.261	95.81
489.479	96.81
489.696	91.81
489.914	108.81
490.132	122.81
490.35	132.81
490.568	128.81
490.786	134.81
491.003	126.81
491.221	148.81
491.439	125.81
491.657	141.81
491.874	169.81
492.092	154.81
492.31	138.81
492.527	154.81
492.745	148.81
492.963	148.81
493.18	135.81
493.398	148.81
493.615	134.81
493.833	139.81
494.05	133.81
494.268	136.81
494.485	126.81
494.703	132.81
494.92	140.81
495.138	115.81
495.355	151.81
495.573	135.81
495.79	124.81
496.008	139.81
496.225	127.81
496.442	128.81
496.66	135.81
496.877	131.81
497.094	116.81
497.312	124.81
497.529	109.81
497.746	116.81
497.963	104.81
498.181	98.81
498.398	110.81
498.615	97.81
498.832	97.81
499.049	90.81
499.267	94.81
499.484	91.81
499.701	115.81
499.918	111.81
500.135	106.81
500.352	109.81
500.569	126.81
500.786	104.81
501.003	107.81
501.22	110.81
501.437	115.81
501.654	103.81
501.871	110.81
502.088	93.81
502.305	101.81
502.522	101.81
502.739	126.81
502.956	103.81
503.172	99.81
503.389	91.81
503.606	96.81
503.823	98.81
504.04	108.81
504.256	102.81
504.473	94.81
504.69	88.81
504.907	104.81
505.123	111.81
505.34	94.81
505.557	95.81
505.773	108.81
505.99	110.81
506.207	96.81
506.423	104.81
506.64	99.81
506.856	91.81
507.073	88.81
507.289	87.81
507.506	90.81
507.722	87.81
507.939	102.81
508.155	89.81
508.372	102.81
508.588	95.81
508.805	96.81
509.021	72.81
509.238	92.81
509.454	89.81
509.67	77.81
509.887	98.81
510.103	76.81
510.319	83.81
510.536	89.81
510.752	94.81
510.968	93.81
511.184	94.81
511.401	83.81
511.617	96.81
511.833	81.81
512.049	70.81
512.265	82.81
512.481	89.81
512.698	87.81
512.914	92.81
513.13	89.81
513.346	90.81
513.562	93.81
513.778	102.81
513.994	94.81
514.21	84.81
514.426	83.81
514.642	95.81
