Data from Foil_2_HRD10591_00008.txt Node
Date: Wed Nov 05 16:17:25 EST 2025
User: Yrep
Spectrometer: HR+D1059
Trigger mode: 1
Integration Time (sec): 1.000000E-1
Scans to average: 1
Electric dark correction enabled: true
Nonlinearity correction enabled: false
Boxcar width: 0
XAxis mode: Wavelengths
Number of Pixels in Spectrum: 2048
>>>>>Begin Spectral Data<<<<<
223.165	-25
223.4	-25
223.635	-25
223.869	-25
224.104	-11
224.338	-13
224.573	-8
224.808	-15
225.042	-1
225.277	9
225.511	-2
225.746	-5
225.98	7
226.215	5
226.449	7
226.683	9
226.918	28
227.152	40
227.387	35
227.621	45
227.856	35
228.09	48
228.324	43
228.559	64
228.793	62
229.027	73
229.262	72
229.496	56
229.73	77
229.964	74
230.199	72
230.433	80
230.667	80
230.901	82
231.136	80
231.37	86
231.604	75
231.838	95
232.072	92
232.306	99
232.541	94
232.775	75
233.009	76
233.243	86
233.477	81
233.711	96
233.945	79
234.179	95
234.413	85
234.647	89
234.881	84
235.115	84
235.349	73
235.583	71
235.817	70
236.051	78
236.285	75
236.519	67
236.753	71
236.987	65
237.221	85
237.455	89
237.689	80
237.922	74
238.156	91
238.39	77
238.624	64
238.858	75
239.091	73
239.325	66
239.559	79
239.793	69
240.027	77
240.26	74
240.494	81
240.728	84
240.961	81
241.195	91
241.429	67
241.662	77
241.896	80
242.13	77
242.363	68
242.597	78
242.83	85
243.064	79
243.298	81
243.531	75
243.765	83
243.998	86
244.232	89
244.465	68
244.699	78
244.932	82
245.166	59
245.399	79
245.633	68
245.866	79
246.099	86
246.333	65
246.566	83
246.8	75
247.033	81
247.266	85
247.5	88
247.733	75
247.966	77
248.2	98
248.433	81
248.666	77
248.899	68
249.133	78
249.366	75
249.599	78
249.832	77
250.066	81
250.299	79
250.532	95
250.765	69
250.998	91
251.231	80
251.465	89
251.698	87
251.931	77
252.164	85
252.397	77
252.63	88
252.863	75
253.096	99
253.329	96
253.562	84
253.795	77
254.028	86
254.261	92
254.494	95
254.727	77
254.96	80
255.193	89
255.426	85
255.659	67
255.892	67
256.124	77
256.357	88
256.59	85
256.823	84
257.056	84
257.289	73
257.521	88
257.754	87
257.987	81
258.22	93
258.452	81
258.685	85
258.918	74
259.151	83
259.383	77
259.616	88
259.849	82
260.081	89
260.314	81
260.547	95
260.779	75
261.012	71
261.244	92
261.477	83
261.71	98
261.942	91
262.175	93
262.407	85
262.64	77
262.872	90
263.105	91
263.337	69
263.57	73
263.802	75
264.035	71
264.267	88
264.499	88
264.732	93
264.964	85
265.197	85
265.429	88
265.661	71
265.894	88
266.126	86
266.358	77
266.591	75
266.823	80
267.055	93
267.287	67
267.52	104
267.752	74
267.984	92
268.216	68
268.448	79
268.681	87
268.913	76
269.145	83
269.377	84
269.609	82
269.841	84
270.073	90
270.306	83
270.538	89
270.77	84
271.002	74
271.234	78
271.466	80
271.698	89
271.93	91
272.162	81
272.394	88
272.626	69
272.858	90
273.09	95
273.322	88
273.553	81
273.785	76
274.017	79
274.249	86
274.481	76
274.713	86
274.945	72
275.176	96
275.408	82
275.64	81
275.872	73
276.104	85
276.335	100
276.567	79
276.799	79
277.031	80
277.262	80
277.494	98
277.726	84
277.957	83
278.189	77
278.421	89
278.652	76
278.884	89
279.115	83
279.347	78
279.579	88
279.81	96
280.042	78
280.273	97
280.505	83
280.736	86
280.968	96
281.199	86
281.431	87
281.662	84
281.894	85
282.125	82
282.356	80
282.588	94
282.819	74
283.051	87
283.282	83
283.513	89
283.745	84
283.976	83
284.207	83
284.439	77
284.67	88
284.901	85
285.132	77
285.364	68
285.595	95
285.826	95
286.057	82
286.288	83
286.52	88
286.751	92
286.982	82
287.213	81
287.444	92
287.675	92
287.906	82
288.138	83
288.369	88
288.6	75
288.831	100
289.062	71
289.293	75
289.524	99
289.755	83
289.986	97
290.217	76
290.448	89
290.679	93
290.91	78
291.141	84
291.371	77
291.602	81
291.833	85
292.064	86
292.295	77
292.526	91
292.757	65
292.987	91
293.218	94
293.449	75
293.68	97
293.91	89
294.141	86
294.372	81
294.603	84
294.833	81
295.064	80
295.295	77
295.525	89
295.756	97
295.987	92
296.217	86
296.448	91
296.679	97
296.909	98
297.14	90
297.37	69
297.601	91
297.831	80
298.062	75
298.292	72
298.523	85
298.753	89
298.984	86
299.214	68
299.445	78
299.675	90
299.905	90
300.136	88
300.366	76
300.597	94
300.827	80
301.057	86
301.288	85
301.518	92
301.748	89
301.979	101
302.209	93
302.439	88
302.669	81
302.9	87
303.13	100
303.36	76
303.59	85
303.82	79
304.051	75
304.281	84
304.511	88
304.741	79
304.971	86
305.201	89
305.431	106
305.661	92
305.891	93
306.121	86
306.352	78
306.582	83
306.812	68
307.042	100
307.272	91
307.502	79
307.731	94
307.961	78
308.191	85
308.421	108
308.651	95
308.881	99
309.111	105
309.341	124
309.571	108
309.8	76
310.03	100
310.26	74
310.49	94
310.72	81
310.949	85
311.179	102
311.409	96
311.639	85
311.868	74
312.098	78
312.328	84
312.557	76
312.787	76
313.017	90
313.246	84
313.476	89
313.706	85
313.935	80
314.165	87
314.394	79
314.624	88
314.853	79
315.083	89
315.312	89
315.542	84
315.771	81
316.001	93
316.23	86
316.46	93
316.689	80
316.919	88
317.148	100
317.377	86
317.607	103
317.836	78
318.065	94
318.295	85
318.524	91
318.753	79
318.983	93
319.212	90
319.441	88
319.67	101
319.9	96
320.129	85
320.358	69
320.587	80
320.816	97
321.046	79
321.275	79
321.504	78
321.733	91
321.962	91
322.191	86
322.42	83
322.649	86
322.878	87
323.108	81
323.337	91
323.566	95
323.795	95
324.024	88
324.253	81
324.482	73
324.71	83
324.939	93
325.168	91
325.397	76
325.626	95
325.855	90
326.084	88
326.313	91
326.542	89
326.77	75
326.999	85
327.228	100
327.457	91
327.686	87
327.914	78
328.143	90
328.372	93
328.6	75
328.829	90
329.058	75
329.287	84
329.515	78
329.744	81
329.972	91
330.201	86
330.43	91
330.658	83
330.887	69
331.115	89
331.344	85
331.572	100
331.801	95
332.03	88
332.258	94
332.486	72
332.715	81
332.943	84
333.172	82
333.4	87
333.629	84
333.857	79
334.085	91
334.314	79
334.542	88
334.771	83
334.999	97
335.227	79
335.455	81
335.684	88
335.912	81
336.14	89
336.369	92
336.597	91
336.825	95
337.053	77
337.281	82
337.51	79
337.738	95
337.966	83
338.194	82
338.422	87
338.65	81
338.878	86
339.106	90
339.334	80
339.562	77
339.79	85
340.018	103
340.246	87
340.474	80
340.702	93
340.93	91
341.158	108
341.386	85
341.614	92
341.842	79
342.07	85
342.298	93
342.526	80
342.754	99
342.981	81
343.209	80
343.437	90
343.665	91
343.893	84
344.12	95
344.348	91
344.576	103
344.804	91
345.031	76
345.259	83
345.487	91
345.714	75
345.942	79
346.17	93
346.397	98
346.625	89
346.853	81
347.08	91
347.308	89
347.535	95
347.763	92
347.99	86
348.218	89
348.445	103
348.673	97
348.9	93
349.128	99
349.355	84
349.583	80
349.81	79
350.037	69
350.265	94
350.492	93
350.72	71
350.947	75
351.174	86
351.402	91
351.629	92
351.856	77
352.083	91
352.311	75
352.538	92
352.765	89
352.992	92
353.22	88
353.447	91
353.674	75
353.901	79
354.128	71
354.355	91
354.583	79
354.81	84
355.037	79
355.264	77
355.491	83
355.718	89
355.945	98
356.172	91
356.399	95
356.626	83
356.853	91
357.08	97
357.307	93
357.534	88
357.761	84
357.988	83
358.215	92
358.441	93
358.668	83
358.895	81
359.122	73
359.349	93
359.576	91
359.802	81
360.029	71
360.256	83
360.483	79
360.709	96
360.936	66
361.163	76
361.39	87
361.616	88
361.843	77
362.07	81
362.296	91
362.523	95
362.749	91
362.976	75
363.203	87
363.429	91
363.656	77
363.882	72
364.109	83
364.335	87
364.562	95
364.788	95
365.015	74
365.241	93
365.468	89
365.694	79
365.92	91
366.147	90
366.373	89
366.599	77
366.826	81
367.052	73
367.278	84
367.505	80
367.731	90
367.957	88
368.184	84
368.41	92
368.636	96
368.862	79
369.089	90
369.315	93
369.541	93
369.767	85
369.993	84
370.219	77
370.445	75
370.672	78
370.898	90
371.124	97
371.35	89
371.576	92
371.802	77
372.028	76
372.254	79
372.48	79
372.706	97
372.932	82
373.158	91
373.384	92
373.61	101
373.835	85
374.061	80
374.287	87
374.513	78
374.739	80
374.965	76
375.191	93
375.416	76
375.642	81
375.868	105
376.094	95
376.319	84
376.545	91
376.771	80
376.997	87
377.222	88
377.448	86
377.674	99
377.899	83
378.125	80
378.35	89
378.576	83
378.802	89
379.027	89
379.253	88
379.478	80
379.704	91
379.929	87
380.155	92
380.38	105
380.606	94
380.831	89
381.057	91
381.282	82
381.507	88
381.733	76
381.958	97
382.184	87
382.409	91
382.634	91
382.86	98
383.085	87
383.31	81
383.535	82
383.761	97
383.986	91
384.211	81
384.436	101
384.662	91
384.887	103
385.112	96
385.337	94
385.562	77
385.787	99
386.013	83
386.238	91
386.463	85
386.688	105
386.913	85
387.138	84
387.363	87
387.588	105
387.813	106
388.038	97
388.263	89
388.488	87
388.713	98
388.938	85
389.163	86
389.387	92
389.612	102
389.837	95
390.062	89
390.287	88
390.512	97
390.736	109
390.961	93
391.186	109
391.411	90
391.636	89
391.86	91
392.085	103
392.31	97
392.534	113
392.759	100
392.984	96
393.208	104
393.433	89
393.658	98
393.882	94
394.107	133
394.331	166
394.556	180
394.78	114
395.005	91
395.229	104
395.454	90
395.678	119
395.903	151
396.127	223
396.352	208
396.576	106
396.801	91
397.025	99
397.249	112
397.474	91
397.698	97
397.922	108
398.147	106
398.371	89
398.595	98
398.82	90
399.044	85
399.268	93
399.492	89
399.717	107
399.941	84
400.165	95
400.389	84
400.613	91
400.837	101
401.062	99
401.286	93
401.51	111
401.734	104
401.958	109
402.182	109
402.406	106
402.63	107
402.854	99
403.078	101
403.302	105
403.526	103
403.75	86
403.974	88
404.198	115
404.422	105
404.645	89
404.869	101
405.093	112
405.317	112
405.541	95
405.765	99
405.988	99
406.212	85
406.436	99
406.66	107
406.883	101
407.107	87
407.331	108
407.555	108
407.778	105
408.002	95
408.226	107
408.449	108
408.673	104
408.896	97
409.12	107
409.344	93
409.567	90
409.791	94
410.014	102
410.238	100
410.461	111
410.685	115
410.908	106
411.132	109
411.355	107
411.578	111
411.802	110
412.025	101
412.249	109
412.472	107
412.695	112
412.919	101
413.142	105
413.365	114
413.589	98
413.812	102
414.035	105
414.258	106
414.482	105
414.705	106
414.928	107
415.151	101
415.374	103
415.597	103
415.821	98
416.044	94
416.267	126
416.49	107
416.713	107
416.936	110
417.159	105
417.382	104
417.605	100
417.828	100
418.051	106
418.274	99
418.497	108
418.72	112
418.943	89
419.166	123
419.389	126
419.611	104
419.834	106
420.057	100
420.28	101
420.503	101
420.726	104
420.948	101
421.171	88
421.394	108
421.617	88
421.839	96
422.062	90
422.285	99
422.507	105
422.73	108
422.953	106
423.175	104
423.398	109
423.621	93
423.843	115
424.066	96
424.288	102
424.511	113
424.733	108
424.956	107
425.178	102
425.401	101
425.623	108
425.846	87
426.068	96
426.291	100
426.513	111
426.735	113
426.958	100
427.18	110
427.402	114
427.625	114
427.847	91
428.069	91
428.292	113
428.514	110
428.736	101
428.958	114
429.181	112
429.403	116
429.625	113
429.847	97
430.069	106
430.292	112
430.514	120
430.736	109
430.958	107
431.18	113
431.402	102
431.624	112
431.846	92
432.068	84
432.29	108
432.512	105
432.734	117
432.956	109
433.178	115
433.4	105
433.622	117
433.844	103
434.066	97
434.287	83
434.509	88
434.731	104
434.953	89
435.175	111
435.397	106
435.618	94
435.84	103
436.062	98
436.284	114
436.505	124
436.727	107
436.949	113
437.17	114
437.392	104
437.614	95
437.835	101
438.057	95
438.278	107
438.5	109
438.721	100
438.943	122
439.165	123
439.386	102
439.608	112
439.829	115
440.05	124
440.272	107
440.493	109
440.715	117
440.936	104
441.158	109
441.379	127
441.6	113
441.822	122
442.043	131
442.264	111
442.486	124
442.707	103
442.928	128
443.149	126
443.371	108
443.592	99
443.813	110
444.034	112
444.255	103
444.476	124
444.698	106
444.919	119
445.14	178
445.361	141
445.582	108
445.803	103
446.024	106
446.245	115
446.466	119
446.687	110
446.908	125
447.129	123
447.35	109
447.571	105
447.792	99
448.013	112
448.234	107
448.455	109
448.675	105
448.896	106
449.117	100
449.338	108
449.559	122
449.779	125
450	109
450.221	127
450.442	121
450.662	108
450.883	125
451.104	98
451.324	99
451.545	117
451.766	119
451.986	103
452.207	102
452.428	89
452.648	110
452.869	98
453.089	110
453.31	103
453.53	108
453.751	98
453.971	89
454.192	90
454.412	84
454.633	83
454.853	97
455.073	97
455.294	119
455.514	85
455.734	98
455.955	91
456.175	108
456.395	90
456.616	87
456.836	84
457.056	83
457.276	85
457.497	93
457.717	90
457.937	104
458.157	86
458.377	90
458.598	82
458.818	86
459.038	77
459.258	81
459.478	81
459.698	92
459.918	87
460.138	95
460.358	91
460.578	103
460.798	98
461.018	91
461.238	110
461.458	91
461.678	82
461.898	97
462.118	103
462.338	93
462.558	98
462.777	111
462.997	84
463.217	93
463.437	96
463.657	93
463.876	99
464.096	92
464.316	100
464.536	89
464.755	96
464.975	92
465.195	103
465.414	116
465.634	104
465.854	95
466.073	98
466.293	105
466.512	123
466.732	112
466.951	129
467.171	129
467.391	133
467.61	137
467.829	128
468.049	136
468.268	124
468.488	127
468.707	115
468.927	105
469.146	115
469.365	114
469.585	125
469.804	131
470.023	107
470.243	126
470.462	115
470.681	115
470.901	119
471.12	114
471.339	108
471.558	103
471.777	121
471.997	118
472.216	114
472.435	91
472.654	103
472.873	92
473.092	104
473.311	114
473.53	120
473.749	129
473.968	124
474.187	104
474.406	113
474.625	104
474.844	120
475.063	110
475.282	117
475.501	115
475.72	97
475.939	93
476.158	94
476.377	88
476.596	90
476.814	94
477.033	74
477.252	105
477.471	94
477.69	108
477.908	94
478.127	99
478.346	113
478.564	107
478.783	103
479.002	115
479.22	114
479.439	107
479.658	98
479.876	85
480.095	101
480.313	96
480.532	95
480.751	88
480.969	68
481.188	82
481.406	84
481.624	87
481.843	93
482.061	83
482.28	110
482.498	97
482.717	95
482.935	111
483.153	110
483.372	105
483.59	111
483.808	108
484.027	94
484.245	97
484.463	81
484.681	106
484.9	102
485.118	96
485.336	95
485.554	98
485.772	97
485.99	75
486.209	95
486.427	94
486.645	108
486.863	109
487.081	111
487.299	102
487.517	103
487.735	114
487.953	111
488.171	110
488.389	101
488.607	110
488.825	100
489.043	96
489.261	115
489.479	104
489.696	119
489.914	97
490.132	113
490.35	142
490.568	129
490.786	131
491.003	144
491.221	135
491.439	151
491.657	132
491.874	135
492.092	135
492.31	138
492.527	154
492.745	147
492.963	144
493.18	133
493.398	143
493.615	145
493.833	130
494.05	114
494.268	144
494.485	137
494.703	136
494.92	134
495.138	132
495.355	135
495.573	136
495.79	128
496.008	116
496.225	145
496.442	124
496.66	129
496.877	135
497.094	139
497.312	113
497.529	107
497.746	103
497.963	100
498.181	104
498.398	109
498.615	92
498.832	107
499.049	97
499.267	106
499.484	100
499.701	105
499.918	107
500.135	107
500.352	104
500.569	116
500.786	123
501.003	117
501.22	101
501.437	109
501.654	112
501.871	117
502.088	104
502.305	111
502.522	116
502.739	116
502.956	124
503.172	98
503.389	104
503.606	94
503.823	103
504.04	81
504.256	98
504.473	99
504.69	96
504.907	113
505.123	110
505.34	94
505.557	105
505.773	96
505.99	97
506.207	76
506.423	99
506.64	107
506.856	100
507.073	106
507.289	86
507.506	105
507.722	105
507.939	85
508.155	115
508.372	100
508.588	84
508.805	88
509.021	97
509.238	85
509.454	99
509.67	83
509.887	85
510.103	93
510.319	85
510.536	81
510.752	92
510.968	97
511.184	94
511.401	89
511.617	91
511.833	69
512.049	80
512.265	91
512.481	87
512.698	90
512.914	90
513.13	85
513.346	87
513.562	89
513.778	92
513.994	82
514.21	101
514.426	91
514.642	92
514.858	84
515.074	93
515.29	92
515.506	100
515.721	93
515.937	80
516.153	90
516.369	87
516.585	98
516.801	79
517.016	99
517.232	92
517.448	92
517.664	89
517.879	90
518.095	93
518.311	87
518.527	93
518.742	83
518.958	89
519.173	99
519.389	101
519.605	95
519.82	104
520.036	90
520.251	83
520.467	76
520.682	109
520.898	81
521.113	86
521.329	88
521.544	79
521.76	92
521.975	89
522.19	100
522.406	82
522.621	89
522.836	92
523.052	87
523.267	91
523.482	78
523.698	95
523.913	81
524.128	91
524.343	88
524.559	103
524.774	91
524.989	102
525.204	102
525.419	104
525.634	83
525.849	84
526.064	96
526.28	81
526.495	84
526.71	96
526.925	93
527.14	92
527.355	74
527.57	87
527.785	90
527.999	103
528.214	83
528.429	101
528.644	103
528.859	105
529.074	101
529.289	109
529.503	90
529.718	101
529.933	91
530.148	100
530.363	79
530.577	69
530.792	79
531.007	85
531.221	93
531.436	82
531.651	86
531.865	76
532.08	95
532.295	98
532.509	89
532.724	97
532.938	90
533.153	97
533.367	99
533.582	85
533.796	78
534.011	91
534.225	93
534.44	91
534.654	90
534.868	93
535.083	72
535.297	92
535.511	94
535.726	93
535.94	86
536.154	92
536.369	92
536.583	81
536.797	73
537.011	85
537.225	84
537.44	79
537.654	94
537.868	87
538.082	96
538.296	79
538.51	91
538.724	93
538.938	94
539.153	99
539.367	97
539.581	85
539.795	85
540.009	83
540.222	91
540.436	96
540.65	97
540.864	121
541.078	115
541.292	108
541.506	130
541.72	127
541.934	121
542.147	135
542.361	117
542.575	125
542.789	104
543.002	104
543.216	110
543.43	94
543.644	103
543.857	116
544.071	110
544.285	126
544.498	125
544.712	138
544.925	127
545.139	130
545.352	142
545.566	137
545.779	139
545.993	127
546.206	130
546.42	131
546.633	128
546.847	138
547.06	113
547.274	120
547.487	140
547.7	136
547.914	137
548.127	131
548.34	123
548.554	141
548.767	144
548.98	134
549.193	112
549.407	122
549.62	146
549.833	136
550.046	152
550.259	135
550.473	127
550.686	131
550.899	124
551.112	111
551.325	107
551.538	116
551.751	102
551.964	113
552.177	119
552.39	117
552.603	110
552.816	135
553.029	121
553.242	141
553.455	128
553.667	127
553.88	146
554.093	117
554.306	129
554.519	121
554.732	137
554.944	126
555.157	133
555.37	116
555.583	126
555.795	121
556.008	109
556.221	115
556.433	120
556.646	109
556.859	127
557.071	119
557.284	107
557.496	127
557.709	120
557.921	119
558.134	117
558.346	121
558.559	105
558.771	119
558.984	104
559.196	123
559.409	130
559.621	112
559.833	105
560.046	121
560.258	114
560.47	115
560.683	120
560.895	108
561.107	100
561.32	97
561.532	106
561.744	109
561.956	129
562.168	112
562.381	111
562.593	101
562.805	112
563.017	114
563.229	111
563.441	100
563.653	93
563.865	109
564.077	108
564.289	108
564.501	108
564.713	98
564.925	115
565.137	93
565.349	100
565.561	98
565.773	108
565.985	105
566.197	90
566.408	112
566.62	101
566.832	103
567.044	92
567.255	88
567.467	94
567.679	104
567.891	105
568.102	78
568.314	94
568.526	77
568.737	93
568.949	88
569.161	87
569.372	89
569.584	102
569.795	90
570.007	85
570.218	83
570.43	80
570.641	78
570.853	93
571.064	85
571.276	100
571.487	84
571.698	90
571.91	101
572.121	97
572.333	98
572.544	81
572.755	81
572.966	79
573.178	80
573.389	79
573.6	81
573.811	90
574.023	71
574.234	90
574.445	85
574.656	83
574.867	81
575.078	84
575.289	106
575.501	91
575.712	96
575.923	98
576.134	76
576.345	96
576.556	91
576.767	104
576.978	105
577.188	94
577.399	95
577.61	99
577.821	96
578.032	103
578.243	80
578.454	80
578.665	75
578.875	92
579.086	87
579.297	91
579.508	86
579.718	84
579.929	81
580.14	84
580.35	97
580.561	79
580.772	81
580.982	78
581.193	102
581.403	76
581.614	86
