Data from Foil_2_HRD10591_00020.txt Node
Date: Wed Nov 05 16:17:31 EST 2025
User: Yrep
Spectrometer: HR+D1059
Trigger mode: 1
Integration Time (sec): 1.000000E-1
Scans to average: 1
Electric dark correction enabled: true
Nonlinearity correction enabled: false
Boxcar width: 0
XAxis mode: Wavelengths
Number of Pixels in Spectrum: 2048
>>>>>Begin Spectral Data<<<<<
223.165	-4.25
223.4	-4.25
223.635	-4.25
223.869	-16.25
224.104	-17.25
224.338	-13.25
224.573	-11.25
224.808	6.75
225.042	-9.25
225.277	-10.25
225.511	-18.25
225.746	3.75
225.98	-0.25
226.215	8.75
226.449	22.75
226.683	16.75
226.918	13.75
227.152	27.75
227.387	16.75
227.621	32.75
227.856	53.75
228.09	44.75
228.324	41.75
228.559	52.75
228.793	56.75
229.027	58.75
229.262	74.75
229.496	62.75
229.73	65.75
229.964	55.75
230.199	68.75
230.433	72.75
230.667	71.75
230.901	68.75
231.136	79.75
231.37	75.75
231.604	90.75
231.838	92.75
232.072	92.75
232.306	63.75
232.541	68.75
232.775	68.75
233.009	87.75
233.243	85.75
233.477	85.75
233.711	84.75
233.945	78.75
234.179	75.75
234.413	74.75
234.647	73.75
234.881	78.75
235.115	83.75
235.349	72.75
235.583	83.75
235.817	75.75
236.051	76.75
236.285	67.75
236.519	63.75
236.753	67.75
236.987	72.75
237.221	68.75
237.455	75.75
237.689	75.75
237.922	83.75
238.156	70.75
238.39	61.75
238.624	86.75
238.858	64.75
239.091	71.75
239.325	60.75
239.559	76.75
239.793	71.75
240.027	75.75
240.26	68.75
240.494	78.75
240.728	85.75
240.961	70.75
241.195	77.75
241.429	75.75
241.662	67.75
241.896	68.75
242.13	80.75
242.363	68.75
242.597	60.75
242.83	83.75
243.064	68.75
243.298	75.75
243.531	80.75
243.765	77.75
243.998	61.75
244.232	89.75
244.465	89.75
244.699	77.75
244.932	78.75
245.166	70.75
245.399	64.75
245.633	78.75
245.866	72.75
246.099	78.75
246.333	69.75
246.566	84.75
246.8	72.75
247.033	68.75
247.266	79.75
247.5	59.75
247.733	74.75
247.966	65.75
248.2	73.75
248.433	83.75
248.666	73.75
248.899	82.75
249.133	73.75
249.366	88.75
249.599	71.75
249.832	71.75
250.066	85.75
250.299	72.75
250.532	71.75
250.765	72.75
250.998	79.75
251.231	77.75
251.465	66.75
251.698	72.75
251.931	85.75
252.164	68.75
252.397	76.75
252.63	66.75
252.863	72.75
253.096	75.75
253.329	67.75
253.562	75.75
253.795	79.75
254.028	69.75
254.261	70.75
254.494	79.75
254.727	79.75
254.96	85.75
255.193	86.75
255.426	63.75
255.659	72.75
255.892	72.75
256.124	78.75
256.357	67.75
256.59	80.75
256.823	86.75
257.056	81.75
257.289	88.75
257.521	70.75
257.754	80.75
257.987	76.75
258.22	90.75
258.452	76.75
258.685	70.75
258.918	73.75
259.151	84.75
259.383	67.75
259.616	77.75
259.849	72.75
260.081	79.75
260.314	78.75
260.547	83.75
260.779	83.75
261.012	80.75
261.244	88.75
261.477	85.75
261.71	82.75
261.942	67.75
262.175	68.75
262.407	75.75
262.64	81.75
262.872	86.75
263.105	72.75
263.337	84.75
263.57	81.75
263.802	79.75
264.035	82.75
264.267	92.75
264.499	83.75
264.732	87.75
264.964	86.75
265.197	88.75
265.429	83.75
265.661	80.75
265.894	79.75
266.126	90.75
266.358	86.75
266.591	78.75
266.823	86.75
267.055	68.75
267.287	72.75
267.52	72.75
267.752	94.75
267.984	70.75
268.216	74.75
268.448	76.75
268.681	79.75
268.913	85.75
269.145	72.75
269.377	77.75
269.609	67.75
269.841	80.75
270.073	79.75
270.306	60.75
270.538	97.75
270.77	76.75
271.002	76.75
271.234	81.75
271.466	82.75
271.698	65.75
271.93	79.75
272.162	90.75
272.394	76.75
272.626	70.75
272.858	80.75
273.09	75.75
273.322	84.75
273.553	91.75
273.785	80.75
274.017	86.75
274.249	84.75
274.481	74.75
274.713	75.75
274.945	80.75
275.176	64.75
275.408	84.75
275.64	79.75
275.872	90.75
276.104	92.75
276.335	79.75
276.567	87.75
276.799	87.75
277.031	63.75
277.262	67.75
277.494	102.75
277.726	74.75
277.957	71.75
278.189	75.75
278.421	90.75
278.652	79.75
278.884	85.75
279.115	67.75
279.347	102.75
279.579	76.75
279.81	74.75
280.042	79.75
280.273	87.75
280.505	87.75
280.736	78.75
280.968	80.75
281.199	85.75
281.431	80.75
281.662	82.75
281.894	80.75
282.125	85.75
282.356	86.75
282.588	72.75
282.819	70.75
283.051	87.75
283.282	92.75
283.513	84.75
283.745	84.75
283.976	86.75
284.207	84.75
284.439	83.75
284.67	86.75
284.901	82.75
285.132	86.75
285.364	85.75
285.595	80.75
285.826	88.75
286.057	75.75
286.288	75.75
286.52	99.75
286.751	74.75
286.982	72.75
287.213	86.75
287.444	74.75
287.675	76.75
287.906	66.75
288.138	71.75
288.369	86.75
288.6	92.75
288.831	79.75
289.062	83.75
289.293	84.75
289.524	84.75
289.755	73.75
289.986	76.75
290.217	80.75
290.448	91.75
290.679	90.75
290.91	84.75
291.141	79.75
291.371	87.75
291.602	87.75
291.833	90.75
292.064	89.75
292.295	76.75
292.526	82.75
292.757	78.75
292.987	72.75
293.218	84.75
293.449	75.75
293.68	72.75
293.91	86.75
294.141	74.75
294.372	88.75
294.603	90.75
294.833	85.75
295.064	88.75
295.295	99.75
295.525	80.75
295.756	73.75
295.987	84.75
296.217	83.75
296.448	99.75
296.679	85.75
296.909	84.75
297.14	86.75
297.37	90.75
297.601	73.75
297.831	91.75
298.062	88.75
298.292	86.75
298.523	75.75
298.753	90.75
298.984	92.75
299.214	79.75
299.445	82.75
299.675	74.75
299.905	83.75
300.136	87.75
300.366	77.75
300.597	66.75
300.827	85.75
301.057	87.75
301.288	99.75
301.518	75.75
301.748	68.75
301.979	89.75
302.209	98.75
302.439	75.75
302.669	88.75
302.9	93.75
303.13	81.75
303.36	81.75
303.59	90.75
303.82	91.75
304.051	81.75
304.281	87.75
304.511	79.75
304.741	68.75
304.971	76.75
305.201	101.75
305.431	85.75
305.661	89.75
305.891	86.75
306.121	96.75
306.352	76.75
306.582	74.75
306.812	78.75
307.042	84.75
307.272	76.75
307.502	91.75
307.731	84.75
307.961	83.75
308.191	91.75
308.421	111.75
308.651	90.75
308.881	82.75
309.111	83.75
309.341	118.75
309.571	106.75
309.8	86.75
310.03	83.75
310.26	74.75
310.49	77.75
310.72	86.75
310.949	80.75
311.179	96.75
311.409	72.75
311.639	74.75
311.868	89.75
312.098	85.75
312.328	68.75
312.557	89.75
312.787	78.75
313.017	82.75
313.246	87.75
313.476	78.75
313.706	90.75
313.935	77.75
314.165	90.75
314.394	88.75
314.624	90.75
314.853	79.75
315.083	96.75
315.312	87.75
315.542	74.75
315.771	84.75
316.001	76.75
316.23	74.75
316.46	79.75
316.689	75.75
316.919	75.75
317.148	90.75
317.377	94.75
317.607	97.75
317.836	78.75
318.065	81.75
318.295	87.75
318.524	83.75
318.753	84.75
318.983	67.75
319.212	75.75
319.441	66.75
319.67	79.75
319.9	78.75
320.129	74.75
320.358	87.75
320.587	83.75
320.816	102.75
321.046	78.75
321.275	76.75
321.504	90.75
321.733	86.75
321.962	80.75
322.191	77.75
322.42	83.75
322.649	84.75
322.878	88.75
323.108	79.75
323.337	79.75
323.566	74.75
323.795	62.75
324.024	91.75
324.253	76.75
324.482	69.75
324.71	72.75
324.939	93.75
325.168	75.75
325.397	73.75
325.626	85.75
325.855	102.75
326.084	80.75
326.313	73.75
326.542	85.75
326.77	70.75
326.999	91.75
327.228	96.75
327.457	88.75
327.686	94.75
327.914	77.75
328.143	85.75
328.372	76.75
328.6	86.75
328.829	73.75
329.058	65.75
329.287	76.75
329.515	70.75
329.744	84.75
329.972	76.75
330.201	95.75
330.43	84.75
330.658	83.75
330.887	78.75
331.115	78.75
331.344	67.75
331.572	94.75
331.801	84.75
332.03	78.75
332.258	96.75
332.486	74.75
332.715	75.75
332.943	85.75
333.172	70.75
333.4	72.75
333.629	86.75
333.857	63.75
334.085	77.75
334.314	78.75
334.542	80.75
334.771	89.75
334.999	84.75
335.227	77.75
335.455	83.75
335.684	83.75
335.912	87.75
336.14	70.75
336.369	84.75
336.597	88.75
336.825	83.75
337.053	77.75
337.281	84.75
337.51	92.75
337.738	88.75
337.966	66.75
338.194	86.75
338.422	81.75
338.65	84.75
338.878	86.75
339.106	100.75
339.334	81.75
339.562	78.75
339.79	66.75
340.018	87.75
340.246	78.75
340.474	93.75
340.702	72.75
340.93	74.75
341.158	66.75
341.386	81.75
341.614	79.75
341.842	102.75
342.07	73.75
342.298	80.75
342.526	85.75
342.754	74.75
342.981	74.75
343.209	77.75
343.437	87.75
343.665	84.75
343.893	75.75
344.12	84.75
344.348	68.75
344.576	88.75
344.804	86.75
345.031	71.75
345.259	91.75
345.487	86.75
345.714	70.75
345.942	98.75
346.17	88.75
346.397	83.75
346.625	87.75
346.853	79.75
347.08	84.75
347.308	81.75
347.535	86.75
347.763	68.75
347.99	103.75
348.218	68.75
348.445	81.75
348.673	87.75
348.9	85.75
349.128	77.75
349.355	78.75
349.583	85.75
349.81	73.75
350.037	78.75
350.265	72.75
350.492	70.75
350.72	74.75
350.947	88.75
351.174	86.75
351.402	96.75
351.629	80.75
351.856	87.75
352.083	86.75
352.311	76.75
352.538	92.75
352.765	94.75
352.992	92.75
353.22	92.75
353.447	81.75
353.674	68.75
353.901	86.75
354.128	77.75
354.355	76.75
354.583	88.75
354.81	90.75
355.037	69.75
355.264	74.75
355.491	81.75
355.718	77.75
355.945	77.75
356.172	63.75
356.399	72.75
356.626	83.75
356.853	96.75
357.08	72.75
357.307	68.75
357.534	79.75
357.761	81.75
357.988	70.75
358.215	76.75
358.441	84.75
358.668	80.75
358.895	72.75
359.122	89.75
359.349	74.75
359.576	79.75
359.802	79.75
360.029	79.75
360.256	74.75
360.483	75.75
360.709	77.75
360.936	83.75
361.163	88.75
361.39	86.75
361.616	86.75
361.843	72.75
362.07	91.75
362.296	81.75
362.523	82.75
362.749	83.75
362.976	77.75
363.203	78.75
363.429	71.75
363.656	66.75
363.882	79.75
364.109	71.75
364.335	76.75
364.562	77.75
364.788	79.75
365.015	69.75
365.241	72.75
365.468	68.75
365.694	77.75
365.92	72.75
366.147	92.75
366.373	92.75
366.599	80.75
366.826	82.75
367.052	85.75
367.278	74.75
367.505	97.75
367.731	102.75
367.957	83.75
368.184	73.75
368.41	84.75
368.636	78.75
368.862	101.75
369.089	83.75
369.315	75.75
369.541	86.75
369.767	81.75
369.993	73.75
370.219	88.75
370.445	90.75
370.672	85.75
370.898	86.75
371.124	91.75
371.35	66.75
371.576	84.75
371.802	70.75
372.028	68.75
372.254	82.75
372.48	84.75
372.706	82.75
372.932	79.75
373.158	91.75
373.384	89.75
373.61	99.75
373.835	88.75
374.061	90.75
374.287	70.75
374.513	86.75
374.739	81.75
374.965	90.75
375.191	83.75
375.416	93.75
375.642	78.75
375.868	90.75
376.094	87.75
376.319	80.75
376.545	70.75
376.771	74.75
376.997	81.75
377.222	89.75
377.448	85.75
377.674	82.75
377.899	103.75
378.125	84.75
378.35	86.75
378.576	87.75
378.802	69.75
379.027	71.75
379.253	96.75
379.478	76.75
379.704	99.75
379.929	75.75
380.155	86.75
380.38	90.75
380.606	84.75
380.831	82.75
381.057	91.75
381.282	80.75
381.507	90.75
381.733	83.75
381.958	89.75
382.184	73.75
382.409	92.75
382.634	80.75
382.86	88.75
383.085	60.75
383.31	79.75
383.535	76.75
383.761	83.75
383.986	73.75
384.211	99.75
384.436	86.75
384.662	82.75
384.887	71.75
385.112	87.75
385.337	91.75
385.562	84.75
385.787	87.75
386.013	80.75
386.238	93.75
386.463	90.75
386.688	102.75
386.913	78.75
387.138	86.75
387.363	91.75
387.588	78.75
387.813	91.75
388.038	80.75
388.263	104.75
388.488	100.75
388.713	99.75
388.938	78.75
389.163	90.75
389.387	84.75
389.612	83.75
389.837	94.75
390.062	89.75
390.287	83.75
390.512	82.75
390.736	93.75
390.961	98.75
391.186	88.75
391.411	80.75
391.636	106.75
391.86	90.75
392.085	89.75
392.31	97.75
392.534	100.75
392.759	88.75
392.984	96.75
393.208	88.75
393.433	83.75
393.658	83.75
393.882	89.75
394.107	122.75
394.331	155.75
394.556	174.75
394.78	127.75
395.005	101.75
395.229	97.75
395.454	103.75
395.678	99.75
395.903	142.75
396.127	168.75
396.352	179.75
396.576	116.75
396.801	93.75
397.025	88.75
397.249	79.75
397.474	100.75
397.698	96.75
397.922	102.75
398.147	106.75
398.371	95.75
398.595	84.75
398.82	94.75
399.044	93.75
399.268	83.75
399.492	90.75
399.717	101.75
399.941	84.75
400.165	90.75
400.389	82.75
400.613	77.75
400.837	92.75
401.062	87.75
401.286	84.75
401.51	98.75
401.734	102.75
401.958	94.75
402.182	96.75
402.406	77.75
402.63	88.75
402.854	98.75
403.078	101.75
403.302	84.75
403.526	95.75
403.75	102.75
403.974	87.75
404.198	98.75
404.422	102.75
404.645	103.75
404.869	107.75
405.093	100.75
405.317	98.75
405.541	102.75
405.765	104.75
405.988	93.75
406.212	94.75
406.436	92.75
406.66	99.75
406.883	104.75
407.107	96.75
407.331	97.75
407.555	79.75
407.778	98.75
408.002	96.75
408.226	91.75
408.449	84.75
408.673	94.75
408.896	119.75
409.12	99.75
409.344	105.75
409.567	95.75
409.791	91.75
410.014	108.75
410.238	112.75
410.461	107.75
410.685	96.75
410.908	104.75
411.132	116.75
411.355	92.75
411.578	102.75
411.802	106.75
412.025	101.75
412.249	100.75
412.472	96.75
412.695	115.75
412.919	114.75
413.142	97.75
413.365	95.75
413.589	101.75
413.812	103.75
414.035	101.75
414.258	112.75
414.482	89.75
414.705	114.75
414.928	105.75
415.151	92.75
415.374	99.75
415.597	86.75
415.821	104.75
416.044	96.75
416.267	104.75
416.49	94.75
416.713	87.75
416.936	101.75
417.159	116.75
417.382	98.75
417.605	104.75
417.828	105.75
418.051	100.75
418.274	112.75
418.497	98.75
418.72	115.75
418.943	94.75
419.166	96.75
419.389	102.75
419.611	111.75
419.834	107.75
420.057	107.75
420.28	98.75
420.503	106.75
420.726	119.75
420.948	97.75
421.171	92.75
421.394	111.75
421.617	99.75
421.839	96.75
422.062	88.75
422.285	89.75
422.507	98.75
422.73	110.75
422.953	105.75
423.175	81.75
423.398	96.75
423.621	105.75
423.843	100.75
424.066	111.75
424.288	98.75
424.511	99.75
424.733	96.75
424.956	92.75
425.178	97.75
425.401	103.75
425.623	107.75
425.846	101.75
426.068	88.75
426.291	96.75
426.513	108.75
426.735	102.75
426.958	92.75
427.18	107.75
427.402	108.75
427.625	106.75
427.847	109.75
428.069	109.75
428.292	99.75
428.514	100.75
428.736	101.75
428.958	96.75
429.181	101.75
429.403	97.75
429.625	100.75
429.847	92.75
430.069	106.75
430.292	103.75
430.514	107.75
430.736	101.75
430.958	114.75
431.18	98.75
431.402	95.75
431.624	82.75
431.846	86.75
432.068	75.75
432.29	68.75
432.512	93.75
432.734	93.75
432.956	102.75
433.178	102.75
433.4	100.75
433.622	113.75
433.844	88.75
434.066	83.75
434.287	100.75
434.509	74.75
434.731	107.75
434.953	86.75
435.175	86.75
435.397	100.75
435.618	112.75
435.84	91.75
436.062	87.75
436.284	94.75
436.505	105.75
436.727	102.75
436.949	95.75
437.17	100.75
437.392	103.75
437.614	104.75
437.835	84.75
438.057	86.75
438.278	89.75
438.5	99.75
438.721	99.75
438.943	96.75
439.165	107.75
439.386	103.75
439.608	116.75
439.829	100.75
440.05	109.75
440.272	115.75
440.493	103.75
440.715	114.75
440.936	101.75
441.158	102.75
441.379	102.75
441.6	104.75
441.822	108.75
442.043	95.75
442.264	111.75
442.486	108.75
442.707	116.75
442.928	119.75
443.149	109.75
443.371	111.75
443.592	104.75
443.813	108.75
444.034	106.75
444.255	123.75
444.476	117.75
444.698	97.75
444.919	111.75
445.14	196.75
445.361	135.75
445.582	109.75
445.803	100.75
446.024	100.75
446.245	109.75
446.466	96.75
446.687	95.75
446.908	111.75
447.129	116.75
447.35	101.75
447.571	118.75
447.792	108.75
448.013	99.75
448.234	112.75
448.455	95.75
448.675	112.75
448.896	107.75
449.117	116.75
449.338	116.75
449.559	114.75
449.779	87.75
450	94.75
450.221	112.75
450.442	112.75
450.662	115.75
450.883	98.75
451.104	105.75
451.324	102.75
451.545	99.75
451.766	110.75
451.986	95.75
452.207	88.75
452.428	91.75
452.648	94.75
452.869	85.75
453.089	98.75
453.31	92.75
453.53	84.75
453.751	88.75
453.971	98.75
454.192	95.75
454.412	87.75
454.633	103.75
454.853	114.75
455.073	85.75
455.294	86.75
455.514	103.75
455.734	91.75
455.955	91.75
456.175	88.75
456.395	94.75
456.616	76.75
456.836	88.75
457.056	96.75
457.276	78.75
457.497	80.75
457.717	92.75
457.937	98.75
458.157	85.75
458.377	84.75
458.598	82.75
458.818	70.75
459.038	89.75
459.258	75.75
459.478	78.75
459.698	89.75
459.918	95.75
460.138	80.75
460.358	93.75
460.578	78.75
460.798	102.75
461.018	93.75
461.238	98.75
461.458	110.75
461.678	88.75
461.898	94.75
462.118	104.75
462.338	97.75
462.558	103.75
462.777	89.75
462.997	94.75
463.217	100.75
463.437	88.75
463.657	98.75
463.876	91.75
464.096	86.75
464.316	76.75
464.536	87.75
464.755	92.75
464.975	93.75
465.195	100.75
465.414	84.75
465.634	93.75
465.854	96.75
466.073	92.75
466.293	108.75
466.512	99.75
466.732	102.75
466.951	110.75
467.171	115.75
467.391	125.75
467.61	127.75
467.829	120.75
468.049	131.75
468.268	110.75
468.488	109.75
468.707	108.75
468.927	107.75
469.146	109.75
469.365	102.75
469.585	103.75
469.804	124.75
470.023	124.75
470.243	112.75
470.462	121.75
470.681	109.75
470.901	98.75
471.12	116.75
471.339	110.75
471.558	106.75
471.777	115.75
471.997	111.75
472.216	91.75
472.435	88.75
472.654	86.75
472.873	105.75
473.092	101.75
473.311	108.75
473.53	116.75
473.749	95.75
473.968	94.75
474.187	93.75
474.406	89.75
474.625	104.75
474.844	96.75
475.063	94.75
475.282	87.75
475.501	87.75
475.72	105.75
475.939	81.75
476.158	105.75
476.377	99.75
476.596	92.75
476.814	90.75
477.033	83.75
477.252	94.75
477.471	99.75
477.69	97.75
477.908	110.75
478.127	106.75
478.346	109.75
478.564	107.75
478.783	101.75
479.002	112.75
479.22	95.75
479.439	107.75
479.658	96.75
479.876	86.75
480.095	76.75
480.313	83.75
480.532	87.75
480.751	83.75
480.969	84.75
481.188	79.75
481.406	90.75
481.624	84.75
481.843	78.75
482.061	90.75
482.28	91.75
482.498	90.75
482.717	86.75
482.935	100.75
483.153	107.75
483.372	92.75
483.59	96.75
483.808	81.75
484.027	93.75
484.245	85.75
484.463	91.75
484.681	96.75
484.9	90.75
485.118	97.75
485.336	93.75
485.554	90.75
485.772	76.75
485.99	94.75
486.209	91.75
486.427	88.75
486.645	92.75
486.863	111.75
487.081	87.75
487.299	96.75
487.517	103.75
487.735	104.75
487.953	118.75
488.171	119.75
488.389	103.75
488.607	96.75
488.825	100.75
489.043	99.75
489.261	87.75
489.479	92.75
489.696	119.75
489.914	114.75
490.132	101.75
490.35	97.75
490.568	132.75
490.786	116.75
491.003	125.75
491.221	139.75
491.439	127.75
491.657	135.75
491.874	153.75
492.092	135.75
492.31	141.75
492.527	150.75
492.745	144.75
492.963	147.75
493.18	136.75
493.398	147.75
493.615	142.75
493.833	134.75
494.05	128.75
494.268	131.75
494.485	127.75
494.703	122.75
494.92	138.75
495.138	123.75
495.355	135.75
495.573	122.75
495.79	120.75
496.008	127.75
496.225	138.75
496.442	119.75
496.66	135.75
496.877	118.75
497.094	126.75
497.312	122.75
497.529	106.75
497.746	117.75
497.963	105.75
498.181	98.75
498.398	97.75
498.615	102.75
498.832	80.75
499.049	98.75
499.267	100.75
499.484	105.75
499.701	111.75
499.918	102.75
500.135	108.75
500.352	111.75
500.569	107.75
500.786	125.75
501.003	109.75
501.22	98.75
501.437	100.75
501.654	99.75
501.871	101.75
502.088	86.75
502.305	117.75
502.522	109.75
502.739	91.75
502.956	90.75
503.172	105.75
503.389	98.75
503.606	106.75
503.823	84.75
504.04	101.75
504.256	92.75
504.473	96.75
504.69	88.75
504.907	98.75
505.123	106.75
505.34	104.75
505.557	101.75
505.773	111.75
505.99	79.75
506.207	93.75
506.423	97.75
506.64	100.75
506.856	109.75
507.073	86.75
507.289	91.75
507.506	91.75
507.722	91.75
507.939	85.75
508.155	94.75
508.372	85.75
508.588	90.75
508.805	94.75
509.021	77.75
509.238	82.75
509.454	76.75
509.67	86.75
509.887	88.75
510.103	93.75
510.319	104.75
510.536	77.75
510.752	73.75
510.968	79.75
511.184	77.75
511.401	75.75
511.617	79.75
511.833	75.75
512.049	72.75
512.265	83.75
512.481	76.75
512.698	90.75
512.914	83.75
513.13	96.75
513.346	101.75
513.562	80.75
513.778	82.75
513.994	92.75
514.21	84.75
514.426	75.75
514.642	78.75
514.858	86.75
515.074	97.75
515.29	84.75
515.506	80.75
515.721	74.75
515.937	85.75
516.153	76.75
516.369	80.75
