Data from Foil_2_HRD10591_00003.txt Node
Date: Wed Nov 05 16:17:23 EST 2025
User: Yrep
Spectrometer: HR+D1059
Trigger mode: 1
Integration Time (sec): 1.000000E-1
Scans to average: 1
Electric dark correction enabled: true
Nonlinearity correction enabled: false
Boxcar width: 0
XAxis mode: Wavelengths
Number of Pixels in Spectrum: 2048
>>>>>Begin Spectral Data<<<<<
223.165	-7.88
223.4	-7.88
223.635	-7.88
223.869	-11.88
224.104	-18.88
224.338	-9.88
224.573	-26.88
224.808	-13.88
225.042	-5.88
225.277	-6.88
225.511	-7.88
225.746	8.12
225.98	-6.88
226.215	19.12
226.449	17.12
226.683	23.12
226.918	25.12
227.152	24.12
227.387	43.12
227.621	52.12
227.856	51.12
228.09	46.12
228.324	41.12
228.559	57.12
228.793	46.12
229.027	66.12
229.262	44.12
229.496	62.12
229.73	76.12
229.964	64.12
230.199	68.12
230.433	74.12
230.667	82.12
230.901	66.12
231.136	76.12
231.37	66.12
231.604	66.12
231.838	81.12
232.072	66.12
232.306	69.12
232.541	69.12
232.775	89.12
233.009	70.12
233.243	74.12
233.477	73.12
233.711	90.12
233.945	76.12
234.179	92.12
234.413	68.12
234.647	76.12
234.881	81.12
235.115	92.12
235.349	82.12
235.583	69.12
235.817	71.12
236.051	75.12
236.285	68.12
236.519	82.12
236.753	62.12
236.987	80.12
237.221	89.12
237.455	60.12
237.689	78.12
237.922	59.12
238.156	62.12
238.39	62.12
238.624	64.12
238.858	73.12
239.091	70.12
239.325	75.12
239.559	69.12
239.793	71.12
240.027	71.12
240.26	86.12
240.494	74.12
240.728	78.12
240.961	70.12
241.195	58.12
241.429	58.12
241.662	70.12
241.896	60.12
242.13	62.12
242.363	68.12
242.597	66.12
242.83	74.12
243.064	68.12
243.298	77.12
243.531	69.12
243.765	77.12
243.998	79.12
244.232	70.12
244.465	70.12
244.699	74.12
244.932	72.12
245.166	75.12
245.399	77.12
245.633	77.12
245.866	79.12
246.099	74.12
246.333	67.12
246.566	67.12
246.8	83.12
247.033	60.12
247.266	85.12
247.5	64.12
247.733	68.12
247.966	70.12
248.2	72.12
248.433	71.12
248.666	55.12
248.899	74.12
249.133	72.12
249.366	78.12
249.599	65.12
249.832	71.12
250.066	82.12
250.299	73.12
250.532	71.12
250.765	64.12
250.998	79.12
251.231	78.12
251.465	75.12
251.698	75.12
251.931	59.12
252.164	74.12
252.397	56.12
252.63	88.12
252.863	71.12
253.096	66.12
253.329	74.12
253.562	79.12
253.795	76.12
254.028	59.12
254.261	77.12
254.494	70.12
254.727	69.12
254.96	64.12
255.193	91.12
255.426	86.12
255.659	71.12
255.892	98.12
256.124	68.12
256.357	73.12
256.59	85.12
256.823	80.12
257.056	94.12
257.289	72.12
257.521	69.12
257.754	74.12
257.987	73.12
258.22	84.12
258.452	70.12
258.685	84.12
258.918	71.12
259.151	75.12
259.383	80.12
259.616	86.12
259.849	68.12
260.081	76.12
260.314	82.12
260.547	86.12
260.779	80.12
261.012	79.12
261.244	69.12
261.477	87.12
261.71	84.12
261.942	83.12
262.175	73.12
262.407	72.12
262.64	73.12
262.872	75.12
263.105	85.12
263.337	75.12
263.57	75.12
263.802	66.12
264.035	73.12
264.267	85.12
264.499	82.12
264.732	75.12
264.964	75.12
265.197	75.12
265.429	73.12
265.661	64.12
265.894	63.12
266.126	80.12
266.358	73.12
266.591	78.12
266.823	79.12
267.055	74.12
267.287	74.12
267.52	71.12
267.752	78.12
267.984	62.12
268.216	68.12
268.448	74.12
268.681	71.12
268.913	82.12
269.145	80.12
269.377	81.12
269.609	87.12
269.841	75.12
270.073	76.12
270.306	64.12
270.538	92.12
270.77	75.12
271.002	76.12
271.234	87.12
271.466	82.12
271.698	69.12
271.93	87.12
272.162	80.12
272.394	86.12
272.626	64.12
272.858	72.12
273.09	85.12
273.322	70.12
273.553	74.12
273.785	76.12
274.017	68.12
274.249	76.12
274.481	73.12
274.713	73.12
274.945	77.12
275.176	68.12
275.408	78.12
275.64	88.12
275.872	82.12
276.104	80.12
276.335	74.12
276.567	76.12
276.799	73.12
277.031	76.12
277.262	82.12
277.494	93.12
277.726	92.12
277.957	92.12
278.189	49.12
278.421	76.12
278.652	72.12
278.884	75.12
279.115	71.12
279.347	86.12
279.579	80.12
279.81	78.12
280.042	75.12
280.273	92.12
280.505	59.12
280.736	86.12
280.968	67.12
281.199	86.12
281.431	97.12
281.662	80.12
281.894	83.12
282.125	65.12
282.356	63.12
282.588	83.12
282.819	88.12
283.051	82.12
283.282	73.12
283.513	82.12
283.745	80.12
283.976	75.12
284.207	84.12
284.439	86.12
284.67	77.12
284.901	68.12
285.132	72.12
285.364	86.12
285.595	75.12
285.826	71.12
286.057	72.12
286.288	79.12
286.52	84.12
286.751	74.12
286.982	71.12
287.213	80.12
287.444	87.12
287.675	82.12
287.906	81.12
288.138	68.12
288.369	88.12
288.6	80.12
288.831	71.12
289.062	89.12
289.293	71.12
289.524	70.12
289.755	83.12
289.986	73.12
290.217	83.12
290.448	64.12
290.679	78.12
290.91	76.12
291.141	68.12
291.371	75.12
291.602	66.12
291.833	83.12
292.064	82.12
292.295	84.12
292.526	70.12
292.757	78.12
292.987	88.12
293.218	95.12
293.449	87.12
293.68	81.12
293.91	63.12
294.141	75.12
294.372	60.12
294.603	96.12
294.833	70.12
295.064	82.12
295.295	70.12
295.525	80.12
295.756	90.12
295.987	85.12
296.217	70.12
296.448	82.12
296.679	84.12
296.909	87.12
297.14	82.12
297.37	82.12
297.601	77.12
297.831	94.12
298.062	80.12
298.292	87.12
298.523	91.12
298.753	76.12
298.984	76.12
299.214	76.12
299.445	71.12
299.675	82.12
299.905	71.12
300.136	72.12
300.366	72.12
300.597	81.12
300.827	86.12
301.057	70.12
301.288	67.12
301.518	76.12
301.748	73.12
301.979	87.12
302.209	77.12
302.439	85.12
302.669	85.12
302.9	76.12
303.13	78.12
303.36	75.12
303.59	71.12
303.82	83.12
304.051	79.12
304.281	79.12
304.511	73.12
304.741	66.12
304.971	77.12
305.201	75.12
305.431	90.12
305.661	93.12
305.891	80.12
306.121	81.12
306.352	82.12
306.582	89.12
306.812	75.12
307.042	89.12
307.272	82.12
307.502	82.12
307.731	78.12
307.961	89.12
308.191	110.12
308.421	101.12
308.651	92.12
308.881	103.12
309.111	99.12
309.341	115.12
309.571	96.12
309.8	62.12
310.03	86.12
310.26	68.12
310.49	77.12
310.72	75.12
310.949	62.12
311.179	76.12
311.409	67.12
311.639	75.12
311.868	86.12
312.098	90.12
312.328	75.12
312.557	83.12
312.787	83.12
313.017	93.12
313.246	76.12
313.476	94.12
313.706	82.12
313.935	74.12
314.165	73.12
314.394	66.12
314.624	72.12
314.853	68.12
315.083	77.12
315.312	70.12
315.542	76.12
315.771	88.12
316.001	71.12
316.23	83.12
316.46	79.12
316.689	83.12
316.919	90.12
317.148	82.12
317.377	89.12
317.607	81.12
317.836	82.12
318.065	79.12
318.295	74.12
318.524	82.12
318.753	71.12
318.983	70.12
319.212	97.12
319.441	76.12
319.67	98.12
319.9	82.12
320.129	78.12
320.358	82.12
320.587	85.12
320.816	77.12
321.046	69.12
321.275	86.12
321.504	76.12
321.733	76.12
321.962	84.12
322.191	82.12
322.42	66.12
322.649	86.12
322.878	81.12
323.108	96.12
323.337	66.12
323.566	82.12
323.795	84.12
324.024	74.12
324.253	76.12
324.482	59.12
324.71	83.12
324.939	70.12
325.168	78.12
325.397	72.12
325.626	70.12
325.855	89.12
326.084	73.12
326.313	78.12
326.542	70.12
326.77	85.12
326.999	83.12
327.228	77.12
327.457	66.12
327.686	76.12
327.914	82.12
328.143	90.12
328.372	70.12
328.6	67.12
328.829	78.12
329.058	80.12
329.287	82.12
329.515	75.12
329.744	98.12
329.972	87.12
330.201	70.12
330.43	74.12
330.658	78.12
330.887	70.12
331.115	88.12
331.344	75.12
331.572	92.12
331.801	78.12
332.03	86.12
332.258	88.12
332.486	90.12
332.715	77.12
332.943	81.12
333.172	68.12
333.4	84.12
333.629	72.12
333.857	85.12
334.085	95.12
334.314	80.12
334.542	82.12
334.771	81.12
334.999	89.12
335.227	67.12
335.455	76.12
335.684	74.12
335.912	85.12
336.14	78.12
336.369	72.12
336.597	84.12
336.825	71.12
337.053	82.12
337.281	84.12
337.51	71.12
337.738	78.12
337.966	91.12
338.194	77.12
338.422	63.12
338.65	80.12
338.878	78.12
339.106	91.12
339.334	79.12
339.562	80.12
339.79	77.12
340.018	68.12
340.246	80.12
340.474	89.12
340.702	86.12
340.93	87.12
341.158	84.12
341.386	91.12
341.614	71.12
341.842	77.12
342.07	80.12
342.298	79.12
342.526	73.12
342.754	60.12
342.981	87.12
343.209	75.12
343.437	92.12
343.665	81.12
343.893	60.12
344.12	87.12
344.348	72.12
344.576	70.12
344.804	74.12
345.031	91.12
345.259	64.12
345.487	82.12
345.714	66.12
345.942	86.12
346.17	80.12
346.397	85.12
346.625	70.12
346.853	73.12
347.08	76.12
347.308	62.12
347.535	74.12
347.763	76.12
347.99	70.12
348.218	73.12
348.445	70.12
348.673	74.12
348.9	84.12
349.128	86.12
349.355	87.12
349.583	89.12
349.81	92.12
350.037	80.12
350.265	81.12
350.492	76.12
350.72	76.12
350.947	96.12
351.174	82.12
351.402	75.12
351.629	73.12
351.856	69.12
352.083	71.12
352.311	73.12
352.538	74.12
352.765	75.12
352.992	86.12
353.22	77.12
353.447	79.12
353.674	74.12
353.901	73.12
354.128	83.12
354.355	86.12
354.583	78.12
354.81	78.12
355.037	72.12
355.264	82.12
355.491	84.12
355.718	88.12
355.945	78.12
356.172	72.12
356.399	80.12
356.626	71.12
356.853	91.12
357.08	96.12
357.307	72.12
357.534	79.12
357.761	91.12
357.988	71.12
358.215	82.12
358.441	84.12
358.668	73.12
358.895	69.12
359.122	77.12
359.349	71.12
359.576	88.12
359.802	73.12
360.029	74.12
360.256	90.12
360.483	73.12
360.709	73.12
360.936	94.12
361.163	83.12
361.39	86.12
361.616	71.12
361.843	96.12
362.07	82.12
362.296	79.12
362.523	68.12
362.749	84.12
362.976	83.12
363.203	90.12
363.429	72.12
363.656	74.12
363.882	78.12
364.109	80.12
364.335	90.12
364.562	92.12
364.788	88.12
365.015	78.12
365.241	100.12
365.468	88.12
365.694	70.12
365.92	82.12
366.147	74.12
366.373	86.12
366.599	78.12
366.826	80.12
367.052	85.12
367.278	82.12
367.505	69.12
367.731	77.12
367.957	71.12
368.184	85.12
368.41	76.12
368.636	87.12
368.862	87.12
369.089	74.12
369.315	80.12
369.541	84.12
369.767	82.12
369.993	85.12
370.219	80.12
370.445	70.12
370.672	71.12
370.898	74.12
371.124	84.12
371.35	81.12
371.576	82.12
371.802	83.12
372.028	83.12
372.254	90.12
372.48	88.12
372.706	78.12
372.932	88.12
373.158	70.12
373.384	77.12
373.61	69.12
373.835	89.12
374.061	78.12
374.287	82.12
374.513	87.12
374.739	83.12
374.965	86.12
375.191	84.12
375.416	84.12
375.642	82.12
375.868	80.12
376.094	87.12
376.319	71.12
376.545	80.12
376.771	72.12
376.997	73.12
377.222	90.12
377.448	88.12
377.674	70.12
377.899	75.12
378.125	90.12
378.35	81.12
378.576	80.12
378.802	76.12
379.027	75.12
379.253	73.12
379.478	76.12
379.704	82.12
379.929	70.12
380.155	83.12
380.38	98.12
380.606	82.12
380.831	81.12
381.057	87.12
381.282	80.12
381.507	79.12
381.733	87.12
381.958	80.12
382.184	80.12
382.409	82.12
382.634	91.12
382.86	90.12
383.085	71.12
383.31	74.12
383.535	83.12
383.761	83.12
383.986	106.12
384.211	84.12
384.436	78.12
384.662	83.12
384.887	70.12
385.112	76.12
385.337	84.12
385.562	84.12
385.787	69.12
386.013	91.12
386.238	92.12
386.463	90.12
386.688	115.12
386.913	95.12
387.138	96.12
387.363	83.12
387.588	94.12
387.813	84.12
388.038	75.12
388.263	90.12
388.488	76.12
388.713	83.12
388.938	94.12
389.163	87.12
389.387	91.12
389.612	86.12
389.837	84.12
390.062	79.12
390.287	88.12
390.512	77.12
390.736	100.12
390.961	87.12
391.186	102.12
391.411	73.12
391.636	90.12
391.86	80.12
392.085	85.12
392.31	86.12
392.534	78.12
392.759	86.12
392.984	93.12
393.208	89.12
393.433	95.12
393.658	103.12
393.882	90.12
394.107	114.12
394.331	153.12
394.556	177.12
394.78	119.12
395.005	95.12
395.229	94.12
395.454	107.12
395.678	118.12
395.903	143.12
396.127	185.12
396.352	197.12
396.576	94.12
396.801	85.12
397.025	97.12
397.249	92.12
397.474	94.12
397.698	90.12
397.922	88.12
398.147	94.12
398.371	87.12
398.595	87.12
398.82	87.12
399.044	91.12
399.268	78.12
399.492	99.12
399.717	94.12
399.941	86.12
400.165	105.12
400.389	104.12
400.613	106.12
400.837	91.12
401.062	79.12
401.286	84.12
401.51	102.12
401.734	100.12
401.958	89.12
402.182	92.12
402.406	88.12
402.63	95.12
402.854	87.12
403.078	86.12
403.302	97.12
403.526	95.12
403.75	104.12
403.974	102.12
404.198	101.12
404.422	81.12
404.645	95.12
404.869	104.12
405.093	100.12
405.317	92.12
405.541	88.12
405.765	90.12
405.988	90.12
406.212	103.12
406.436	90.12
406.66	100.12
406.883	88.12
407.107	92.12
407.331	105.12
407.555	92.12
407.778	97.12
408.002	98.12
408.226	89.12
408.449	98.12
408.673	115.12
408.896	96.12
409.12	99.12
409.344	85.12
409.567	103.12
409.791	101.12
410.014	95.12
410.238	96.12
410.461	102.12
410.685	76.12
410.908	104.12
411.132	100.12
411.355	92.12
411.578	91.12
411.802	90.12
412.025	92.12
412.249	112.12
412.472	99.12
412.695	96.12
412.919	97.12
413.142	98.12
413.365	112.12
413.589	98.12
413.812	92.12
414.035	103.12
414.258	90.12
414.482	95.12
414.705	113.12
414.928	94.12
415.151	102.12
415.374	104.12
415.597	90.12
415.821	94.12
416.044	94.12
416.267	100.12
416.49	105.12
416.713	98.12
416.936	92.12
417.159	93.12
417.382	112.12
417.605	100.12
417.828	98.12
418.051	98.12
418.274	96.12
418.497	104.12
418.72	99.12
418.943	90.12
419.166	95.12
419.389	106.12
419.611	107.12
419.834	115.12
420.057	112.12
420.28	95.12
420.503	96.12
420.726	91.12
420.948	90.12
421.171	92.12
421.394	103.12
421.617	93.12
421.839	89.12
422.062	104.12
422.285	98.12
422.507	103.12
422.73	93.12
422.953	83.12
423.175	92.12
423.398	99.12
423.621	99.12
423.843	100.12
424.066	108.12
424.288	113.12
424.511	114.12
424.733	97.12
424.956	114.12
425.178	103.12
425.401	106.12
425.623	79.12
425.846	84.12
426.068	90.12
426.291	108.12
426.513	103.12
426.735	108.12
426.958	112.12
427.18	92.12
427.402	88.12
427.625	98.12
427.847	106.12
428.069	91.12
428.292	103.12
428.514	103.12
428.736	113.12
428.958	101.12
429.181	78.12
429.403	104.12
429.625	118.12
429.847	91.12
430.069	103.12
430.292	109.12
430.514	102.12
430.736	101.12
430.958	94.12
431.18	94.12
431.402	105.12
431.624	104.12
431.846	88.12
432.068	85.12
432.29	74.12
432.512	81.12
432.734	94.12
432.956	104.12
433.178	104.12
433.4	88.12
433.622	112.12
433.844	94.12
434.066	89.12
434.287	80.12
434.509	85.12
434.731	86.12
434.953	81.12
435.175	106.12
435.397	95.12
435.618	96.12
435.84	90.12
436.062	105.12
436.284	105.12
436.505	102.12
436.727	118.12
436.949	90.12
437.17	100.12
437.392	115.12
437.614	79.12
437.835	84.12
438.057	81.12
438.278	76.12
438.5	86.12
438.721	102.12
438.943	88.12
439.165	96.12
439.386	94.12
439.608	110.12
439.829	108.12
440.05	96.12
440.272	105.12
440.493	94.12
440.715	99.12
440.936	113.12
441.158	106.12
441.379	88.12
441.6	108.12
441.822	110.12
442.043	107.12
442.264	118.12
442.486	96.12
442.707	92.12
442.928	105.12
443.149	101.12
443.371	105.12
443.592	119.12
443.813	95.12
444.034	105.12
444.255	97.12
444.476	95.12
444.698	101.12
444.919	103.12
445.14	180.12
445.361	137.12
445.582	111.12
445.803	114.12
446.024	91.12
446.245	115.12
446.466	90.12
446.687	113.12
446.908	94.12
447.129	112.12
447.35	99.12
447.571	95.12
447.792	114.12
448.013	94.12
448.234	90.12
448.455	90.12
448.675	110.12
448.896	104.12
449.117	120.12
449.338	108.12
449.559	102.12
449.779	102.12
450	105.12
450.221	113.12
450.442	121.12
450.662	101.12
450.883	100.12
451.104	122.12
451.324	107.12
451.545	100.12
451.766	119.12
451.986	101.12
452.207	113.12
452.428	111.12
452.648	101.12
452.869	96.12
453.089	94.12
453.31	77.12
453.53	80.12
453.751	95.12
453.971	91.12
454.192	88.12
454.412	85.12
454.633	87.12
454.853	94.12
455.073	94.12
455.294	102.12
455.514	99.12
455.734	92.12
455.955	94.12
456.175	82.12
456.395	80.12
456.616	89.12
456.836	90.12
457.056	80.12
457.276	76.12
457.497	91.12
457.717	95.12
457.937	87.12
458.157	95.12
458.377	74.12
458.598	95.12
458.818	70.12
459.038	70.12
459.258	64.12
459.478	72.12
459.698	80.12
459.918	72.12
460.138	83.12
460.358	85.12
460.578	72.12
460.798	81.12
461.018	84.12
461.238	90.12
461.458	72.12
461.678	88.12
461.898	90.12
462.118	87.12
462.338	101.12
462.558	94.12
462.777	90.12
462.997	92.12
463.217	88.12
463.437	91.12
463.657	64.12
463.876	88.12
464.096	81.12
464.316	81.12
464.536	102.12
464.755	104.12
464.975	104.12
465.195	102.12
465.414	93.12
465.634	87.12
465.854	90.12
466.073	97.12
466.293	92.12
466.512	94.12
466.732	97.12
466.951	113.12
467.171	122.12
467.391	119.12
467.61	113.12
467.829	115.12
468.049	129.12
468.268	121.12
468.488	115.12
468.707	103.12
468.927	100.12
469.146	100.12
469.365	101.12
469.585	110.12
469.804	114.12
470.023	101.12
470.243	114.12
470.462	122.12
470.681	110.12
470.901	122.12
471.12	109.12
471.339	123.12
471.558	112.12
471.777	105.12
471.997	120.12
472.216	102.12
472.435	88.12
472.654	86.12
472.873	103.12
473.092	98.12
473.311	103.12
473.53	117.12
473.749	100.12
473.968	88.12
474.187	96.12
474.406	90.12
474.625	92.12
474.844	113.12
475.063	93.12
475.282	78.12
475.501	82.12
475.72	92.12
475.939	95.12
476.158	96.12
476.377	99.12
476.596	88.12
476.814	83.12
477.033	79.12
477.252	88.12
477.471	99.12
477.69	93.12
477.908	81.12
478.127	106.12
478.346	105.12
478.564	103.12
478.783	98.12
479.002	107.12
479.22	106.12
479.439	103.12
479.658	86.12
479.876	101.12
480.095	91.12
480.313	92.12
480.532	98.12
480.751	81.12
480.969	88.12
481.188	85.12
481.406	80.12
481.624	82.12
481.843	82.12
482.061	80.12
482.28	79.12
482.498	96.12
482.717	80.12
482.935	90.12
483.153	106.12
483.372	129.12
483.59	90.12
483.808	83.12
484.027	88.12
484.245	84.12
484.463	106.12
484.681	111.12
484.9	97.12
485.118	88.12
485.336	82.12
485.554	79.12
485.772	88.12
485.99	82.12
486.209	87.12
486.427	92.12
486.645	106.12
486.863	92.12
487.081	110.12
487.299	94.12
487.517	93.12
487.735	103.12
487.953	108.12
488.171	106.12
488.389	107.12
488.607	99.12
488.825	96.12
489.043	87.12
489.261	102.12
489.479	102.12
489.696	115.12
489.914	99.12
490.132	107.12
490.35	116.12
490.568	139.12
490.786	119.12
491.003	129.12
491.221	130.12
491.439	139.12
491.657	129.12
491.874	144.12
492.092	153.12
492.31	143.12
492.527	154.12
492.745	132.12
492.963	144.12
493.18	135.12
493.398	139.12
493.615	131.12
493.833	124.12
494.05	128.12
494.268	153.12
494.485	132.12
494.703	127.12
494.92	134.12
495.138	123.12
495.355	115.12
495.573	115.12
495.79	133.12
496.008	116.12
496.225	122.12
496.442	128.12
496.66	112.12
496.877	114.12
497.094	115.12
497.312	107.12
497.529	104.12
497.746	90.12
497.963	102.12
498.181	106.12
498.398	89.12
498.615	96.12
498.832	99.12
499.049	88.12
499.267	90.12
499.484	91.12
499.701	99.12
499.918	98.12
500.135	102.12
500.352	91.12
500.569	86.12
500.786	110.12
501.003	107.12
501.22	107.12
501.437	107.12
501.654	91.12
501.871	102.12
502.088	106.12
502.305	101.12
502.522	112.12
502.739	100.12
502.956	103.12
503.172	99.12
503.389	87.12
503.606	98.12
503.823	97.12
504.04	84.12
504.256	94.12
504.473	83.12
504.69	93.12
504.907	95.12
505.123	92.12
505.34	81.12
505.557	82.12
505.773	85.12
505.99	88.12
506.207	99.12
506.423	100.12
506.64	91.12
506.856	81.12
507.073	107.12
507.289	104.12
507.506	86.12
507.722	82.12
507.939	78.12
508.155	87.12
508.372	98.12
508.588	98.12
508.805	96.12
509.021	83.12
509.238	86.12
509.454	62.12
509.67	76.12
509.887	86.12
510.103	85.12
510.319	72.12
510.536	87.12
510.752	72.12
510.968	76.12
511.184	92.12
511.401	74.12
511.617	82.12
511.833	90.12
512.049	83.12
512.265	88.12
512.481	90.12
512.698	80.12
512.914	98.12
513.13	76.12
513.346	83.12
513.562	92.12
513.778	87.12
513.994	74.12
514.21	86.12
514.426	78.12
514.642	92.12
514.858	80.12
515.074	80.12
515.29	87.12
515.506	106.12
515.721	83.12
515.937	76.12
516.153	84.12
516.369	94.12
516.585	87.12
516.801	89.12
