Data from Foil_2_HRD10591_00015.txt Node
Date: Wed Nov 05 16:17:29 EST 2025
User: Yrep
Spectrometer: HR+D1059
Trigger mode: 1
Integration Time (sec): 1.000000E-1
Scans to average: 1
Electric dark correction enabled: true
Nonlinearity correction enabled: false
Boxcar width: 0
XAxis mode: Wavelengths
Number of Pixels in Spectrum: 2048
>>>>>Begin Spectral Data<<<<<
223.165	-15.19
223.4	-15.19
223.635	-15.19
223.869	-12.19
224.104	-24.19
224.338	-6.19
224.573	-10.19
224.808	-10.19
225.042	6.81
225.277	1.81
225.511	-13.19
225.746	2.81
225.98	0.81
226.215	22.81
226.449	4.81
226.683	13.81
226.918	16.81
227.152	20.81
227.387	40.81
227.621	31.81
227.856	39.81
228.09	42.81
228.324	47.81
228.559	65.81
228.793	50.81
229.027	65.81
229.262	67.81
229.496	64.81
229.73	70.81
229.964	58.81
230.199	63.81
230.433	59.81
230.667	82.81
230.901	66.81
231.136	75.81
231.37	80.81
231.604	81.81
231.838	89.81
232.072	85.81
232.306	80.81
232.541	92.81
232.775	86.81
233.009	94.81
233.243	86.81
233.477	71.81
233.711	68.81
233.945	77.81
234.179	81.81
234.413	96.81
234.647	71.81
234.881	79.81
235.115	70.81
235.349	75.81
235.583	91.81
235.817	78.81
236.051	77.81
236.285	72.81
236.519	90.81
236.753	81.81
236.987	67.81
237.221	72.81
237.455	78.81
237.689	79.81
237.922	67.81
238.156	67.81
238.39	79.81
238.624	69.81
238.858	78.81
239.091	77.81
239.325	75.81
239.559	76.81
239.793	87.81
240.027	79.81
240.26	72.81
240.494	77.81
240.728	80.81
240.961	74.81
241.195	78.81
241.429	83.81
241.662	85.81
241.896	78.81
242.13	81.81
242.363	84.81
242.597	68.81
242.83	66.81
243.064	73.81
243.298	65.81
243.531	60.81
243.765	69.81
243.998	73.81
244.232	83.81
244.465	74.81
244.699	79.81
244.932	69.81
245.166	79.81
245.399	78.81
245.633	79.81
245.866	84.81
246.099	78.81
246.333	67.81
246.566	74.81
246.8	81.81
247.033	82.81
247.266	74.81
247.5	79.81
247.733	74.81
247.966	67.81
248.2	71.81
248.433	66.81
248.666	81.81
248.899	85.81
249.133	83.81
249.366	94.81
249.599	69.81
249.832	75.81
250.066	94.81
250.299	63.81
250.532	65.81
250.765	79.81
250.998	78.81
251.231	84.81
251.465	94.81
251.698	77.81
251.931	81.81
252.164	87.81
252.397	71.81
252.63	78.81
252.863	79.81
253.096	65.81
253.329	89.81
253.562	79.81
253.795	77.81
254.028	87.81
254.261	85.81
254.494	83.81
254.727	82.81
254.96	89.81
255.193	69.81
255.426	85.81
255.659	80.81
255.892	85.81
256.124	75.81
256.357	70.81
256.59	102.81
256.823	83.81
257.056	70.81
257.289	69.81
257.521	69.81
257.754	82.81
257.987	69.81
258.22	75.81
258.452	82.81
258.685	82.81
258.918	70.81
259.151	85.81
259.383	79.81
259.616	81.81
259.849	79.81
260.081	88.81
260.314	80.81
260.547	83.81
260.779	90.81
261.012	85.81
261.244	81.81
261.477	94.81
261.71	84.81
261.942	78.81
262.175	78.81
262.407	83.81
262.64	88.81
262.872	77.81
263.105	86.81
263.337	78.81
263.57	86.81
263.802	81.81
264.035	73.81
264.267	76.81
264.499	74.81
264.732	90.81
264.964	75.81
265.197	83.81
265.429	100.81
265.661	76.81
265.894	92.81
266.126	90.81
266.358	89.81
266.591	81.81
266.823	93.81
267.055	89.81
267.287	89.81
267.52	71.81
267.752	81.81
267.984	77.81
268.216	80.81
268.448	87.81
268.681	82.81
268.913	85.81
269.145	83.81
269.377	82.81
269.609	71.81
269.841	81.81
270.073	78.81
270.306	74.81
270.538	80.81
270.77	78.81
271.002	81.81
271.234	79.81
271.466	76.81
271.698	83.81
271.93	72.81
272.162	86.81
272.394	72.81
272.626	76.81
272.858	85.81
273.09	76.81
273.322	84.81
273.553	82.81
273.785	89.81
274.017	65.81
274.249	73.81
274.481	88.81
274.713	94.81
274.945	86.81
275.176	66.81
275.408	82.81
275.64	86.81
275.872	83.81
276.104	87.81
276.335	80.81
276.567	80.81
276.799	85.81
277.031	78.81
277.262	89.81
277.494	91.81
277.726	91.81
277.957	84.81
278.189	73.81
278.421	87.81
278.652	85.81
278.884	94.81
279.115	91.81
279.347	82.81
279.579	83.81
279.81	84.81
280.042	75.81
280.273	81.81
280.505	83.81
280.736	76.81
280.968	93.81
281.199	74.81
281.431	89.81
281.662	82.81
281.894	90.81
282.125	74.81
282.356	83.81
282.588	80.81
282.819	85.81
283.051	74.81
283.282	91.81
283.513	90.81
283.745	78.81
283.976	89.81
284.207	69.81
284.439	79.81
284.67	79.81
284.901	81.81
285.132	76.81
285.364	99.81
285.595	80.81
285.826	96.81
286.057	94.81
286.288	83.81
286.52	84.81
286.751	89.81
286.982	89.81
287.213	88.81
287.444	94.81
287.675	74.81
287.906	84.81
288.138	95.81
288.369	91.81
288.6	102.81
288.831	79.81
289.062	85.81
289.293	76.81
289.524	83.81
289.755	87.81
289.986	82.81
290.217	89.81
290.448	91.81
290.679	84.81
290.91	82.81
291.141	79.81
291.371	92.81
291.602	97.81
291.833	81.81
292.064	78.81
292.295	95.81
292.526	85.81
292.757	80.81
292.987	81.81
293.218	73.81
293.449	78.81
293.68	80.81
293.91	90.81
294.141	97.81
294.372	102.81
294.603	88.81
294.833	89.81
295.064	88.81
295.295	85.81
295.525	85.81
295.756	89.81
295.987	91.81
296.217	79.81
296.448	80.81
296.679	96.81
296.909	83.81
297.14	83.81
297.37	80.81
297.601	87.81
297.831	93.81
298.062	88.81
298.292	88.81
298.523	84.81
298.753	70.81
298.984	81.81
299.214	89.81
299.445	87.81
299.675	86.81
299.905	88.81
300.136	87.81
300.366	75.81
300.597	81.81
300.827	89.81
301.057	81.81
301.288	88.81
301.518	95.81
301.748	77.81
301.979	84.81
302.209	95.81
302.439	87.81
302.669	86.81
302.9	95.81
303.13	82.81
303.36	83.81
303.59	77.81
303.82	80.81
304.051	82.81
304.281	80.81
304.511	92.81
304.741	84.81
304.971	100.81
305.201	83.81
305.431	77.81
305.661	68.81
305.891	70.81
306.121	87.81
306.352	83.81
306.582	89.81
306.812	79.81
307.042	84.81
307.272	79.81
307.502	84.81
307.731	95.81
307.961	96.81
308.191	106.81
308.421	108.81
308.651	92.81
308.881	95.81
309.111	111.81
309.341	98.81
309.571	115.81
309.8	91.81
310.03	97.81
310.26	76.81
310.49	87.81
310.72	85.81
310.949	88.81
311.179	75.81
311.409	76.81
311.639	81.81
311.868	74.81
312.098	85.81
312.328	73.81
312.557	79.81
312.787	81.81
313.017	66.81
313.246	83.81
313.476	103.81
313.706	89.81
313.935	80.81
314.165	83.81
314.394	73.81
314.624	97.81
314.853	76.81
315.083	97.81
315.312	82.81
315.542	83.81
315.771	82.81
316.001	74.81
316.23	78.81
316.46	90.81
316.689	63.81
316.919	87.81
317.148	80.81
317.377	88.81
317.607	93.81
317.836	77.81
318.065	71.81
318.295	94.81
318.524	90.81
318.753	74.81
318.983	76.81
319.212	95.81
319.441	84.81
319.67	76.81
319.9	88.81
320.129	82.81
320.358	89.81
320.587	87.81
320.816	77.81
321.046	93.81
321.275	89.81
321.504	87.81
321.733	74.81
321.962	83.81
322.191	73.81
322.42	75.81
322.649	89.81
322.878	79.81
323.108	76.81
323.337	90.81
323.566	71.81
323.795	83.81
324.024	76.81
324.253	90.81
324.482	66.81
324.71	80.81
324.939	82.81
325.168	92.81
325.397	78.81
325.626	75.81
325.855	72.81
326.084	82.81
326.313	78.81
326.542	92.81
326.77	75.81
326.999	91.81
327.228	79.81
327.457	83.81
327.686	79.81
327.914	91.81
328.143	93.81
328.372	71.81
328.6	83.81
328.829	82.81
329.058	81.81
329.287	77.81
329.515	94.81
329.744	81.81
329.972	101.81
330.201	80.81
330.43	93.81
330.658	76.81
330.887	86.81
331.115	92.81
331.344	106.81
331.572	93.81
331.801	79.81
332.03	93.81
332.258	81.81
332.486	81.81
332.715	99.81
332.943	82.81
333.172	90.81
333.4	81.81
333.629	83.81
333.857	88.81
334.085	98.81
334.314	86.81
334.542	76.81
334.771	86.81
334.999	89.81
335.227	73.81
335.455	89.81
335.684	82.81
335.912	78.81
336.14	104.81
336.369	79.81
336.597	82.81
336.825	76.81
337.053	76.81
337.281	94.81
337.51	92.81
337.738	99.81
337.966	81.81
338.194	106.81
338.422	77.81
338.65	85.81
338.878	71.81
339.106	85.81
339.334	88.81
339.562	88.81
339.79	82.81
340.018	87.81
340.246	95.81
340.474	70.81
340.702	91.81
340.93	83.81
341.158	86.81
341.386	71.81
341.614	77.81
341.842	70.81
342.07	93.81
342.298	82.81
342.526	90.81
342.754	90.81
342.981	84.81
343.209	75.81
343.437	83.81
343.665	90.81
343.893	105.81
344.12	81.81
344.348	85.81
344.576	84.81
344.804	92.81
345.031	80.81
345.259	95.81
345.487	84.81
345.714	83.81
345.942	84.81
346.17	98.81
346.397	89.81
346.625	83.81
346.853	70.81
347.08	75.81
347.308	76.81
347.535	92.81
347.763	88.81
347.99	100.81
348.218	72.81
348.445	90.81
348.673	87.81
348.9	87.81
349.128	84.81
349.355	101.81
349.583	88.81
349.81	73.81
350.037	94.81
350.265	85.81
350.492	79.81
350.72	66.81
350.947	83.81
351.174	83.81
351.402	88.81
351.629	90.81
351.856	86.81
352.083	100.81
352.311	98.81
352.538	82.81
352.765	93.81
352.992	82.81
353.22	91.81
353.447	89.81
353.674	78.81
353.901	78.81
354.128	76.81
354.355	94.81
354.583	94.81
354.81	77.81
355.037	87.81
355.264	79.81
355.491	81.81
355.718	104.81
355.945	87.81
356.172	90.81
356.399	86.81
356.626	80.81
356.853	80.81
357.08	78.81
357.307	103.81
357.534	85.81
357.761	80.81
357.988	88.81
358.215	81.81
358.441	93.81
358.668	70.81
358.895	85.81
359.122	88.81
359.349	88.81
359.576	93.81
359.802	89.81
360.029	90.81
360.256	84.81
360.483	87.81
360.709	94.81
360.936	78.81
361.163	89.81
361.39	89.81
361.616	88.81
361.843	91.81
362.07	101.81
362.296	105.81
362.523	76.81
362.749	83.81
362.976	79.81
363.203	97.81
363.429	87.81
363.656	69.81
363.882	73.81
364.109	77.81
364.335	93.81
364.562	82.81
364.788	87.81
365.015	80.81
365.241	76.81
365.468	80.81
365.694	82.81
365.92	69.81
366.147	71.81
366.373	85.81
366.599	83.81
366.826	93.81
367.052	81.81
367.278	90.81
367.505	81.81
367.731	97.81
367.957	87.81
368.184	80.81
368.41	80.81
368.636	88.81
368.862	95.81
369.089	89.81
369.315	82.81
369.541	94.81
369.767	94.81
369.993	85.81
370.219	78.81
370.445	82.81
370.672	96.81
370.898	85.81
371.124	90.81
371.35	96.81
371.576	103.81
371.802	98.81
372.028	88.81
372.254	73.81
372.48	84.81
372.706	87.81
372.932	78.81
373.158	69.81
373.384	80.81
373.61	97.81
373.835	93.81
374.061	94.81
374.287	93.81
374.513	84.81
374.739	77.81
374.965	80.81
375.191	95.81
375.416	94.81
375.642	82.81
375.868	77.81
376.094	102.81
376.319	79.81
376.545	92.81
376.771	79.81
376.997	113.81
377.222	93.81
377.448	93.81
377.674	65.81
377.899	93.81
378.125	89.81
378.35	97.81
378.576	75.81
378.802	81.81
379.027	90.81
379.253	96.81
379.478	88.81
379.704	96.81
379.929	100.81
380.155	99.81
380.38	73.81
380.606	100.81
380.831	82.81
381.057	104.81
381.282	85.81
381.507	96.81
381.733	90.81
381.958	86.81
382.184	92.81
382.409	97.81
382.634	91.81
382.86	94.81
383.085	97.81
383.31	89.81
383.535	98.81
383.761	87.81
383.986	99.81
384.211	93.81
384.436	79.81
384.662	81.81
384.887	83.81
385.112	93.81
385.337	87.81
385.562	109.81
385.787	80.81
386.013	98.81
386.238	89.81
386.463	87.81
386.688	95.81
386.913	102.81
387.138	90.81
387.363	97.81
387.588	96.81
387.813	103.81
388.038	94.81
388.263	93.81
388.488	77.81
388.713	91.81
388.938	78.81
389.163	80.81
389.387	85.81
389.612	93.81
389.837	108.81
390.062	94.81
390.287	82.81
390.512	77.81
390.736	93.81
390.961	92.81
391.186	106.81
391.411	92.81
391.636	92.81
391.86	88.81
392.085	99.81
392.31	97.81
392.534	96.81
392.759	90.81
392.984	95.81
393.208	105.81
393.433	87.81
393.658	89.81
393.882	117.81
394.107	125.81
394.331	156.81
394.556	176.81
394.78	115.81
395.005	101.81
395.229	93.81
395.454	97.81
395.678	121.81
395.903	148.81
396.127	213.81
396.352	198.81
396.576	109.81
396.801	95.81
397.025	101.81
397.249	83.81
397.474	107.81
397.698	96.81
397.922	93.81
398.147	100.81
398.371	103.81
398.595	93.81
398.82	78.81
399.044	104.81
399.268	98.81
399.492	90.81
399.717	88.81
399.941	101.81
400.165	110.81
400.389	97.81
400.613	88.81
400.837	105.81
401.062	89.81
401.286	91.81
401.51	117.81
401.734	101.81
401.958	107.81
402.182	99.81
402.406	99.81
402.63	93.81
402.854	102.81
403.078	106.81
403.302	100.81
403.526	110.81
403.75	96.81
403.974	96.81
404.198	101.81
404.422	97.81
404.645	111.81
404.869	101.81
405.093	97.81
405.317	94.81
405.541	102.81
405.765	112.81
405.988	102.81
406.212	112.81
406.436	84.81
406.66	95.81
406.883	110.81
407.107	93.81
407.331	89.81
407.555	97.81
407.778	96.81
408.002	105.81
408.226	121.81
408.449	92.81
408.673	114.81
408.896	83.81
409.12	93.81
409.344	86.81
409.567	99.81
409.791	90.81
410.014	100.81
410.238	98.81
410.461	105.81
410.685	103.81
410.908	117.81
411.132	108.81
411.355	98.81
411.578	118.81
411.802	109.81
412.025	91.81
412.249	90.81
412.472	100.81
412.695	98.81
412.919	108.81
413.142	105.81
413.365	114.81
413.589	97.81
413.812	87.81
414.035	101.81
414.258	101.81
414.482	93.81
414.705	115.81
414.928	116.81
415.151	82.81
415.374	97.81
415.597	108.81
415.821	86.81
416.044	106.81
416.267	96.81
416.49	107.81
416.713	109.81
416.936	113.81
417.159	103.81
417.382	106.81
417.605	109.81
417.828	119.81
418.051	101.81
418.274	102.81
418.497	104.81
418.72	93.81
418.943	101.81
419.166	88.81
419.389	103.81
419.611	94.81
419.834	102.81
420.057	108.81
420.28	101.81
420.503	104.81
420.726	100.81
420.948	106.81
421.171	90.81
421.394	97.81
421.617	102.81
421.839	106.81
422.062	103.81
422.285	112.81
422.507	122.81
422.73	97.81
422.953	103.81
423.175	104.81
423.398	81.81
423.621	117.81
423.843	88.81
424.066	107.81
424.288	99.81
424.511	106.81
424.733	96.81
424.956	111.81
425.178	99.81
425.401	112.81
425.623	117.81
425.846	104.81
426.068	101.81
426.291	93.81
426.513	103.81
426.735	106.81
426.958	103.81
427.18	112.81
427.402	120.81
427.625	110.81
427.847	102.81
428.069	102.81
428.292	113.81
428.514	111.81
428.736	109.81
428.958	90.81
429.181	103.81
429.403	113.81
429.625	114.81
429.847	108.81
430.069	108.81
430.292	118.81
430.514	133.81
430.736	96.81
430.958	93.81
431.18	88.81
431.402	97.81
431.624	100.81
431.846	90.81
432.068	89.81
432.29	87.81
432.512	95.81
432.734	98.81
432.956	104.81
433.178	97.81
433.4	118.81
433.622	109.81
433.844	95.81
434.066	95.81
434.287	88.81
434.509	83.81
434.731	100.81
434.953	89.81
435.175	99.81
435.397	98.81
435.618	85.81
435.84	83.81
436.062	98.81
436.284	109.81
436.505	102.81
436.727	111.81
436.949	112.81
437.17	117.81
437.392	94.81
437.614	91.81
437.835	99.81
438.057	96.81
438.278	99.81
438.5	86.81
438.721	96.81
438.943	98.81
439.165	115.81
439.386	111.81
439.608	107.81
439.829	110.81
440.05	110.81
440.272	102.81
440.493	100.81
440.715	109.81
440.936	119.81
441.158	106.81
441.379	114.81
441.6	95.81
441.822	115.81
442.043	120.81
442.264	133.81
442.486	93.81
442.707	101.81
442.928	98.81
443.149	113.81
443.371	105.81
443.592	127.81
443.813	106.81
444.034	114.81
444.255	117.81
444.476	125.81
444.698	117.81
444.919	102.81
445.14	203.81
445.361	145.81
445.582	91.81
445.803	97.81
446.024	126.81
446.245	111.81
446.466	113.81
446.687	99.81
446.908	112.81
447.129	111.81
447.35	115.81
447.571	111.81
447.792	103.81
448.013	113.81
448.234	101.81
448.455	117.81
448.675	114.81
448.896	108.81
449.117	115.81
449.338	111.81
449.559	101.81
449.779	105.81
450	108.81
450.221	129.81
450.442	129.81
450.662	111.81
450.883	125.81
451.104	118.81
451.324	111.81
451.545	119.81
451.766	106.81
451.986	103.81
452.207	98.81
452.428	113.81
452.648	109.81
452.869	99.81
453.089	82.81
453.31	99.81
453.53	78.81
453.751	84.81
453.971	93.81
454.192	86.81
454.412	88.81
454.633	103.81
454.853	98.81
455.073	101.81
455.294	102.81
455.514	96.81
455.734	90.81
455.955	77.81
456.175	89.81
456.395	88.81
456.616	79.81
456.836	96.81
457.056	107.81
457.276	87.81
457.497	106.81
457.717	105.81
457.937	101.81
458.157	82.81
458.377	96.81
458.598	86.81
458.818	81.81
459.038	84.81
459.258	82.81
459.478	96.81
459.698	77.81
459.918	77.81
460.138	79.81
460.358	84.81
460.578	98.81
460.798	84.81
461.018	93.81
461.238	89.81
461.458	90.81
461.678	99.81
461.898	99.81
462.118	94.81
462.338	107.81
462.558	99.81
462.777	102.81
462.997	94.81
463.217	103.81
463.437	100.81
463.657	96.81
463.876	98.81
464.096	94.81
464.316	102.81
464.536	98.81
464.755	85.81
464.975	101.81
465.195	93.81
465.414	97.81
465.634	95.81
465.854	97.81
466.073	88.81
466.293	103.81
466.512	93.81
466.732	113.81
466.951	114.81
467.171	127.81
467.391	119.81
467.61	138.81
467.829	117.81
468.049	114.81
468.268	110.81
468.488	117.81
468.707	110.81
468.927	113.81
469.146	120.81
469.365	101.81
469.585	127.81
469.804	107.81
470.023	115.81
470.243	113.81
470.462	116.81
470.681	117.81
470.901	114.81
471.12	113.81
471.339	105.81
471.558	101.81
471.777	98.81
471.997	109.81
472.216	105.81
472.435	84.81
472.654	87.81
472.873	90.81
473.092	91.81
473.311	109.81
473.53	117.81
473.749	96.81
473.968	110.81
474.187	99.81
474.406	94.81
474.625	94.81
474.844	121.81
475.063	103.81
475.282	105.81
475.501	90.81
475.72	96.81
475.939	108.81
476.158	113.81
476.377	94.81
476.596	87.81
476.814	101.81
477.033	95.81
477.252	85.81
477.471	107.81
477.69	103.81
477.908	113.81
478.127	109.81
478.346	108.81
478.564	101.81
478.783	94.81
479.002	103.81
479.22	111.81
479.439	118.81
479.658	94.81
479.876	86.81
480.095	100.81
480.313	106.81
480.532	105.81
480.751	77.81
480.969	88.81
481.188	97.81
481.406	77.81
481.624	69.81
481.843	84.81
482.061	81.81
482.28	88.81
482.498	104.81
482.717	91.81
482.935	110.81
483.153	114.81
483.372	100.81
483.59	108.81
483.808	91.81
484.027	93.81
484.245	98.81
484.463	102.81
484.681	111.81
484.9	114.81
485.118	105.81
485.336	83.81
485.554	112.81
485.772	86.81
485.99	84.81
486.209	81.81
486.427	99.81
486.645	110.81
486.863	98.81
487.081	109.81
487.299	108.81
487.517	89.81
487.735	116.81
487.953	108.81
488.171	126.81
488.389	112.81
488.607	111.81
488.825	97.81
489.043	101.81
489.261	96.81
489.479	98.81
489.696	106.81
489.914	95.81
490.132	106.81
490.35	116.81
490.568	119.81
490.786	131.81
491.003	134.81
491.221	136.81
491.439	141.81
491.657	134.81
491.874	143.81
492.092	144.81
492.31	146.81
492.527	135.81
492.745	138.81
492.963	156.81
493.18	139.81
493.398	138.81
493.615	131.81
493.833	130.81
494.05	141.81
494.268	141.81
494.485	136.81
494.703	139.81
494.92	144.81
495.138	135.81
495.355	135.81
495.573	130.81
495.79	145.81
496.008	122.81
496.225	137.81
496.442	112.81
496.66	139.81
496.877	127.81
497.094	129.81
497.312	112.81
497.529	108.81
497.746	86.81
497.963	103.81
498.181	91.81
498.398	101.81
498.615	114.81
498.832	87.81
499.049	95.81
499.267	101.81
499.484	109.81
499.701	101.81
499.918	101.81
500.135	117.81
500.352	108.81
500.569	105.81
500.786	101.81
501.003	114.81
501.22	105.81
501.437	120.81
501.654	111.81
501.871	98.81
502.088	116.81
502.305	108.81
502.522	117.81
502.739	115.81
502.956	95.81
503.172	97.81
503.389	97.81
503.606	94.81
503.823	86.81
504.04	93.81
504.256	102.81
504.473	91.81
504.69	92.81
504.907	101.81
505.123	98.81
505.34	93.81
505.557	96.81
505.773	101.81
505.99	95.81
506.207	94.81
506.423	95.81
506.64	115.81
506.856	84.81
507.073	93.81
507.289	88.81
507.506	104.81
507.722	105.81
507.939	97.81
508.155	104.81
508.372	97.81
508.588	99.81
508.805	100.81
509.021	97.81
509.238	88.81
509.454	90.81
509.67	76.81
509.887	90.81
510.103	86.81
510.319	91.81
510.536	89.81
510.752	91.81
510.968	95.81
511.184	86.81
511.401	89.81
511.617	87.81
511.833	91.81
512.049	95.81
512.265	90.81
512.481	94.81
512.698	87.81
512.914	105.81
513.13	87.81
513.346	86.81
513.562	91.81
513.778	89.81
513.994	77.81
514.21	99.81
514.426	89.81
514.642	87.81
514.858	98.81
515.074	98.81
515.29	96.81
