Data from Foil_2_HRD10591_00017.txt Node
Date: Wed Nov 05 16:17:30 EST 2025
User: Yrep
Spectrometer: HR+D1059
Trigger mode: 1
Integration Time (sec): 1.000000E-1
Scans to average: 1
Electric dark correction enabled: true
Nonlinearity correction enabled: false
Boxcar width: 0
XAxis mode: Wavelengths
Number of Pixels in Spectrum: 2048
>>>>>Begin Spectral Data<<<<<
223.165	-18.06
223.4	-18.06
223.635	-18.06
223.869	-22.06
224.104	-9.06
224.338	-8.06
224.573	-16.06
224.808	-12.06
225.042	1.94
225.277	-0.06
225.511	0.94
225.746	8.94
225.98	-10.06
226.215	2.94
226.449	13.94
226.683	17.94
226.918	21.94
227.152	26.94
227.387	33.94
227.621	33.94
227.856	43.94
228.09	38.94
228.324	53.94
228.559	53.94
228.793	67.94
229.027	65.94
229.262	76.94
229.496	65.94
229.73	74.94
229.964	75.94
230.199	81.94
230.433	69.94
230.667	83.94
230.901	75.94
231.136	69.94
231.37	67.94
231.604	84.94
231.838	79.94
232.072	78.94
232.306	75.94
232.541	78.94
232.775	88.94
233.009	85.94
233.243	73.94
233.477	92.94
233.711	87.94
233.945	80.94
234.179	76.94
234.413	75.94
234.647	85.94
234.881	87.94
235.115	76.94
235.349	73.94
235.583	74.94
235.817	75.94
236.051	86.94
236.285	75.94
236.519	79.94
236.753	65.94
236.987	79.94
237.221	78.94
237.455	74.94
237.689	70.94
237.922	79.94
238.156	83.94
238.39	81.94
238.624	85.94
238.858	76.94
239.091	83.94
239.325	67.94
239.559	81.94
239.793	77.94
240.027	70.94
240.26	69.94
240.494	77.94
240.728	80.94
240.961	69.94
241.195	76.94
241.429	72.94
241.662	73.94
241.896	65.94
242.13	82.94
242.363	75.94
242.597	87.94
242.83	86.94
243.064	67.94
243.298	81.94
243.531	71.94
243.765	63.94
243.998	73.94
244.232	79.94
244.465	63.94
244.699	76.94
244.932	84.94
245.166	60.94
245.399	78.94
245.633	79.94
245.866	82.94
246.099	79.94
246.333	79.94
246.566	71.94
246.8	65.94
247.033	80.94
247.266	75.94
247.5	75.94
247.733	83.94
247.966	66.94
248.2	89.94
248.433	82.94
248.666	72.94
248.899	79.94
249.133	85.94
249.366	90.94
249.599	90.94
249.832	77.94
250.066	80.94
250.299	73.94
250.532	89.94
250.765	72.94
250.998	73.94
251.231	81.94
251.465	65.94
251.698	81.94
251.931	79.94
252.164	71.94
252.397	86.94
252.63	95.94
252.863	95.94
253.096	68.94
253.329	89.94
253.562	72.94
253.795	80.94
254.028	75.94
254.261	87.94
254.494	85.94
254.727	80.94
254.96	93.94
255.193	80.94
255.426	80.94
255.659	94.94
255.892	79.94
256.124	76.94
256.357	74.94
256.59	71.94
256.823	89.94
257.056	80.94
257.289	82.94
257.521	78.94
257.754	81.94
257.987	87.94
258.22	72.94
258.452	79.94
258.685	82.94
258.918	76.94
259.151	76.94
259.383	99.94
259.616	95.94
259.849	72.94
260.081	77.94
260.314	70.94
260.547	77.94
260.779	78.94
261.012	73.94
261.244	75.94
261.477	83.94
261.71	73.94
261.942	85.94
262.175	87.94
262.407	86.94
262.64	91.94
262.872	84.94
263.105	87.94
263.337	77.94
263.57	81.94
263.802	87.94
264.035	67.94
264.267	90.94
264.499	82.94
264.732	80.94
264.964	90.94
265.197	79.94
265.429	78.94
265.661	82.94
265.894	91.94
266.126	92.94
266.358	93.94
266.591	87.94
266.823	80.94
267.055	87.94
267.287	87.94
267.52	73.94
267.752	81.94
267.984	91.94
268.216	85.94
268.448	79.94
268.681	95.94
268.913	73.94
269.145	85.94
269.377	68.94
269.609	73.94
269.841	80.94
270.073	93.94
270.306	79.94
270.538	75.94
270.77	83.94
271.002	88.94
271.234	71.94
271.466	89.94
271.698	90.94
271.93	93.94
272.162	105.94
272.394	93.94
272.626	96.94
272.858	79.94
273.09	79.94
273.322	78.94
273.553	71.94
273.785	78.94
274.017	77.94
274.249	85.94
274.481	80.94
274.713	95.94
274.945	79.94
275.176	69.94
275.408	80.94
275.64	92.94
275.872	86.94
276.104	75.94
276.335	91.94
276.567	92.94
276.799	67.94
277.031	73.94
277.262	77.94
277.494	73.94
277.726	81.94
277.957	88.94
278.189	85.94
278.421	80.94
278.652	73.94
278.884	75.94
279.115	80.94
279.347	74.94
279.579	77.94
279.81	76.94
280.042	87.94
280.273	87.94
280.505	88.94
280.736	84.94
280.968	76.94
281.199	87.94
281.431	87.94
281.662	91.94
281.894	76.94
282.125	80.94
282.356	91.94
282.588	79.94
282.819	85.94
283.051	97.94
283.282	64.94
283.513	112.94
283.745	87.94
283.976	89.94
284.207	87.94
284.439	83.94
284.67	74.94
284.901	93.94
285.132	80.94
285.364	75.94
285.595	81.94
285.826	71.94
286.057	90.94
286.288	83.94
286.52	72.94
286.751	72.94
286.982	78.94
287.213	97.94
287.444	68.94
287.675	73.94
287.906	81.94
288.138	85.94
288.369	86.94
288.6	82.94
288.831	86.94
289.062	67.94
289.293	64.94
289.524	74.94
289.755	95.94
289.986	80.94
290.217	80.94
290.448	88.94
290.679	84.94
290.91	77.94
291.141	90.94
291.371	92.94
291.602	80.94
291.833	78.94
292.064	88.94
292.295	87.94
292.526	76.94
292.757	84.94
292.987	81.94
293.218	88.94
293.449	85.94
293.68	80.94
293.91	73.94
294.141	88.94
294.372	88.94
294.603	95.94
294.833	91.94
295.064	99.94
295.295	81.94
295.525	88.94
295.756	93.94
295.987	79.94
296.217	79.94
296.448	84.94
296.679	89.94
296.909	96.94
297.14	83.94
297.37	88.94
297.601	84.94
297.831	82.94
298.062	87.94
298.292	72.94
298.523	81.94
298.753	100.94
298.984	80.94
299.214	86.94
299.445	91.94
299.675	97.94
299.905	79.94
300.136	90.94
300.366	76.94
300.597	93.94
300.827	91.94
301.057	80.94
301.288	89.94
301.518	91.94
301.748	89.94
301.979	112.94
302.209	96.94
302.439	87.94
302.669	93.94
302.9	84.94
303.13	94.94
303.36	109.94
303.59	98.94
303.82	84.94
304.051	91.94
304.281	85.94
304.511	80.94
304.741	80.94
304.971	79.94
305.201	85.94
305.431	81.94
305.661	106.94
305.891	82.94
306.121	87.94
306.352	94.94
306.582	87.94
306.812	93.94
307.042	95.94
307.272	76.94
307.502	87.94
307.731	98.94
307.961	102.94
308.191	105.94
308.421	84.94
308.651	87.94
308.881	89.94
309.111	94.94
309.341	127.94
309.571	116.94
309.8	92.94
310.03	77.94
310.26	82.94
310.49	83.94
310.72	81.94
310.949	84.94
311.179	87.94
311.409	75.94
311.639	85.94
311.868	95.94
312.098	89.94
312.328	84.94
312.557	93.94
312.787	62.94
313.017	77.94
313.246	85.94
313.476	77.94
313.706	84.94
313.935	80.94
314.165	89.94
314.394	84.94
314.624	85.94
314.853	77.94
315.083	84.94
315.312	89.94
315.542	90.94
315.771	96.94
316.001	79.94
316.23	87.94
316.46	75.94
316.689	85.94
316.919	67.94
317.148	91.94
317.377	83.94
317.607	94.94
317.836	103.94
318.065	89.94
318.295	64.94
318.524	87.94
318.753	91.94
318.983	76.94
319.212	87.94
319.441	95.94
319.67	92.94
319.9	79.94
320.129	81.94
320.358	85.94
320.587	88.94
320.816	71.94
321.046	81.94
321.275	93.94
321.504	85.94
321.733	89.94
321.962	86.94
322.191	80.94
322.42	79.94
322.649	79.94
322.878	78.94
323.108	94.94
323.337	85.94
323.566	80.94
323.795	70.94
324.024	88.94
324.253	102.94
324.482	93.94
324.71	87.94
324.939	89.94
325.168	87.94
325.397	95.94
325.626	87.94
325.855	94.94
326.084	76.94
326.313	83.94
326.542	93.94
326.77	68.94
326.999	83.94
327.228	82.94
327.457	88.94
327.686	87.94
327.914	67.94
328.143	75.94
328.372	96.94
328.6	83.94
328.829	86.94
329.058	79.94
329.287	87.94
329.515	78.94
329.744	86.94
329.972	65.94
330.201	81.94
330.43	88.94
330.658	91.94
330.887	83.94
331.115	101.94
331.344	83.94
331.572	91.94
331.801	88.94
332.03	101.94
332.258	83.94
332.486	98.94
332.715	76.94
332.943	92.94
333.172	80.94
333.4	81.94
333.629	64.94
333.857	80.94
334.085	75.94
334.314	89.94
334.542	92.94
334.771	81.94
334.999	90.94
335.227	89.94
335.455	93.94
335.684	97.94
335.912	85.94
336.14	83.94
336.369	81.94
336.597	74.94
336.825	93.94
337.053	84.94
337.281	77.94
337.51	72.94
337.738	87.94
337.966	92.94
338.194	79.94
338.422	92.94
338.65	66.94
338.878	63.94
339.106	87.94
339.334	83.94
339.562	71.94
339.79	70.94
340.018	73.94
340.246	86.94
340.474	87.94
340.702	81.94
340.93	93.94
341.158	88.94
341.386	81.94
341.614	72.94
341.842	84.94
342.07	67.94
342.298	80.94
342.526	99.94
342.754	82.94
342.981	82.94
343.209	91.94
343.437	98.94
343.665	85.94
343.893	78.94
344.12	75.94
344.348	81.94
344.576	78.94
344.804	83.94
345.031	85.94
345.259	95.94
345.487	86.94
345.714	67.94
345.942	84.94
346.17	62.94
346.397	89.94
346.625	82.94
346.853	89.94
347.08	88.94
347.308	108.94
347.535	85.94
347.763	84.94
347.99	98.94
348.218	82.94
348.445	80.94
348.673	89.94
348.9	87.94
349.128	90.94
349.355	79.94
349.583	83.94
349.81	87.94
350.037	104.94
350.265	84.94
350.492	87.94
350.72	89.94
350.947	72.94
351.174	94.94
351.402	86.94
351.629	79.94
351.856	99.94
352.083	92.94
352.311	79.94
352.538	87.94
352.765	88.94
352.992	80.94
353.22	79.94
353.447	85.94
353.674	98.94
353.901	79.94
354.128	83.94
354.355	87.94
354.583	71.94
354.81	85.94
355.037	87.94
355.264	94.94
355.491	82.94
355.718	87.94
355.945	81.94
356.172	81.94
356.399	79.94
356.626	76.94
356.853	83.94
357.08	84.94
357.307	94.94
357.534	88.94
357.761	86.94
357.988	86.94
358.215	84.94
358.441	73.94
358.668	82.94
358.895	88.94
359.122	81.94
359.349	96.94
359.576	84.94
359.802	71.94
360.029	79.94
360.256	77.94
360.483	68.94
360.709	90.94
360.936	95.94
361.163	87.94
361.39	101.94
361.616	92.94
361.843	74.94
362.07	88.94
362.296	74.94
362.523	79.94
362.749	79.94
362.976	78.94
363.203	84.94
363.429	89.94
363.656	97.94
363.882	73.94
364.109	88.94
364.335	77.94
364.562	71.94
364.788	76.94
365.015	83.94
365.241	73.94
365.468	90.94
365.694	93.94
365.92	80.94
366.147	75.94
366.373	83.94
366.599	75.94
366.826	72.94
367.052	79.94
367.278	94.94
367.505	89.94
367.731	86.94
367.957	88.94
368.184	93.94
368.41	85.94
368.636	69.94
368.862	95.94
369.089	81.94
369.315	85.94
369.541	95.94
369.767	91.94
369.993	99.94
370.219	89.94
370.445	81.94
370.672	88.94
370.898	91.94
371.124	74.94
371.35	81.94
371.576	82.94
371.802	77.94
372.028	100.94
372.254	91.94
372.48	83.94
372.706	87.94
372.932	112.94
373.158	89.94
373.384	90.94
373.61	93.94
373.835	92.94
374.061	79.94
374.287	85.94
374.513	87.94
374.739	96.94
374.965	95.94
375.191	81.94
375.416	84.94
375.642	73.94
375.868	80.94
376.094	96.94
376.319	99.94
376.545	105.94
376.771	97.94
376.997	87.94
377.222	92.94
377.448	92.94
377.674	92.94
377.899	87.94
378.125	88.94
378.35	95.94
378.576	92.94
378.802	95.94
379.027	93.94
379.253	90.94
379.478	94.94
379.704	82.94
379.929	89.94
380.155	96.94
380.38	90.94
380.606	91.94
380.831	79.94
381.057	95.94
381.282	87.94
381.507	82.94
381.733	89.94
381.958	96.94
382.184	94.94
382.409	88.94
382.634	97.94
382.86	94.94
383.085	89.94
383.31	82.94
383.535	83.94
383.761	78.94
383.986	92.94
384.211	79.94
384.436	86.94
384.662	96.94
384.887	90.94
385.112	71.94
385.337	95.94
385.562	93.94
385.787	87.94
386.013	94.94
386.238	89.94
386.463	94.94
386.688	103.94
386.913	85.94
387.138	98.94
387.363	77.94
387.588	94.94
387.813	95.94
388.038	102.94
388.263	85.94
388.488	85.94
388.713	87.94
388.938	90.94
389.163	85.94
389.387	78.94
389.612	91.94
389.837	89.94
390.062	88.94
390.287	110.94
390.512	97.94
390.736	93.94
390.961	99.94
391.186	100.94
391.411	87.94
391.636	101.94
391.86	84.94
392.085	103.94
392.31	84.94
392.534	89.94
392.759	97.94
392.984	95.94
393.208	83.94
393.433	95.94
393.658	113.94
393.882	115.94
394.107	118.94
394.331	145.94
394.556	171.94
394.78	129.94
395.005	109.94
395.229	95.94
395.454	100.94
395.678	126.94
395.903	141.94
396.127	216.94
396.352	216.94
396.576	121.94
396.801	81.94
397.025	100.94
397.249	91.94
397.474	100.94
397.698	88.94
397.922	97.94
398.147	97.94
398.371	98.94
398.595	95.94
398.82	98.94
399.044	94.94
399.268	91.94
399.492	90.94
399.717	109.94
399.941	83.94
400.165	90.94
400.389	100.94
400.613	106.94
400.837	93.94
401.062	92.94
401.286	84.94
401.51	107.94
401.734	96.94
401.958	91.94
402.182	82.94
402.406	80.94
402.63	101.94
402.854	103.94
403.078	88.94
403.302	90.94
403.526	91.94
403.75	93.94
403.974	90.94
404.198	100.94
404.422	99.94
404.645	87.94
404.869	92.94
405.093	94.94
405.317	106.94
405.541	103.94
405.765	102.94
405.988	101.94
406.212	113.94
406.436	105.94
406.66	92.94
406.883	96.94
407.107	105.94
407.331	104.94
407.555	93.94
407.778	92.94
408.002	100.94
408.226	96.94
408.449	115.94
408.673	95.94
408.896	102.94
409.12	106.94
409.344	106.94
409.567	115.94
409.791	89.94
410.014	98.94
410.238	105.94
410.461	125.94
410.685	111.94
410.908	93.94
411.132	101.94
411.355	104.94
411.578	95.94
411.802	105.94
412.025	117.94
412.249	104.94
412.472	111.94
412.695	98.94
412.919	119.94
413.142	97.94
413.365	110.94
413.589	98.94
413.812	90.94
414.035	96.94
414.258	109.94
414.482	97.94
414.705	96.94
414.928	106.94
415.151	107.94
415.374	108.94
415.597	108.94
415.821	112.94
416.044	117.94
416.267	99.94
416.49	107.94
416.713	93.94
416.936	101.94
417.159	121.94
417.382	124.94
417.605	103.94
417.828	93.94
418.051	79.94
418.274	114.94
418.497	99.94
418.72	101.94
418.943	104.94
419.166	118.94
419.389	113.94
419.611	123.94
419.834	108.94
420.057	105.94
420.28	123.94
420.503	113.94
420.726	95.94
420.948	110.94
421.171	109.94
421.394	110.94
421.617	104.94
421.839	107.94
422.062	91.94
422.285	97.94
422.507	108.94
422.73	94.94
422.953	100.94
423.175	100.94
423.398	112.94
423.621	116.94
423.843	118.94
424.066	105.94
424.288	103.94
424.511	100.94
424.733	108.94
424.956	106.94
425.178	112.94
425.401	113.94
425.623	104.94
425.846	98.94
426.068	105.94
426.291	103.94
426.513	100.94
426.735	95.94
426.958	129.94
427.18	105.94
427.402	107.94
427.625	109.94
427.847	89.94
428.069	105.94
428.292	120.94
428.514	91.94
428.736	111.94
428.958	115.94
429.181	117.94
429.403	110.94
429.625	107.94
429.847	111.94
430.069	100.94
430.292	102.94
430.514	113.94
430.736	111.94
430.958	123.94
431.18	87.94
431.402	79.94
431.624	104.94
431.846	105.94
432.068	87.94
432.29	95.94
432.512	93.94
432.734	87.94
432.956	103.94
433.178	106.94
433.4	107.94
433.622	107.94
433.844	90.94
434.066	101.94
434.287	81.94
434.509	83.94
434.731	89.94
434.953	96.94
435.175	103.94
435.397	96.94
435.618	97.94
435.84	91.94
436.062	89.94
436.284	115.94
436.505	97.94
436.727	103.94
436.949	102.94
437.17	103.94
437.392	100.94
437.614	105.94
437.835	94.94
438.057	94.94
438.278	96.94
438.5	95.94
438.721	94.94
438.943	118.94
439.165	104.94
439.386	100.94
439.608	123.94
439.829	127.94
440.05	102.94
440.272	110.94
440.493	108.94
440.715	110.94
440.936	101.94
441.158	107.94
441.379	117.94
441.6	123.94
441.822	108.94
442.043	108.94
442.264	128.94
442.486	107.94
442.707	117.94
442.928	125.94
443.149	103.94
443.371	117.94
443.592	120.94
443.813	115.94
444.034	115.94
444.255	117.94
444.476	99.94
444.698	113.94
444.919	111.94
445.14	184.94
445.361	127.94
445.582	108.94
445.803	109.94
446.024	107.94
446.245	123.94
446.466	119.94
446.687	110.94
446.908	116.94
447.129	110.94
447.35	107.94
447.571	110.94
447.792	115.94
448.013	108.94
448.234	107.94
448.455	107.94
448.675	103.94
448.896	111.94
449.117	105.94
449.338	100.94
449.559	131.94
449.779	112.94
450	117.94
450.221	128.94
450.442	118.94
450.662	118.94
450.883	116.94
451.104	108.94
451.324	107.94
451.545	112.94
451.766	120.94
451.986	97.94
452.207	117.94
452.428	109.94
452.648	111.94
452.869	100.94
453.089	94.94
453.31	95.94
453.53	87.94
453.751	87.94
453.971	96.94
454.192	85.94
454.412	80.94
454.633	95.94
454.853	99.94
455.073	87.94
455.294	101.94
455.514	101.94
455.734	101.94
455.955	104.94
456.175	107.94
456.395	72.94
456.616	98.94
456.836	95.94
457.056	99.94
457.276	94.94
457.497	102.94
457.717	93.94
457.937	85.94
458.157	102.94
458.377	91.94
458.598	99.94
458.818	86.94
459.038	88.94
459.258	82.94
459.478	79.94
459.698	89.94
459.918	73.94
460.138	94.94
460.358	83.94
460.578	85.94
460.798	96.94
461.018	88.94
461.238	99.94
461.458	109.94
461.678	95.94
461.898	101.94
462.118	102.94
462.338	108.94
462.558	91.94
462.777	92.94
462.997	94.94
463.217	105.94
463.437	95.94
463.657	86.94
463.876	95.94
464.096	98.94
464.316	85.94
464.536	93.94
464.755	112.94
464.975	104.94
465.195	94.94
465.414	109.94
465.634	89.94
465.854	105.94
466.073	92.94
466.293	106.94
466.512	110.94
466.732	117.94
466.951	123.94
467.171	128.94
467.391	129.94
467.61	135.94
467.829	113.94
468.049	105.94
468.268	123.94
468.488	121.94
468.707	131.94
468.927	112.94
469.146	109.94
469.365	102.94
469.585	111.94
469.804	127.94
470.023	113.94
470.243	109.94
470.462	133.94
470.681	125.94
470.901	115.94
471.12	103.94
471.339	113.94
471.558	124.94
471.777	122.94
471.997	102.94
472.216	97.94
472.435	94.94
472.654	106.94
472.873	104.94
473.092	85.94
473.311	105.94
473.53	111.94
473.749	106.94
473.968	113.94
474.187	95.94
474.406	92.94
474.625	99.94
474.844	91.94
475.063	92.94
475.282	91.94
475.501	91.94
475.72	95.94
475.939	96.94
476.158	119.94
476.377	99.94
476.596	102.94
476.814	86.94
477.033	100.94
477.252	92.94
477.471	91.94
477.69	114.94
477.908	119.94
478.127	117.94
478.346	103.94
478.564	113.94
478.783	101.94
479.002	112.94
479.22	98.94
479.439	88.94
479.658	98.94
479.876	101.94
480.095	98.94
480.313	85.94
480.532	82.94
480.751	89.94
480.969	84.94
481.188	80.94
481.406	84.94
481.624	93.94
481.843	92.94
482.061	92.94
482.28	90.94
482.498	78.94
482.717	95.94
482.935	94.94
483.153	109.94
483.372	106.94
483.59	107.94
483.808	78.94
484.027	103.94
484.245	99.94
484.463	99.94
484.681	103.94
484.9	104.94
485.118	96.94
485.336	103.94
485.554	99.94
485.772	100.94
485.99	94.94
486.209	95.94
486.427	90.94
486.645	100.94
486.863	96.94
487.081	101.94
487.299	125.94
487.517	118.94
487.735	105.94
487.953	135.94
488.171	128.94
488.389	127.94
488.607	113.94
488.825	112.94
489.043	112.94
489.261	109.94
489.479	102.94
489.696	110.94
489.914	115.94
490.132	97.94
490.35	101.94
490.568	115.94
490.786	122.94
491.003	143.94
491.221	144.94
491.439	142.94
491.657	137.94
491.874	172.94
492.092	157.94
492.31	152.94
492.527	147.94
492.745	142.94
492.963	139.94
493.18	145.94
493.398	162.94
493.615	143.94
493.833	133.94
494.05	144.94
494.268	117.94
494.485	122.94
494.703	138.94
494.92	129.94
495.138	119.94
495.355	133.94
495.573	127.94
495.79	126.94
496.008	127.94
496.225	134.94
496.442	134.94
496.66	132.94
496.877	135.94
497.094	125.94
497.312	107.94
497.529	111.94
497.746	101.94
497.963	103.94
498.181	99.94
498.398	103.94
498.615	94.94
498.832	101.94
499.049	110.94
499.267	105.94
499.484	96.94
499.701	108.94
499.918	108.94
500.135	110.94
500.352	107.94
500.569	112.94
500.786	116.94
501.003	123.94
501.22	123.94
501.437	116.94
501.654	100.94
501.871	89.94
502.088	111.94
502.305	79.94
502.522	108.94
502.739	121.94
502.956	111.94
503.172	112.94
503.389	100.94
503.606	90.94
503.823	88.94
504.04	94.94
504.256	94.94
504.473	100.94
504.69	98.94
504.907	110.94
505.123	95.94
505.34	102.94
505.557	109.94
505.773	111.94
505.99	96.94
506.207	97.94
506.423	94.94
506.64	92.94
506.856	85.94
507.073	90.94
507.289	98.94
507.506	94.94
507.722	112.94
507.939	92.94
508.155	101.94
508.372	109.94
508.588	93.94
508.805	85.94
509.021	86.94
509.238	87.94
509.454	86.94
509.67	80.94
509.887	97.94
510.103	86.94
510.319	92.94
510.536	95.94
510.752	102.94
510.968	88.94
511.184	73.94
511.401	90.94
511.617	96.94
511.833	94.94
512.049	96.94
512.265	86.94
512.481	88.94
512.698	89.94
512.914	97.94
513.13	92.94
513.346	92.94
513.562	93.94
513.778	93.94
513.994	103.94
514.21	84.94
514.426	89.94
514.642	82.94
514.858	71.94
515.074	87.94
515.29	93.94
