Data from Foil_2_HRD10591_00013.txt Node
Date: Wed Nov 05 16:17:28 EST 2025
User: Yrep
Spectrometer: HR+D1059
Trigger mode: 1
Integration Time (sec): 1.000000E-1
Scans to average: 1
Electric dark correction enabled: true
Nonlinearity correction enabled: false
Boxcar width: 0
XAxis mode: Wavelengths
Number of Pixels in Spectrum: 2048
>>>>>Begin Spectral Data<<<<<
223.165	-13.06
223.4	-13.06
223.635	-13.06
223.869	-24.06
224.104	-16.06
224.338	-17.06
224.573	-16.06
224.808	-11.06
225.042	-7.06
225.277	-2.06
225.511	-4.06
225.746	15.94
225.98	1.94
226.215	20.94
226.449	11.94
226.683	7.94
226.918	20.94
227.152	30.94
227.387	34.94
227.621	43.94
227.856	51.94
228.09	33.94
228.324	55.94
228.559	54.94
228.793	53.94
229.027	68.94
229.262	47.94
229.496	57.94
229.73	66.94
229.964	80.94
230.199	74.94
230.433	48.94
230.667	63.94
230.901	61.94
231.136	81.94
231.37	81.94
231.604	77.94
231.838	67.94
232.072	74.94
232.306	93.94
232.541	94.94
232.775	71.94
233.009	74.94
233.243	82.94
233.477	90.94
233.711	72.94
233.945	82.94
234.179	74.94
234.413	71.94
234.647	71.94
234.881	72.94
235.115	93.94
235.349	86.94
235.583	73.94
235.817	81.94
236.051	89.94
236.285	74.94
236.519	66.94
236.753	72.94
236.987	80.94
237.221	88.94
237.455	78.94
237.689	76.94
237.922	64.94
238.156	81.94
238.39	77.94
238.624	61.94
238.858	71.94
239.091	63.94
239.325	63.94
239.559	75.94
239.793	58.94
240.027	77.94
240.26	79.94
240.494	78.94
240.728	64.94
240.961	77.94
241.195	85.94
241.429	83.94
241.662	72.94
241.896	86.94
242.13	74.94
242.363	80.94
242.597	70.94
242.83	75.94
243.064	62.94
243.298	75.94
243.531	90.94
243.765	81.94
243.998	73.94
244.232	65.94
244.465	63.94
244.699	64.94
244.932	71.94
245.166	60.94
245.399	73.94
245.633	78.94
245.866	97.94
246.099	70.94
246.333	76.94
246.566	74.94
246.8	83.94
247.033	76.94
247.266	64.94
247.5	64.94
247.733	61.94
247.966	82.94
248.2	86.94
248.433	86.94
248.666	83.94
248.899	63.94
249.133	73.94
249.366	88.94
249.599	73.94
249.832	72.94
250.066	88.94
250.299	68.94
250.532	69.94
250.765	83.94
250.998	72.94
251.231	75.94
251.465	75.94
251.698	69.94
251.931	86.94
252.164	66.94
252.397	84.94
252.63	73.94
252.863	84.94
253.096	69.94
253.329	76.94
253.562	71.94
253.795	72.94
254.028	83.94
254.261	73.94
254.494	86.94
254.727	79.94
254.96	86.94
255.193	67.94
255.426	83.94
255.659	70.94
255.892	72.94
256.124	75.94
256.357	70.94
256.59	85.94
256.823	76.94
257.056	99.94
257.289	70.94
257.521	81.94
257.754	78.94
257.987	78.94
258.22	79.94
258.452	60.94
258.685	72.94
258.918	76.94
259.151	78.94
259.383	78.94
259.616	68.94
259.849	86.94
260.081	82.94
260.314	60.94
260.547	74.94
260.779	83.94
261.012	87.94
261.244	89.94
261.477	84.94
261.71	74.94
261.942	74.94
262.175	86.94
262.407	83.94
262.64	91.94
262.872	68.94
263.105	81.94
263.337	94.94
263.57	80.94
263.802	76.94
264.035	69.94
264.267	51.94
264.499	81.94
264.732	72.94
264.964	87.94
265.197	75.94
265.429	81.94
265.661	76.94
265.894	84.94
266.126	93.94
266.358	92.94
266.591	77.94
266.823	70.94
267.055	86.94
267.287	71.94
267.52	95.94
267.752	84.94
267.984	83.94
268.216	83.94
268.448	78.94
268.681	82.94
268.913	96.94
269.145	74.94
269.377	86.94
269.609	76.94
269.841	84.94
270.073	86.94
270.306	81.94
270.538	87.94
270.77	92.94
271.002	92.94
271.234	76.94
271.466	71.94
271.698	76.94
271.93	72.94
272.162	85.94
272.394	90.94
272.626	78.94
272.858	76.94
273.09	92.94
273.322	78.94
273.553	78.94
273.785	66.94
274.017	72.94
274.249	74.94
274.481	79.94
274.713	75.94
274.945	74.94
275.176	76.94
275.408	75.94
275.64	68.94
275.872	84.94
276.104	93.94
276.335	72.94
276.567	70.94
276.799	70.94
277.031	77.94
277.262	87.94
277.494	74.94
277.726	81.94
277.957	80.94
278.189	78.94
278.421	65.94
278.652	86.94
278.884	78.94
279.115	78.94
279.347	83.94
279.579	84.94
279.81	78.94
280.042	78.94
280.273	92.94
280.505	75.94
280.736	69.94
280.968	80.94
281.199	90.94
281.431	70.94
281.662	82.94
281.894	80.94
282.125	78.94
282.356	85.94
282.588	72.94
282.819	84.94
283.051	75.94
283.282	88.94
283.513	95.94
283.745	67.94
283.976	74.94
284.207	83.94
284.439	96.94
284.67	83.94
284.901	62.94
285.132	76.94
285.364	93.94
285.595	86.94
285.826	76.94
286.057	72.94
286.288	63.94
286.52	70.94
286.751	85.94
286.982	80.94
287.213	81.94
287.444	83.94
287.675	94.94
287.906	80.94
288.138	99.94
288.369	79.94
288.6	81.94
288.831	77.94
289.062	78.94
289.293	83.94
289.524	67.94
289.755	86.94
289.986	93.94
290.217	85.94
290.448	77.94
290.679	79.94
290.91	79.94
291.141	80.94
291.371	78.94
291.602	87.94
291.833	83.94
292.064	79.94
292.295	79.94
292.526	80.94
292.757	80.94
292.987	71.94
293.218	89.94
293.449	80.94
293.68	88.94
293.91	95.94
294.141	90.94
294.372	83.94
294.603	92.94
294.833	72.94
295.064	86.94
295.295	74.94
295.525	83.94
295.756	81.94
295.987	72.94
296.217	81.94
296.448	76.94
296.679	78.94
296.909	84.94
297.14	77.94
297.37	75.94
297.601	84.94
297.831	90.94
298.062	77.94
298.292	78.94
298.523	90.94
298.753	74.94
298.984	91.94
299.214	78.94
299.445	76.94
299.675	84.94
299.905	72.94
300.136	66.94
300.366	91.94
300.597	79.94
300.827	94.94
301.057	84.94
301.288	80.94
301.518	72.94
301.748	86.94
301.979	78.94
302.209	86.94
302.439	84.94
302.669	77.94
302.9	82.94
303.13	98.94
303.36	91.94
303.59	84.94
303.82	79.94
304.051	74.94
304.281	86.94
304.511	88.94
304.741	88.94
304.971	81.94
305.201	84.94
305.431	88.94
305.661	66.94
305.891	81.94
306.121	98.94
306.352	78.94
306.582	75.94
306.812	83.94
307.042	76.94
307.272	88.94
307.502	96.94
307.731	104.94
307.961	95.94
308.191	106.94
308.421	90.94
308.651	98.94
308.881	89.94
309.111	111.94
309.341	106.94
309.571	101.94
309.8	92.94
310.03	88.94
310.26	95.94
310.49	89.94
310.72	74.94
310.949	77.94
311.179	87.94
311.409	90.94
311.639	81.94
311.868	90.94
312.098	85.94
312.328	78.94
312.557	89.94
312.787	66.94
313.017	70.94
313.246	86.94
313.476	84.94
313.706	69.94
313.935	93.94
314.165	59.94
314.394	88.94
314.624	83.94
314.853	80.94
315.083	76.94
315.312	78.94
315.542	83.94
315.771	82.94
316.001	73.94
316.23	79.94
316.46	71.94
316.689	75.94
316.919	78.94
317.148	68.94
317.377	91.94
317.607	79.94
317.836	74.94
318.065	92.94
318.295	85.94
318.524	84.94
318.753	84.94
318.983	83.94
319.212	77.94
319.441	79.94
319.67	83.94
319.9	68.94
320.129	82.94
320.358	80.94
320.587	75.94
320.816	69.94
321.046	90.94
321.275	98.94
321.504	75.94
321.733	85.94
321.962	67.94
322.191	68.94
322.42	80.94
322.649	75.94
322.878	87.94
323.108	79.94
323.337	72.94
323.566	70.94
323.795	78.94
324.024	76.94
324.253	82.94
324.482	78.94
324.71	84.94
324.939	93.94
325.168	85.94
325.397	65.94
325.626	85.94
325.855	82.94
326.084	86.94
326.313	94.94
326.542	79.94
326.77	74.94
326.999	76.94
327.228	87.94
327.457	63.94
327.686	81.94
327.914	81.94
328.143	98.94
328.372	90.94
328.6	66.94
328.829	89.94
329.058	82.94
329.287	88.94
329.515	73.94
329.744	76.94
329.972	74.94
330.201	79.94
330.43	77.94
330.658	83.94
330.887	78.94
331.115	94.94
331.344	74.94
331.572	73.94
331.801	73.94
332.03	93.94
332.258	84.94
332.486	72.94
332.715	75.94
332.943	73.94
333.172	73.94
333.4	85.94
333.629	86.94
333.857	85.94
334.085	89.94
334.314	89.94
334.542	86.94
334.771	78.94
334.999	88.94
335.227	92.94
335.455	75.94
335.684	84.94
335.912	80.94
336.14	86.94
336.369	88.94
336.597	72.94
336.825	85.94
337.053	72.94
337.281	86.94
337.51	75.94
337.738	80.94
337.966	87.94
338.194	76.94
338.422	68.94
338.65	89.94
338.878	93.94
339.106	89.94
339.334	75.94
339.562	81.94
339.79	79.94
340.018	82.94
340.246	80.94
340.474	88.94
340.702	84.94
340.93	62.94
341.158	78.94
341.386	83.94
341.614	75.94
341.842	69.94
342.07	88.94
342.298	74.94
342.526	93.94
342.754	96.94
342.981	85.94
343.209	84.94
343.437	83.94
343.665	83.94
343.893	69.94
344.12	85.94
344.348	73.94
344.576	98.94
344.804	76.94
345.031	67.94
345.259	82.94
345.487	82.94
345.714	77.94
345.942	86.94
346.17	80.94
346.397	73.94
346.625	78.94
346.853	78.94
347.08	80.94
347.308	96.94
347.535	68.94
347.763	69.94
347.99	89.94
348.218	74.94
348.445	69.94
348.673	91.94
348.9	84.94
349.128	93.94
349.355	80.94
349.583	75.94
349.81	74.94
350.037	83.94
350.265	72.94
350.492	84.94
350.72	91.94
350.947	87.94
351.174	80.94
351.402	91.94
351.629	77.94
351.856	78.94
352.083	79.94
352.311	80.94
352.538	78.94
352.765	85.94
352.992	100.94
353.22	92.94
353.447	67.94
353.674	98.94
353.901	85.94
354.128	76.94
354.355	71.94
354.583	73.94
354.81	84.94
355.037	103.94
355.264	93.94
355.491	78.94
355.718	92.94
355.945	84.94
356.172	86.94
356.399	86.94
356.626	92.94
356.853	80.94
357.08	81.94
357.307	78.94
357.534	70.94
357.761	78.94
357.988	72.94
358.215	84.94
358.441	86.94
358.668	86.94
358.895	83.94
359.122	70.94
359.349	88.94
359.576	80.94
359.802	94.94
360.029	78.94
360.256	86.94
360.483	96.94
360.709	87.94
360.936	75.94
361.163	80.94
361.39	86.94
361.616	86.94
361.843	74.94
362.07	85.94
362.296	78.94
362.523	71.94
362.749	66.94
362.976	56.94
363.203	84.94
363.429	74.94
363.656	84.94
363.882	82.94
364.109	80.94
364.335	71.94
364.562	80.94
364.788	66.94
365.015	84.94
365.241	84.94
365.468	80.94
365.694	78.94
365.92	76.94
366.147	86.94
366.373	95.94
366.599	87.94
366.826	78.94
367.052	80.94
367.278	94.94
367.505	90.94
367.731	96.94
367.957	86.94
368.184	73.94
368.41	86.94
368.636	69.94
368.862	93.94
369.089	81.94
369.315	84.94
369.541	76.94
369.767	86.94
369.993	84.94
370.219	78.94
370.445	78.94
370.672	87.94
370.898	77.94
371.124	84.94
371.35	82.94
371.576	76.94
371.802	84.94
372.028	87.94
372.254	90.94
372.48	86.94
372.706	72.94
372.932	95.94
373.158	80.94
373.384	96.94
373.61	83.94
373.835	90.94
374.061	94.94
374.287	93.94
374.513	81.94
374.739	79.94
374.965	82.94
375.191	86.94
375.416	100.94
375.642	94.94
375.868	96.94
376.094	100.94
376.319	91.94
376.545	88.94
376.771	82.94
376.997	94.94
377.222	84.94
377.448	90.94
377.674	77.94
377.899	86.94
378.125	79.94
378.35	94.94
378.576	88.94
378.802	80.94
379.027	86.94
379.253	92.94
379.478	78.94
379.704	80.94
379.929	82.94
380.155	88.94
380.38	81.94
380.606	91.94
380.831	88.94
381.057	97.94
381.282	86.94
381.507	74.94
381.733	78.94
381.958	90.94
382.184	84.94
382.409	92.94
382.634	98.94
382.86	90.94
383.085	91.94
383.31	87.94
383.535	85.94
383.761	84.94
383.986	84.94
384.211	91.94
384.436	80.94
384.662	83.94
384.887	74.94
385.112	86.94
385.337	82.94
385.562	82.94
385.787	85.94
386.013	101.94
386.238	84.94
386.463	89.94
386.688	100.94
386.913	93.94
387.138	76.94
387.363	91.94
387.588	79.94
387.813	90.94
388.038	87.94
388.263	97.94
388.488	64.94
388.713	79.94
388.938	90.94
389.163	84.94
389.387	94.94
389.612	91.94
389.837	88.94
390.062	87.94
390.287	98.94
390.512	78.94
390.736	93.94
390.961	70.94
391.186	86.94
391.411	80.94
391.636	90.94
391.86	104.94
392.085	84.94
392.31	107.94
392.534	74.94
392.759	98.94
392.984	95.94
393.208	103.94
393.433	103.94
393.658	98.94
393.882	101.94
394.107	123.94
394.331	148.94
394.556	180.94
394.78	126.94
395.005	93.94
395.229	94.94
395.454	93.94
395.678	103.94
395.903	162.94
396.127	204.94
396.352	207.94
396.576	110.94
396.801	103.94
397.025	94.94
397.249	84.94
397.474	92.94
397.698	85.94
397.922	90.94
398.147	90.94
398.371	78.94
398.595	107.94
398.82	91.94
399.044	75.94
399.268	90.94
399.492	98.94
399.717	104.94
399.941	94.94
400.165	101.94
400.389	90.94
400.613	95.94
400.837	90.94
401.062	96.94
401.286	92.94
401.51	102.94
401.734	82.94
401.958	95.94
402.182	84.94
402.406	84.94
402.63	103.94
402.854	101.94
403.078	94.94
403.302	94.94
403.526	97.94
403.75	81.94
403.974	105.94
404.198	92.94
404.422	87.94
404.645	100.94
404.869	100.94
405.093	95.94
405.317	98.94
405.541	111.94
405.765	80.94
405.988	100.94
406.212	95.94
406.436	94.94
406.66	93.94
406.883	95.94
407.107	98.94
407.331	93.94
407.555	102.94
407.778	100.94
408.002	100.94
408.226	97.94
408.449	101.94
408.673	98.94
408.896	116.94
409.12	99.94
409.344	106.94
409.567	112.94
409.791	91.94
410.014	80.94
410.238	94.94
410.461	89.94
410.685	88.94
410.908	99.94
411.132	98.94
411.355	99.94
411.578	99.94
411.802	102.94
412.025	92.94
412.249	111.94
412.472	101.94
412.695	92.94
412.919	95.94
413.142	111.94
413.365	93.94
413.589	119.94
413.812	89.94
414.035	103.94
414.258	103.94
414.482	90.94
414.705	98.94
414.928	102.94
415.151	101.94
415.374	103.94
415.597	108.94
415.821	108.94
416.044	95.94
416.267	102.94
416.49	95.94
416.713	99.94
416.936	106.94
417.159	110.94
417.382	98.94
417.605	99.94
417.828	100.94
418.051	97.94
418.274	94.94
418.497	99.94
418.72	98.94
418.943	103.94
419.166	99.94
419.389	102.94
419.611	115.94
419.834	105.94
420.057	87.94
420.28	117.94
420.503	107.94
420.726	96.94
420.948	91.94
421.171	105.94
421.394	95.94
421.617	95.94
421.839	104.94
422.062	98.94
422.285	95.94
422.507	88.94
422.73	82.94
422.953	102.94
423.175	102.94
423.398	111.94
423.621	106.94
423.843	117.94
424.066	95.94
424.288	107.94
424.511	118.94
424.733	102.94
424.956	121.94
425.178	111.94
425.401	90.94
425.623	96.94
425.846	92.94
426.068	98.94
426.291	94.94
426.513	88.94
426.735	99.94
426.958	94.94
427.18	90.94
427.402	109.94
427.625	111.94
427.847	104.94
428.069	106.94
428.292	85.94
428.514	94.94
428.736	110.94
428.958	99.94
429.181	108.94
429.403	103.94
429.625	98.94
429.847	98.94
430.069	106.94
430.292	102.94
430.514	116.94
430.736	102.94
430.958	100.94
431.18	125.94
431.402	108.94
431.624	104.94
431.846	94.94
432.068	90.94
432.29	68.94
432.512	104.94
432.734	107.94
432.956	111.94
433.178	96.94
433.4	105.94
433.622	101.94
433.844	100.94
434.066	95.94
434.287	93.94
434.509	85.94
434.731	89.94
434.953	97.94
435.175	104.94
435.397	100.94
435.618	84.94
435.84	92.94
436.062	106.94
436.284	89.94
436.505	84.94
436.727	96.94
436.949	102.94
437.17	113.94
437.392	90.94
437.614	96.94
437.835	86.94
438.057	90.94
438.278	88.94
438.5	94.94
438.721	114.94
438.943	117.94
439.165	115.94
439.386	97.94
439.608	107.94
439.829	111.94
440.05	112.94
440.272	107.94
440.493	99.94
440.715	103.94
440.936	114.94
441.158	108.94
441.379	116.94
441.6	117.94
441.822	134.94
442.043	99.94
442.264	104.94
442.486	100.94
442.707	101.94
442.928	109.94
443.149	115.94
443.371	108.94
443.592	104.94
443.813	117.94
444.034	117.94
444.255	110.94
444.476	104.94
444.698	111.94
444.919	121.94
445.14	195.94
445.361	156.94
445.582	110.94
445.803	102.94
446.024	116.94
446.245	118.94
446.466	103.94
446.687	114.94
446.908	90.94
447.129	107.94
447.35	103.94
447.571	111.94
447.792	106.94
448.013	117.94
448.234	102.94
448.455	110.94
448.675	102.94
448.896	103.94
449.117	118.94
449.338	109.94
449.559	99.94
449.779	124.94
450	120.94
450.221	101.94
450.442	114.94
450.662	108.94
450.883	106.94
451.104	100.94
451.324	86.94
451.545	98.94
451.766	100.94
451.986	98.94
452.207	95.94
452.428	109.94
452.648	95.94
452.869	102.94
453.089	103.94
453.31	98.94
453.53	82.94
453.751	87.94
453.971	115.94
454.192	82.94
454.412	69.94
454.633	78.94
454.853	82.94
455.073	86.94
455.294	104.94
455.514	106.94
455.734	101.94
455.955	101.94
456.175	104.94
456.395	101.94
456.616	99.94
456.836	87.94
457.056	84.94
457.276	106.94
457.497	103.94
457.717	90.94
457.937	102.94
458.157	95.94
458.377	89.94
458.598	71.94
458.818	74.94
459.038	70.94
459.258	94.94
459.478	83.94
459.698	92.94
459.918	81.94
460.138	86.94
460.358	92.94
460.578	80.94
460.798	90.94
461.018	84.94
461.238	88.94
461.458	90.94
461.678	95.94
461.898	87.94
462.118	91.94
462.338	99.94
462.558	82.94
462.777	96.94
462.997	101.94
463.217	89.94
463.437	88.94
463.657	100.94
463.876	91.94
464.096	95.94
464.316	95.94
464.536	108.94
464.755	89.94
464.975	96.94
465.195	82.94
465.414	93.94
465.634	92.94
465.854	92.94
466.073	96.94
466.293	90.94
466.512	104.94
466.732	89.94
466.951	119.94
467.171	107.94
467.391	140.94
467.61	127.94
467.829	125.94
468.049	117.94
468.268	105.94
468.488	107.94
468.707	117.94
468.927	104.94
469.146	110.94
469.365	121.94
469.585	103.94
469.804	116.94
470.023	120.94
470.243	122.94
470.462	114.94
470.681	119.94
470.901	95.94
471.12	130.94
471.339	114.94
471.558	119.94
471.777	112.94
471.997	107.94
472.216	99.94
472.435	87.94
472.654	95.94
472.873	88.94
473.092	106.94
473.311	116.94
473.53	116.94
473.749	115.94
473.968	108.94
474.187	111.94
474.406	96.94
474.625	96.94
474.844	108.94
475.063	100.94
475.282	100.94
475.501	89.94
475.72	93.94
475.939	108.94
476.158	107.94
476.377	92.94
476.596	95.94
476.814	93.94
477.033	85.94
477.252	87.94
477.471	101.94
477.69	112.94
477.908	98.94
478.127	96.94
478.346	93.94
478.564	103.94
478.783	108.94
479.002	104.94
479.22	120.94
479.439	100.94
479.658	86.94
479.876	92.94
480.095	95.94
480.313	97.94
480.532	79.94
480.751	87.94
480.969	86.94
481.188	76.94
481.406	88.94
481.624	77.94
481.843	80.94
482.061	91.94
482.28	96.94
482.498	88.94
482.717	76.94
482.935	109.94
483.153	92.94
483.372	107.94
483.59	90.94
483.808	100.94
484.027	94.94
484.245	94.94
484.463	107.94
484.681	106.94
484.9	98.94
485.118	77.94
485.336	93.94
485.554	91.94
485.772	89.94
485.99	90.94
486.209	94.94
486.427	94.94
486.645	111.94
486.863	107.94
487.081	118.94
487.299	100.94
487.517	90.94
487.735	111.94
487.953	126.94
488.171	106.94
488.389	106.94
488.607	80.94
488.825	107.94
489.043	107.94
489.261	94.94
489.479	107.94
489.696	94.94
489.914	114.94
490.132	130.94
490.35	114.94
490.568	128.94
490.786	132.94
491.003	144.94
491.221	132.94
491.439	135.94
491.657	164.94
491.874	130.94
492.092	145.94
492.31	147.94
492.527	135.94
492.745	144.94
492.963	147.94
493.18	139.94
493.398	127.94
493.615	134.94
493.833	134.94
494.05	122.94
494.268	131.94
494.485	133.94
494.703	148.94
494.92	136.94
495.138	126.94
495.355	117.94
495.573	135.94
495.79	128.94
496.008	133.94
496.225	141.94
496.442	118.94
496.66	126.94
496.877	122.94
497.094	117.94
497.312	117.94
497.529	116.94
497.746	119.94
497.963	112.94
498.181	82.94
498.398	94.94
498.615	82.94
498.832	91.94
499.049	74.94
499.267	102.94
499.484	101.94
499.701	94.94
499.918	99.94
500.135	109.94
500.352	107.94
500.569	111.94
500.786	107.94
501.003	96.94
501.22	112.94
501.437	116.94
501.654	107.94
501.871	101.94
502.088	107.94
502.305	98.94
502.522	91.94
502.739	108.94
502.956	112.94
503.172	109.94
503.389	99.94
503.606	106.94
503.823	98.94
504.04	93.94
504.256	102.94
504.473	95.94
504.69	86.94
504.907	99.94
505.123	100.94
505.34	100.94
505.557	95.94
505.773	90.94
505.99	84.94
506.207	83.94
506.423	89.94
506.64	99.94
506.856	97.94
507.073	99.94
507.289	108.94
507.506	108.94
507.722	89.94
507.939	98.94
508.155	85.94
508.372	91.94
508.588	88.94
508.805	95.94
509.021	88.94
509.238	75.94
509.454	84.94
509.67	99.94
509.887	77.94
510.103	79.94
510.319	87.94
510.536	76.94
510.752	88.94
510.968	83.94
511.184	68.94
511.401	76.94
511.617	80.94
511.833	79.94
512.049	84.94
512.265	93.94
512.481	92.94
512.698	80.94
512.914	84.94
513.13	95.94
513.346	93.94
513.562	93.94
513.778	95.94
513.994	96.94
514.21	71.94
514.426	83.94
514.642	77.94
514.858	83.94
515.074	91.94
515.29	94.94
515.506	88.94
515.721	71.94
515.937	87.94
516.153	83.94
