Data from Foil_2_HRD10591_00010.txt Node
Date: Wed Nov 05 16:17:26 EST 2025
User: Yrep
Spectrometer: HR+D1059
Trigger mode: 1
Integration Time (sec): 1.000000E-1
Scans to average: 1
Electric dark correction enabled: true
Nonlinearity correction enabled: false
Boxcar width: 0
XAxis mode: Wavelengths
Number of Pixels in Spectrum: 2048
>>>>>Begin Spectral Data<<<<<
223.165	-18.38
223.4	-18.38
223.635	-18.38
223.869	-27.38
224.104	-20.38
224.338	-22.38
224.573	-13.38
224.808	-14.38
225.042	-0.38
225.277	1.62
225.511	3.62
225.746	12.62
225.98	-1.38
226.215	1.62
226.449	14.62
226.683	30.62
226.918	27.62
227.152	25.62
227.387	32.62
227.621	32.62
227.856	41.62
228.09	46.62
228.324	45.62
228.559	47.62
228.793	60.62
229.027	68.62
229.262	64.62
229.496	66.62
229.73	64.62
229.964	65.62
230.199	79.62
230.433	70.62
230.667	74.62
230.901	79.62
231.136	78.62
231.37	79.62
231.604	80.62
231.838	83.62
232.072	83.62
232.306	94.62
232.541	94.62
232.775	71.62
233.009	78.62
233.243	83.62
233.477	79.62
233.711	87.62
233.945	76.62
234.179	86.62
234.413	79.62
234.647	80.62
234.881	63.62
235.115	73.62
235.349	83.62
235.583	71.62
235.817	76.62
236.051	81.62
236.285	82.62
236.519	70.62
236.753	66.62
236.987	89.62
237.221	69.62
237.455	77.62
237.689	80.62
237.922	74.62
238.156	83.62
238.39	73.62
238.624	75.62
238.858	74.62
239.091	77.62
239.325	70.62
239.559	74.62
239.793	73.62
240.027	84.62
240.26	82.62
240.494	84.62
240.728	79.62
240.961	74.62
241.195	76.62
241.429	72.62
241.662	70.62
241.896	71.62
242.13	94.62
242.363	93.62
242.597	79.62
242.83	84.62
243.064	78.62
243.298	84.62
243.531	73.62
243.765	92.62
243.998	68.62
244.232	88.62
244.465	91.62
244.699	82.62
244.932	83.62
245.166	85.62
245.399	82.62
245.633	78.62
245.866	71.62
246.099	74.62
246.333	81.62
246.566	72.62
246.8	70.62
247.033	72.62
247.266	83.62
247.5	78.62
247.733	77.62
247.966	101.62
248.2	74.62
248.433	83.62
248.666	72.62
248.899	74.62
249.133	71.62
249.366	78.62
249.599	81.62
249.832	83.62
250.066	74.62
250.299	83.62
250.532	83.62
250.765	87.62
250.998	71.62
251.231	83.62
251.465	80.62
251.698	79.62
251.931	67.62
252.164	79.62
252.397	87.62
252.63	88.62
252.863	69.62
253.096	84.62
253.329	79.62
253.562	68.62
253.795	79.62
254.028	67.62
254.261	80.62
254.494	85.62
254.727	76.62
254.96	81.62
255.193	72.62
255.426	85.62
255.659	74.62
255.892	79.62
256.124	82.62
256.357	75.62
256.59	77.62
256.823	83.62
257.056	83.62
257.289	68.62
257.521	90.62
257.754	77.62
257.987	69.62
258.22	79.62
258.452	94.62
258.685	91.62
258.918	81.62
259.151	78.62
259.383	81.62
259.616	91.62
259.849	66.62
260.081	81.62
260.314	83.62
260.547	79.62
260.779	76.62
261.012	72.62
261.244	59.62
261.477	89.62
261.71	86.62
261.942	90.62
262.175	77.62
262.407	83.62
262.64	80.62
262.872	83.62
263.105	93.62
263.337	73.62
263.57	77.62
263.802	82.62
264.035	88.62
264.267	83.62
264.499	81.62
264.732	84.62
264.964	82.62
265.197	78.62
265.429	89.62
265.661	86.62
265.894	85.62
266.126	85.62
266.358	80.62
266.591	65.62
266.823	64.62
267.055	89.62
267.287	96.62
267.52	68.62
267.752	82.62
267.984	79.62
268.216	94.62
268.448	90.62
268.681	99.62
268.913	91.62
269.145	89.62
269.377	84.62
269.609	74.62
269.841	89.62
270.073	94.62
270.306	66.62
270.538	81.62
270.77	90.62
271.002	90.62
271.234	76.62
271.466	95.62
271.698	79.62
271.93	84.62
272.162	83.62
272.394	75.62
272.626	82.62
272.858	87.62
273.09	93.62
273.322	88.62
273.553	85.62
273.785	84.62
274.017	85.62
274.249	76.62
274.481	68.62
274.713	73.62
274.945	88.62
275.176	88.62
275.408	84.62
275.64	73.62
275.872	70.62
276.104	85.62
276.335	91.62
276.567	78.62
276.799	72.62
277.031	83.62
277.262	92.62
277.494	78.62
277.726	78.62
277.957	73.62
278.189	88.62
278.421	76.62
278.652	85.62
278.884	75.62
279.115	88.62
279.347	74.62
279.579	95.62
279.81	76.62
280.042	74.62
280.273	94.62
280.505	84.62
280.736	85.62
280.968	86.62
281.199	83.62
281.431	80.62
281.662	103.62
281.894	80.62
282.125	85.62
282.356	76.62
282.588	82.62
282.819	84.62
283.051	90.62
283.282	86.62
283.513	80.62
283.745	88.62
283.976	81.62
284.207	78.62
284.439	82.62
284.67	80.62
284.901	92.62
285.132	73.62
285.364	96.62
285.595	90.62
285.826	74.62
286.057	86.62
286.288	81.62
286.52	88.62
286.751	89.62
286.982	88.62
287.213	80.62
287.444	71.62
287.675	93.62
287.906	83.62
288.138	77.62
288.369	101.62
288.6	86.62
288.831	91.62
289.062	68.62
289.293	91.62
289.524	84.62
289.755	78.62
289.986	85.62
290.217	81.62
290.448	83.62
290.679	67.62
290.91	62.62
291.141	84.62
291.371	76.62
291.602	85.62
291.833	80.62
292.064	75.62
292.295	81.62
292.526	84.62
292.757	76.62
292.987	70.62
293.218	92.62
293.449	80.62
293.68	90.62
293.91	91.62
294.141	85.62
294.372	72.62
294.603	85.62
294.833	77.62
295.064	83.62
295.295	83.62
295.525	88.62
295.756	85.62
295.987	93.62
296.217	92.62
296.448	102.62
296.679	78.62
296.909	87.62
297.14	77.62
297.37	93.62
297.601	89.62
297.831	87.62
298.062	88.62
298.292	88.62
298.523	95.62
298.753	91.62
298.984	90.62
299.214	83.62
299.445	75.62
299.675	100.62
299.905	82.62
300.136	90.62
300.366	75.62
300.597	63.62
300.827	85.62
301.057	96.62
301.288	97.62
301.518	84.62
301.748	78.62
301.979	94.62
302.209	89.62
302.439	79.62
302.669	94.62
302.9	85.62
303.13	87.62
303.36	87.62
303.59	75.62
303.82	88.62
304.051	92.62
304.281	94.62
304.511	85.62
304.741	81.62
304.971	95.62
305.201	88.62
305.431	83.62
305.661	91.62
305.891	89.62
306.121	83.62
306.352	84.62
306.582	104.62
306.812	106.62
307.042	90.62
307.272	87.62
307.502	67.62
307.731	95.62
307.961	94.62
308.191	114.62
308.421	100.62
308.651	105.62
308.881	88.62
309.111	112.62
309.341	109.62
309.571	108.62
309.8	86.62
310.03	84.62
310.26	113.62
310.49	98.62
310.72	91.62
310.949	85.62
311.179	76.62
311.409	88.62
311.639	83.62
311.868	78.62
312.098	68.62
312.328	69.62
312.557	94.62
312.787	85.62
313.017	88.62
313.246	88.62
313.476	91.62
313.706	92.62
313.935	85.62
314.165	75.62
314.394	90.62
314.624	88.62
314.853	82.62
315.083	93.62
315.312	86.62
315.542	78.62
315.771	90.62
316.001	71.62
316.23	76.62
316.46	97.62
316.689	82.62
316.919	82.62
317.148	87.62
317.377	97.62
317.607	88.62
317.836	79.62
318.065	90.62
318.295	80.62
318.524	75.62
318.753	88.62
318.983	78.62
319.212	80.62
319.441	75.62
319.67	80.62
319.9	76.62
320.129	95.62
320.358	94.62
320.587	98.62
320.816	77.62
321.046	88.62
321.275	90.62
321.504	88.62
321.733	94.62
321.962	81.62
322.191	74.62
322.42	73.62
322.649	101.62
322.878	91.62
323.108	98.62
323.337	78.62
323.566	92.62
323.795	94.62
324.024	81.62
324.253	77.62
324.482	65.62
324.71	94.62
324.939	86.62
325.168	90.62
325.397	81.62
325.626	76.62
325.855	90.62
326.084	79.62
326.313	86.62
326.542	74.62
326.77	83.62
326.999	91.62
327.228	100.62
327.457	92.62
327.686	93.62
327.914	74.62
328.143	100.62
328.372	82.62
328.6	78.62
328.829	94.62
329.058	80.62
329.287	85.62
329.515	84.62
329.744	92.62
329.972	82.62
330.201	82.62
330.43	95.62
330.658	73.62
330.887	93.62
331.115	83.62
331.344	96.62
331.572	104.62
331.801	83.62
332.03	81.62
332.258	85.62
332.486	82.62
332.715	88.62
332.943	90.62
333.172	98.62
333.4	79.62
333.629	90.62
333.857	93.62
334.085	92.62
334.314	76.62
334.542	81.62
334.771	82.62
334.999	86.62
335.227	90.62
335.455	81.62
335.684	74.62
335.912	95.62
336.14	86.62
336.369	78.62
336.597	82.62
336.825	98.62
337.053	87.62
337.281	88.62
337.51	89.62
337.738	88.62
337.966	95.62
338.194	84.62
338.422	94.62
338.65	94.62
338.878	79.62
339.106	90.62
339.334	86.62
339.562	94.62
339.79	91.62
340.018	92.62
340.246	90.62
340.474	82.62
340.702	82.62
340.93	76.62
341.158	83.62
341.386	95.62
341.614	88.62
341.842	76.62
342.07	75.62
342.298	88.62
342.526	97.62
342.754	91.62
342.981	84.62
343.209	79.62
343.437	91.62
343.665	80.62
343.893	80.62
344.12	89.62
344.348	79.62
344.576	94.62
344.804	92.62
345.031	91.62
345.259	94.62
345.487	94.62
345.714	77.62
345.942	88.62
346.17	85.62
346.397	91.62
346.625	90.62
346.853	87.62
347.08	79.62
347.308	80.62
347.535	82.62
347.763	96.62
347.99	84.62
348.218	100.62
348.445	85.62
348.673	88.62
348.9	79.62
349.128	70.62
349.355	84.62
349.583	82.62
349.81	108.62
350.037	95.62
350.265	80.62
350.492	78.62
350.72	83.62
350.947	92.62
351.174	74.62
351.402	80.62
351.629	93.62
351.856	86.62
352.083	90.62
352.311	91.62
352.538	92.62
352.765	88.62
352.992	86.62
353.22	78.62
353.447	90.62
353.674	86.62
353.901	95.62
354.128	87.62
354.355	90.62
354.583	88.62
354.81	94.62
355.037	88.62
355.264	101.62
355.491	100.62
355.718	88.62
355.945	80.62
356.172	77.62
356.399	78.62
356.626	91.62
356.853	92.62
357.08	89.62
357.307	94.62
357.534	98.62
357.761	93.62
357.988	90.62
358.215	88.62
358.441	81.62
358.668	92.62
358.895	87.62
359.122	98.62
359.349	82.62
359.576	84.62
359.802	88.62
360.029	90.62
360.256	77.62
360.483	86.62
360.709	82.62
360.936	75.62
361.163	95.62
361.39	73.62
361.616	82.62
361.843	84.62
362.07	80.62
362.296	83.62
362.523	79.62
362.749	100.62
362.976	84.62
363.203	84.62
363.429	111.62
363.656	89.62
363.882	92.62
364.109	79.62
364.335	82.62
364.562	79.62
364.788	64.62
365.015	75.62
365.241	98.62
365.468	86.62
365.694	93.62
365.92	99.62
366.147	84.62
366.373	79.62
366.599	95.62
366.826	82.62
367.052	72.62
367.278	77.62
367.505	91.62
367.731	88.62
367.957	81.62
368.184	86.62
368.41	74.62
368.636	79.62
368.862	91.62
369.089	75.62
369.315	85.62
369.541	85.62
369.767	89.62
369.993	66.62
370.219	87.62
370.445	87.62
370.672	87.62
370.898	73.62
371.124	82.62
371.35	104.62
371.576	89.62
371.802	79.62
372.028	90.62
372.254	78.62
372.48	88.62
372.706	99.62
372.932	97.62
373.158	84.62
373.384	102.62
373.61	88.62
373.835	92.62
374.061	79.62
374.287	88.62
374.513	86.62
374.739	82.62
374.965	72.62
375.191	92.62
375.416	79.62
375.642	93.62
375.868	83.62
376.094	90.62
376.319	79.62
376.545	81.62
376.771	82.62
376.997	86.62
377.222	80.62
377.448	101.62
377.674	90.62
377.899	93.62
378.125	83.62
378.35	82.62
378.576	81.62
378.802	100.62
379.027	88.62
379.253	101.62
379.478	93.62
379.704	95.62
379.929	98.62
380.155	96.62
380.38	97.62
380.606	86.62
380.831	91.62
381.057	96.62
381.282	96.62
381.507	99.62
381.733	90.62
381.958	96.62
382.184	89.62
382.409	99.62
382.634	98.62
382.86	88.62
383.085	106.62
383.31	97.62
383.535	91.62
383.761	96.62
383.986	95.62
384.211	92.62
384.436	87.62
384.662	85.62
384.887	82.62
385.112	87.62
385.337	84.62
385.562	97.62
385.787	110.62
386.013	76.62
386.238	97.62
386.463	88.62
386.688	91.62
386.913	97.62
387.138	93.62
387.363	113.62
387.588	92.62
387.813	96.62
388.038	97.62
388.263	91.62
388.488	79.62
388.713	84.62
388.938	81.62
389.163	83.62
389.387	104.62
389.612	98.62
389.837	90.62
390.062	109.62
390.287	91.62
390.512	90.62
390.736	97.62
390.961	93.62
391.186	98.62
391.411	94.62
391.636	84.62
391.86	90.62
392.085	94.62
392.31	100.62
392.534	110.62
392.759	105.62
392.984	86.62
393.208	96.62
393.433	101.62
393.658	100.62
393.882	98.62
394.107	127.62
394.331	152.62
394.556	160.62
394.78	121.62
395.005	120.62
395.229	112.62
395.454	107.62
395.678	104.62
395.903	144.62
396.127	201.62
396.352	200.62
396.576	118.62
396.801	96.62
397.025	93.62
397.249	106.62
397.474	104.62
397.698	99.62
397.922	99.62
398.147	99.62
398.371	98.62
398.595	91.62
398.82	84.62
399.044	97.62
399.268	100.62
399.492	114.62
399.717	91.62
399.941	107.62
400.165	109.62
400.389	82.62
400.613	94.62
400.837	93.62
401.062	92.62
401.286	100.62
401.51	90.62
401.734	89.62
401.958	98.62
402.182	93.62
402.406	110.62
402.63	104.62
402.854	115.62
403.078	86.62
403.302	90.62
403.526	102.62
403.75	96.62
403.974	97.62
404.198	88.62
404.422	110.62
404.645	104.62
404.869	86.62
405.093	104.62
405.317	96.62
405.541	122.62
405.765	92.62
405.988	99.62
406.212	93.62
406.436	105.62
406.66	107.62
406.883	112.62
407.107	109.62
407.331	98.62
407.555	98.62
407.778	98.62
408.002	108.62
408.226	109.62
408.449	115.62
408.673	110.62
408.896	93.62
409.12	85.62
409.344	98.62
409.567	105.62
409.791	105.62
410.014	102.62
410.238	99.62
410.461	112.62
410.685	100.62
410.908	100.62
411.132	102.62
411.355	93.62
411.578	108.62
411.802	110.62
412.025	102.62
412.249	114.62
412.472	118.62
412.695	93.62
412.919	92.62
413.142	97.62
413.365	91.62
413.589	106.62
413.812	100.62
414.035	106.62
414.258	104.62
414.482	105.62
414.705	111.62
414.928	112.62
415.151	106.62
415.374	89.62
415.597	110.62
415.821	121.62
416.044	103.62
416.267	112.62
416.49	95.62
416.713	94.62
416.936	105.62
417.159	103.62
417.382	101.62
417.605	113.62
417.828	104.62
418.051	108.62
418.274	108.62
418.497	109.62
418.72	92.62
418.943	98.62
419.166	109.62
419.389	113.62
419.611	99.62
419.834	108.62
420.057	121.62
420.28	106.62
420.503	102.62
420.726	91.62
420.948	98.62
421.171	113.62
421.394	80.62
421.617	98.62
421.839	104.62
422.062	104.62
422.285	110.62
422.507	108.62
422.73	111.62
422.953	88.62
423.175	102.62
423.398	89.62
423.621	113.62
423.843	91.62
424.066	108.62
424.288	100.62
424.511	98.62
424.733	109.62
424.956	109.62
425.178	106.62
425.401	116.62
425.623	96.62
425.846	98.62
426.068	114.62
426.291	103.62
426.513	102.62
426.735	126.62
426.958	91.62
427.18	104.62
427.402	112.62
427.625	103.62
427.847	110.62
428.069	110.62
428.292	124.62
428.514	105.62
428.736	112.62
428.958	104.62
429.181	118.62
429.403	91.62
429.625	99.62
429.847	113.62
430.069	108.62
430.292	108.62
430.514	98.62
430.736	111.62
430.958	114.62
431.18	102.62
431.402	98.62
431.624	94.62
431.846	104.62
432.068	88.62
432.29	83.62
432.512	94.62
432.734	92.62
432.956	108.62
433.178	102.62
433.4	110.62
433.622	91.62
433.844	91.62
434.066	80.62
434.287	95.62
434.509	93.62
434.731	104.62
434.953	99.62
435.175	94.62
435.397	93.62
435.618	102.62
435.84	103.62
436.062	114.62
436.284	107.62
436.505	102.62
436.727	103.62
436.949	102.62
437.17	94.62
437.392	111.62
437.614	96.62
437.835	96.62
438.057	97.62
438.278	113.62
438.5	107.62
438.721	119.62
438.943	108.62
439.165	114.62
439.386	108.62
439.608	113.62
439.829	114.62
440.05	115.62
440.272	119.62
440.493	114.62
440.715	86.62
440.936	120.62
441.158	122.62
441.379	98.62
441.6	95.62
441.822	101.62
442.043	113.62
442.264	101.62
442.486	110.62
442.707	110.62
442.928	119.62
443.149	108.62
443.371	89.62
443.592	98.62
443.813	100.62
444.034	135.62
444.255	106.62
444.476	109.62
444.698	98.62
444.919	110.62
445.14	171.62
445.361	142.62
445.582	101.62
445.803	117.62
446.024	110.62
446.245	122.62
446.466	111.62
446.687	108.62
446.908	122.62
447.129	121.62
447.35	111.62
447.571	102.62
447.792	106.62
448.013	106.62
448.234	114.62
448.455	113.62
448.675	108.62
448.896	123.62
449.117	104.62
449.338	104.62
449.559	103.62
449.779	98.62
450	120.62
450.221	127.62
450.442	115.62
450.662	113.62
450.883	118.62
451.104	110.62
451.324	101.62
451.545	96.62
451.766	107.62
451.986	94.62
452.207	105.62
452.428	101.62
452.648	101.62
452.869	100.62
453.089	112.62
453.31	110.62
453.53	91.62
453.751	74.62
453.971	94.62
454.192	88.62
454.412	90.62
454.633	84.62
454.853	101.62
455.073	98.62
455.294	97.62
455.514	102.62
455.734	93.62
455.955	76.62
456.175	97.62
456.395	104.62
456.616	84.62
456.836	99.62
457.056	88.62
457.276	96.62
457.497	85.62
457.717	112.62
457.937	99.62
458.157	91.62
458.377	85.62
458.598	76.62
458.818	72.62
459.038	89.62
459.258	83.62
459.478	82.62
459.698	75.62
459.918	77.62
460.138	89.62
460.358	72.62
460.578	88.62
460.798	98.62
461.018	84.62
461.238	107.62
461.458	105.62
461.678	91.62
461.898	82.62
462.118	92.62
462.338	102.62
462.558	98.62
462.777	93.62
462.997	90.62
463.217	100.62
463.437	91.62
463.657	94.62
463.876	103.62
464.096	87.62
464.316	91.62
464.536	92.62
464.755	95.62
464.975	108.62
465.195	93.62
465.414	89.62
465.634	84.62
465.854	105.62
466.073	94.62
466.293	107.62
466.512	111.62
466.732	104.62
466.951	130.62
467.171	131.62
467.391	132.62
467.61	133.62
467.829	121.62
468.049	128.62
468.268	104.62
468.488	123.62
468.707	114.62
468.927	112.62
469.146	113.62
469.365	137.62
469.585	119.62
469.804	128.62
470.023	116.62
470.243	112.62
470.462	113.62
470.681	119.62
470.901	102.62
471.12	100.62
471.339	110.62
471.558	115.62
471.777	115.62
471.997	123.62
472.216	94.62
472.435	106.62
472.654	97.62
472.873	105.62
473.092	83.62
473.311	112.62
473.53	112.62
473.749	114.62
473.968	103.62
474.187	94.62
474.406	99.62
474.625	124.62
474.844	111.62
475.063	122.62
475.282	96.62
475.501	109.62
475.72	115.62
475.939	76.62
476.158	90.62
476.377	97.62
476.596	96.62
476.814	103.62
477.033	101.62
477.252	98.62
477.471	96.62
477.69	98.62
477.908	103.62
478.127	104.62
478.346	97.62
478.564	98.62
478.783	105.62
479.002	94.62
479.22	94.62
479.439	107.62
479.658	114.62
479.876	96.62
480.095	96.62
480.313	95.62
480.532	89.62
480.751	84.62
480.969	89.62
481.188	70.62
481.406	90.62
481.624	88.62
481.843	88.62
482.061	90.62
482.28	99.62
482.498	83.62
482.717	89.62
482.935	99.62
483.153	112.62
483.372	115.62
483.59	95.62
483.808	91.62
484.027	94.62
484.245	111.62
484.463	89.62
484.681	115.62
484.9	95.62
485.118	95.62
485.336	95.62
485.554	81.62
485.772	90.62
485.99	106.62
486.209	99.62
486.427	92.62
486.645	110.62
486.863	104.62
487.081	108.62
487.299	101.62
487.517	113.62
487.735	123.62
487.953	115.62
488.171	134.62
488.389	92.62
488.607	111.62
488.825	102.62
489.043	98.62
489.261	103.62
489.479	108.62
489.696	115.62
489.914	113.62
490.132	120.62
490.35	123.62
490.568	116.62
490.786	126.62
491.003	118.62
491.221	137.62
491.439	146.62
491.657	134.62
491.874	140.62
492.092	155.62
492.31	154.62
492.527	151.62
492.745	141.62
492.963	146.62
493.18	152.62
493.398	138.62
493.615	128.62
493.833	118.62
494.05	144.62
494.268	123.62
494.485	123.62
494.703	143.62
494.92	146.62
495.138	143.62
495.355	136.62
495.573	127.62
495.79	137.62
496.008	124.62
496.225	138.62
496.442	127.62
496.66	142.62
496.877	124.62
497.094	122.62
497.312	121.62
497.529	121.62
497.746	108.62
497.963	105.62
498.181	98.62
498.398	106.62
498.615	92.62
498.832	96.62
499.049	97.62
499.267	94.62
499.484	95.62
499.701	95.62
499.918	106.62
500.135	97.62
500.352	97.62
500.569	107.62
500.786	116.62
501.003	109.62
501.22	116.62
501.437	109.62
501.654	99.62
501.871	112.62
502.088	106.62
502.305	113.62
502.522	102.62
502.739	107.62
502.956	102.62
503.172	100.62
503.389	85.62
503.606	89.62
503.823	99.62
504.04	79.62
504.256	106.62
504.473	107.62
504.69	88.62
504.907	96.62
505.123	114.62
505.34	89.62
505.557	103.62
505.773	88.62
505.99	101.62
506.207	103.62
506.423	113.62
506.64	112.62
506.856	109.62
507.073	92.62
507.289	95.62
507.506	98.62
507.722	87.62
507.939	92.62
508.155	92.62
508.372	96.62
508.588	92.62
508.805	107.62
509.021	84.62
509.238	98.62
509.454	80.62
509.67	99.62
509.887	70.62
510.103	83.62
510.319	87.62
510.536	90.62
510.752	93.62
510.968	74.62
511.184	94.62
511.401	89.62
511.617	88.62
511.833	78.62
512.049	82.62
512.265	82.62
512.481	98.62
512.698	95.62
512.914	104.62
513.13	90.62
513.346	92.62
513.562	86.62
513.778	88.62
513.994	85.62
514.21	86.62
514.426	77.62
514.642	90.62
514.858	95.62
515.074	80.62
515.29	94.62
