Data from Foil_2_HRD10591_00009.txt Node
Date: Wed Nov 05 16:17:26 EST 2025
User: Yrep
Spectrometer: HR+D1059
Trigger mode: 1
Integration Time (sec): 1.000000E-1
Scans to average: 1
Electric dark correction enabled: true
Nonlinearity correction enabled: false
Boxcar width: 0
XAxis mode: Wavelengths
Number of Pixels in Spectrum: 2048
>>>>>Begin Spectral Data<<<<<
223.165	-4.19
223.4	-4.19
223.635	-4.19
223.869	-20.19
224.104	-17.19
224.338	-19.19
224.573	-25.19
224.808	-14.19
225.042	-7.19
225.277	-8.19
225.511	1.81
225.746	9.81
225.98	6.81
226.215	12.81
226.449	18.81
226.683	19.81
226.918	25.81
227.152	19.81
227.387	46.81
227.621	23.81
227.856	39.81
228.09	44.81
228.324	57.81
228.559	55.81
228.793	55.81
229.027	64.81
229.262	53.81
229.496	62.81
229.73	54.81
229.964	67.81
230.199	63.81
230.433	64.81
230.667	71.81
230.901	73.81
231.136	92.81
231.37	86.81
231.604	75.81
231.838	77.81
232.072	88.81
232.306	79.81
232.541	77.81
232.775	75.81
233.009	86.81
233.243	87.81
233.477	95.81
233.711	68.81
233.945	69.81
234.179	68.81
234.413	83.81
234.647	71.81
234.881	81.81
235.115	68.81
235.349	77.81
235.583	69.81
235.817	75.81
236.051	80.81
236.285	72.81
236.519	73.81
236.753	70.81
236.987	76.81
237.221	71.81
237.455	71.81
237.689	85.81
237.922	72.81
238.156	86.81
238.39	85.81
238.624	83.81
238.858	74.81
239.091	76.81
239.325	68.81
239.559	83.81
239.793	71.81
240.027	69.81
240.26	77.81
240.494	65.81
240.728	68.81
240.961	74.81
241.195	81.81
241.429	67.81
241.662	63.81
241.896	73.81
242.13	71.81
242.363	73.81
242.597	72.81
242.83	73.81
243.064	68.81
243.298	83.81
243.531	83.81
243.765	92.81
243.998	88.81
244.232	77.81
244.465	65.81
244.699	78.81
244.932	76.81
245.166	86.81
245.399	71.81
245.633	78.81
245.866	67.81
246.099	73.81
246.333	70.81
246.566	75.81
246.8	78.81
247.033	77.81
247.266	80.81
247.5	74.81
247.733	72.81
247.966	64.81
248.2	75.81
248.433	73.81
248.666	89.81
248.899	86.81
249.133	67.81
249.366	80.81
249.599	86.81
249.832	71.81
250.066	72.81
250.299	79.81
250.532	68.81
250.765	61.81
250.998	72.81
251.231	74.81
251.465	73.81
251.698	72.81
251.931	82.81
252.164	70.81
252.397	85.81
252.63	78.81
252.863	87.81
253.096	81.81
253.329	81.81
253.562	87.81
253.795	76.81
254.028	75.81
254.261	77.81
254.494	77.81
254.727	87.81
254.96	92.81
255.193	79.81
255.426	80.81
255.659	78.81
255.892	82.81
256.124	71.81
256.357	76.81
256.59	87.81
256.823	84.81
257.056	70.81
257.289	86.81
257.521	72.81
257.754	91.81
257.987	89.81
258.22	81.81
258.452	87.81
258.685	80.81
258.918	85.81
259.151	88.81
259.383	79.81
259.616	85.81
259.849	87.81
260.081	85.81
260.314	90.81
260.547	81.81
260.779	72.81
261.012	87.81
261.244	70.81
261.477	88.81
261.71	81.81
261.942	69.81
262.175	81.81
262.407	63.81
262.64	93.81
262.872	92.81
263.105	81.81
263.337	79.81
263.57	70.81
263.802	78.81
264.035	68.81
264.267	78.81
264.499	82.81
264.732	80.81
264.964	73.81
265.197	82.81
265.429	81.81
265.661	71.81
265.894	81.81
266.126	97.81
266.358	89.81
266.591	84.81
266.823	85.81
267.055	76.81
267.287	81.81
267.52	81.81
267.752	87.81
267.984	79.81
268.216	65.81
268.448	88.81
268.681	80.81
268.913	88.81
269.145	87.81
269.377	69.81
269.609	78.81
269.841	65.81
270.073	76.81
270.306	81.81
270.538	81.81
270.77	79.81
271.002	92.81
271.234	89.81
271.466	85.81
271.698	77.81
271.93	85.81
272.162	91.81
272.394	75.81
272.626	73.81
272.858	74.81
273.09	79.81
273.322	92.81
273.553	62.81
273.785	90.81
274.017	66.81
274.249	85.81
274.481	63.81
274.713	71.81
274.945	95.81
275.176	77.81
275.408	96.81
275.64	70.81
275.872	83.81
276.104	69.81
276.335	67.81
276.567	88.81
276.799	78.81
277.031	80.81
277.262	82.81
277.494	87.81
277.726	96.81
277.957	87.81
278.189	62.81
278.421	82.81
278.652	80.81
278.884	71.81
279.115	85.81
279.347	78.81
279.579	71.81
279.81	85.81
280.042	89.81
280.273	81.81
280.505	85.81
280.736	74.81
280.968	86.81
281.199	84.81
281.431	76.81
281.662	82.81
281.894	81.81
282.125	81.81
282.356	76.81
282.588	65.81
282.819	64.81
283.051	82.81
283.282	83.81
283.513	79.81
283.745	81.81
283.976	82.81
284.207	71.81
284.439	85.81
284.67	93.81
284.901	90.81
285.132	79.81
285.364	80.81
285.595	80.81
285.826	89.81
286.057	86.81
286.288	86.81
286.52	66.81
286.751	81.81
286.982	71.81
287.213	87.81
287.444	80.81
287.675	88.81
287.906	75.81
288.138	84.81
288.369	81.81
288.6	99.81
288.831	86.81
289.062	92.81
289.293	89.81
289.524	84.81
289.755	85.81
289.986	72.81
290.217	84.81
290.448	76.81
290.679	83.81
290.91	85.81
291.141	62.81
291.371	72.81
291.602	75.81
291.833	82.81
292.064	66.81
292.295	72.81
292.526	87.81
292.757	90.81
292.987	89.81
293.218	74.81
293.449	93.81
293.68	81.81
293.91	89.81
294.141	82.81
294.372	92.81
294.603	81.81
294.833	84.81
295.064	63.81
295.295	88.81
295.525	72.81
295.756	92.81
295.987	78.81
296.217	72.81
296.448	78.81
296.679	88.81
296.909	68.81
297.14	81.81
297.37	82.81
297.601	78.81
297.831	76.81
298.062	86.81
298.292	90.81
298.523	80.81
298.753	79.81
298.984	83.81
299.214	80.81
299.445	83.81
299.675	91.81
299.905	76.81
300.136	76.81
300.366	95.81
300.597	75.81
300.827	94.81
301.057	95.81
301.288	90.81
301.518	82.81
301.748	72.81
301.979	96.81
302.209	85.81
302.439	75.81
302.669	78.81
302.9	86.81
303.13	101.81
303.36	92.81
303.59	76.81
303.82	79.81
304.051	91.81
304.281	78.81
304.511	81.81
304.741	79.81
304.971	73.81
305.201	77.81
305.431	85.81
305.661	80.81
305.891	76.81
306.121	74.81
306.352	87.81
306.582	75.81
306.812	71.81
307.042	70.81
307.272	77.81
307.502	79.81
307.731	74.81
307.961	99.81
308.191	108.81
308.421	96.81
308.651	92.81
308.881	96.81
309.111	94.81
309.341	100.81
309.571	105.81
309.8	74.81
310.03	79.81
310.26	82.81
310.49	95.81
310.72	78.81
310.949	87.81
311.179	86.81
311.409	88.81
311.639	72.81
311.868	76.81
312.098	83.81
312.328	81.81
312.557	73.81
312.787	73.81
313.017	83.81
313.246	94.81
313.476	89.81
313.706	97.81
313.935	79.81
314.165	77.81
314.394	87.81
314.624	89.81
314.853	84.81
315.083	80.81
315.312	88.81
315.542	88.81
315.771	86.81
316.001	88.81
316.23	89.81
316.46	68.81
316.689	87.81
316.919	89.81
317.148	86.81
317.377	91.81
317.607	83.81
317.836	88.81
318.065	73.81
318.295	71.81
318.524	84.81
318.753	100.81
318.983	88.81
319.212	95.81
319.441	67.81
319.67	81.81
319.9	85.81
320.129	83.81
320.358	77.81
320.587	84.81
320.816	84.81
321.046	87.81
321.275	85.81
321.504	88.81
321.733	77.81
321.962	79.81
322.191	82.81
322.42	77.81
322.649	79.81
322.878	79.81
323.108	94.81
323.337	88.81
323.566	87.81
323.795	77.81
324.024	73.81
324.253	97.81
324.482	76.81
324.71	75.81
324.939	79.81
325.168	67.81
325.397	83.81
325.626	68.81
325.855	76.81
326.084	75.81
326.313	73.81
326.542	92.81
326.77	84.81
326.999	90.81
327.228	85.81
327.457	73.81
327.686	88.81
327.914	91.81
328.143	86.81
328.372	81.81
328.6	85.81
328.829	76.81
329.058	89.81
329.287	74.81
329.515	82.81
329.744	64.81
329.972	99.81
330.201	78.81
330.43	75.81
330.658	80.81
330.887	86.81
331.115	79.81
331.344	95.81
331.572	82.81
331.801	86.81
332.03	79.81
332.258	85.81
332.486	79.81
332.715	85.81
332.943	87.81
333.172	86.81
333.4	87.81
333.629	93.81
333.857	77.81
334.085	88.81
334.314	77.81
334.542	75.81
334.771	78.81
334.999	82.81
335.227	94.81
335.455	90.81
335.684	96.81
335.912	82.81
336.14	81.81
336.369	95.81
336.597	80.81
336.825	77.81
337.053	74.81
337.281	76.81
337.51	81.81
337.738	76.81
337.966	83.81
338.194	91.81
338.422	73.81
338.65	73.81
338.878	77.81
339.106	70.81
339.334	84.81
339.562	90.81
339.79	76.81
340.018	66.81
340.246	77.81
340.474	79.81
340.702	73.81
340.93	75.81
341.158	73.81
341.386	68.81
341.614	79.81
341.842	85.81
342.07	81.81
342.298	70.81
342.526	74.81
342.754	82.81
342.981	84.81
343.209	76.81
343.437	88.81
343.665	88.81
343.893	82.81
344.12	90.81
344.348	87.81
344.576	75.81
344.804	89.81
345.031	78.81
345.259	65.81
345.487	76.81
345.714	75.81
345.942	81.81
346.17	71.81
346.397	92.81
346.625	71.81
346.853	82.81
347.08	85.81
347.308	79.81
347.535	99.81
347.763	89.81
347.99	84.81
348.218	74.81
348.445	72.81
348.673	71.81
348.9	93.81
349.128	70.81
349.355	74.81
349.583	67.81
349.81	89.81
350.037	68.81
350.265	79.81
350.492	80.81
350.72	84.81
350.947	74.81
351.174	79.81
351.402	76.81
351.629	81.81
351.856	88.81
352.083	86.81
352.311	94.81
352.538	68.81
352.765	92.81
352.992	82.81
353.22	78.81
353.447	75.81
353.674	76.81
353.901	95.81
354.128	96.81
354.355	73.81
354.583	62.81
354.81	64.81
355.037	82.81
355.264	80.81
355.491	101.81
355.718	81.81
355.945	84.81
356.172	72.81
356.399	85.81
356.626	87.81
356.853	79.81
357.08	87.81
357.307	92.81
357.534	84.81
357.761	89.81
357.988	83.81
358.215	82.81
358.441	90.81
358.668	81.81
358.895	83.81
359.122	99.81
359.349	91.81
359.576	75.81
359.802	95.81
360.029	88.81
360.256	84.81
360.483	82.81
360.709	86.81
360.936	95.81
361.163	77.81
361.39	84.81
361.616	83.81
361.843	81.81
362.07	94.81
362.296	85.81
362.523	85.81
362.749	79.81
362.976	73.81
363.203	81.81
363.429	92.81
363.656	83.81
363.882	88.81
364.109	75.81
364.335	77.81
364.562	74.81
364.788	79.81
365.015	82.81
365.241	77.81
365.468	91.81
365.694	86.81
365.92	78.81
366.147	79.81
366.373	85.81
366.599	73.81
366.826	82.81
367.052	82.81
367.278	94.81
367.505	88.81
367.731	84.81
367.957	73.81
368.184	79.81
368.41	77.81
368.636	76.81
368.862	75.81
369.089	88.81
369.315	93.81
369.541	90.81
369.767	89.81
369.993	85.81
370.219	84.81
370.445	71.81
370.672	77.81
370.898	67.81
371.124	84.81
371.35	71.81
371.576	78.81
371.802	79.81
372.028	92.81
372.254	67.81
372.48	79.81
372.706	72.81
372.932	76.81
373.158	73.81
373.384	93.81
373.61	76.81
373.835	97.81
374.061	85.81
374.287	82.81
374.513	79.81
374.739	80.81
374.965	80.81
375.191	69.81
375.416	83.81
375.642	76.81
375.868	93.81
376.094	99.81
376.319	68.81
376.545	89.81
376.771	78.81
376.997	92.81
377.222	90.81
377.448	82.81
377.674	87.81
377.899	80.81
378.125	80.81
378.35	84.81
378.576	85.81
378.802	86.81
379.027	78.81
379.253	86.81
379.478	83.81
379.704	92.81
379.929	94.81
380.155	82.81
380.38	76.81
380.606	81.81
380.831	88.81
381.057	90.81
381.282	96.81
381.507	73.81
381.733	82.81
381.958	90.81
382.184	84.81
382.409	92.81
382.634	87.81
382.86	79.81
383.085	93.81
383.31	92.81
383.535	103.81
383.761	85.81
383.986	92.81
384.211	87.81
384.436	89.81
384.662	83.81
384.887	100.81
385.112	99.81
385.337	86.81
385.562	87.81
385.787	73.81
386.013	92.81
386.238	90.81
386.463	81.81
386.688	108.81
386.913	97.81
387.138	101.81
387.363	76.81
387.588	91.81
387.813	104.81
388.038	83.81
388.263	79.81
388.488	82.81
388.713	81.81
388.938	81.81
389.163	80.81
389.387	82.81
389.612	77.81
389.837	78.81
390.062	89.81
390.287	96.81
390.512	84.81
390.736	83.81
390.961	84.81
391.186	85.81
391.411	88.81
391.636	94.81
391.86	91.81
392.085	89.81
392.31	81.81
392.534	78.81
392.759	93.81
392.984	88.81
393.208	101.81
393.433	100.81
393.658	95.81
393.882	90.81
394.107	131.81
394.331	182.81
394.556	179.81
394.78	111.81
395.005	96.81
395.229	100.81
395.454	108.81
395.678	94.81
395.903	151.81
396.127	203.81
396.352	208.81
396.576	119.81
396.801	105.81
397.025	96.81
397.249	116.81
397.474	109.81
397.698	105.81
397.922	106.81
398.147	95.81
398.371	88.81
398.595	95.81
398.82	94.81
399.044	89.81
399.268	93.81
399.492	88.81
399.717	83.81
399.941	95.81
400.165	92.81
400.389	86.81
400.613	80.81
400.837	87.81
401.062	105.81
401.286	94.81
401.51	79.81
401.734	110.81
401.958	88.81
402.182	95.81
402.406	93.81
402.63	107.81
402.854	92.81
403.078	81.81
403.302	84.81
403.526	85.81
403.75	94.81
403.974	95.81
404.198	91.81
404.422	103.81
404.645	102.81
404.869	92.81
405.093	99.81
405.317	93.81
405.541	87.81
405.765	96.81
405.988	87.81
406.212	80.81
406.436	98.81
406.66	93.81
406.883	90.81
407.107	102.81
407.331	115.81
407.555	105.81
407.778	88.81
408.002	105.81
408.226	109.81
408.449	97.81
408.673	102.81
408.896	97.81
409.12	110.81
409.344	107.81
409.567	87.81
409.791	96.81
410.014	103.81
410.238	104.81
410.461	101.81
410.685	97.81
410.908	111.81
411.132	81.81
411.355	95.81
411.578	98.81
411.802	97.81
412.025	95.81
412.249	112.81
412.472	104.81
412.695	105.81
412.919	117.81
413.142	115.81
413.365	97.81
413.589	102.81
413.812	94.81
414.035	103.81
414.258	105.81
414.482	103.81
414.705	91.81
414.928	101.81
415.151	84.81
415.374	96.81
415.597	94.81
415.821	91.81
416.044	91.81
416.267	102.81
416.49	100.81
416.713	99.81
416.936	104.81
417.159	105.81
417.382	117.81
417.605	108.81
417.828	97.81
418.051	106.81
418.274	93.81
418.497	105.81
418.72	133.81
418.943	110.81
419.166	96.81
419.389	101.81
419.611	104.81
419.834	109.81
420.057	109.81
420.28	115.81
420.503	100.81
420.726	97.81
420.948	104.81
421.171	101.81
421.394	125.81
421.617	106.81
421.839	101.81
422.062	94.81
422.285	103.81
422.507	109.81
422.73	101.81
422.953	86.81
423.175	96.81
423.398	96.81
423.621	97.81
423.843	96.81
424.066	90.81
424.288	94.81
424.511	102.81
424.733	117.81
424.956	97.81
425.178	103.81
425.401	104.81
425.623	104.81
425.846	95.81
426.068	101.81
426.291	104.81
426.513	122.81
426.735	121.81
426.958	108.81
427.18	85.81
427.402	99.81
427.625	102.81
427.847	121.81
428.069	107.81
428.292	97.81
428.514	104.81
428.736	96.81
428.958	101.81
429.181	103.81
429.403	90.81
429.625	96.81
429.847	93.81
430.069	105.81
430.292	97.81
430.514	101.81
430.736	106.81
430.958	85.81
431.18	102.81
431.402	109.81
431.624	83.81
431.846	86.81
432.068	81.81
432.29	94.81
432.512	88.81
432.734	102.81
432.956	118.81
433.178	106.81
433.4	105.81
433.622	81.81
433.844	88.81
434.066	89.81
434.287	84.81
434.509	91.81
434.731	91.81
434.953	109.81
435.175	90.81
435.397	90.81
435.618	108.81
435.84	83.81
436.062	94.81
436.284	91.81
436.505	106.81
436.727	100.81
436.949	100.81
437.17	101.81
437.392	92.81
437.614	96.81
437.835	86.81
438.057	77.81
438.278	102.81
438.5	89.81
438.721	109.81
438.943	112.81
439.165	101.81
439.386	101.81
439.608	100.81
439.829	120.81
440.05	109.81
440.272	97.81
440.493	111.81
440.715	113.81
440.936	107.81
441.158	118.81
441.379	115.81
441.6	90.81
441.822	119.81
442.043	106.81
442.264	127.81
442.486	113.81
442.707	91.81
442.928	107.81
443.149	94.81
443.371	112.81
443.592	102.81
443.813	107.81
444.034	111.81
444.255	102.81
444.476	116.81
444.698	116.81
444.919	95.81
445.14	174.81
445.361	145.81
445.582	112.81
445.803	95.81
446.024	110.81
446.245	115.81
446.466	121.81
446.687	112.81
446.908	98.81
447.129	115.81
447.35	107.81
447.571	105.81
447.792	103.81
448.013	102.81
448.234	108.81
448.455	107.81
448.675	111.81
448.896	91.81
449.117	99.81
449.338	99.81
449.559	94.81
449.779	112.81
450	92.81
450.221	113.81
450.442	127.81
450.662	124.81
450.883	103.81
451.104	116.81
451.324	99.81
451.545	85.81
451.766	96.81
451.986	88.81
452.207	97.81
452.428	105.81
452.648	105.81
452.869	82.81
453.089	91.81
453.31	96.81
453.53	87.81
453.751	89.81
453.971	89.81
454.192	80.81
454.412	91.81
454.633	106.81
454.853	89.81
455.073	108.81
455.294	96.81
455.514	102.81
455.734	101.81
455.955	88.81
456.175	80.81
456.395	91.81
456.616	98.81
456.836	94.81
457.056	103.81
457.276	84.81
457.497	94.81
457.717	80.81
457.937	82.81
458.157	82.81
458.377	88.81
458.598	86.81
458.818	69.81
459.038	91.81
459.258	89.81
459.478	68.81
459.698	87.81
459.918	69.81
460.138	72.81
460.358	88.81
460.578	86.81
460.798	89.81
461.018	104.81
461.238	95.81
461.458	76.81
461.678	88.81
461.898	101.81
462.118	90.81
462.338	80.81
462.558	95.81
462.777	105.81
462.997	94.81
463.217	85.81
463.437	88.81
463.657	88.81
463.876	92.81
464.096	95.81
464.316	94.81
464.536	97.81
464.755	81.81
464.975	105.81
465.195	90.81
465.414	112.81
465.634	92.81
465.854	94.81
466.073	105.81
466.293	106.81
466.512	100.81
466.732	99.81
466.951	113.81
467.171	128.81
467.391	132.81
467.61	96.81
467.829	123.81
468.049	104.81
468.268	101.81
468.488	109.81
468.707	104.81
468.927	106.81
469.146	102.81
469.365	109.81
469.585	104.81
469.804	122.81
470.023	115.81
470.243	122.81
470.462	109.81
470.681	105.81
470.901	108.81
471.12	103.81
471.339	109.81
471.558	123.81
471.777	81.81
471.997	113.81
472.216	73.81
472.435	87.81
472.654	89.81
472.873	82.81
473.092	79.81
473.311	93.81
473.53	107.81
473.749	120.81
473.968	117.81
474.187	105.81
474.406	102.81
474.625	100.81
474.844	108.81
475.063	106.81
475.282	108.81
475.501	93.81
475.72	72.81
475.939	92.81
476.158	112.81
476.377	112.81
476.596	100.81
476.814	101.81
477.033	90.81
477.252	110.81
477.471	97.81
477.69	93.81
477.908	109.81
478.127	108.81
478.346	122.81
478.564	91.81
478.783	110.81
479.002	111.81
479.22	94.81
479.439	108.81
479.658	94.81
479.876	91.81
480.095	82.81
480.313	90.81
480.532	96.81
480.751	96.81
480.969	90.81
481.188	79.81
481.406	85.81
481.624	95.81
481.843	64.81
482.061	97.81
482.28	102.81
482.498	82.81
482.717	93.81
482.935	103.81
483.153	111.81
483.372	115.81
483.59	112.81
483.808	98.81
484.027	93.81
484.245	89.81
484.463	86.81
484.681	96.81
484.9	103.81
485.118	105.81
485.336	101.81
485.554	87.81
485.772	77.81
485.99	95.81
486.209	89.81
486.427	101.81
486.645	77.81
486.863	106.81
487.081	104.81
487.299	99.81
487.517	107.81
487.735	122.81
487.953	110.81
488.171	124.81
488.389	101.81
488.607	100.81
488.825	92.81
489.043	104.81
489.261	101.81
489.479	98.81
489.696	105.81
489.914	99.81
490.132	112.81
490.35	125.81
490.568	126.81
490.786	122.81
491.003	130.81
491.221	125.81
491.439	131.81
491.657	149.81
491.874	143.81
492.092	135.81
492.31	156.81
492.527	143.81
492.745	167.81
492.963	143.81
493.18	139.81
493.398	143.81
493.615	153.81
493.833	129.81
494.05	142.81
494.268	126.81
494.485	125.81
494.703	136.81
494.92	136.81
495.138	130.81
495.355	123.81
495.573	148.81
495.79	128.81
496.008	129.81
496.225	113.81
496.442	122.81
496.66	117.81
496.877	119.81
497.094	132.81
497.312	121.81
497.529	121.81
497.746	99.81
497.963	90.81
498.181	84.81
498.398	100.81
498.615	95.81
498.832	93.81
499.049	100.81
499.267	90.81
499.484	106.81
499.701	95.81
499.918	118.81
500.135	108.81
500.352	103.81
500.569	104.81
500.786	112.81
501.003	102.81
501.22	104.81
501.437	99.81
501.654	88.81
501.871	90.81
502.088	94.81
502.305	108.81
502.522	96.81
502.739	96.81
502.956	111.81
503.172	96.81
503.389	90.81
503.606	111.81
503.823	103.81
504.04	86.81
504.256	92.81
504.473	102.81
504.69	86.81
504.907	96.81
505.123	74.81
505.34	104.81
505.557	85.81
505.773	103.81
505.99	88.81
506.207	95.81
506.423	104.81
506.64	107.81
506.856	83.81
507.073	99.81
507.289	89.81
507.506	100.81
507.722	94.81
507.939	98.81
508.155	92.81
508.372	102.81
508.588	97.81
508.805	90.81
509.021	104.81
509.238	93.81
509.454	86.81
509.67	86.81
509.887	85.81
510.103	69.81
510.319	90.81
510.536	103.81
510.752	89.81
510.968	102.81
511.184	98.81
511.401	88.81
511.617	94.81
511.833	78.81
512.049	87.81
512.265	76.81
512.481	81.81
512.698	88.81
512.914	88.81
513.13	88.81
513.346	98.81
513.562	88.81
513.778	75.81
513.994	79.81
514.21	78.81
514.426	81.81
514.642	94.81
514.858	92.81
515.074	98.81
515.29	82.81
515.506	74.81
515.721	96.81
515.937	93.81
516.153	75.81
