Data from Foil_2_HRD10591_00014.txt Node
Date: Wed Nov 05 16:17:28 EST 2025
User: Yrep
Spectrometer: HR+D1059
Trigger mode: 1
Integration Time (sec): 1.000000E-1
Scans to average: 1
Electric dark correction enabled: true
Nonlinearity correction enabled: false
Boxcar width: 0
XAxis mode: Wavelengths
Number of Pixels in Spectrum: 2048
>>>>>Begin Spectral Data<<<<<
223.165	-16.56
223.4	-16.56
223.635	-16.56
223.869	-16.56
224.104	-23.56
224.338	-11.56
224.573	-21.56
224.808	-11.56
225.042	-3.56
225.277	-4.56
225.511	5.44
225.746	-0.56
225.98	4.44
226.215	8.44
226.449	6.44
226.683	18.44
226.918	25.44
227.152	41.44
227.387	31.44
227.621	33.44
227.856	51.44
228.09	37.44
228.324	58.44
228.559	68.44
228.793	47.44
229.027	60.44
229.262	52.44
229.496	51.44
229.73	63.44
229.964	77.44
230.199	82.44
230.433	54.44
230.667	66.44
230.901	78.44
231.136	75.44
231.37	83.44
231.604	73.44
231.838	75.44
232.072	77.44
232.306	73.44
232.541	80.44
232.775	69.44
233.009	83.44
233.243	76.44
233.477	72.44
233.711	75.44
233.945	78.44
234.179	73.44
234.413	79.44
234.647	82.44
234.881	65.44
235.115	69.44
235.349	82.44
235.583	79.44
235.817	76.44
236.051	82.44
236.285	79.44
236.519	76.44
236.753	72.44
236.987	88.44
237.221	69.44
237.455	81.44
237.689	75.44
237.922	71.44
238.156	73.44
238.39	75.44
238.624	70.44
238.858	69.44
239.091	75.44
239.325	74.44
239.559	76.44
239.793	75.44
240.027	81.44
240.26	68.44
240.494	68.44
240.728	73.44
240.961	86.44
241.195	87.44
241.429	81.44
241.662	69.44
241.896	72.44
242.13	65.44
242.363	79.44
242.597	67.44
242.83	76.44
243.064	85.44
243.298	72.44
243.531	86.44
243.765	83.44
243.998	65.44
244.232	73.44
244.465	89.44
244.699	83.44
244.932	78.44
245.166	88.44
245.399	72.44
245.633	76.44
245.866	82.44
246.099	88.44
246.333	82.44
246.566	83.44
246.8	69.44
247.033	74.44
247.266	79.44
247.5	66.44
247.733	78.44
247.966	69.44
248.2	75.44
248.433	74.44
248.666	83.44
248.899	89.44
249.133	74.44
249.366	78.44
249.599	77.44
249.832	80.44
250.066	73.44
250.299	89.44
250.532	86.44
250.765	78.44
250.998	70.44
251.231	94.44
251.465	86.44
251.698	78.44
251.931	75.44
252.164	82.44
252.397	62.44
252.63	72.44
252.863	73.44
253.096	69.44
253.329	66.44
253.562	81.44
253.795	79.44
254.028	88.44
254.261	72.44
254.494	71.44
254.727	87.44
254.96	71.44
255.193	93.44
255.426	97.44
255.659	66.44
255.892	89.44
256.124	73.44
256.357	88.44
256.59	83.44
256.823	89.44
257.056	90.44
257.289	79.44
257.521	81.44
257.754	85.44
257.987	87.44
258.22	74.44
258.452	76.44
258.685	82.44
258.918	90.44
259.151	88.44
259.383	70.44
259.616	80.44
259.849	83.44
260.081	80.44
260.314	86.44
260.547	73.44
260.779	91.44
261.012	81.44
261.244	79.44
261.477	88.44
261.71	77.44
261.942	88.44
262.175	74.44
262.407	91.44
262.64	78.44
262.872	78.44
263.105	83.44
263.337	101.44
263.57	83.44
263.802	81.44
264.035	85.44
264.267	86.44
264.499	78.44
264.732	80.44
264.964	85.44
265.197	78.44
265.429	99.44
265.661	84.44
265.894	78.44
266.126	82.44
266.358	97.44
266.591	93.44
266.823	78.44
267.055	76.44
267.287	81.44
267.52	65.44
267.752	90.44
267.984	79.44
268.216	92.44
268.448	92.44
268.681	85.44
268.913	76.44
269.145	66.44
269.377	75.44
269.609	70.44
269.841	70.44
270.073	94.44
270.306	86.44
270.538	73.44
270.77	82.44
271.002	76.44
271.234	70.44
271.466	85.44
271.698	76.44
271.93	86.44
272.162	67.44
272.394	94.44
272.626	73.44
272.858	72.44
273.09	84.44
273.322	86.44
273.553	76.44
273.785	62.44
274.017	73.44
274.249	76.44
274.481	87.44
274.713	77.44
274.945	80.44
275.176	89.44
275.408	92.44
275.64	81.44
275.872	77.44
276.104	82.44
276.335	88.44
276.567	87.44
276.799	83.44
277.031	91.44
277.262	85.44
277.494	82.44
277.726	84.44
277.957	74.44
278.189	86.44
278.421	83.44
278.652	89.44
278.884	83.44
279.115	87.44
279.347	83.44
279.579	95.44
279.81	81.44
280.042	58.44
280.273	74.44
280.505	68.44
280.736	81.44
280.968	96.44
281.199	77.44
281.431	93.44
281.662	84.44
281.894	97.44
282.125	88.44
282.356	71.44
282.588	90.44
282.819	87.44
283.051	95.44
283.282	80.44
283.513	95.44
283.745	75.44
283.976	94.44
284.207	86.44
284.439	76.44
284.67	102.44
284.901	94.44
285.132	86.44
285.364	70.44
285.595	85.44
285.826	72.44
286.057	94.44
286.288	79.44
286.52	73.44
286.751	81.44
286.982	79.44
287.213	95.44
287.444	87.44
287.675	83.44
287.906	87.44
288.138	76.44
288.369	77.44
288.6	86.44
288.831	75.44
289.062	91.44
289.293	89.44
289.524	82.44
289.755	81.44
289.986	81.44
290.217	83.44
290.448	82.44
290.679	88.44
290.91	79.44
291.141	78.44
291.371	91.44
291.602	94.44
291.833	93.44
292.064	83.44
292.295	86.44
292.526	80.44
292.757	89.44
292.987	85.44
293.218	81.44
293.449	78.44
293.68	73.44
293.91	80.44
294.141	83.44
294.372	72.44
294.603	78.44
294.833	77.44
295.064	86.44
295.295	73.44
295.525	72.44
295.756	84.44
295.987	87.44
296.217	77.44
296.448	86.44
296.679	78.44
296.909	90.44
297.14	88.44
297.37	88.44
297.601	84.44
297.831	90.44
298.062	75.44
298.292	86.44
298.523	86.44
298.753	79.44
298.984	83.44
299.214	85.44
299.445	73.44
299.675	82.44
299.905	82.44
300.136	81.44
300.366	91.44
300.597	83.44
300.827	90.44
301.057	81.44
301.288	86.44
301.518	86.44
301.748	79.44
301.979	81.44
302.209	79.44
302.439	110.44
302.669	93.44
302.9	76.44
303.13	79.44
303.36	96.44
303.59	91.44
303.82	92.44
304.051	92.44
304.281	90.44
304.511	84.44
304.741	80.44
304.971	75.44
305.201	76.44
305.431	82.44
305.661	90.44
305.891	80.44
306.121	97.44
306.352	76.44
306.582	88.44
306.812	82.44
307.042	86.44
307.272	89.44
307.502	100.44
307.731	77.44
307.961	95.44
308.191	109.44
308.421	113.44
308.651	90.44
308.881	90.44
309.111	98.44
309.341	118.44
309.571	121.44
309.8	100.44
310.03	80.44
310.26	76.44
310.49	77.44
310.72	93.44
310.949	65.44
311.179	89.44
311.409	86.44
311.639	74.44
311.868	82.44
312.098	86.44
312.328	84.44
312.557	83.44
312.787	69.44
313.017	77.44
313.246	81.44
313.476	83.44
313.706	73.44
313.935	75.44
314.165	89.44
314.394	97.44
314.624	81.44
314.853	104.44
315.083	78.44
315.312	77.44
315.542	81.44
315.771	77.44
316.001	92.44
316.23	88.44
316.46	94.44
316.689	89.44
316.919	87.44
317.148	96.44
317.377	90.44
317.607	75.44
317.836	80.44
318.065	96.44
318.295	96.44
318.524	72.44
318.753	88.44
318.983	94.44
319.212	88.44
319.441	85.44
319.67	79.44
319.9	76.44
320.129	73.44
320.358	92.44
320.587	89.44
320.816	81.44
321.046	89.44
321.275	94.44
321.504	99.44
321.733	73.44
321.962	93.44
322.191	86.44
322.42	79.44
322.649	80.44
322.878	93.44
323.108	86.44
323.337	74.44
323.566	72.44
323.795	72.44
324.024	78.44
324.253	78.44
324.482	76.44
324.71	88.44
324.939	84.44
325.168	86.44
325.397	74.44
325.626	84.44
325.855	103.44
326.084	80.44
326.313	101.44
326.542	88.44
326.77	89.44
326.999	73.44
327.228	92.44
327.457	82.44
327.686	85.44
327.914	91.44
328.143	88.44
328.372	70.44
328.6	89.44
328.829	82.44
329.058	91.44
329.287	84.44
329.515	85.44
329.744	77.44
329.972	89.44
330.201	78.44
330.43	80.44
330.658	80.44
330.887	83.44
331.115	89.44
331.344	90.44
331.572	82.44
331.801	75.44
332.03	82.44
332.258	80.44
332.486	93.44
332.715	88.44
332.943	88.44
333.172	80.44
333.4	82.44
333.629	71.44
333.857	83.44
334.085	97.44
334.314	72.44
334.542	102.44
334.771	69.44
334.999	77.44
335.227	80.44
335.455	82.44
335.684	94.44
335.912	91.44
336.14	74.44
336.369	100.44
336.597	78.44
336.825	101.44
337.053	94.44
337.281	81.44
337.51	77.44
337.738	80.44
337.966	92.44
338.194	104.44
338.422	83.44
338.65	89.44
338.878	83.44
339.106	71.44
339.334	96.44
339.562	78.44
339.79	93.44
340.018	80.44
340.246	74.44
340.474	86.44
340.702	84.44
340.93	78.44
341.158	88.44
341.386	64.44
341.614	77.44
341.842	67.44
342.07	93.44
342.298	90.44
342.526	88.44
342.754	88.44
342.981	81.44
343.209	86.44
343.437	85.44
343.665	62.44
343.893	75.44
344.12	92.44
344.348	78.44
344.576	97.44
344.804	78.44
345.031	81.44
345.259	93.44
345.487	80.44
345.714	86.44
345.942	73.44
346.17	74.44
346.397	92.44
346.625	81.44
346.853	82.44
347.08	79.44
347.308	77.44
347.535	68.44
347.763	82.44
347.99	74.44
348.218	78.44
348.445	92.44
348.673	77.44
348.9	93.44
349.128	89.44
349.355	77.44
349.583	78.44
349.81	77.44
350.037	83.44
350.265	76.44
350.492	91.44
350.72	92.44
350.947	89.44
351.174	88.44
351.402	77.44
351.629	86.44
351.856	89.44
352.083	66.44
352.311	76.44
352.538	75.44
352.765	89.44
352.992	86.44
353.22	91.44
353.447	87.44
353.674	96.44
353.901	83.44
354.128	85.44
354.355	79.44
354.583	92.44
354.81	88.44
355.037	74.44
355.264	91.44
355.491	81.44
355.718	88.44
355.945	83.44
356.172	97.44
356.399	86.44
356.626	68.44
356.853	67.44
357.08	77.44
357.307	77.44
357.534	80.44
357.761	87.44
357.988	88.44
358.215	89.44
358.441	87.44
358.668	95.44
358.895	99.44
359.122	86.44
359.349	77.44
359.576	70.44
359.802	82.44
360.029	89.44
360.256	82.44
360.483	58.44
360.709	86.44
360.936	91.44
361.163	73.44
361.39	72.44
361.616	87.44
361.843	81.44
362.07	83.44
362.296	78.44
362.523	88.44
362.749	78.44
362.976	77.44
363.203	86.44
363.429	83.44
363.656	79.44
363.882	89.44
364.109	88.44
364.335	77.44
364.562	84.44
364.788	92.44
365.015	92.44
365.241	83.44
365.468	87.44
365.694	75.44
365.92	81.44
366.147	90.44
366.373	84.44
366.599	76.44
366.826	95.44
367.052	92.44
367.278	89.44
367.505	81.44
367.731	109.44
367.957	78.44
368.184	77.44
368.41	101.44
368.636	70.44
368.862	91.44
369.089	86.44
369.315	94.44
369.541	78.44
369.767	87.44
369.993	83.44
370.219	84.44
370.445	91.44
370.672	74.44
370.898	87.44
371.124	72.44
371.35	73.44
371.576	90.44
371.802	101.44
372.028	92.44
372.254	88.44
372.48	79.44
372.706	87.44
372.932	99.44
373.158	91.44
373.384	84.44
373.61	88.44
373.835	90.44
374.061	77.44
374.287	90.44
374.513	80.44
374.739	74.44
374.965	91.44
375.191	100.44
375.416	90.44
375.642	72.44
375.868	87.44
376.094	95.44
376.319	89.44
376.545	85.44
376.771	82.44
376.997	89.44
377.222	83.44
377.448	90.44
377.674	102.44
377.899	64.44
378.125	78.44
378.35	79.44
378.576	87.44
378.802	88.44
379.027	77.44
379.253	94.44
379.478	93.44
379.704	77.44
379.929	99.44
380.155	97.44
380.38	91.44
380.606	98.44
380.831	102.44
381.057	83.44
381.282	76.44
381.507	97.44
381.733	102.44
381.958	98.44
382.184	82.44
382.409	89.44
382.634	94.44
382.86	88.44
383.085	75.44
383.31	82.44
383.535	91.44
383.761	94.44
383.986	97.44
384.211	71.44
384.436	89.44
384.662	81.44
384.887	80.44
385.112	104.44
385.337	88.44
385.562	85.44
385.787	92.44
386.013	91.44
386.238	104.44
386.463	100.44
386.688	97.44
386.913	81.44
387.138	95.44
387.363	97.44
387.588	107.44
387.813	81.44
388.038	78.44
388.263	99.44
388.488	84.44
388.713	81.44
388.938	86.44
389.163	90.44
389.387	88.44
389.612	87.44
389.837	85.44
390.062	96.44
390.287	102.44
390.512	94.44
390.736	89.44
390.961	100.44
391.186	85.44
391.411	82.44
391.636	93.44
391.86	104.44
392.085	88.44
392.31	94.44
392.534	86.44
392.759	95.44
392.984	89.44
393.208	99.44
393.433	88.44
393.658	100.44
393.882	105.44
394.107	108.44
394.331	170.44
394.556	166.44
394.78	116.44
395.005	111.44
395.229	86.44
395.454	94.44
395.678	113.44
395.903	167.44
396.127	189.44
396.352	190.44
396.576	108.44
396.801	96.44
397.025	91.44
397.249	92.44
397.474	111.44
397.698	93.44
397.922	99.44
398.147	97.44
398.371	98.44
398.595	110.44
398.82	99.44
399.044	84.44
399.268	97.44
399.492	98.44
399.717	100.44
399.941	97.44
400.165	97.44
400.389	87.44
400.613	101.44
400.837	107.44
401.062	91.44
401.286	108.44
401.51	97.44
401.734	100.44
401.958	87.44
402.182	68.44
402.406	98.44
402.63	83.44
402.854	103.44
403.078	95.44
403.302	95.44
403.526	101.44
403.75	106.44
403.974	98.44
404.198	103.44
404.422	99.44
404.645	93.44
404.869	80.44
405.093	99.44
405.317	83.44
405.541	101.44
405.765	85.44
405.988	96.44
406.212	102.44
406.436	93.44
406.66	107.44
406.883	99.44
407.107	105.44
407.331	106.44
407.555	105.44
407.778	91.44
408.002	96.44
408.226	103.44
408.449	93.44
408.673	97.44
408.896	92.44
409.12	93.44
409.344	97.44
409.567	110.44
409.791	107.44
410.014	104.44
410.238	93.44
410.461	86.44
410.685	105.44
410.908	94.44
411.132	98.44
411.355	112.44
411.578	112.44
411.802	100.44
412.025	111.44
412.249	102.44
412.472	97.44
412.695	92.44
412.919	98.44
413.142	108.44
413.365	101.44
413.589	104.44
413.812	100.44
414.035	113.44
414.258	115.44
414.482	116.44
414.705	96.44
414.928	102.44
415.151	97.44
415.374	109.44
415.597	95.44
415.821	104.44
416.044	90.44
416.267	101.44
416.49	111.44
416.713	97.44
416.936	123.44
417.159	113.44
417.382	112.44
417.605	95.44
417.828	115.44
418.051	110.44
418.274	100.44
418.497	96.44
418.72	103.44
418.943	108.44
419.166	108.44
419.389	104.44
419.611	101.44
419.834	119.44
420.057	108.44
420.28	117.44
420.503	111.44
420.726	102.44
420.948	106.44
421.171	98.44
421.394	100.44
421.617	111.44
421.839	108.44
422.062	96.44
422.285	104.44
422.507	109.44
422.73	111.44
422.953	105.44
423.175	110.44
423.398	96.44
423.621	107.44
423.843	97.44
424.066	101.44
424.288	82.44
424.511	110.44
424.733	87.44
424.956	100.44
425.178	104.44
425.401	111.44
425.623	107.44
425.846	104.44
426.068	98.44
426.291	100.44
426.513	99.44
426.735	98.44
426.958	110.44
427.18	88.44
427.402	105.44
427.625	101.44
427.847	108.44
428.069	96.44
428.292	106.44
428.514	104.44
428.736	103.44
428.958	100.44
429.181	107.44
429.403	96.44
429.625	95.44
429.847	110.44
430.069	116.44
430.292	109.44
430.514	107.44
430.736	108.44
430.958	96.44
431.18	93.44
431.402	85.44
431.624	107.44
431.846	90.44
432.068	85.44
432.29	85.44
432.512	94.44
432.734	105.44
432.956	104.44
433.178	96.44
433.4	98.44
433.622	119.44
433.844	104.44
434.066	86.44
434.287	97.44
434.509	94.44
434.731	110.44
434.953	95.44
435.175	95.44
435.397	106.44
435.618	98.44
435.84	89.44
436.062	102.44
436.284	104.44
436.505	117.44
436.727	82.44
436.949	90.44
437.17	103.44
437.392	94.44
437.614	98.44
437.835	105.44
438.057	87.44
438.278	100.44
438.5	94.44
438.721	113.44
438.943	109.44
439.165	110.44
439.386	90.44
439.608	113.44
439.829	113.44
440.05	109.44
440.272	109.44
440.493	110.44
440.715	98.44
440.936	109.44
441.158	116.44
441.379	111.44
441.6	128.44
441.822	109.44
442.043	111.44
442.264	99.44
442.486	116.44
442.707	100.44
442.928	105.44
443.149	123.44
443.371	107.44
443.592	121.44
443.813	124.44
444.034	114.44
444.255	113.44
444.476	100.44
444.698	120.44
444.919	112.44
445.14	201.44
445.361	150.44
445.582	122.44
445.803	105.44
446.024	98.44
446.245	102.44
446.466	100.44
446.687	117.44
446.908	120.44
447.129	109.44
447.35	108.44
447.571	112.44
447.792	105.44
448.013	84.44
448.234	108.44
448.455	109.44
448.675	104.44
448.896	103.44
449.117	104.44
449.338	114.44
449.559	101.44
449.779	118.44
450	114.44
450.221	113.44
450.442	120.44
450.662	117.44
450.883	111.44
451.104	116.44
451.324	104.44
451.545	105.44
451.766	107.44
451.986	86.44
452.207	98.44
452.428	94.44
452.648	115.44
452.869	83.44
453.089	89.44
453.31	87.44
453.53	89.44
453.751	88.44
453.971	86.44
454.192	93.44
454.412	87.44
454.633	98.44
454.853	120.44
455.073	99.44
455.294	76.44
455.514	92.44
455.734	98.44
455.955	102.44
456.175	98.44
456.395	89.44
456.616	89.44
456.836	85.44
457.056	92.44
457.276	81.44
457.497	80.44
457.717	93.44
457.937	92.44
458.157	89.44
458.377	95.44
458.598	88.44
458.818	88.44
459.038	80.44
459.258	65.44
459.478	86.44
459.698	76.44
459.918	74.44
460.138	90.44
460.358	90.44
460.578	90.44
460.798	87.44
461.018	86.44
461.238	89.44
461.458	115.44
461.678	99.44
461.898	84.44
462.118	96.44
462.338	93.44
462.558	102.44
462.777	95.44
462.997	90.44
463.217	92.44
463.437	95.44
463.657	94.44
463.876	103.44
464.096	88.44
464.316	96.44
464.536	93.44
464.755	114.44
464.975	98.44
465.195	94.44
465.414	78.44
465.634	100.44
465.854	103.44
466.073	105.44
466.293	109.44
466.512	100.44
466.732	103.44
466.951	108.44
467.171	130.44
467.391	133.44
467.61	115.44
467.829	138.44
468.049	108.44
468.268	119.44
468.488	110.44
468.707	114.44
468.927	114.44
469.146	136.44
469.365	106.44
469.585	106.44
469.804	110.44
470.023	121.44
470.243	118.44
470.462	114.44
470.681	122.44
470.901	121.44
471.12	108.44
471.339	112.44
471.558	113.44
471.777	111.44
471.997	100.44
472.216	109.44
472.435	105.44
472.654	92.44
472.873	88.44
473.092	89.44
473.311	112.44
473.53	120.44
473.749	101.44
473.968	92.44
474.187	101.44
474.406	105.44
474.625	109.44
474.844	100.44
475.063	100.44
475.282	89.44
475.501	85.44
475.72	94.44
475.939	100.44
476.158	97.44
476.377	102.44
476.596	100.44
476.814	90.44
477.033	96.44
477.252	90.44
477.471	90.44
477.69	109.44
477.908	95.44
478.127	108.44
478.346	101.44
478.564	100.44
478.783	115.44
479.002	105.44
479.22	107.44
479.439	102.44
479.658	92.44
479.876	97.44
480.095	95.44
480.313	102.44
480.532	105.44
480.751	89.44
480.969	72.44
481.188	86.44
481.406	77.44
481.624	74.44
481.843	79.44
482.061	85.44
482.28	104.44
482.498	91.44
482.717	92.44
482.935	104.44
483.153	114.44
483.372	108.44
483.59	98.44
483.808	104.44
484.027	92.44
484.245	92.44
484.463	94.44
484.681	106.44
484.9	81.44
485.118	110.44
485.336	88.44
485.554	107.44
485.772	88.44
485.99	90.44
486.209	96.44
486.427	92.44
486.645	100.44
486.863	99.44
487.081	106.44
487.299	100.44
487.517	104.44
487.735	94.44
487.953	120.44
488.171	133.44
488.389	107.44
488.607	100.44
488.825	100.44
489.043	97.44
489.261	92.44
489.479	99.44
489.696	102.44
489.914	96.44
490.132	110.44
490.35	123.44
490.568	126.44
490.786	117.44
491.003	126.44
491.221	142.44
491.439	136.44
491.657	120.44
491.874	165.44
492.092	140.44
492.31	133.44
492.527	144.44
492.745	140.44
492.963	143.44
493.18	139.44
493.398	140.44
493.615	139.44
493.833	128.44
494.05	128.44
494.268	138.44
494.485	149.44
494.703	126.44
494.92	125.44
495.138	123.44
495.355	132.44
495.573	145.44
495.79	131.44
496.008	137.44
496.225	127.44
496.442	133.44
496.66	125.44
496.877	120.44
497.094	118.44
497.312	120.44
497.529	118.44
497.746	110.44
497.963	106.44
498.181	86.44
498.398	106.44
498.615	128.44
498.832	85.44
499.049	82.44
499.267	114.44
499.484	95.44
499.701	104.44
499.918	109.44
500.135	133.44
500.352	111.44
500.569	113.44
500.786	117.44
501.003	107.44
501.22	122.44
501.437	109.44
501.654	109.44
501.871	102.44
502.088	100.44
502.305	106.44
502.522	97.44
502.739	112.44
502.956	104.44
503.172	116.44
503.389	97.44
503.606	88.44
503.823	98.44
504.04	106.44
504.256	96.44
504.473	95.44
504.69	85.44
504.907	101.44
505.123	85.44
505.34	94.44
505.557	113.44
505.773	93.44
505.99	86.44
506.207	105.44
506.423	104.44
506.64	92.44
506.856	86.44
507.073	94.44
507.289	96.44
507.506	103.44
507.722	88.44
507.939	81.44
508.155	126.44
508.372	95.44
508.588	106.44
508.805	90.44
509.021	98.44
509.238	82.44
509.454	96.44
509.67	93.44
509.887	94.44
510.103	83.44
510.319	93.44
510.536	90.44
510.752	97.44
510.968	78.44
511.184	78.44
511.401	80.44
511.617	92.44
511.833	82.44
512.049	86.44
512.265	91.44
512.481	98.44
512.698	80.44
512.914	87.44
513.13	80.44
513.346	95.44
513.562	91.44
513.778	100.44
513.994	82.44
514.21	88.44
514.426	83.44
514.642	98.44
514.858	99.44
515.074	83.44
515.29	83.44
515.506	81.44
