Data from Foil_2_HRD10591_00011.txt Node
Date: Wed Nov 05 16:17:27 EST 2025
User: Yrep
Spectrometer: HR+D1059
Trigger mode: 1
Integration Time (sec): 1.000000E-1
Scans to average: 1
Electric dark correction enabled: true
Nonlinearity correction enabled: false
Boxcar width: 0
XAxis mode: Wavelengths
Number of Pixels in Spectrum: 2048
>>>>>Begin Spectral Data<<<<<
223.165	-1.75
223.4	-1.75
223.635	-1.75
223.869	-23.75
224.104	-21.75
224.338	-7.75
224.573	-11.75
224.808	-21.75
225.042	-15.75
225.277	-17.75
225.511	-2.75
225.746	28.25
225.98	6.25
226.215	8.25
226.449	5.25
226.683	17.25
226.918	26.25
227.152	33.25
227.387	31.25
227.621	38.25
227.856	51.25
228.09	38.25
228.324	61.25
228.559	60.25
228.793	65.25
229.027	60.25
229.262	60.25
229.496	81.25
229.73	71.25
229.964	68.25
230.199	61.25
230.433	63.25
230.667	82.25
230.901	66.25
231.136	77.25
231.37	76.25
231.604	76.25
231.838	88.25
232.072	76.25
232.306	70.25
232.541	79.25
232.775	91.25
233.009	83.25
233.243	82.25
233.477	91.25
233.711	76.25
233.945	76.25
234.179	87.25
234.413	83.25
234.647	92.25
234.881	69.25
235.115	72.25
235.349	88.25
235.583	83.25
235.817	78.25
236.051	79.25
236.285	83.25
236.519	72.25
236.753	70.25
236.987	62.25
237.221	82.25
237.455	69.25
237.689	81.25
237.922	66.25
238.156	97.25
238.39	88.25
238.624	78.25
238.858	80.25
239.091	84.25
239.325	76.25
239.559	83.25
239.793	80.25
240.027	92.25
240.26	72.25
240.494	78.25
240.728	81.25
240.961	76.25
241.195	57.25
241.429	63.25
241.662	85.25
241.896	76.25
242.13	72.25
242.363	81.25
242.597	75.25
242.83	91.25
243.064	72.25
243.298	80.25
243.531	94.25
243.765	67.25
243.998	70.25
244.232	70.25
244.465	86.25
244.699	80.25
244.932	69.25
245.166	76.25
245.399	92.25
245.633	89.25
245.866	79.25
246.099	74.25
246.333	67.25
246.566	72.25
246.8	81.25
247.033	78.25
247.266	70.25
247.5	81.25
247.733	80.25
247.966	88.25
248.2	81.25
248.433	73.25
248.666	88.25
248.899	94.25
249.133	81.25
249.366	84.25
249.599	78.25
249.832	68.25
250.066	73.25
250.299	64.25
250.532	79.25
250.765	87.25
250.998	81.25
251.231	85.25
251.465	80.25
251.698	80.25
251.931	72.25
252.164	80.25
252.397	84.25
252.63	84.25
252.863	89.25
253.096	73.25
253.329	72.25
253.562	85.25
253.795	94.25
254.028	81.25
254.261	81.25
254.494	81.25
254.727	73.25
254.96	73.25
255.193	86.25
255.426	80.25
255.659	81.25
255.892	86.25
256.124	76.25
256.357	88.25
256.59	86.25
256.823	76.25
257.056	82.25
257.289	94.25
257.521	95.25
257.754	90.25
257.987	70.25
258.22	97.25
258.452	77.25
258.685	91.25
258.918	74.25
259.151	78.25
259.383	96.25
259.616	82.25
259.849	91.25
260.081	78.25
260.314	72.25
260.547	88.25
260.779	87.25
261.012	78.25
261.244	75.25
261.477	98.25
261.71	83.25
261.942	82.25
262.175	88.25
262.407	88.25
262.64	90.25
262.872	92.25
263.105	77.25
263.337	88.25
263.57	86.25
263.802	86.25
264.035	85.25
264.267	88.25
264.499	80.25
264.732	76.25
264.964	85.25
265.197	75.25
265.429	89.25
265.661	83.25
265.894	84.25
266.126	91.25
266.358	80.25
266.591	90.25
266.823	79.25
267.055	70.25
267.287	93.25
267.52	79.25
267.752	83.25
267.984	78.25
268.216	88.25
268.448	85.25
268.681	69.25
268.913	80.25
269.145	79.25
269.377	88.25
269.609	70.25
269.841	81.25
270.073	81.25
270.306	89.25
270.538	66.25
270.77	90.25
271.002	74.25
271.234	95.25
271.466	88.25
271.698	86.25
271.93	90.25
272.162	95.25
272.394	94.25
272.626	82.25
272.858	73.25
273.09	73.25
273.322	80.25
273.553	82.25
273.785	88.25
274.017	71.25
274.249	88.25
274.481	95.25
274.713	71.25
274.945	85.25
275.176	88.25
275.408	95.25
275.64	90.25
275.872	86.25
276.104	86.25
276.335	104.25
276.567	90.25
276.799	86.25
277.031	74.25
277.262	85.25
277.494	76.25
277.726	93.25
277.957	90.25
278.189	87.25
278.421	80.25
278.652	88.25
278.884	86.25
279.115	75.25
279.347	72.25
279.579	82.25
279.81	90.25
280.042	87.25
280.273	80.25
280.505	85.25
280.736	84.25
280.968	97.25
281.199	75.25
281.431	72.25
281.662	82.25
281.894	82.25
282.125	78.25
282.356	88.25
282.588	78.25
282.819	65.25
283.051	78.25
283.282	83.25
283.513	81.25
283.745	72.25
283.976	84.25
284.207	86.25
284.439	84.25
284.67	90.25
284.901	88.25
285.132	79.25
285.364	88.25
285.595	89.25
285.826	100.25
286.057	89.25
286.288	83.25
286.52	82.25
286.751	98.25
286.982	79.25
287.213	78.25
287.444	90.25
287.675	81.25
287.906	93.25
288.138	87.25
288.369	102.25
288.6	93.25
288.831	95.25
289.062	92.25
289.293	81.25
289.524	86.25
289.755	72.25
289.986	70.25
290.217	81.25
290.448	72.25
290.679	78.25
290.91	82.25
291.141	93.25
291.371	91.25
291.602	97.25
291.833	70.25
292.064	92.25
292.295	86.25
292.526	77.25
292.757	80.25
292.987	69.25
293.218	79.25
293.449	90.25
293.68	88.25
293.91	96.25
294.141	83.25
294.372	78.25
294.603	90.25
294.833	83.25
295.064	86.25
295.295	87.25
295.525	82.25
295.756	78.25
295.987	81.25
296.217	82.25
296.448	95.25
296.679	77.25
296.909	89.25
297.14	82.25
297.37	82.25
297.601	66.25
297.831	89.25
298.062	79.25
298.292	83.25
298.523	94.25
298.753	66.25
298.984	80.25
299.214	83.25
299.445	92.25
299.675	87.25
299.905	82.25
300.136	88.25
300.366	74.25
300.597	76.25
300.827	72.25
301.057	84.25
301.288	67.25
301.518	93.25
301.748	88.25
301.979	96.25
302.209	69.25
302.439	73.25
302.669	84.25
302.9	84.25
303.13	95.25
303.36	98.25
303.59	84.25
303.82	78.25
304.051	106.25
304.281	93.25
304.511	81.25
304.741	73.25
304.971	73.25
305.201	75.25
305.431	79.25
305.661	95.25
305.891	91.25
306.121	80.25
306.352	80.25
306.582	73.25
306.812	84.25
307.042	80.25
307.272	96.25
307.502	95.25
307.731	88.25
307.961	104.25
308.191	112.25
308.421	104.25
308.651	82.25
308.881	83.25
309.111	94.25
309.341	110.25
309.571	114.25
309.8	85.25
310.03	88.25
310.26	96.25
310.49	79.25
310.72	90.25
310.949	77.25
311.179	86.25
311.409	84.25
311.639	86.25
311.868	76.25
312.098	93.25
312.328	79.25
312.557	90.25
312.787	80.25
313.017	70.25
313.246	84.25
313.476	78.25
313.706	84.25
313.935	90.25
314.165	93.25
314.394	90.25
314.624	74.25
314.853	78.25
315.083	88.25
315.312	81.25
315.542	79.25
315.771	84.25
316.001	82.25
316.23	84.25
316.46	88.25
316.689	82.25
316.919	78.25
317.148	95.25
317.377	84.25
317.607	86.25
317.836	89.25
318.065	83.25
318.295	76.25
318.524	87.25
318.753	78.25
318.983	81.25
319.212	89.25
319.441	82.25
319.67	71.25
319.9	81.25
320.129	91.25
320.358	82.25
320.587	88.25
320.816	95.25
321.046	87.25
321.275	77.25
321.504	61.25
321.733	85.25
321.962	75.25
322.191	92.25
322.42	92.25
322.649	88.25
322.878	89.25
323.108	88.25
323.337	85.25
323.566	86.25
323.795	88.25
324.024	99.25
324.253	90.25
324.482	71.25
324.71	92.25
324.939	72.25
325.168	76.25
325.397	82.25
325.626	83.25
325.855	82.25
326.084	93.25
326.313	80.25
326.542	92.25
326.77	82.25
326.999	83.25
327.228	79.25
327.457	81.25
327.686	91.25
327.914	81.25
328.143	90.25
328.372	81.25
328.6	88.25
328.829	63.25
329.058	77.25
329.287	81.25
329.515	82.25
329.744	102.25
329.972	89.25
330.201	79.25
330.43	78.25
330.658	88.25
330.887	81.25
331.115	96.25
331.344	95.25
331.572	84.25
331.801	81.25
332.03	88.25
332.258	72.25
332.486	77.25
332.715	90.25
332.943	78.25
333.172	84.25
333.4	79.25
333.629	86.25
333.857	80.25
334.085	78.25
334.314	83.25
334.542	84.25
334.771	84.25
334.999	73.25
335.227	89.25
335.455	85.25
335.684	81.25
335.912	61.25
336.14	89.25
336.369	90.25
336.597	87.25
336.825	93.25
337.053	79.25
337.281	84.25
337.51	75.25
337.738	86.25
337.966	80.25
338.194	80.25
338.422	77.25
338.65	66.25
338.878	84.25
339.106	73.25
339.334	86.25
339.562	100.25
339.79	91.25
340.018	76.25
340.246	77.25
340.474	79.25
340.702	88.25
340.93	100.25
341.158	85.25
341.386	80.25
341.614	79.25
341.842	89.25
342.07	76.25
342.298	82.25
342.526	79.25
342.754	83.25
342.981	90.25
343.209	80.25
343.437	96.25
343.665	88.25
343.893	80.25
344.12	73.25
344.348	75.25
344.576	73.25
344.804	82.25
345.031	100.25
345.259	87.25
345.487	80.25
345.714	59.25
345.942	88.25
346.17	82.25
346.397	91.25
346.625	86.25
346.853	82.25
347.08	81.25
347.308	92.25
347.535	90.25
347.763	80.25
347.99	87.25
348.218	74.25
348.445	77.25
348.673	65.25
348.9	75.25
349.128	73.25
349.355	68.25
349.583	82.25
349.81	91.25
350.037	84.25
350.265	89.25
350.492	85.25
350.72	93.25
350.947	82.25
351.174	90.25
351.402	75.25
351.629	74.25
351.856	81.25
352.083	76.25
352.311	78.25
352.538	77.25
352.765	95.25
352.992	84.25
353.22	78.25
353.447	88.25
353.674	79.25
353.901	87.25
354.128	93.25
354.355	88.25
354.583	79.25
354.81	94.25
355.037	92.25
355.264	88.25
355.491	85.25
355.718	77.25
355.945	92.25
356.172	87.25
356.399	83.25
356.626	89.25
356.853	78.25
357.08	84.25
357.307	78.25
357.534	76.25
357.761	89.25
357.988	91.25
358.215	79.25
358.441	94.25
358.668	82.25
358.895	83.25
359.122	73.25
359.349	80.25
359.576	84.25
359.802	78.25
360.029	87.25
360.256	82.25
360.483	64.25
360.709	66.25
360.936	95.25
361.163	81.25
361.39	75.25
361.616	83.25
361.843	76.25
362.07	75.25
362.296	71.25
362.523	87.25
362.749	72.25
362.976	80.25
363.203	88.25
363.429	61.25
363.656	70.25
363.882	82.25
364.109	83.25
364.335	80.25
364.562	102.25
364.788	76.25
365.015	84.25
365.241	93.25
365.468	73.25
365.694	86.25
365.92	92.25
366.147	83.25
366.373	96.25
366.599	90.25
366.826	85.25
367.052	77.25
367.278	84.25
367.505	87.25
367.731	92.25
367.957	89.25
368.184	76.25
368.41	76.25
368.636	87.25
368.862	91.25
369.089	73.25
369.315	84.25
369.541	86.25
369.767	87.25
369.993	76.25
370.219	83.25
370.445	80.25
370.672	82.25
370.898	93.25
371.124	86.25
371.35	81.25
371.576	80.25
371.802	83.25
372.028	82.25
372.254	82.25
372.48	96.25
372.706	81.25
372.932	93.25
373.158	84.25
373.384	91.25
373.61	81.25
373.835	84.25
374.061	82.25
374.287	84.25
374.513	82.25
374.739	86.25
374.965	82.25
375.191	78.25
375.416	93.25
375.642	88.25
375.868	81.25
376.094	84.25
376.319	80.25
376.545	87.25
376.771	96.25
376.997	81.25
377.222	95.25
377.448	97.25
377.674	78.25
377.899	82.25
378.125	85.25
378.35	98.25
378.576	71.25
378.802	85.25
379.027	90.25
379.253	95.25
379.478	86.25
379.704	80.25
379.929	100.25
380.155	88.25
380.38	96.25
380.606	81.25
380.831	93.25
381.057	92.25
381.282	106.25
381.507	95.25
381.733	91.25
381.958	93.25
382.184	96.25
382.409	92.25
382.634	87.25
382.86	93.25
383.085	94.25
383.31	94.25
383.535	107.25
383.761	90.25
383.986	85.25
384.211	99.25
384.436	88.25
384.662	94.25
384.887	85.25
385.112	90.25
385.337	92.25
385.562	95.25
385.787	87.25
386.013	98.25
386.238	84.25
386.463	81.25
386.688	99.25
386.913	97.25
387.138	89.25
387.363	99.25
387.588	90.25
387.813	90.25
388.038	83.25
388.263	108.25
388.488	77.25
388.713	72.25
388.938	84.25
389.163	89.25
389.387	89.25
389.612	88.25
389.837	95.25
390.062	92.25
390.287	88.25
390.512	78.25
390.736	85.25
390.961	90.25
391.186	101.25
391.411	104.25
391.636	82.25
391.86	83.25
392.085	99.25
392.31	95.25
392.534	101.25
392.759	85.25
392.984	103.25
393.208	94.25
393.433	97.25
393.658	95.25
393.882	90.25
394.107	113.25
394.331	156.25
394.556	182.25
394.78	123.25
395.005	107.25
395.229	108.25
395.454	95.25
395.678	128.25
395.903	135.25
396.127	192.25
396.352	216.25
396.576	118.25
396.801	82.25
397.025	108.25
397.249	93.25
397.474	110.25
397.698	105.25
397.922	103.25
398.147	96.25
398.371	105.25
398.595	98.25
398.82	96.25
399.044	93.25
399.268	100.25
399.492	84.25
399.717	87.25
399.941	97.25
400.165	102.25
400.389	99.25
400.613	89.25
400.837	104.25
401.062	106.25
401.286	104.25
401.51	107.25
401.734	106.25
401.958	93.25
402.182	94.25
402.406	87.25
402.63	88.25
402.854	97.25
403.078	104.25
403.302	103.25
403.526	118.25
403.75	102.25
403.974	98.25
404.198	88.25
404.422	86.25
404.645	102.25
404.869	101.25
405.093	96.25
405.317	92.25
405.541	100.25
405.765	97.25
405.988	99.25
406.212	97.25
406.436	76.25
406.66	100.25
406.883	101.25
407.107	96.25
407.331	119.25
407.555	105.25
407.778	96.25
408.002	104.25
408.226	90.25
408.449	104.25
408.673	100.25
408.896	116.25
409.12	107.25
409.344	106.25
409.567	95.25
409.791	93.25
410.014	118.25
410.238	107.25
410.461	97.25
410.685	106.25
410.908	102.25
411.132	96.25
411.355	94.25
411.578	107.25
411.802	102.25
412.025	100.25
412.249	105.25
412.472	96.25
412.695	109.25
412.919	100.25
413.142	114.25
413.365	110.25
413.589	98.25
413.812	106.25
414.035	116.25
414.258	106.25
414.482	86.25
414.705	96.25
414.928	103.25
415.151	120.25
415.374	104.25
415.597	88.25
415.821	99.25
416.044	109.25
416.267	104.25
416.49	98.25
416.713	106.25
416.936	91.25
417.159	107.25
417.382	105.25
417.605	86.25
417.828	103.25
418.051	97.25
418.274	107.25
418.497	108.25
418.72	125.25
418.943	98.25
419.166	103.25
419.389	109.25
419.611	107.25
419.834	101.25
420.057	113.25
420.28	97.25
420.503	112.25
420.726	110.25
420.948	103.25
421.171	112.25
421.394	111.25
421.617	104.25
421.839	98.25
422.062	103.25
422.285	117.25
422.507	111.25
422.73	96.25
422.953	94.25
423.175	101.25
423.398	91.25
423.621	100.25
423.843	108.25
424.066	106.25
424.288	95.25
424.511	97.25
424.733	103.25
424.956	109.25
425.178	104.25
425.401	95.25
425.623	95.25
425.846	104.25
426.068	82.25
426.291	109.25
426.513	98.25
426.735	101.25
426.958	102.25
427.18	106.25
427.402	122.25
427.625	118.25
427.847	101.25
428.069	115.25
428.292	104.25
428.514	97.25
428.736	96.25
428.958	95.25
429.181	102.25
429.403	95.25
429.625	91.25
429.847	102.25
430.069	98.25
430.292	105.25
430.514	98.25
430.736	101.25
430.958	108.25
431.18	111.25
431.402	100.25
431.624	97.25
431.846	96.25
432.068	88.25
432.29	92.25
432.512	92.25
432.734	108.25
432.956	99.25
433.178	110.25
433.4	108.25
433.622	114.25
433.844	103.25
434.066	104.25
434.287	90.25
434.509	88.25
434.731	72.25
434.953	89.25
435.175	102.25
435.397	116.25
435.618	100.25
435.84	100.25
436.062	97.25
436.284	102.25
436.505	100.25
436.727	107.25
436.949	103.25
437.17	95.25
437.392	85.25
437.614	107.25
437.835	88.25
438.057	83.25
438.278	99.25
438.5	104.25
438.721	103.25
438.943	103.25
439.165	102.25
439.386	112.25
439.608	107.25
439.829	107.25
440.05	103.25
440.272	119.25
440.493	114.25
440.715	112.25
440.936	92.25
441.158	117.25
441.379	118.25
441.6	115.25
441.822	111.25
442.043	118.25
442.264	116.25
442.486	119.25
442.707	120.25
442.928	107.25
443.149	112.25
443.371	123.25
443.592	118.25
443.813	126.25
444.034	98.25
444.255	125.25
444.476	110.25
444.698	111.25
444.919	107.25
445.14	169.25
445.361	148.25
445.582	120.25
445.803	115.25
446.024	106.25
446.245	113.25
446.466	107.25
446.687	95.25
446.908	94.25
447.129	111.25
447.35	98.25
447.571	103.25
447.792	124.25
448.013	102.25
448.234	116.25
448.455	110.25
448.675	112.25
448.896	95.25
449.117	112.25
449.338	108.25
449.559	108.25
449.779	102.25
450	119.25
450.221	112.25
450.442	118.25
450.662	111.25
450.883	104.25
451.104	108.25
451.324	105.25
451.545	108.25
451.766	108.25
451.986	104.25
452.207	111.25
452.428	97.25
452.648	104.25
452.869	121.25
453.089	100.25
453.31	73.25
453.53	79.25
453.751	83.25
453.971	99.25
454.192	99.25
454.412	90.25
454.633	97.25
454.853	96.25
455.073	92.25
455.294	104.25
455.514	98.25
455.734	120.25
455.955	90.25
456.175	93.25
456.395	101.25
456.616	90.25
456.836	94.25
457.056	81.25
457.276	93.25
457.497	97.25
457.717	91.25
457.937	102.25
458.157	89.25
458.377	92.25
458.598	90.25
458.818	85.25
459.038	92.25
459.258	74.25
459.478	86.25
459.698	92.25
459.918	93.25
460.138	93.25
460.358	96.25
460.578	76.25
460.798	82.25
461.018	85.25
461.238	90.25
461.458	102.25
461.678	118.25
461.898	96.25
462.118	86.25
462.338	87.25
462.558	96.25
462.777	104.25
462.997	96.25
463.217	87.25
463.437	91.25
463.657	94.25
463.876	101.25
464.096	108.25
464.316	92.25
464.536	98.25
464.755	108.25
464.975	91.25
465.195	95.25
465.414	100.25
465.634	91.25
465.854	86.25
466.073	113.25
466.293	122.25
466.512	124.25
466.732	117.25
466.951	123.25
467.171	121.25
467.391	128.25
467.61	140.25
467.829	124.25
468.049	111.25
468.268	117.25
468.488	115.25
468.707	110.25
468.927	105.25
469.146	110.25
469.365	119.25
469.585	110.25
469.804	113.25
470.023	102.25
470.243	133.25
470.462	117.25
470.681	123.25
470.901	117.25
471.12	113.25
471.339	124.25
471.558	97.25
471.777	120.25
471.997	122.25
472.216	105.25
472.435	96.25
472.654	92.25
472.873	96.25
473.092	96.25
473.311	105.25
473.53	120.25
473.749	120.25
473.968	122.25
474.187	100.25
474.406	103.25
474.625	100.25
474.844	100.25
475.063	85.25
475.282	90.25
475.501	89.25
475.72	105.25
475.939	89.25
476.158	92.25
476.377	109.25
476.596	106.25
476.814	92.25
477.033	95.25
477.252	92.25
477.471	100.25
477.69	110.25
477.908	111.25
478.127	116.25
478.346	114.25
478.564	100.25
478.783	107.25
479.002	100.25
479.22	98.25
479.439	110.25
479.658	96.25
479.876	100.25
480.095	90.25
480.313	94.25
480.532	83.25
480.751	76.25
480.969	84.25
481.188	84.25
481.406	85.25
481.624	79.25
481.843	89.25
482.061	108.25
482.28	84.25
482.498	98.25
482.717	88.25
482.935	98.25
483.153	109.25
483.372	118.25
483.59	109.25
483.808	103.25
484.027	94.25
484.245	96.25
484.463	89.25
484.681	106.25
484.9	89.25
485.118	112.25
485.336	92.25
485.554	85.25
485.772	97.25
485.99	93.25
486.209	95.25
486.427	107.25
486.645	104.25
486.863	102.25
487.081	114.25
487.299	104.25
487.517	95.25
487.735	111.25
487.953	134.25
488.171	124.25
488.389	118.25
488.607	102.25
488.825	107.25
489.043	102.25
489.261	95.25
489.479	99.25
489.696	111.25
489.914	113.25
490.132	108.25
490.35	129.25
490.568	132.25
490.786	130.25
491.003	146.25
491.221	136.25
491.439	138.25
491.657	137.25
491.874	165.25
492.092	159.25
492.31	161.25
492.527	156.25
492.745	170.25
492.963	153.25
493.18	144.25
493.398	132.25
493.615	129.25
493.833	126.25
494.05	136.25
494.268	138.25
494.485	120.25
494.703	134.25
494.92	128.25
495.138	136.25
495.355	135.25
495.573	130.25
495.79	128.25
496.008	133.25
496.225	130.25
496.442	122.25
496.66	125.25
496.877	118.25
497.094	113.25
497.312	108.25
497.529	96.25
497.746	108.25
497.963	101.25
498.181	96.25
498.398	92.25
498.615	92.25
498.832	93.25
499.049	101.25
499.267	103.25
499.484	97.25
499.701	99.25
499.918	101.25
500.135	116.25
500.352	120.25
500.569	119.25
500.786	124.25
501.003	117.25
501.22	108.25
501.437	104.25
501.654	111.25
501.871	108.25
502.088	104.25
502.305	102.25
502.522	117.25
502.739	104.25
502.956	109.25
503.172	91.25
503.389	101.25
503.606	95.25
503.823	95.25
504.04	100.25
504.256	97.25
504.473	100.25
504.69	86.25
504.907	85.25
505.123	101.25
505.34	95.25
505.557	102.25
505.773	104.25
505.99	108.25
506.207	101.25
506.423	96.25
506.64	113.25
506.856	97.25
507.073	98.25
507.289	95.25
507.506	97.25
507.722	92.25
507.939	98.25
508.155	102.25
508.372	92.25
508.588	92.25
508.805	91.25
509.021	85.25
509.238	90.25
509.454	94.25
509.67	94.25
509.887	94.25
510.103	90.25
510.319	92.25
510.536	82.25
510.752	102.25
510.968	85.25
511.184	76.25
511.401	76.25
511.617	91.25
511.833	91.25
512.049	96.25
512.265	93.25
512.481	99.25
512.698	71.25
512.914	91.25
513.13	85.25
513.346	83.25
513.562	86.25
513.778	86.25
513.994	82.25
514.21	86.25
514.426	92.25
514.642	99.25
514.858	95.25
515.074	84.25
515.29	80.25
