Data from Foil_2_HRD10591_00016.txt Node
Date: Wed Nov 05 16:17:29 EST 2025
User: Yrep
Spectrometer: HR+D1059
Trigger mode: 1
Integration Time (sec): 1.000000E-1
Scans to average: 1
Electric dark correction enabled: true
Nonlinearity correction enabled: false
Boxcar width: 0
XAxis mode: Wavelengths
Number of Pixels in Spectrum: 2048
>>>>>Begin Spectral Data<<<<<
223.165	-19.31
223.4	-19.31
223.635	-19.31
223.869	-12.31
224.104	-9.31
224.338	-8.31
224.573	-21.31
224.808	-20.31
225.042	-6.31
225.277	-6.31
225.511	-2.31
225.746	15.69
225.98	-1.31
226.215	28.69
226.449	12.69
226.683	13.69
226.918	15.69
227.152	20.69
227.387	42.69
227.621	39.69
227.856	49.69
228.09	62.69
228.324	62.69
228.559	72.69
228.793	59.69
229.027	54.69
229.262	54.69
229.496	65.69
229.73	74.69
229.964	68.69
230.199	64.69
230.433	55.69
230.667	71.69
230.901	68.69
231.136	72.69
231.37	72.69
231.604	77.69
231.838	86.69
232.072	95.69
232.306	74.69
232.541	84.69
232.775	74.69
233.009	89.69
233.243	71.69
233.477	78.69
233.711	77.69
233.945	87.69
234.179	73.69
234.413	76.69
234.647	84.69
234.881	74.69
235.115	78.69
235.349	75.69
235.583	78.69
235.817	80.69
236.051	65.69
236.285	65.69
236.519	74.69
236.753	86.69
236.987	75.69
237.221	68.69
237.455	79.69
237.689	80.69
237.922	63.69
238.156	66.69
238.39	80.69
238.624	72.69
238.858	83.69
239.091	72.69
239.325	63.69
239.559	74.69
239.793	70.69
240.027	78.69
240.26	68.69
240.494	73.69
240.728	70.69
240.961	68.69
241.195	68.69
241.429	89.69
241.662	86.69
241.896	61.69
242.13	64.69
242.363	76.69
242.597	70.69
242.83	75.69
243.064	74.69
243.298	85.69
243.531	70.69
243.765	88.69
243.998	77.69
244.232	79.69
244.465	79.69
244.699	72.69
244.932	76.69
245.166	78.69
245.399	66.69
245.633	88.69
245.866	79.69
246.099	78.69
246.333	77.69
246.566	78.69
246.8	79.69
247.033	70.69
247.266	81.69
247.5	70.69
247.733	76.69
247.966	88.69
248.2	81.69
248.433	76.69
248.666	74.69
248.899	77.69
249.133	80.69
249.366	86.69
249.599	81.69
249.832	90.69
250.066	78.69
250.299	81.69
250.532	80.69
250.765	73.69
250.998	76.69
251.231	86.69
251.465	86.69
251.698	84.69
251.931	96.69
252.164	73.69
252.397	69.69
252.63	76.69
252.863	93.69
253.096	96.69
253.329	78.69
253.562	86.69
253.795	98.69
254.028	73.69
254.261	88.69
254.494	70.69
254.727	81.69
254.96	92.69
255.193	100.69
255.426	86.69
255.659	77.69
255.892	84.69
256.124	102.69
256.357	74.69
256.59	72.69
256.823	79.69
257.056	92.69
257.289	71.69
257.521	86.69
257.754	80.69
257.987	88.69
258.22	88.69
258.452	69.69
258.685	76.69
258.918	70.69
259.151	80.69
259.383	86.69
259.616	75.69
259.849	80.69
260.081	69.69
260.314	81.69
260.547	72.69
260.779	77.69
261.012	87.69
261.244	84.69
261.477	79.69
261.71	84.69
261.942	98.69
262.175	85.69
262.407	71.69
262.64	76.69
262.872	81.69
263.105	76.69
263.337	80.69
263.57	91.69
263.802	72.69
264.035	80.69
264.267	84.69
264.499	89.69
264.732	76.69
264.964	71.69
265.197	86.69
265.429	93.69
265.661	76.69
265.894	82.69
266.126	86.69
266.358	84.69
266.591	87.69
266.823	66.69
267.055	78.69
267.287	86.69
267.52	77.69
267.752	69.69
267.984	70.69
268.216	64.69
268.448	72.69
268.681	84.69
268.913	74.69
269.145	72.69
269.377	92.69
269.609	77.69
269.841	90.69
270.073	94.69
270.306	77.69
270.538	74.69
270.77	82.69
271.002	80.69
271.234	65.69
271.466	103.69
271.698	77.69
271.93	82.69
272.162	78.69
272.394	71.69
272.626	78.69
272.858	91.69
273.09	86.69
273.322	79.69
273.553	70.69
273.785	68.69
274.017	84.69
274.249	76.69
274.481	94.69
274.713	79.69
274.945	83.69
275.176	97.69
275.408	71.69
275.64	71.69
275.872	73.69
276.104	82.69
276.335	86.69
276.567	77.69
276.799	77.69
277.031	72.69
277.262	84.69
277.494	85.69
277.726	92.69
277.957	69.69
278.189	76.69
278.421	85.69
278.652	83.69
278.884	75.69
279.115	74.69
279.347	82.69
279.579	67.69
279.81	84.69
280.042	75.69
280.273	94.69
280.505	80.69
280.736	80.69
280.968	71.69
281.199	68.69
281.431	89.69
281.662	76.69
281.894	80.69
282.125	79.69
282.356	80.69
282.588	77.69
282.819	71.69
283.051	86.69
283.282	91.69
283.513	78.69
283.745	72.69
283.976	90.69
284.207	72.69
284.439	84.69
284.67	84.69
284.901	73.69
285.132	81.69
285.364	87.69
285.595	85.69
285.826	102.69
286.057	75.69
286.288	73.69
286.52	73.69
286.751	83.69
286.982	84.69
287.213	72.69
287.444	76.69
287.675	79.69
287.906	94.69
288.138	72.69
288.369	80.69
288.6	81.69
288.831	84.69
289.062	87.69
289.293	65.69
289.524	61.69
289.755	77.69
289.986	76.69
290.217	77.69
290.448	79.69
290.679	87.69
290.91	85.69
291.141	93.69
291.371	83.69
291.602	75.69
291.833	88.69
292.064	82.69
292.295	74.69
292.526	96.69
292.757	86.69
292.987	86.69
293.218	84.69
293.449	70.69
293.68	72.69
293.91	88.69
294.141	82.69
294.372	84.69
294.603	84.69
294.833	79.69
295.064	84.69
295.295	88.69
295.525	85.69
295.756	82.69
295.987	68.69
296.217	71.69
296.448	86.69
296.679	84.69
296.909	76.69
297.14	78.69
297.37	79.69
297.601	85.69
297.831	92.69
298.062	88.69
298.292	90.69
298.523	78.69
298.753	80.69
298.984	86.69
299.214	67.69
299.445	78.69
299.675	86.69
299.905	76.69
300.136	91.69
300.366	88.69
300.597	78.69
300.827	87.69
301.057	86.69
301.288	92.69
301.518	84.69
301.748	86.69
301.979	111.69
302.209	93.69
302.439	83.69
302.669	78.69
302.9	73.69
303.13	89.69
303.36	85.69
303.59	80.69
303.82	74.69
304.051	79.69
304.281	85.69
304.511	88.69
304.741	70.69
304.971	86.69
305.201	90.69
305.431	82.69
305.661	90.69
305.891	81.69
306.121	70.69
306.352	83.69
306.582	84.69
306.812	79.69
307.042	84.69
307.272	70.69
307.502	96.69
307.731	85.69
307.961	88.69
308.191	102.69
308.421	106.69
308.651	96.69
308.881	104.69
309.111	96.69
309.341	103.69
309.571	92.69
309.8	84.69
310.03	86.69
310.26	78.69
310.49	88.69
310.72	81.69
310.949	72.69
311.179	80.69
311.409	90.69
311.639	86.69
311.868	80.69
312.098	94.69
312.328	68.69
312.557	79.69
312.787	79.69
313.017	80.69
313.246	87.69
313.476	82.69
313.706	90.69
313.935	69.69
314.165	78.69
314.394	92.69
314.624	78.69
314.853	66.69
315.083	86.69
315.312	93.69
315.542	86.69
315.771	83.69
316.001	73.69
316.23	80.69
316.46	72.69
316.689	92.69
316.919	82.69
317.148	77.69
317.377	84.69
317.607	81.69
317.836	89.69
318.065	77.69
318.295	86.69
318.524	79.69
318.753	86.69
318.983	84.69
319.212	89.69
319.441	82.69
319.67	86.69
319.9	83.69
320.129	89.69
320.358	75.69
320.587	74.69
320.816	84.69
321.046	94.69
321.275	80.69
321.504	80.69
321.733	74.69
321.962	81.69
322.191	82.69
322.42	86.69
322.649	88.69
322.878	93.69
323.108	76.69
323.337	66.69
323.566	76.69
323.795	79.69
324.024	89.69
324.253	86.69
324.482	84.69
324.71	78.69
324.939	89.69
325.168	92.69
325.397	93.69
325.626	84.69
325.855	77.69
326.084	67.69
326.313	81.69
326.542	84.69
326.77	76.69
326.999	80.69
327.228	83.69
327.457	76.69
327.686	79.69
327.914	86.69
328.143	82.69
328.372	92.69
328.6	86.69
328.829	79.69
329.058	91.69
329.287	94.69
329.515	73.69
329.744	95.69
329.972	81.69
330.201	80.69
330.43	72.69
330.658	79.69
330.887	76.69
331.115	78.69
331.344	86.69
331.572	88.69
331.801	81.69
332.03	74.69
332.258	89.69
332.486	87.69
332.715	86.69
332.943	72.69
333.172	90.69
333.4	86.69
333.629	80.69
333.857	89.69
334.085	86.69
334.314	87.69
334.542	91.69
334.771	64.69
334.999	102.69
335.227	77.69
335.455	67.69
335.684	93.69
335.912	89.69
336.14	93.69
336.369	77.69
336.597	69.69
336.825	80.69
337.053	70.69
337.281	70.69
337.51	84.69
337.738	78.69
337.966	76.69
338.194	74.69
338.422	102.69
338.65	92.69
338.878	81.69
339.106	74.69
339.334	92.69
339.562	78.69
339.79	80.69
340.018	84.69
340.246	80.69
340.474	82.69
340.702	83.69
340.93	87.69
341.158	98.69
341.386	87.69
341.614	81.69
341.842	86.69
342.07	72.69
342.298	88.69
342.526	78.69
342.754	77.69
342.981	73.69
343.209	90.69
343.437	96.69
343.665	82.69
343.893	92.69
344.12	81.69
344.348	84.69
344.576	75.69
344.804	79.69
345.031	81.69
345.259	74.69
345.487	73.69
345.714	83.69
345.942	92.69
346.17	84.69
346.397	79.69
346.625	68.69
346.853	83.69
347.08	85.69
347.308	78.69
347.535	93.69
347.763	78.69
347.99	94.69
348.218	73.69
348.445	80.69
348.673	83.69
348.9	86.69
349.128	100.69
349.355	94.69
349.583	89.69
349.81	100.69
350.037	74.69
350.265	75.69
350.492	79.69
350.72	88.69
350.947	76.69
351.174	77.69
351.402	79.69
351.629	75.69
351.856	71.69
352.083	97.69
352.311	87.69
352.538	79.69
352.765	72.69
352.992	71.69
353.22	84.69
353.447	84.69
353.674	80.69
353.901	74.69
354.128	81.69
354.355	88.69
354.583	87.69
354.81	90.69
355.037	83.69
355.264	80.69
355.491	92.69
355.718	78.69
355.945	78.69
356.172	79.69
356.399	93.69
356.626	91.69
356.853	86.69
357.08	97.69
357.307	86.69
357.534	76.69
357.761	79.69
357.988	80.69
358.215	79.69
358.441	74.69
358.668	84.69
358.895	86.69
359.122	89.69
359.349	77.69
359.576	76.69
359.802	66.69
360.029	72.69
360.256	84.69
360.483	99.69
360.709	71.69
360.936	92.69
361.163	71.69
361.39	74.69
361.616	86.69
361.843	84.69
362.07	88.69
362.296	82.69
362.523	66.69
362.749	92.69
362.976	86.69
363.203	88.69
363.429	68.69
363.656	90.69
363.882	91.69
364.109	77.69
364.335	94.69
364.562	91.69
364.788	79.69
365.015	98.69
365.241	72.69
365.468	70.69
365.694	70.69
365.92	80.69
366.147	85.69
366.373	87.69
366.599	80.69
366.826	86.69
367.052	75.69
367.278	86.69
367.505	66.69
367.731	78.69
367.957	84.69
368.184	83.69
368.41	71.69
368.636	83.69
368.862	94.69
369.089	88.69
369.315	84.69
369.541	90.69
369.767	84.69
369.993	79.69
370.219	94.69
370.445	66.69
370.672	89.69
370.898	93.69
371.124	89.69
371.35	91.69
371.576	81.69
371.802	67.69
372.028	72.69
372.254	81.69
372.48	75.69
372.706	85.69
372.932	84.69
373.158	95.69
373.384	78.69
373.61	93.69
373.835	82.69
374.061	90.69
374.287	90.69
374.513	91.69
374.739	88.69
374.965	86.69
375.191	78.69
375.416	88.69
375.642	81.69
375.868	74.69
376.094	77.69
376.319	75.69
376.545	88.69
376.771	89.69
376.997	93.69
377.222	92.69
377.448	87.69
377.674	83.69
377.899	93.69
378.125	88.69
378.35	98.69
378.576	78.69
378.802	79.69
379.027	83.69
379.253	90.69
379.478	92.69
379.704	97.69
379.929	81.69
380.155	78.69
380.38	69.69
380.606	77.69
380.831	93.69
381.057	82.69
381.282	91.69
381.507	86.69
381.733	94.69
381.958	92.69
382.184	86.69
382.409	83.69
382.634	76.69
382.86	90.69
383.085	90.69
383.31	86.69
383.535	80.69
383.761	94.69
383.986	90.69
384.211	85.69
384.436	94.69
384.662	102.69
384.887	87.69
385.112	88.69
385.337	101.69
385.562	85.69
385.787	94.69
386.013	88.69
386.238	97.69
386.463	89.69
386.688	107.69
386.913	87.69
387.138	93.69
387.363	83.69
387.588	100.69
387.813	99.69
388.038	95.69
388.263	84.69
388.488	94.69
388.713	93.69
388.938	98.69
389.163	89.69
389.387	91.69
389.612	88.69
389.837	95.69
390.062	85.69
390.287	95.69
390.512	97.69
390.736	74.69
390.961	88.69
391.186	86.69
391.411	94.69
391.636	88.69
391.86	109.69
392.085	98.69
392.31	99.69
392.534	95.69
392.759	93.69
392.984	94.69
393.208	93.69
393.433	93.69
393.658	93.69
393.882	92.69
394.107	123.69
394.331	151.69
394.556	182.69
394.78	126.69
395.005	106.69
395.229	94.69
395.454	105.69
395.678	104.69
395.903	142.69
396.127	202.69
396.352	211.69
396.576	125.69
396.801	89.69
397.025	94.69
397.249	97.69
397.474	94.69
397.698	101.69
397.922	100.69
398.147	91.69
398.371	103.69
398.595	102.69
398.82	88.69
399.044	90.69
399.268	89.69
399.492	103.69
399.717	83.69
399.941	92.69
400.165	87.69
400.389	89.69
400.613	92.69
400.837	99.69
401.062	86.69
401.286	98.69
401.51	92.69
401.734	91.69
401.958	93.69
402.182	87.69
402.406	78.69
402.63	108.69
402.854	94.69
403.078	92.69
403.302	99.69
403.526	84.69
403.75	95.69
403.974	111.69
404.198	98.69
404.422	101.69
404.645	100.69
404.869	100.69
405.093	102.69
405.317	93.69
405.541	108.69
405.765	118.69
405.988	94.69
406.212	94.69
406.436	99.69
406.66	108.69
406.883	97.69
407.107	102.69
407.331	99.69
407.555	92.69
407.778	103.69
408.002	93.69
408.226	96.69
408.449	86.69
408.673	98.69
408.896	106.69
409.12	110.69
409.344	103.69
409.567	84.69
409.791	94.69
410.014	91.69
410.238	96.69
410.461	113.69
410.685	97.69
410.908	106.69
411.132	95.69
411.355	95.69
411.578	116.69
411.802	101.69
412.025	81.69
412.249	97.69
412.472	96.69
412.695	107.69
412.919	106.69
413.142	96.69
413.365	103.69
413.589	112.69
413.812	105.69
414.035	106.69
414.258	105.69
414.482	98.69
414.705	92.69
414.928	92.69
415.151	97.69
415.374	103.69
415.597	107.69
415.821	88.69
416.044	103.69
416.267	104.69
416.49	90.69
416.713	116.69
416.936	113.69
417.159	107.69
417.382	97.69
417.605	101.69
417.828	109.69
418.051	111.69
418.274	85.69
418.497	121.69
418.72	83.69
418.943	99.69
419.166	118.69
419.389	101.69
419.611	97.69
419.834	97.69
420.057	105.69
420.28	99.69
420.503	107.69
420.726	99.69
420.948	112.69
421.171	103.69
421.394	100.69
421.617	102.69
421.839	106.69
422.062	94.69
422.285	102.69
422.507	92.69
422.73	100.69
422.953	87.69
423.175	106.69
423.398	108.69
423.621	101.69
423.843	103.69
424.066	93.69
424.288	106.69
424.511	97.69
424.733	109.69
424.956	103.69
425.178	112.69
425.401	90.69
425.623	92.69
425.846	111.69
426.068	89.69
426.291	107.69
426.513	108.69
426.735	106.69
426.958	116.69
427.18	113.69
427.402	107.69
427.625	109.69
427.847	105.69
428.069	109.69
428.292	106.69
428.514	103.69
428.736	114.69
428.958	102.69
429.181	107.69
429.403	96.69
429.625	102.69
429.847	111.69
430.069	126.69
430.292	126.69
430.514	110.69
430.736	100.69
430.958	111.69
431.18	101.69
431.402	96.69
431.624	106.69
431.846	92.69
432.068	80.69
432.29	98.69
432.512	115.69
432.734	116.69
432.956	109.69
433.178	99.69
433.4	112.69
433.622	112.69
433.844	104.69
434.066	103.69
434.287	104.69
434.509	91.69
434.731	97.69
434.953	92.69
435.175	78.69
435.397	97.69
435.618	88.69
435.84	84.69
436.062	96.69
436.284	105.69
436.505	99.69
436.727	123.69
436.949	100.69
437.17	108.69
437.392	101.69
437.614	84.69
437.835	90.69
438.057	89.69
438.278	97.69
438.5	104.69
438.721	108.69
438.943	107.69
439.165	112.69
439.386	125.69
439.608	123.69
439.829	120.69
440.05	114.69
440.272	118.69
440.493	111.69
440.715	114.69
440.936	116.69
441.158	117.69
441.379	115.69
441.6	108.69
441.822	117.69
442.043	104.69
442.264	111.69
442.486	118.69
442.707	97.69
442.928	103.69
443.149	108.69
443.371	115.69
443.592	110.69
443.813	109.69
444.034	109.69
444.255	117.69
444.476	108.69
444.698	106.69
444.919	98.69
445.14	184.69
445.361	132.69
445.582	114.69
445.803	114.69
446.024	100.69
446.245	108.69
446.466	122.69
446.687	107.69
446.908	123.69
447.129	104.69
447.35	106.69
447.571	113.69
447.792	108.69
448.013	122.69
448.234	104.69
448.455	110.69
448.675	100.69
448.896	103.69
449.117	109.69
449.338	97.69
449.559	104.69
449.779	112.69
450	107.69
450.221	120.69
450.442	102.69
450.662	105.69
450.883	101.69
451.104	107.69
451.324	109.69
451.545	93.69
451.766	107.69
451.986	94.69
452.207	103.69
452.428	100.69
452.648	112.69
452.869	108.69
453.089	94.69
453.31	84.69
453.53	91.69
453.751	93.69
453.971	91.69
454.192	78.69
454.412	93.69
454.633	103.69
454.853	108.69
455.073	86.69
455.294	78.69
455.514	111.69
455.734	105.69
455.955	103.69
456.175	80.69
456.395	93.69
456.616	90.69
456.836	93.69
457.056	78.69
457.276	76.69
457.497	97.69
457.717	84.69
457.937	81.69
458.157	86.69
458.377	74.69
458.598	83.69
458.818	84.69
459.038	80.69
459.258	76.69
459.478	85.69
459.698	92.69
459.918	89.69
460.138	78.69
460.358	89.69
460.578	92.69
460.798	86.69
461.018	88.69
461.238	102.69
461.458	103.69
461.678	93.69
461.898	90.69
462.118	90.69
462.338	83.69
462.558	97.69
462.777	98.69
462.997	95.69
463.217	93.69
463.437	85.69
463.657	94.69
463.876	90.69
464.096	94.69
464.316	94.69
464.536	96.69
464.755	99.69
464.975	97.69
465.195	91.69
465.414	79.69
465.634	99.69
465.854	99.69
466.073	100.69
466.293	97.69
466.512	106.69
466.732	110.69
466.951	116.69
467.171	120.69
467.391	128.69
467.61	136.69
467.829	121.69
468.049	114.69
468.268	114.69
468.488	103.69
468.707	108.69
468.927	112.69
469.146	122.69
469.365	129.69
469.585	120.69
469.804	120.69
470.023	115.69
470.243	93.69
470.462	100.69
470.681	114.69
470.901	104.69
471.12	110.69
471.339	99.69
471.558	109.69
471.777	99.69
471.997	98.69
472.216	108.69
472.435	92.69
472.654	87.69
472.873	96.69
473.092	112.69
473.311	108.69
473.53	107.69
473.749	115.69
473.968	107.69
474.187	98.69
474.406	109.69
474.625	107.69
474.844	108.69
475.063	117.69
475.282	106.69
475.501	90.69
475.72	106.69
475.939	86.69
476.158	89.69
476.377	106.69
476.596	109.69
476.814	87.69
477.033	92.69
477.252	102.69
477.471	87.69
477.69	100.69
477.908	106.69
478.127	111.69
478.346	108.69
478.564	110.69
478.783	103.69
479.002	107.69
479.22	100.69
479.439	93.69
479.658	85.69
479.876	100.69
480.095	99.69
480.313	107.69
480.532	93.69
480.751	91.69
480.969	93.69
481.188	92.69
481.406	85.69
481.624	75.69
481.843	91.69
482.061	91.69
482.28	85.69
482.498	88.69
482.717	89.69
482.935	100.69
483.153	96.69
483.372	118.69
483.59	113.69
483.808	95.69
484.027	86.69
484.245	95.69
484.463	94.69
484.681	99.69
484.9	100.69
485.118	104.69
485.336	97.69
485.554	90.69
485.772	99.69
485.99	89.69
486.209	89.69
486.427	95.69
486.645	104.69
486.863	111.69
487.081	106.69
487.299	108.69
487.517	100.69
487.735	116.69
487.953	127.69
488.171	116.69
488.389	106.69
488.607	111.69
488.825	104.69
489.043	88.69
489.261	106.69
489.479	109.69
489.696	99.69
489.914	97.69
490.132	120.69
490.35	114.69
490.568	113.69
490.786	134.69
491.003	127.69
491.221	120.69
491.439	128.69
491.657	129.69
491.874	146.69
492.092	165.69
492.31	142.69
492.527	155.69
492.745	142.69
492.963	151.69
493.18	129.69
493.398	151.69
493.615	134.69
493.833	139.69
494.05	149.69
494.268	132.69
494.485	128.69
494.703	136.69
494.92	108.69
495.138	122.69
495.355	128.69
495.573	138.69
495.79	128.69
496.008	123.69
496.225	134.69
496.442	116.69
496.66	127.69
496.877	120.69
497.094	129.69
497.312	118.69
497.529	107.69
497.746	110.69
497.963	103.69
498.181	102.69
498.398	102.69
498.615	95.69
498.832	88.69
499.049	99.69
499.267	110.69
499.484	94.69
499.701	106.69
499.918	105.69
500.135	111.69
500.352	116.69
500.569	112.69
500.786	106.69
501.003	107.69
501.22	120.69
501.437	80.69
501.654	107.69
501.871	98.69
502.088	104.69
502.305	106.69
502.522	120.69
502.739	106.69
502.956	100.69
503.172	95.69
503.389	98.69
503.606	97.69
503.823	90.69
504.04	101.69
504.256	95.69
504.473	98.69
504.69	111.69
504.907	95.69
505.123	86.69
505.34	87.69
505.557	92.69
505.773	86.69
505.99	94.69
506.207	103.69
506.423	89.69
506.64	95.69
506.856	106.69
507.073	93.69
507.289	82.69
507.506	106.69
507.722	88.69
507.939	103.69
508.155	72.69
508.372	98.69
508.588	93.69
508.805	92.69
509.021	101.69
509.238	87.69
509.454	86.69
509.67	87.69
509.887	78.69
510.103	92.69
510.319	77.69
510.536	88.69
510.752	77.69
510.968	99.69
511.184	82.69
511.401	84.69
511.617	71.69
511.833	92.69
512.049	78.69
512.265	78.69
512.481	79.69
512.698	90.69
512.914	93.69
513.13	87.69
513.346	83.69
513.562	93.69
513.778	85.69
513.994	87.69
514.21	92.69
514.426	86.69
514.642	97.69
514.858	89.69
515.074	75.69
515.29	93.69
515.506	87.69
515.721	89.69
