Data from Uncirc_1998_H10_HRD10591_00067.txt Node
Date: Wed Jan 03 11:25:38 EST 2024
User: Yrep
Spectrometer: HR+D1059
Trigger mode: 1
Integration Time (sec): 1.000000E-1
Scans to average: 1
Electric dark correction enabled: true
Nonlinearity correction enabled: false
Boxcar width: 0
XAxis mode: Wavelengths
Number of Pixels in Spectrum: 2048
>>>>>Begin Spectral Data<<<<<
223.165	-23.62
223.4	-23.62
223.635	-23.62
223.869	-20.62
224.104	-13.62
224.338	-12.62
224.573	-27.62
224.808	-28.62
225.042	-3.62
225.277	-6.62
225.511	4.38
225.746	-5.62
225.98	17.38
226.215	18.38
226.449	9.38
226.683	18.38
226.918	35.38
227.152	39.38
227.387	45.38
227.621	42.38
227.856	57.38
228.09	36.38
228.324	52.38
228.559	53.38
228.793	62.38
229.027	76.38
229.262	63.38
229.496	85.38
229.73	77.38
229.964	78.38
230.199	74.38
230.433	88.38
230.667	81.38
230.901	76.38
231.136	90.38
231.37	61.38
231.604	77.38
231.838	86.38
232.072	75.38
232.306	86.38
232.541	90.38
232.775	61.38
233.009	79.38
233.243	89.38
233.477	75.38
233.711	83.38
233.945	97.38
234.179	75.38
234.413	78.38
234.647	61.38
234.881	80.38
235.115	75.38
235.349	84.38
235.583	86.38
235.817	85.38
236.051	88.38
236.285	78.38
236.519	78.38
236.753	68.38
236.987	68.38
237.221	90.38
237.455	91.38
237.689	81.38
237.922	80.38
238.156	86.38
238.39	91.38
238.624	84.38
238.858	72.38
239.091	82.38
239.325	59.38
239.559	77.38
239.793	87.38
240.027	91.38
240.26	73.38
240.494	78.38
240.728	68.38
240.961	73.38
241.195	67.38
241.429	75.38
241.662	83.38
241.896	83.38
242.13	85.38
242.363	87.38
242.597	81.38
242.83	85.38
243.064	78.38
243.298	65.38
243.531	81.38
243.765	68.38
243.998	75.38
244.232	89.38
244.465	78.38
244.699	91.38
244.932	73.38
245.166	88.38
245.399	78.38
245.633	74.38
245.866	85.38
246.099	70.38
246.333	79.38
246.566	73.38
246.8	87.38
247.033	66.38
247.266	82.38
247.5	73.38
247.733	86.38
247.966	97.38
248.2	88.38
248.433	90.38
248.666	64.38
248.899	86.38
249.133	89.38
249.366	96.38
249.599	96.38
249.832	90.38
250.066	74.38
250.299	81.38
250.532	72.38
250.765	75.38
250.998	95.38
251.231	68.38
251.465	95.38
251.698	71.38
251.931	72.38
252.164	72.38
252.397	78.38
252.63	83.38
252.863	91.38
253.096	78.38
253.329	98.38
253.562	74.38
253.795	77.38
254.028	82.38
254.261	89.38
254.494	89.38
254.727	93.38
254.96	68.38
255.193	77.38
255.426	89.38
255.659	85.38
255.892	75.38
256.124	60.38
256.357	92.38
256.59	74.38
256.823	81.38
257.056	87.38
257.289	71.38
257.521	104.38
257.754	89.38
257.987	88.38
258.22	79.38
258.452	72.38
258.685	85.38
258.918	83.38
259.151	76.38
259.383	86.38
259.616	76.38
259.849	81.38
260.081	81.38
260.314	86.38
260.547	81.38
260.779	82.38
261.012	101.38
261.244	83.38
261.477	85.38
261.71	99.38
261.942	100.38
262.175	103.38
262.407	73.38
262.64	81.38
262.872	78.38
263.105	91.38
263.337	91.38
263.57	93.38
263.802	85.38
264.035	75.38
264.267	80.38
264.499	73.38
264.732	91.38
264.964	75.38
265.197	82.38
265.429	70.38
265.661	99.38
265.894	87.38
266.126	90.38
266.358	83.38
266.591	93.38
266.823	95.38
267.055	98.38
267.287	102.38
267.52	92.38
267.752	82.38
267.984	71.38
268.216	84.38
268.448	82.38
268.681	77.38
268.913	76.38
269.145	61.38
269.377	87.38
269.609	84.38
269.841	83.38
270.073	82.38
270.306	93.38
270.538	85.38
270.77	82.38
271.002	90.38
271.234	84.38
271.466	77.38
271.698	80.38
271.93	80.38
272.162	90.38
272.394	83.38
272.626	99.38
272.858	83.38
273.09	86.38
273.322	79.38
273.553	87.38
273.785	89.38
274.017	84.38
274.249	87.38
274.481	83.38
274.713	84.38
274.945	106.38
275.176	88.38
275.408	93.38
275.64	90.38
275.872	95.38
276.104	79.38
276.335	82.38
276.567	95.38
276.799	106.38
277.031	91.38
277.262	82.38
277.494	79.38
277.726	80.38
277.957	92.38
278.189	84.38
278.421	69.38
278.652	91.38
278.884	86.38
279.115	97.38
279.347	83.38
279.579	91.38
279.81	88.38
280.042	91.38
280.273	81.38
280.505	73.38
280.736	95.38
280.968	77.38
281.199	90.38
281.431	90.38
281.662	92.38
281.894	74.38
282.125	116.38
282.356	115.38
282.588	126.38
282.819	116.38
283.051	94.38
283.282	90.38
283.513	84.38
283.745	93.38
283.976	83.38
284.207	82.38
284.439	74.38
284.67	89.38
284.901	88.38
285.132	74.38
285.364	97.38
285.595	87.38
285.826	96.38
286.057	96.38
286.288	85.38
286.52	82.38
286.751	77.38
286.982	80.38
287.213	80.38
287.444	80.38
287.675	89.38
287.906	91.38
288.138	87.38
288.369	83.38
288.6	97.38
288.831	83.38
289.062	94.38
289.293	95.38
289.524	77.38
289.755	93.38
289.986	95.38
290.217	85.38
290.448	97.38
290.679	94.38
290.91	92.38
291.141	91.38
291.371	82.38
291.602	82.38
291.833	89.38
292.064	75.38
292.295	93.38
292.526	97.38
292.757	88.38
292.987	81.38
293.218	88.38
293.449	82.38
293.68	94.38
293.91	78.38
294.141	83.38
294.372	96.38
294.603	93.38
294.833	92.38
295.064	86.38
295.295	92.38
295.525	90.38
295.756	83.38
295.987	101.38
296.217	128.38
296.448	111.38
296.679	85.38
296.909	95.38
297.14	107.38
297.37	88.38
297.601	84.38
297.831	90.38
298.062	92.38
298.292	88.38
298.523	90.38
298.753	89.38
298.984	82.38
299.214	97.38
299.445	83.38
299.675	92.38
299.905	104.38
300.136	79.38
300.366	80.38
300.597	96.38
300.827	93.38
301.057	98.38
301.288	97.38
301.518	88.38
301.748	94.38
301.979	96.38
302.209	85.38
302.439	81.38
302.669	86.38
302.9	95.38
303.13	92.38
303.36	91.38
303.59	92.38
303.82	85.38
304.051	87.38
304.281	74.38
304.511	88.38
304.741	96.38
304.971	88.38
305.201	90.38
305.431	104.38
305.661	96.38
305.891	84.38
306.121	87.38
306.352	78.38
306.582	104.38
306.812	87.38
307.042	94.38
307.272	88.38
307.502	92.38
307.731	97.38
307.961	73.38
308.191	88.38
308.421	91.38
308.651	77.38
308.881	87.38
309.111	100.38
309.341	88.38
309.571	101.38
309.8	95.38
310.03	108.38
310.26	98.38
310.49	98.38
310.72	91.38
310.949	92.38
311.179	96.38
311.409	89.38
311.639	99.38
311.868	97.38
312.098	90.38
312.328	96.38
312.557	106.38
312.787	98.38
313.017	103.38
313.246	91.38
313.476	85.38
313.706	84.38
313.935	85.38
314.165	80.38
314.394	92.38
314.624	101.38
314.853	96.38
315.083	95.38
315.312	101.38
315.542	91.38
315.771	80.38
316.001	98.38
316.23	103.38
316.46	101.38
316.689	96.38
316.919	86.38
317.148	89.38
317.377	110.38
317.607	91.38
317.836	92.38
318.065	92.38
318.295	89.38
318.524	91.38
318.753	98.38
318.983	84.38
319.212	105.38
319.441	112.38
319.67	94.38
319.9	91.38
320.129	105.38
320.358	96.38
320.587	112.38
320.816	94.38
321.046	99.38
321.275	93.38
321.504	97.38
321.733	102.38
321.962	97.38
322.191	106.38
322.42	106.38
322.649	113.38
322.878	115.38
323.108	103.38
323.337	136.38
323.566	135.38
323.795	166.38
324.024	191.38
324.253	362.38
324.482	758.38
324.71	1584.38
324.939	2013.38
325.168	767.38
325.397	234.38
325.626	144.38
325.855	123.38
326.084	125.38
326.313	117.38
326.542	144.38
326.77	217.38
326.999	441.38
327.228	895.38
327.457	1553.38
327.686	1271.38
327.914	352.38
328.143	173.38
328.372	149.38
328.6	121.38
328.829	116.38
329.058	125.38
329.287	134.38
329.515	108.38
329.744	98.38
329.972	108.38
330.201	89.38
330.43	97.38
330.658	116.38
330.887	124.38
331.115	116.38
331.344	88.38
331.572	103.38
331.801	107.38
332.03	93.38
332.258	94.38
332.486	92.38
332.715	98.38
332.943	91.38
333.172	97.38
333.4	112.38
333.629	103.38
333.857	117.38
334.085	120.38
334.314	98.38
334.542	102.38
334.771	99.38
334.999	92.38
335.227	95.38
335.455	93.38
335.684	93.38
335.912	100.38
336.14	93.38
336.369	90.38
336.597	115.38
336.825	103.38
337.053	86.38
337.281	99.38
337.51	92.38
337.738	98.38
337.966	95.38
338.194	97.38
338.422	107.38
338.65	96.38
338.878	94.38
339.106	94.38
339.334	98.38
339.562	95.38
339.79	85.38
340.018	86.38
340.246	87.38
340.474	104.38
340.702	95.38
340.93	96.38
341.158	92.38
341.386	86.38
341.614	96.38
341.842	93.38
342.07	80.38
342.298	96.38
342.526	99.38
342.754	90.38
342.981	80.38
343.209	92.38
343.437	92.38
343.665	88.38
343.893	93.38
344.12	79.38
344.348	96.38
344.576	93.38
344.804	100.38
345.031	91.38
345.259	99.38
345.487	91.38
345.714	96.38
345.942	91.38
346.17	89.38
346.397	98.38
346.625	85.38
346.853	91.38
347.08	98.38
347.308	104.38
347.535	88.38
347.763	99.38
347.99	107.38
348.218	106.38
348.445	97.38
348.673	101.38
348.9	96.38
349.128	97.38
349.355	86.38
349.583	96.38
349.81	93.38
350.037	88.38
350.265	97.38
350.492	105.38
350.72	107.38
350.947	106.38
351.174	114.38
351.402	114.38
351.629	107.38
351.856	83.38
352.083	103.38
352.311	105.38
352.538	113.38
352.765	107.38
352.992	117.38
353.22	108.38
353.447	103.38
353.674	91.38
353.901	91.38
354.128	109.38
354.355	101.38
354.583	95.38
354.81	92.38
355.037	100.38
355.264	92.38
355.491	109.38
355.718	82.38
355.945	90.38
356.172	101.38
356.399	94.38
356.626	93.38
356.853	87.38
357.08	99.38
357.307	93.38
357.534	75.38
357.761	100.38
357.988	98.38
358.215	105.38
358.441	95.38
358.668	87.38
358.895	89.38
359.122	96.38
359.349	92.38
359.576	90.38
359.802	97.38
360.029	97.38
360.256	98.38
360.483	92.38
360.709	95.38
360.936	93.38
361.163	85.38
361.39	101.38
361.616	89.38
361.843	78.38
362.07	84.38
362.296	104.38
362.523	105.38
362.749	104.38
362.976	88.38
363.203	94.38
363.429	88.38
363.656	89.38
363.882	88.38
364.109	99.38
364.335	98.38
364.562	89.38
364.788	87.38
365.015	102.38
365.241	101.38
365.468	95.38
365.694	90.38
365.92	79.38
366.147	87.38
366.373	92.38
366.599	90.38
366.826	89.38
367.052	84.38
367.278	77.38
367.505	85.38
367.731	90.38
367.957	94.38
368.184	91.38
368.41	96.38
368.636	103.38
368.862	110.38
369.089	108.38
369.315	93.38
369.541	87.38
369.767	96.38
369.993	95.38
370.219	69.38
370.445	84.38
370.672	89.38
370.898	85.38
371.124	88.38
371.35	85.38
371.576	97.38
371.802	96.38
372.028	92.38
372.254	84.38
372.48	96.38
372.706	98.38
372.932	93.38
373.158	95.38
373.384	89.38
373.61	89.38
373.835	91.38
374.061	87.38
374.287	79.38
374.513	91.38
374.739	93.38
374.965	100.38
375.191	75.38
375.416	80.38
375.642	79.38
375.868	91.38
376.094	101.38
376.319	96.38
376.545	93.38
376.771	100.38
376.997	84.38
377.222	91.38
377.448	77.38
377.674	100.38
377.899	95.38
378.125	93.38
378.35	83.38
378.576	100.38
378.802	102.38
379.027	96.38
379.253	95.38
379.478	81.38
379.704	97.38
379.929	99.38
380.155	89.38
380.38	110.38
380.606	92.38
380.831	105.38
381.057	94.38
381.282	78.38
381.507	91.38
381.733	95.38
381.958	97.38
382.184	88.38
382.409	98.38
382.634	91.38
382.86	92.38
383.085	85.38
383.31	104.38
383.535	97.38
383.761	103.38
383.986	102.38
384.211	101.38
384.436	98.38
384.662	93.38
384.887	92.38
385.112	90.38
385.337	104.38
385.562	86.38
385.787	106.38
386.013	112.38
386.238	96.38
386.463	93.38
386.688	121.38
386.913	107.38
387.138	113.38
387.363	87.38
387.588	77.38
387.813	104.38
388.038	101.38
388.263	95.38
388.488	100.38
388.713	88.38
388.938	101.38
389.163	104.38
389.387	97.38
389.612	107.38
389.837	95.38
390.062	100.38
390.287	99.38
390.512	80.38
390.736	101.38
390.961	78.38
391.186	95.38
391.411	102.38
391.636	84.38
391.86	91.38
392.085	77.38
392.31	83.38
392.534	75.38
392.759	84.38
392.984	93.38
393.208	79.38
393.433	72.38
393.658	86.38
393.882	94.38
394.107	86.38
394.331	84.38
394.556	100.38
394.78	99.38
395.005	91.38
395.229	85.38
395.454	78.38
395.678	83.38
395.903	84.38
396.127	98.38
396.352	95.38
396.576	81.38
396.801	91.38
397.025	84.38
397.249	75.38
397.474	93.38
397.698	77.38
397.922	93.38
398.147	89.38
398.371	90.38
398.595	95.38
398.82	100.38
399.044	99.38
399.268	90.38
399.492	91.38
399.717	72.38
399.941	93.38
400.165	92.38
400.389	88.38
400.613	95.38
400.837	84.38
401.062	89.38
401.286	79.38
401.51	84.38
401.734	90.38
401.958	96.38
402.182	108.38
402.406	137.38
402.63	124.38
402.854	83.38
403.078	89.38
403.302	83.38
403.526	91.38
403.75	90.38
403.974	91.38
404.198	104.38
404.422	74.38
404.645	77.38
404.869	84.38
405.093	85.38
405.317	100.38
405.541	108.38
405.765	105.38
405.988	121.38
406.212	164.38
406.436	226.38
406.66	141.38
406.883	102.38
407.107	100.38
407.331	87.38
407.555	97.38
407.778	103.38
408.002	101.38
408.226	87.38
408.449	99.38
408.673	94.38
408.896	89.38
409.12	104.38
409.344	97.38
409.567	94.38
409.791	77.38
410.014	105.38
410.238	92.38
410.461	109.38
410.685	91.38
410.908	100.38
411.132	100.38
411.355	92.38
411.578	88.38
411.802	100.38
412.025	82.38
412.249	79.38
412.472	97.38
412.695	91.38
412.919	79.38
413.142	86.38
413.365	102.38
413.589	96.38
413.812	93.38
414.035	91.38
414.258	106.38
414.482	91.38
414.705	100.38
414.928	88.38
415.151	91.38
415.374	97.38
415.597	90.38
415.821	95.38
416.044	89.38
416.267	75.38
416.49	83.38
416.713	82.38
416.936	92.38
417.159	87.38
417.382	99.38
417.605	96.38
417.828	98.38
418.051	97.38
418.274	108.38
418.497	98.38
418.72	94.38
418.943	95.38
419.166	77.38
419.389	76.38
419.611	93.38
419.834	79.38
420.057	100.38
420.28	88.38
420.503	88.38
420.726	84.38
420.948	87.38
421.171	83.38
421.394	100.38
421.617	93.38
421.839	93.38
422.062	98.38
422.285	91.38
422.507	105.38
422.73	99.38
422.953	98.38
423.175	98.38
423.398	100.38
423.621	89.38
423.843	98.38
424.066	79.38
424.288	94.38
424.511	82.38
424.733	106.38
424.956	95.38
425.178	90.38
425.401	104.38
425.623	113.38
425.846	93.38
426.068	84.38
426.291	83.38
426.513	89.38
426.735	89.38
426.958	92.38
427.18	106.38
427.402	122.38
427.625	152.38
427.847	132.38
428.069	104.38
428.292	91.38
428.514	67.38
428.736	77.38
428.958	80.38
429.181	84.38
429.403	82.38
429.625	99.38
429.847	103.38
430.069	100.38
430.292	96.38
430.514	88.38
430.736	89.38
430.958	100.38
431.18	77.38
431.402	97.38
431.624	104.38
431.846	92.38
432.068	84.38
432.29	94.38
432.512	82.38
432.734	101.38
432.956	91.38
433.178	90.38
433.4	88.38
433.622	98.38
433.844	95.38
434.066	104.38
434.287	91.38
434.509	95.38
434.731	81.38
434.953	92.38
435.175	78.38
435.397	89.38
435.618	101.38
435.84	100.38
436.062	122.38
436.284	122.38
436.505	105.38
436.727	104.38
436.949	89.38
437.17	99.38
437.392	95.38
437.614	99.38
437.835	101.38
438.057	108.38
438.278	122.38
438.5	96.38
438.721	119.38
438.943	104.38
439.165	93.38
439.386	81.38
439.608	99.38
439.829	87.38
440.05	122.38
440.272	145.38
440.493	103.38
440.715	101.38
440.936	95.38
441.158	89.38
441.379	88.38
441.6	80.38
441.822	99.38
442.043	85.38
442.264	111.38
442.486	107.38
442.707	97.38
442.928	99.38
443.149	131.38
443.371	126.38
443.592	113.38
443.813	117.38
444.034	100.38
444.255	98.38
444.476	97.38
444.698	84.38
444.919	85.38
445.14	130.38
445.361	137.38
445.582	110.38
445.803	125.38
446.024	129.38
446.245	116.38
446.466	112.38
446.687	93.38
446.908	102.38
447.129	83.38
447.35	102.38
447.571	95.38
447.792	102.38
448.013	111.38
448.234	115.38
448.455	112.38
448.675	107.38
448.896	116.38
449.117	104.38
449.338	105.38
449.559	121.38
449.779	111.38
450	101.38
450.221	85.38
450.442	95.38
450.662	95.38
450.883	111.38
451.104	99.38
451.324	99.38
451.545	95.38
451.766	94.38
451.986	79.38
452.207	81.38
452.428	97.38
452.648	99.38
452.869	111.38
453.089	101.38
453.31	106.38
453.53	97.38
453.751	98.38
453.971	91.38
454.192	101.38
454.412	93.38
454.633	80.38
454.853	92.38
455.073	93.38
455.294	104.38
455.514	97.38
455.734	96.38
455.955	93.38
456.175	91.38
456.395	85.38
456.616	97.38
456.836	80.38
457.056	85.38
457.276	82.38
457.497	82.38
457.717	92.38
457.937	70.38
458.157	95.38
458.377	89.38
458.598	88.38
458.818	144.38
459.038	145.38
459.258	111.38
459.478	73.38
459.698	98.38
459.918	99.38
460.138	80.38
460.358	93.38
460.578	84.38
460.798	84.38
461.018	84.38
461.238	90.38
461.458	90.38
461.678	79.38
461.898	88.38
462.118	93.38
462.338	94.38
462.558	106.38
462.777	85.38
462.997	87.38
463.217	76.38
463.437	85.38
463.657	89.38
463.876	76.38
464.096	84.38
464.316	99.38
464.536	103.38
464.755	105.38
464.975	103.38
465.195	164.38
465.414	132.38
465.634	100.38
465.854	97.38
466.073	91.38
466.293	92.38
466.512	87.38
466.732	84.38
466.951	80.38
467.171	104.38
467.391	99.38
467.61	100.38
467.829	96.38
468.049	90.38
468.268	89.38
468.488	85.38
468.707	80.38
468.927	87.38
469.146	83.38
469.365	90.38
469.585	99.38
469.804	95.38
470.023	96.38
470.243	91.38
470.462	114.38
470.681	101.38
470.901	92.38
471.12	91.38
471.339	75.38
471.558	86.38
471.777	92.38
471.997	85.38
472.216	105.38
472.435	86.38
472.654	91.38
472.873	86.38
473.092	83.38
473.311	97.38
473.53	97.38
473.749	91.38
473.968	87.38
474.187	98.38
474.406	87.38
474.625	100.38
474.844	93.38
475.063	93.38
475.282	98.38
475.501	80.38
475.72	95.38
475.939	99.38
476.158	95.38
476.377	90.38
476.596	89.38
476.814	93.38
477.033	91.38
477.252	94.38
477.471	101.38
477.69	92.38
477.908	97.38
478.127	92.38
478.346	82.38
478.564	94.38
478.783	108.38
479.002	92.38
479.22	103.38
479.439	97.38
479.658	92.38
479.876	101.38
480.095	97.38
480.313	101.38
480.532	95.38
480.751	92.38
480.969	103.38
481.188	117.38
481.406	98.38
481.624	98.38
481.843	92.38
482.061	92.38
482.28	87.38
482.498	85.38
482.717	99.38
482.935	94.38
483.153	87.38
483.372	99.38
483.59	81.38
483.808	95.38
484.027	101.38
484.245	93.38
484.463	94.38
484.681	110.38
484.9	90.38
485.118	101.38
485.336	104.38
485.554	105.38
485.772	84.38
485.99	101.38
486.209	96.38
486.427	100.38
486.645	109.38
486.863	117.38
487.081	99.38
487.299	94.38
487.517	93.38
487.735	101.38
487.953	95.38
488.171	88.38
488.389	98.38
488.607	106.38
488.825	94.38
489.043	105.38
489.261	98.38
489.479	86.38
489.696	97.38
489.914	82.38
490.132	97.38
490.35	80.38
490.568	76.38
490.786	87.38
491.003	86.38
491.221	114.38
491.439	91.38
491.657	93.38
491.874	88.38
492.092	92.38
492.31	94.38
492.527	100.38
492.745	86.38
492.963	85.38
493.18	96.38
493.398	108.38
493.615	91.38
493.833	102.38
494.05	97.38
494.268	91.38
494.485	96.38
494.703	96.38
494.92	95.38
495.138	97.38
495.355	86.38
495.573	92.38
495.79	106.38
496.008	87.38
496.225	85.38
496.442	95.38
496.66	83.38
496.877	95.38
497.094	108.38
497.312	98.38
497.529	90.38
497.746	94.38
497.963	93.38
498.181	97.38
498.398	92.38
498.615	113.38
498.832	92.38
499.049	85.38
499.267	99.38
499.484	87.38
499.701	93.38
499.918	93.38
500.135	108.38
500.352	91.38
500.569	102.38
500.786	88.38
501.003	103.38
501.22	96.38
501.437	94.38
501.654	107.38
501.871	100.38
502.088	94.38
502.305	96.38
502.522	88.38
502.739	106.38
502.956	96.38
503.172	95.38
503.389	92.38
503.606	94.38
503.823	107.38
504.04	112.38
504.256	95.38
504.473	100.38
504.69	84.38
504.907	97.38
505.123	85.38
505.34	98.38
505.557	76.38
505.773	102.38
505.99	102.38
506.207	93.38
506.423	92.38
506.64	89.38
506.856	88.38
507.073	96.38
507.289	92.38
507.506	103.38
507.722	111.38
507.939	102.38
508.155	115.38
508.372	97.38
508.588	96.38
508.805	88.38
509.021	88.38
509.238	85.38
509.454	87.38
509.67	101.38
509.887	134.38
510.103	123.38
510.319	213.38
510.536	724.38
510.752	2227.38
510.968	632.38
511.184	160.38
511.401	115.38
511.617	116.38
511.833	100.38
512.049	105.38
512.265	102.38
512.481	90.38
512.698	101.38
512.914	92.38
513.13	95.38
513.346	79.38
513.562	98.38
513.778	99.38
513.994	93.38
514.21	107.38
514.426	115.38
514.642	116.38
514.858	123.38
515.074	177.38
515.29	439.38
515.506	1378.38
