Data from Uncirc_1998_H10_HRD10591_00061.txt Node
Date: Wed Jan 03 11:25:37 EST 2024
User: Yrep
Spectrometer: HR+D1059
Trigger mode: 1
Integration Time (sec): 1.000000E-1
Scans to average: 1
Electric dark correction enabled: true
Nonlinearity correction enabled: false
Boxcar width: 0
XAxis mode: Wavelengths
Number of Pixels in Spectrum: 2048
>>>>>Begin Spectral Data<<<<<
223.165	-30.12
223.4	-30.12
223.635	-30.12
223.869	-24.12
224.104	-30.12
224.338	-15.12
224.573	-12.12
224.808	-11.12
225.042	-3.12
225.277	-3.12
225.511	4.88
225.746	5.88
225.98	13.88
226.215	13.88
226.449	19.88
226.683	26.88
226.918	15.88
227.152	27.88
227.387	19.88
227.621	23.88
227.856	51.88
228.09	46.88
228.324	29.88
228.559	43.88
228.793	56.88
229.027	45.88
229.262	72.88
229.496	56.88
229.73	73.88
229.964	83.88
230.199	87.88
230.433	72.88
230.667	92.88
230.901	77.88
231.136	68.88
231.37	74.88
231.604	65.88
231.838	85.88
232.072	57.88
232.306	78.88
232.541	77.88
232.775	72.88
233.009	76.88
233.243	86.88
233.477	73.88
233.711	83.88
233.945	69.88
234.179	75.88
234.413	86.88
234.647	82.88
234.881	77.88
235.115	82.88
235.349	75.88
235.583	76.88
235.817	92.88
236.051	74.88
236.285	79.88
236.519	73.88
236.753	73.88
236.987	80.88
237.221	88.88
237.455	92.88
237.689	88.88
237.922	79.88
238.156	63.88
238.39	75.88
238.624	93.88
238.858	83.88
239.091	72.88
239.325	64.88
239.559	91.88
239.793	69.88
240.027	90.88
240.26	74.88
240.494	84.88
240.728	72.88
240.961	61.88
241.195	69.88
241.429	78.88
241.662	60.88
241.896	71.88
242.13	85.88
242.363	70.88
242.597	84.88
242.83	80.88
243.064	89.88
243.298	76.88
243.531	87.88
243.765	75.88
243.998	79.88
244.232	74.88
244.465	86.88
244.699	75.88
244.932	87.88
245.166	83.88
245.399	81.88
245.633	55.88
245.866	67.88
246.099	67.88
246.333	71.88
246.566	83.88
246.8	75.88
247.033	73.88
247.266	84.88
247.5	75.88
247.733	80.88
247.966	79.88
248.2	86.88
248.433	72.88
248.666	78.88
248.899	75.88
249.133	82.88
249.366	94.88
249.599	69.88
249.832	85.88
250.066	95.88
250.299	70.88
250.532	72.88
250.765	80.88
250.998	82.88
251.231	83.88
251.465	81.88
251.698	90.88
251.931	71.88
252.164	83.88
252.397	78.88
252.63	87.88
252.863	77.88
253.096	77.88
253.329	86.88
253.562	76.88
253.795	70.88
254.028	80.88
254.261	82.88
254.494	82.88
254.727	82.88
254.96	70.88
255.193	62.88
255.426	84.88
255.659	97.88
255.892	85.88
256.124	87.88
256.357	95.88
256.59	87.88
256.823	62.88
257.056	96.88
257.289	86.88
257.521	83.88
257.754	82.88
257.987	86.88
258.22	79.88
258.452	65.88
258.685	72.88
258.918	85.88
259.151	82.88
259.383	70.88
259.616	80.88
259.849	77.88
260.081	90.88
260.314	78.88
260.547	72.88
260.779	75.88
261.012	73.88
261.244	75.88
261.477	79.88
261.71	94.88
261.942	115.88
262.175	105.88
262.407	88.88
262.64	76.88
262.872	88.88
263.105	83.88
263.337	73.88
263.57	78.88
263.802	78.88
264.035	73.88
264.267	91.88
264.499	80.88
264.732	63.88
264.964	84.88
265.197	71.88
265.429	85.88
265.661	101.88
265.894	84.88
266.126	75.88
266.358	67.88
266.591	92.88
266.823	69.88
267.055	65.88
267.287	93.88
267.52	61.88
267.752	83.88
267.984	72.88
268.216	83.88
268.448	86.88
268.681	73.88
268.913	86.88
269.145	84.88
269.377	79.88
269.609	90.88
269.841	92.88
270.073	78.88
270.306	73.88
270.538	84.88
270.77	91.88
271.002	92.88
271.234	96.88
271.466	68.88
271.698	63.88
271.93	83.88
272.162	83.88
272.394	76.88
272.626	74.88
272.858	87.88
273.09	95.88
273.322	80.88
273.553	76.88
273.785	80.88
274.017	79.88
274.249	91.88
274.481	82.88
274.713	66.88
274.945	79.88
275.176	81.88
275.408	82.88
275.64	80.88
275.872	90.88
276.104	88.88
276.335	93.88
276.567	79.88
276.799	93.88
277.031	94.88
277.262	83.88
277.494	92.88
277.726	88.88
277.957	77.88
278.189	90.88
278.421	90.88
278.652	77.88
278.884	82.88
279.115	89.88
279.347	87.88
279.579	76.88
279.81	77.88
280.042	97.88
280.273	76.88
280.505	81.88
280.736	77.88
280.968	83.88
281.199	89.88
281.431	88.88
281.662	75.88
281.894	86.88
282.125	88.88
282.356	110.88
282.588	136.88
282.819	116.88
283.051	92.88
283.282	87.88
283.513	93.88
283.745	77.88
283.976	93.88
284.207	91.88
284.439	82.88
284.67	88.88
284.901	85.88
285.132	82.88
285.364	78.88
285.595	95.88
285.826	75.88
286.057	83.88
286.288	75.88
286.52	75.88
286.751	81.88
286.982	73.88
287.213	79.88
287.444	73.88
287.675	79.88
287.906	96.88
288.138	77.88
288.369	92.88
288.6	86.88
288.831	87.88
289.062	89.88
289.293	84.88
289.524	90.88
289.755	79.88
289.986	84.88
290.217	84.88
290.448	90.88
290.679	87.88
290.91	89.88
291.141	74.88
291.371	85.88
291.602	83.88
291.833	81.88
292.064	75.88
292.295	86.88
292.526	89.88
292.757	91.88
292.987	83.88
293.218	95.88
293.449	95.88
293.68	87.88
293.91	94.88
294.141	89.88
294.372	81.88
294.603	94.88
294.833	96.88
295.064	91.88
295.295	102.88
295.525	95.88
295.756	92.88
295.987	108.88
296.217	115.88
296.448	122.88
296.679	94.88
296.909	99.88
297.14	93.88
297.37	83.88
297.601	76.88
297.831	77.88
298.062	99.88
298.292	91.88
298.523	82.88
298.753	78.88
298.984	87.88
299.214	86.88
299.445	103.88
299.675	80.88
299.905	79.88
300.136	88.88
300.366	76.88
300.597	103.88
300.827	87.88
301.057	99.88
301.288	85.88
301.518	99.88
301.748	84.88
301.979	91.88
302.209	98.88
302.439	106.88
302.669	77.88
302.9	98.88
303.13	100.88
303.36	88.88
303.59	94.88
303.82	90.88
304.051	79.88
304.281	82.88
304.511	97.88
304.741	77.88
304.971	85.88
305.201	69.88
305.431	88.88
305.661	83.88
305.891	89.88
306.121	88.88
306.352	85.88
306.582	101.88
306.812	86.88
307.042	74.88
307.272	86.88
307.502	92.88
307.731	89.88
307.961	92.88
308.191	90.88
308.421	82.88
308.651	90.88
308.881	95.88
309.111	97.88
309.341	87.88
309.571	88.88
309.8	86.88
310.03	100.88
310.26	100.88
310.49	85.88
310.72	80.88
310.949	99.88
311.179	98.88
311.409	113.88
311.639	89.88
311.868	101.88
312.098	99.88
312.328	83.88
312.557	91.88
312.787	99.88
313.017	94.88
313.246	77.88
313.476	96.88
313.706	90.88
313.935	85.88
314.165	95.88
314.394	81.88
314.624	88.88
314.853	73.88
315.083	92.88
315.312	91.88
315.542	77.88
315.771	111.88
316.001	91.88
316.23	96.88
316.46	87.88
316.689	90.88
316.919	94.88
317.148	94.88
317.377	103.88
317.607	97.88
317.836	107.88
318.065	94.88
318.295	81.88
318.524	73.88
318.753	93.88
318.983	97.88
319.212	95.88
319.441	116.88
319.67	110.88
319.9	92.88
320.129	95.88
320.358	86.88
320.587	87.88
320.816	91.88
321.046	95.88
321.275	99.88
321.504	90.88
321.733	100.88
321.962	103.88
322.191	84.88
322.42	97.88
322.649	111.88
322.878	111.88
323.108	117.88
323.337	121.88
323.566	131.88
323.795	143.88
324.024	198.88
324.253	367.88
324.482	759.88
324.71	1543.88
324.939	2031.88
325.168	751.88
325.397	224.88
325.626	126.88
325.855	121.88
326.084	126.88
326.313	99.88
326.542	149.88
326.77	207.88
326.999	436.88
327.228	883.88
327.457	1595.88
327.686	1252.88
327.914	354.88
328.143	177.88
328.372	127.88
328.6	113.88
328.829	105.88
329.058	119.88
329.287	119.88
329.515	102.88
329.744	90.88
329.972	95.88
330.201	86.88
330.43	103.88
330.658	107.88
330.887	128.88
331.115	96.88
331.344	91.88
331.572	97.88
331.801	93.88
332.03	86.88
332.258	95.88
332.486	80.88
332.715	92.88
332.943	102.88
333.172	103.88
333.4	111.88
333.629	94.88
333.857	98.88
334.085	92.88
334.314	91.88
334.542	106.88
334.771	89.88
334.999	83.88
335.227	86.88
335.455	95.88
335.684	89.88
335.912	95.88
336.14	88.88
336.369	101.88
336.597	99.88
336.825	89.88
337.053	88.88
337.281	91.88
337.51	98.88
337.738	87.88
337.966	84.88
338.194	94.88
338.422	94.88
338.65	94.88
338.878	74.88
339.106	91.88
339.334	93.88
339.562	103.88
339.79	90.88
340.018	106.88
340.246	83.88
340.474	87.88
340.702	89.88
340.93	87.88
341.158	96.88
341.386	94.88
341.614	88.88
341.842	85.88
342.07	97.88
342.298	85.88
342.526	87.88
342.754	88.88
342.981	79.88
343.209	86.88
343.437	104.88
343.665	76.88
343.893	85.88
344.12	84.88
344.348	99.88
344.576	84.88
344.804	92.88
345.031	105.88
345.259	101.88
345.487	86.88
345.714	89.88
345.942	100.88
346.17	92.88
346.397	105.88
346.625	92.88
346.853	78.88
347.08	93.88
347.308	89.88
347.535	84.88
347.763	94.88
347.99	96.88
348.218	92.88
348.445	89.88
348.673	94.88
348.9	94.88
349.128	87.88
349.355	95.88
349.583	107.88
349.81	104.88
350.037	81.88
350.265	101.88
350.492	87.88
350.72	98.88
350.947	121.88
351.174	110.88
351.402	103.88
351.629	91.88
351.856	99.88
352.083	95.88
352.311	108.88
352.538	107.88
352.765	110.88
352.992	115.88
353.22	97.88
353.447	107.88
353.674	97.88
353.901	105.88
354.128	92.88
354.355	86.88
354.583	95.88
354.81	102.88
355.037	123.88
355.264	77.88
355.491	96.88
355.718	105.88
355.945	97.88
356.172	99.88
356.399	89.88
356.626	82.88
356.853	85.88
357.08	93.88
357.307	87.88
357.534	83.88
357.761	91.88
357.988	83.88
358.215	88.88
358.441	89.88
358.668	79.88
358.895	91.88
359.122	96.88
359.349	77.88
359.576	68.88
359.802	85.88
360.029	94.88
360.256	100.88
360.483	94.88
360.709	83.88
360.936	94.88
361.163	87.88
361.39	87.88
361.616	104.88
361.843	81.88
362.07	100.88
362.296	92.88
362.523	94.88
362.749	113.88
362.976	94.88
363.203	100.88
363.429	87.88
363.656	95.88
363.882	83.88
364.109	84.88
364.335	96.88
364.562	80.88
364.788	94.88
365.015	100.88
365.241	86.88
365.468	102.88
365.694	93.88
365.92	91.88
366.147	90.88
366.373	94.88
366.599	77.88
366.826	98.88
367.052	81.88
367.278	80.88
367.505	84.88
367.731	84.88
367.957	89.88
368.184	73.88
368.41	87.88
368.636	96.88
368.862	115.88
369.089	103.88
369.315	77.88
369.541	87.88
369.767	82.88
369.993	99.88
370.219	85.88
370.445	91.88
370.672	81.88
370.898	84.88
371.124	94.88
371.35	115.88
371.576	85.88
371.802	91.88
372.028	88.88
372.254	75.88
372.48	84.88
372.706	87.88
372.932	78.88
373.158	83.88
373.384	73.88
373.61	88.88
373.835	91.88
374.061	92.88
374.287	76.88
374.513	88.88
374.739	81.88
374.965	77.88
375.191	90.88
375.416	88.88
375.642	94.88
375.868	106.88
376.094	82.88
376.319	73.88
376.545	90.88
376.771	85.88
376.997	80.88
377.222	83.88
377.448	97.88
377.674	79.88
377.899	83.88
378.125	85.88
378.35	86.88
378.576	90.88
378.802	94.88
379.027	94.88
379.253	101.88
379.478	91.88
379.704	83.88
379.929	88.88
380.155	87.88
380.38	86.88
380.606	102.88
380.831	99.88
381.057	102.88
381.282	81.88
381.507	81.88
381.733	89.88
381.958	79.88
382.184	87.88
382.409	100.88
382.634	96.88
382.86	89.88
383.085	97.88
383.31	102.88
383.535	97.88
383.761	87.88
383.986	72.88
384.211	96.88
384.436	88.88
384.662	103.88
384.887	86.88
385.112	99.88
385.337	107.88
385.562	100.88
385.787	85.88
386.013	93.88
386.238	121.88
386.463	99.88
386.688	108.88
386.913	87.88
387.138	87.88
387.363	92.88
387.588	91.88
387.813	96.88
388.038	101.88
388.263	100.88
388.488	97.88
388.713	94.88
388.938	100.88
389.163	88.88
389.387	87.88
389.612	87.88
389.837	86.88
390.062	86.88
390.287	91.88
390.512	94.88
390.736	89.88
390.961	75.88
391.186	88.88
391.411	97.88
391.636	91.88
391.86	76.88
392.085	80.88
392.31	76.88
392.534	77.88
392.759	78.88
392.984	92.88
393.208	72.88
393.433	82.88
393.658	93.88
393.882	81.88
394.107	84.88
394.331	79.88
394.556	80.88
394.78	77.88
395.005	91.88
395.229	86.88
395.454	81.88
395.678	70.88
395.903	91.88
396.127	75.88
396.352	91.88
396.576	82.88
396.801	76.88
397.025	80.88
397.249	80.88
397.474	79.88
397.698	87.88
397.922	73.88
398.147	82.88
398.371	88.88
398.595	83.88
398.82	73.88
399.044	92.88
399.268	75.88
399.492	82.88
399.717	92.88
399.941	85.88
400.165	92.88
400.389	78.88
400.613	79.88
400.837	75.88
401.062	71.88
401.286	94.88
401.51	87.88
401.734	89.88
401.958	101.88
402.182	124.88
402.406	135.88
402.63	115.88
402.854	100.88
403.078	96.88
403.302	71.88
403.526	85.88
403.75	76.88
403.974	82.88
404.198	74.88
404.422	92.88
404.645	82.88
404.869	80.88
405.093	84.88
405.317	97.88
405.541	88.88
405.765	105.88
405.988	120.88
406.212	144.88
406.436	195.88
406.66	125.88
406.883	91.88
407.107	80.88
407.331	91.88
407.555	94.88
407.778	91.88
408.002	96.88
408.226	94.88
408.449	87.88
408.673	97.88
408.896	94.88
409.12	85.88
409.344	70.88
409.567	87.88
409.791	85.88
410.014	89.88
410.238	81.88
410.461	79.88
410.685	97.88
410.908	91.88
411.132	96.88
411.355	94.88
411.578	78.88
411.802	83.88
412.025	91.88
412.249	96.88
412.472	87.88
412.695	92.88
412.919	89.88
413.142	103.88
413.365	88.88
413.589	75.88
413.812	91.88
414.035	91.88
414.258	80.88
414.482	71.88
414.705	81.88
414.928	72.88
415.151	78.88
415.374	72.88
415.597	81.88
415.821	83.88
416.044	98.88
416.267	104.88
416.49	82.88
416.713	88.88
416.936	85.88
417.159	94.88
417.382	77.88
417.605	89.88
417.828	106.88
418.051	95.88
418.274	96.88
418.497	86.88
418.72	85.88
418.943	83.88
419.166	82.88
419.389	78.88
419.611	92.88
419.834	84.88
420.057	79.88
420.28	88.88
420.503	85.88
420.726	95.88
420.948	86.88
421.171	91.88
421.394	103.88
421.617	103.88
421.839	89.88
422.062	87.88
422.285	89.88
422.507	92.88
422.73	94.88
422.953	88.88
423.175	82.88
423.398	99.88
423.621	79.88
423.843	106.88
424.066	83.88
424.288	83.88
424.511	78.88
424.733	100.88
424.956	88.88
425.178	82.88
425.401	88.88
425.623	90.88
425.846	96.88
426.068	100.88
426.291	97.88
426.513	88.88
426.735	81.88
426.958	77.88
427.18	85.88
427.402	132.88
427.625	157.88
427.847	115.88
428.069	93.88
428.292	87.88
428.514	87.88
428.736	75.88
428.958	90.88
429.181	69.88
429.403	78.88
429.625	91.88
429.847	77.88
430.069	93.88
430.292	98.88
430.514	83.88
430.736	87.88
430.958	77.88
431.18	69.88
431.402	77.88
431.624	75.88
431.846	100.88
432.068	79.88
432.29	71.88
432.512	84.88
432.734	86.88
432.956	99.88
433.178	97.88
433.4	110.88
433.622	86.88
433.844	75.88
434.066	94.88
434.287	81.88
434.509	90.88
434.731	102.88
434.953	90.88
435.175	97.88
435.397	90.88
435.618	90.88
435.84	121.88
436.062	117.88
436.284	102.88
436.505	90.88
436.727	96.88
436.949	96.88
437.17	84.88
437.392	92.88
437.614	90.88
437.835	106.88
438.057	108.88
438.278	104.88
438.5	102.88
438.721	119.88
438.943	95.88
439.165	86.88
439.386	90.88
439.608	90.88
439.829	90.88
440.05	116.88
440.272	131.88
440.493	81.88
440.715	71.88
440.936	78.88
441.158	90.88
441.379	88.88
441.6	92.88
441.822	76.88
442.043	84.88
442.264	102.88
442.486	94.88
442.707	98.88
442.928	97.88
443.149	111.88
443.371	112.88
443.592	108.88
443.813	110.88
444.034	93.88
444.255	87.88
444.476	79.88
444.698	75.88
444.919	87.88
445.14	126.88
445.361	137.88
445.582	117.88
445.803	126.88
446.024	128.88
446.245	120.88
446.466	106.88
446.687	95.88
446.908	87.88
447.129	91.88
447.35	96.88
447.571	95.88
447.792	86.88
448.013	107.88
448.234	107.88
448.455	95.88
448.675	109.88
448.896	111.88
449.117	106.88
449.338	98.88
449.559	131.88
449.779	122.88
450	92.88
450.221	92.88
450.442	77.88
450.662	92.88
450.883	100.88
451.104	105.88
451.324	103.88
451.545	96.88
451.766	102.88
451.986	98.88
452.207	79.88
452.428	88.88
452.648	91.88
452.869	93.88
453.089	118.88
453.31	103.88
453.53	86.88
453.751	82.88
453.971	100.88
454.192	109.88
454.412	100.88
454.633	86.88
454.853	76.88
455.073	90.88
455.294	89.88
455.514	90.88
455.734	89.88
455.955	69.88
456.175	91.88
456.395	79.88
456.616	89.88
456.836	79.88
457.056	81.88
457.276	86.88
457.497	73.88
457.717	81.88
457.937	77.88
458.157	64.88
458.377	73.88
458.598	96.88
458.818	114.88
459.038	129.88
459.258	106.88
459.478	83.88
459.698	71.88
459.918	73.88
460.138	88.88
460.358	89.88
460.578	90.88
460.798	84.88
461.018	89.88
461.238	95.88
461.458	72.88
461.678	86.88
461.898	80.88
462.118	87.88
462.338	75.88
462.558	85.88
462.777	86.88
462.997	86.88
463.217	73.88
463.437	90.88
463.657	78.88
463.876	90.88
464.096	77.88
464.316	83.88
464.536	85.88
464.755	99.88
464.975	112.88
465.195	138.88
465.414	119.88
465.634	95.88
465.854	93.88
466.073	93.88
466.293	69.88
466.512	70.88
466.732	89.88
466.951	86.88
467.171	90.88
467.391	79.88
467.61	88.88
467.829	96.88
468.049	90.88
468.268	80.88
468.488	87.88
468.707	81.88
468.927	77.88
469.146	84.88
469.365	86.88
469.585	79.88
469.804	79.88
470.023	94.88
470.243	85.88
470.462	102.88
470.681	95.88
470.901	91.88
471.12	83.88
471.339	75.88
471.558	84.88
471.777	83.88
471.997	95.88
472.216	90.88
472.435	101.88
472.654	86.88
472.873	84.88
473.092	84.88
473.311	79.88
473.53	83.88
473.749	86.88
473.968	101.88
474.187	106.88
474.406	88.88
474.625	88.88
474.844	88.88
475.063	90.88
475.282	80.88
475.501	79.88
475.72	86.88
475.939	87.88
476.158	77.88
476.377	77.88
476.596	83.88
476.814	86.88
477.033	80.88
477.252	76.88
477.471	79.88
477.69	75.88
477.908	79.88
478.127	86.88
478.346	87.88
478.564	90.88
478.783	84.88
479.002	87.88
479.22	81.88
479.439	94.88
479.658	95.88
479.876	78.88
480.095	79.88
480.313	82.88
480.532	93.88
480.751	77.88
480.969	95.88
481.188	95.88
481.406	91.88
481.624	77.88
481.843	88.88
482.061	93.88
482.28	90.88
482.498	79.88
482.717	87.88
482.935	86.88
483.153	76.88
483.372	101.88
483.59	82.88
483.808	81.88
484.027	75.88
484.245	97.88
484.463	84.88
484.681	91.88
484.9	85.88
485.118	103.88
485.336	105.88
485.554	80.88
485.772	82.88
485.99	100.88
486.209	109.88
486.427	104.88
486.645	111.88
486.863	94.88
487.081	84.88
487.299	107.88
487.517	103.88
487.735	94.88
487.953	94.88
488.171	94.88
488.389	101.88
488.607	92.88
488.825	96.88
489.043	80.88
489.261	78.88
489.479	84.88
489.696	95.88
489.914	78.88
490.132	90.88
490.35	80.88
490.568	85.88
490.786	79.88
491.003	83.88
491.221	86.88
491.439	78.88
491.657	85.88
491.874	83.88
492.092	75.88
492.31	81.88
492.527	87.88
492.745	77.88
492.963	98.88
493.18	91.88
493.398	85.88
493.615	108.88
493.833	84.88
494.05	81.88
494.268	86.88
494.485	89.88
494.703	84.88
494.92	78.88
495.138	81.88
495.355	97.88
495.573	93.88
495.79	89.88
496.008	82.88
496.225	97.88
496.442	87.88
496.66	89.88
496.877	92.88
497.094	96.88
497.312	93.88
497.529	89.88
497.746	88.88
497.963	87.88
498.181	94.88
498.398	93.88
498.615	108.88
498.832	106.88
499.049	103.88
499.267	96.88
499.484	96.88
499.701	95.88
499.918	89.88
500.135	95.88
500.352	75.88
500.569	85.88
500.786	100.88
501.003	106.88
501.22	95.88
501.437	84.88
501.654	99.88
501.871	96.88
502.088	87.88
502.305	94.88
502.522	98.88
502.739	86.88
502.956	96.88
503.172	88.88
503.389	83.88
503.606	97.88
503.823	85.88
504.04	80.88
504.256	88.88
504.473	74.88
504.69	86.88
504.907	73.88
505.123	73.88
505.34	85.88
505.557	83.88
505.773	86.88
505.99	77.88
506.207	82.88
506.423	84.88
506.64	106.88
506.856	95.88
507.073	86.88
507.289	80.88
507.506	96.88
507.722	121.88
507.939	88.88
508.155	93.88
508.372	79.88
508.588	86.88
508.805	99.88
509.021	96.88
509.238	92.88
509.454	102.88
509.67	85.88
509.887	120.88
510.103	127.88
510.319	197.88
510.536	679.88
510.752	1970.88
510.968	535.88
511.184	139.88
511.401	106.88
511.617	101.88
511.833	81.88
512.049	78.88
512.265	86.88
512.481	93.88
512.698	101.88
512.914	97.88
513.13	85.88
513.346	106.88
513.562	99.88
513.778	103.88
513.994	85.88
514.21	103.88
514.426	103.88
514.642	112.88
514.858	108.88
515.074	138.88
515.29	388.88
515.506	1193.88
515.721	440.88
515.937	143.88
516.153	93.88
516.369	113.88
516.585	87.88
516.801	101.88
