Data from Uncirc_1998_H10_HRD10591_00056.txt Node
Date: Wed Jan 03 11:25:36 EST 2024
User: Yrep
Spectrometer: HR+D1059
Trigger mode: 1
Integration Time (sec): 1.000000E-1
Scans to average: 1
Electric dark correction enabled: true
Nonlinearity correction enabled: false
Boxcar width: 0
XAxis mode: Wavelengths
Number of Pixels in Spectrum: 2048
>>>>>Begin Spectral Data<<<<<
223.165	-11.94
223.4	-11.94
223.635	-11.94
223.869	-23.94
224.104	-26.94
224.338	-10.94
224.573	-13.94
224.808	-19.94
225.042	-10.94
225.277	-10.94
225.511	-6.94
225.746	10.06
225.98	11.06
226.215	9.06
226.449	15.06
226.683	32.06
226.918	29.06
227.152	30.06
227.387	30.06
227.621	39.06
227.856	44.06
228.09	49.06
228.324	55.06
228.559	62.06
228.793	52.06
229.027	61.06
229.262	61.06
229.496	54.06
229.73	81.06
229.964	83.06
230.199	52.06
230.433	74.06
230.667	90.06
230.901	73.06
231.136	79.06
231.37	72.06
231.604	83.06
231.838	73.06
232.072	68.06
232.306	85.06
232.541	92.06
232.775	83.06
233.009	76.06
233.243	71.06
233.477	72.06
233.711	68.06
233.945	78.06
234.179	87.06
234.413	69.06
234.647	80.06
234.881	69.06
235.115	85.06
235.349	79.06
235.583	76.06
235.817	64.06
236.051	80.06
236.285	70.06
236.519	80.06
236.753	80.06
236.987	78.06
237.221	87.06
237.455	78.06
237.689	90.06
237.922	68.06
238.156	71.06
238.39	77.06
238.624	70.06
238.858	95.06
239.091	80.06
239.325	87.06
239.559	78.06
239.793	83.06
240.027	71.06
240.26	81.06
240.494	62.06
240.728	77.06
240.961	74.06
241.195	78.06
241.429	76.06
241.662	76.06
241.896	79.06
242.13	74.06
242.363	64.06
242.597	80.06
242.83	69.06
243.064	82.06
243.298	79.06
243.531	77.06
243.765	78.06
243.998	81.06
244.232	70.06
244.465	73.06
244.699	69.06
244.932	58.06
245.166	91.06
245.399	76.06
245.633	72.06
245.866	72.06
246.099	85.06
246.333	72.06
246.566	81.06
246.8	85.06
247.033	80.06
247.266	77.06
247.5	81.06
247.733	82.06
247.966	78.06
248.2	77.06
248.433	81.06
248.666	74.06
248.899	91.06
249.133	76.06
249.366	111.06
249.599	81.06
249.832	71.06
250.066	87.06
250.299	75.06
250.532	86.06
250.765	76.06
250.998	79.06
251.231	83.06
251.465	77.06
251.698	82.06
251.931	81.06
252.164	78.06
252.397	77.06
252.63	83.06
252.863	86.06
253.096	68.06
253.329	72.06
253.562	83.06
253.795	81.06
254.028	91.06
254.261	68.06
254.494	69.06
254.727	74.06
254.96	79.06
255.193	86.06
255.426	84.06
255.659	94.06
255.892	79.06
256.124	72.06
256.357	84.06
256.59	77.06
256.823	89.06
257.056	86.06
257.289	76.06
257.521	70.06
257.754	74.06
257.987	90.06
258.22	89.06
258.452	79.06
258.685	82.06
258.918	89.06
259.151	87.06
259.383	86.06
259.616	71.06
259.849	84.06
260.081	88.06
260.314	80.06
260.547	76.06
260.779	87.06
261.012	74.06
261.244	93.06
261.477	85.06
261.71	89.06
261.942	107.06
262.175	102.06
262.407	72.06
262.64	89.06
262.872	70.06
263.105	83.06
263.337	77.06
263.57	90.06
263.802	95.06
264.035	85.06
264.267	85.06
264.499	88.06
264.732	87.06
264.964	79.06
265.197	86.06
265.429	80.06
265.661	84.06
265.894	83.06
266.126	84.06
266.358	78.06
266.591	72.06
266.823	91.06
267.055	72.06
267.287	94.06
267.52	78.06
267.752	88.06
267.984	82.06
268.216	88.06
268.448	82.06
268.681	94.06
268.913	81.06
269.145	78.06
269.377	81.06
269.609	84.06
269.841	79.06
270.073	97.06
270.306	92.06
270.538	87.06
270.77	64.06
271.002	71.06
271.234	82.06
271.466	85.06
271.698	80.06
271.93	88.06
272.162	100.06
272.394	79.06
272.626	76.06
272.858	80.06
273.09	83.06
273.322	78.06
273.553	93.06
273.785	86.06
274.017	79.06
274.249	76.06
274.481	84.06
274.713	81.06
274.945	93.06
275.176	84.06
275.408	73.06
275.64	88.06
275.872	89.06
276.104	87.06
276.335	80.06
276.567	98.06
276.799	101.06
277.031	95.06
277.262	82.06
277.494	82.06
277.726	81.06
277.957	88.06
278.189	93.06
278.421	84.06
278.652	68.06
278.884	93.06
279.115	80.06
279.347	82.06
279.579	79.06
279.81	84.06
280.042	84.06
280.273	101.06
280.505	76.06
280.736	81.06
280.968	81.06
281.199	78.06
281.431	95.06
281.662	80.06
281.894	90.06
282.125	109.06
282.356	112.06
282.588	118.06
282.819	105.06
283.051	102.06
283.282	94.06
283.513	97.06
283.745	68.06
283.976	93.06
284.207	81.06
284.439	77.06
284.67	81.06
284.901	83.06
285.132	86.06
285.364	74.06
285.595	81.06
285.826	92.06
286.057	88.06
286.288	71.06
286.52	79.06
286.751	88.06
286.982	72.06
287.213	91.06
287.444	65.06
287.675	91.06
287.906	83.06
288.138	93.06
288.369	88.06
288.6	91.06
288.831	76.06
289.062	77.06
289.293	92.06
289.524	68.06
289.755	88.06
289.986	64.06
290.217	80.06
290.448	81.06
290.679	87.06
290.91	85.06
291.141	80.06
291.371	79.06
291.602	93.06
291.833	93.06
292.064	92.06
292.295	98.06
292.526	81.06
292.757	84.06
292.987	78.06
293.218	85.06
293.449	87.06
293.68	86.06
293.91	85.06
294.141	85.06
294.372	84.06
294.603	98.06
294.833	89.06
295.064	88.06
295.295	68.06
295.525	104.06
295.756	103.06
295.987	97.06
296.217	113.06
296.448	103.06
296.679	91.06
296.909	104.06
297.14	84.06
297.37	79.06
297.601	102.06
297.831	82.06
298.062	98.06
298.292	89.06
298.523	84.06
298.753	89.06
298.984	96.06
299.214	88.06
299.445	102.06
299.675	86.06
299.905	93.06
300.136	97.06
300.366	76.06
300.597	77.06
300.827	86.06
301.057	90.06
301.288	92.06
301.518	79.06
301.748	87.06
301.979	98.06
302.209	91.06
302.439	82.06
302.669	98.06
302.9	94.06
303.13	87.06
303.36	81.06
303.59	93.06
303.82	92.06
304.051	72.06
304.281	72.06
304.511	88.06
304.741	91.06
304.971	92.06
305.201	94.06
305.431	98.06
305.661	91.06
305.891	74.06
306.121	100.06
306.352	105.06
306.582	87.06
306.812	94.06
307.042	91.06
307.272	87.06
307.502	97.06
307.731	77.06
307.961	85.06
308.191	95.06
308.421	104.06
308.651	82.06
308.881	101.06
309.111	79.06
309.341	69.06
309.571	86.06
309.8	81.06
310.03	105.06
310.26	98.06
310.49	105.06
310.72	92.06
310.949	97.06
311.179	100.06
311.409	81.06
311.639	93.06
311.868	85.06
312.098	89.06
312.328	86.06
312.557	105.06
312.787	93.06
313.017	91.06
313.246	75.06
313.476	79.06
313.706	95.06
313.935	85.06
314.165	98.06
314.394	97.06
314.624	96.06
314.853	87.06
315.083	80.06
315.312	90.06
315.542	78.06
315.771	84.06
316.001	93.06
316.23	98.06
316.46	78.06
316.689	73.06
316.919	80.06
317.148	85.06
317.377	81.06
317.607	87.06
317.836	98.06
318.065	87.06
318.295	98.06
318.524	89.06
318.753	81.06
318.983	92.06
319.212	104.06
319.441	111.06
319.67	100.06
319.9	83.06
320.129	92.06
320.358	96.06
320.587	87.06
320.816	87.06
321.046	91.06
321.275	99.06
321.504	93.06
321.733	99.06
321.962	91.06
322.191	108.06
322.42	97.06
322.649	105.06
322.878	121.06
323.108	114.06
323.337	101.06
323.566	113.06
323.795	138.06
324.024	180.06
324.253	334.06
324.482	689.06
324.71	1370.06
324.939	1812.06
325.168	648.06
325.397	216.06
325.626	128.06
325.855	124.06
326.084	118.06
326.313	100.06
326.542	139.06
326.77	191.06
326.999	405.06
327.228	791.06
327.457	1430.06
327.686	1121.06
327.914	324.06
328.143	173.06
328.372	140.06
328.6	116.06
328.829	113.06
329.058	99.06
329.287	127.06
329.515	102.06
329.744	85.06
329.972	95.06
330.201	92.06
330.43	104.06
330.658	115.06
330.887	119.06
331.115	105.06
331.344	92.06
331.572	111.06
331.801	95.06
332.03	83.06
332.258	88.06
332.486	91.06
332.715	82.06
332.943	78.06
333.172	90.06
333.4	89.06
333.629	102.06
333.857	111.06
334.085	106.06
334.314	81.06
334.542	90.06
334.771	94.06
334.999	101.06
335.227	84.06
335.455	93.06
335.684	94.06
335.912	91.06
336.14	109.06
336.369	97.06
336.597	84.06
336.825	104.06
337.053	101.06
337.281	86.06
337.51	84.06
337.738	106.06
337.966	80.06
338.194	94.06
338.422	112.06
338.65	97.06
338.878	84.06
339.106	74.06
339.334	80.06
339.562	95.06
339.79	95.06
340.018	93.06
340.246	97.06
340.474	77.06
340.702	96.06
340.93	74.06
341.158	95.06
341.386	98.06
341.614	86.06
341.842	99.06
342.07	78.06
342.298	80.06
342.526	85.06
342.754	83.06
342.981	81.06
343.209	84.06
343.437	104.06
343.665	78.06
343.893	91.06
344.12	88.06
344.348	96.06
344.576	95.06
344.804	78.06
345.031	86.06
345.259	92.06
345.487	105.06
345.714	90.06
345.942	94.06
346.17	93.06
346.397	87.06
346.625	88.06
346.853	97.06
347.08	83.06
347.308	98.06
347.535	88.06
347.763	76.06
347.99	101.06
348.218	100.06
348.445	101.06
348.673	105.06
348.9	82.06
349.128	101.06
349.355	93.06
349.583	93.06
349.81	100.06
350.037	103.06
350.265	92.06
350.492	87.06
350.72	96.06
350.947	97.06
351.174	100.06
351.402	105.06
351.629	103.06
351.856	103.06
352.083	81.06
352.311	87.06
352.538	91.06
352.765	106.06
352.992	108.06
353.22	105.06
353.447	93.06
353.674	96.06
353.901	86.06
354.128	98.06
354.355	88.06
354.583	101.06
354.81	99.06
355.037	102.06
355.264	88.06
355.491	95.06
355.718	93.06
355.945	94.06
356.172	84.06
356.399	92.06
356.626	109.06
356.853	88.06
357.08	95.06
357.307	97.06
357.534	85.06
357.761	99.06
357.988	91.06
358.215	94.06
358.441	94.06
358.668	98.06
358.895	91.06
359.122	90.06
359.349	84.06
359.576	83.06
359.802	92.06
360.029	93.06
360.256	97.06
360.483	101.06
360.709	88.06
360.936	96.06
361.163	94.06
361.39	83.06
361.616	90.06
361.843	82.06
362.07	83.06
362.296	87.06
362.523	88.06
362.749	89.06
362.976	81.06
363.203	91.06
363.429	82.06
363.656	89.06
363.882	78.06
364.109	98.06
364.335	89.06
364.562	96.06
364.788	79.06
365.015	99.06
365.241	95.06
365.468	103.06
365.694	84.06
365.92	89.06
366.147	90.06
366.373	82.06
366.599	94.06
366.826	87.06
367.052	81.06
367.278	84.06
367.505	95.06
367.731	92.06
367.957	101.06
368.184	90.06
368.41	107.06
368.636	111.06
368.862	106.06
369.089	80.06
369.315	91.06
369.541	85.06
369.767	81.06
369.993	96.06
370.219	88.06
370.445	97.06
370.672	81.06
370.898	86.06
371.124	81.06
371.35	80.06
371.576	88.06
371.802	84.06
372.028	89.06
372.254	91.06
372.48	85.06
372.706	90.06
372.932	79.06
373.158	82.06
373.384	85.06
373.61	71.06
373.835	86.06
374.061	87.06
374.287	73.06
374.513	94.06
374.739	82.06
374.965	80.06
375.191	89.06
375.416	90.06
375.642	92.06
375.868	84.06
376.094	84.06
376.319	98.06
376.545	95.06
376.771	89.06
376.997	92.06
377.222	83.06
377.448	85.06
377.674	81.06
377.899	88.06
378.125	85.06
378.35	88.06
378.576	82.06
378.802	88.06
379.027	85.06
379.253	95.06
379.478	108.06
379.704	94.06
379.929	84.06
380.155	87.06
380.38	85.06
380.606	87.06
380.831	93.06
381.057	88.06
381.282	77.06
381.507	103.06
381.733	98.06
381.958	105.06
382.184	92.06
382.409	91.06
382.634	91.06
382.86	90.06
383.085	95.06
383.31	87.06
383.535	104.06
383.761	95.06
383.986	92.06
384.211	108.06
384.436	98.06
384.662	98.06
384.887	84.06
385.112	105.06
385.337	89.06
385.562	105.06
385.787	90.06
386.013	92.06
386.238	102.06
386.463	102.06
386.688	110.06
386.913	107.06
387.138	98.06
387.363	92.06
387.588	96.06
387.813	105.06
388.038	93.06
388.263	101.06
388.488	110.06
388.713	116.06
388.938	105.06
389.163	94.06
389.387	89.06
389.612	79.06
389.837	86.06
390.062	94.06
390.287	83.06
390.512	88.06
390.736	89.06
390.961	87.06
391.186	79.06
391.411	101.06
391.636	88.06
391.86	80.06
392.085	89.06
392.31	80.06
392.534	80.06
392.759	72.06
392.984	96.06
393.208	94.06
393.433	79.06
393.658	92.06
393.882	83.06
394.107	90.06
394.331	88.06
394.556	81.06
394.78	92.06
395.005	78.06
395.229	78.06
395.454	91.06
395.678	85.06
395.903	83.06
396.127	85.06
396.352	82.06
396.576	80.06
396.801	79.06
397.025	92.06
397.249	73.06
397.474	88.06
397.698	77.06
397.922	76.06
398.147	83.06
398.371	87.06
398.595	89.06
398.82	96.06
399.044	86.06
399.268	92.06
399.492	79.06
399.717	90.06
399.941	88.06
400.165	84.06
400.389	86.06
400.613	85.06
400.837	73.06
401.062	73.06
401.286	94.06
401.51	84.06
401.734	77.06
401.958	94.06
402.182	117.06
402.406	139.06
402.63	109.06
402.854	83.06
403.078	83.06
403.302	93.06
403.526	92.06
403.75	92.06
403.974	82.06
404.198	74.06
404.422	78.06
404.645	85.06
404.869	96.06
405.093	88.06
405.317	105.06
405.541	106.06
405.765	95.06
405.988	97.06
406.212	141.06
406.436	175.06
406.66	124.06
406.883	98.06
407.107	92.06
407.331	86.06
407.555	88.06
407.778	78.06
408.002	98.06
408.226	79.06
408.449	80.06
408.673	87.06
408.896	97.06
409.12	82.06
409.344	91.06
409.567	95.06
409.791	98.06
410.014	93.06
410.238	88.06
410.461	95.06
410.685	85.06
410.908	97.06
411.132	105.06
411.355	89.06
411.578	93.06
411.802	90.06
412.025	91.06
412.249	75.06
412.472	93.06
412.695	97.06
412.919	90.06
413.142	100.06
413.365	97.06
413.589	98.06
413.812	96.06
414.035	90.06
414.258	78.06
414.482	91.06
414.705	88.06
414.928	80.06
415.151	98.06
415.374	98.06
415.597	85.06
415.821	98.06
416.044	87.06
416.267	79.06
416.49	72.06
416.713	103.06
416.936	76.06
417.159	76.06
417.382	100.06
417.605	92.06
417.828	93.06
418.051	100.06
418.274	76.06
418.497	90.06
418.72	89.06
418.943	89.06
419.166	95.06
419.389	85.06
419.611	83.06
419.834	79.06
420.057	87.06
420.28	81.06
420.503	88.06
420.726	78.06
420.948	90.06
421.171	70.06
421.394	87.06
421.617	90.06
421.839	87.06
422.062	103.06
422.285	82.06
422.507	113.06
422.73	84.06
422.953	93.06
423.175	97.06
423.398	87.06
423.621	76.06
423.843	81.06
424.066	84.06
424.288	73.06
424.511	88.06
424.733	97.06
424.956	93.06
425.178	81.06
425.401	87.06
425.623	93.06
425.846	76.06
426.068	84.06
426.291	96.06
426.513	80.06
426.735	79.06
426.958	83.06
427.18	98.06
427.402	115.06
427.625	148.06
427.847	109.06
428.069	89.06
428.292	83.06
428.514	82.06
428.736	78.06
428.958	77.06
429.181	99.06
429.403	89.06
429.625	84.06
429.847	87.06
430.069	75.06
430.292	77.06
430.514	90.06
430.736	82.06
430.958	87.06
431.18	88.06
431.402	80.06
431.624	73.06
431.846	82.06
432.068	103.06
432.29	76.06
432.512	94.06
432.734	85.06
432.956	79.06
433.178	89.06
433.4	96.06
433.622	70.06
433.844	81.06
434.066	90.06
434.287	96.06
434.509	77.06
434.731	96.06
434.953	89.06
435.175	75.06
435.397	87.06
435.618	87.06
435.84	115.06
436.062	104.06
436.284	98.06
436.505	96.06
436.727	86.06
436.949	90.06
437.17	95.06
437.392	79.06
437.614	97.06
437.835	101.06
438.057	95.06
438.278	108.06
438.5	88.06
438.721	120.06
438.943	104.06
439.165	85.06
439.386	84.06
439.608	85.06
439.829	94.06
440.05	111.06
440.272	128.06
440.493	101.06
440.715	69.06
440.936	87.06
441.158	102.06
441.379	72.06
441.6	93.06
441.822	104.06
442.043	86.06
442.264	85.06
442.486	97.06
442.707	88.06
442.928	98.06
443.149	114.06
443.371	119.06
443.592	108.06
443.813	113.06
444.034	101.06
444.255	76.06
444.476	82.06
444.698	74.06
444.919	71.06
445.14	122.06
445.361	108.06
445.582	100.06
445.803	125.06
446.024	128.06
446.245	121.06
446.466	105.06
446.687	81.06
446.908	100.06
447.129	85.06
447.35	90.06
447.571	80.06
447.792	88.06
448.013	93.06
448.234	101.06
448.455	104.06
448.675	110.06
448.896	108.06
449.117	99.06
449.338	102.06
449.559	104.06
449.779	106.06
450	89.06
450.221	98.06
450.442	84.06
450.662	88.06
450.883	92.06
451.104	104.06
451.324	84.06
451.545	77.06
451.766	82.06
451.986	89.06
452.207	80.06
452.428	93.06
452.648	100.06
452.869	95.06
453.089	99.06
453.31	109.06
453.53	84.06
453.751	88.06
453.971	94.06
454.192	98.06
454.412	102.06
454.633	99.06
454.853	75.06
455.073	80.06
455.294	74.06
455.514	82.06
455.734	103.06
455.955	102.06
456.175	77.06
456.395	75.06
456.616	80.06
456.836	94.06
457.056	83.06
457.276	82.06
457.497	82.06
457.717	83.06
457.937	90.06
458.157	95.06
458.377	90.06
458.598	104.06
458.818	109.06
459.038	134.06
459.258	108.06
459.478	90.06
459.698	92.06
459.918	102.06
460.138	107.06
460.358	71.06
460.578	73.06
460.798	87.06
461.018	91.06
461.238	73.06
461.458	90.06
461.678	83.06
461.898	81.06
462.118	89.06
462.338	85.06
462.558	77.06
462.777	94.06
462.997	92.06
463.217	84.06
463.437	92.06
463.657	80.06
463.876	86.06
464.096	86.06
464.316	82.06
464.536	86.06
464.755	81.06
464.975	104.06
465.195	138.06
465.414	146.06
465.634	85.06
465.854	86.06
466.073	85.06
466.293	97.06
466.512	76.06
466.732	89.06
466.951	88.06
467.171	90.06
467.391	93.06
467.61	80.06
467.829	110.06
468.049	79.06
468.268	74.06
468.488	80.06
468.707	81.06
468.927	64.06
469.146	92.06
469.365	90.06
469.585	99.06
469.804	108.06
470.023	91.06
470.243	92.06
470.462	85.06
470.681	98.06
470.901	78.06
471.12	71.06
471.339	93.06
471.558	84.06
471.777	78.06
471.997	88.06
472.216	81.06
472.435	76.06
472.654	86.06
472.873	86.06
473.092	94.06
473.311	107.06
473.53	81.06
473.749	103.06
473.968	81.06
474.187	85.06
474.406	90.06
474.625	87.06
474.844	76.06
475.063	79.06
475.282	95.06
475.501	78.06
475.72	81.06
475.939	77.06
476.158	81.06
476.377	94.06
476.596	88.06
476.814	93.06
477.033	90.06
477.252	88.06
477.471	77.06
477.69	79.06
477.908	85.06
478.127	73.06
478.346	84.06
478.564	81.06
478.783	93.06
479.002	86.06
479.22	82.06
479.439	96.06
479.658	94.06
479.876	96.06
480.095	93.06
480.313	87.06
480.532	78.06
480.751	98.06
480.969	93.06
481.188	101.06
481.406	106.06
481.624	91.06
481.843	78.06
482.061	92.06
482.28	81.06
482.498	87.06
482.717	91.06
482.935	97.06
483.153	106.06
483.372	86.06
483.59	79.06
483.808	87.06
484.027	98.06
484.245	85.06
484.463	106.06
484.681	94.06
484.9	96.06
485.118	86.06
485.336	86.06
485.554	102.06
485.772	103.06
485.99	106.06
486.209	88.06
486.427	85.06
486.645	102.06
486.863	117.06
487.081	106.06
487.299	101.06
487.517	92.06
487.735	83.06
487.953	95.06
488.171	90.06
488.389	94.06
488.607	97.06
488.825	94.06
489.043	73.06
489.261	68.06
489.479	87.06
489.696	85.06
489.914	88.06
490.132	71.06
490.35	89.06
490.568	89.06
490.786	95.06
491.003	78.06
491.221	102.06
491.439	95.06
491.657	90.06
491.874	102.06
492.092	89.06
492.31	81.06
492.527	91.06
492.745	84.06
492.963	87.06
493.18	95.06
493.398	91.06
493.615	92.06
493.833	76.06
494.05	96.06
494.268	95.06
494.485	86.06
494.703	82.06
494.92	93.06
495.138	89.06
495.355	93.06
495.573	94.06
495.79	87.06
496.008	81.06
496.225	82.06
496.442	88.06
496.66	95.06
496.877	83.06
497.094	87.06
497.312	91.06
497.529	85.06
497.746	101.06
497.963	105.06
498.181	93.06
498.398	93.06
498.615	113.06
498.832	110.06
499.049	93.06
499.267	86.06
499.484	90.06
499.701	105.06
499.918	86.06
500.135	92.06
500.352	104.06
500.569	96.06
500.786	87.06
501.003	83.06
501.22	80.06
501.437	88.06
501.654	90.06
501.871	105.06
502.088	88.06
502.305	81.06
502.522	82.06
502.739	87.06
502.956	108.06
503.172	103.06
503.389	88.06
503.606	92.06
503.823	90.06
504.04	87.06
504.256	81.06
504.473	76.06
504.69	96.06
504.907	97.06
505.123	88.06
505.34	101.06
505.557	65.06
505.773	86.06
505.99	80.06
506.207	86.06
506.423	83.06
506.64	78.06
506.856	82.06
507.073	94.06
507.289	98.06
507.506	105.06
507.722	102.06
507.939	110.06
508.155	87.06
508.372	81.06
508.588	84.06
508.805	88.06
509.021	81.06
509.238	79.06
509.454	98.06
509.67	105.06
509.887	102.06
510.103	130.06
510.319	180.06
510.536	607.06
510.752	1885.06
510.968	522.06
511.184	126.06
511.401	102.06
511.617	94.06
511.833	97.06
512.049	90.06
512.265	80.06
512.481	94.06
512.698	92.06
512.914	90.06
513.13	104.06
513.346	88.06
513.562	104.06
513.778	103.06
513.994	91.06
514.21	92.06
514.426	118.06
514.642	114.06
514.858	125.06
515.074	141.06
515.29	360.06
515.506	1107.06
515.721	419.06
515.937	135.06
516.153	117.06
516.369	97.06
516.585	101.06
516.801	92.06
