Data from Uncirc_1998_H10_HRD10591_00063.txt Node
Date: Wed Jan 03 11:25:37 EST 2024
User: Yrep
Spectrometer: HR+D1059
Trigger mode: 1
Integration Time (sec): 1.000000E-1
Scans to average: 1
Electric dark correction enabled: true
Nonlinearity correction enabled: false
Boxcar width: 0
XAxis mode: Wavelengths
Number of Pixels in Spectrum: 2048
>>>>>Begin Spectral Data<<<<<
223.165	-26.88
223.4	-26.88
223.635	-26.88
223.869	-18.88
224.104	-12.88
224.338	-21.88
224.573	-11.88
224.808	-2.88
225.042	-16.88
225.277	-10.88
225.511	-7.88
225.746	-2.88
225.98	6.12
226.215	23.12
226.449	25.12
226.683	22.12
226.918	27.12
227.152	30.12
227.387	42.12
227.621	39.12
227.856	41.12
228.09	39.12
228.324	29.12
228.559	53.12
228.793	56.12
229.027	68.12
229.262	69.12
229.496	76.12
229.73	70.12
229.964	91.12
230.199	72.12
230.433	79.12
230.667	61.12
230.901	77.12
231.136	57.12
231.37	78.12
231.604	83.12
231.838	91.12
232.072	75.12
232.306	89.12
232.541	73.12
232.775	75.12
233.009	82.12
233.243	77.12
233.477	74.12
233.711	79.12
233.945	83.12
234.179	75.12
234.413	90.12
234.647	86.12
234.881	80.12
235.115	65.12
235.349	79.12
235.583	78.12
235.817	92.12
236.051	77.12
236.285	64.12
236.519	80.12
236.753	81.12
236.987	79.12
237.221	87.12
237.455	76.12
237.689	88.12
237.922	87.12
238.156	90.12
238.39	90.12
238.624	78.12
238.858	70.12
239.091	71.12
239.325	90.12
239.559	89.12
239.793	60.12
240.027	93.12
240.26	72.12
240.494	84.12
240.728	78.12
240.961	83.12
241.195	78.12
241.429	87.12
241.662	84.12
241.896	59.12
242.13	71.12
242.363	73.12
242.597	67.12
242.83	84.12
243.064	80.12
243.298	86.12
243.531	84.12
243.765	72.12
243.998	83.12
244.232	76.12
244.465	80.12
244.699	78.12
244.932	82.12
245.166	72.12
245.399	73.12
245.633	87.12
245.866	82.12
246.099	68.12
246.333	83.12
246.566	71.12
246.8	63.12
247.033	58.12
247.266	86.12
247.5	83.12
247.733	67.12
247.966	75.12
248.2	69.12
248.433	71.12
248.666	71.12
248.899	72.12
249.133	77.12
249.366	100.12
249.599	73.12
249.832	75.12
250.066	80.12
250.299	86.12
250.532	57.12
250.765	73.12
250.998	69.12
251.231	96.12
251.465	86.12
251.698	89.12
251.931	87.12
252.164	74.12
252.397	78.12
252.63	57.12
252.863	85.12
253.096	81.12
253.329	74.12
253.562	86.12
253.795	51.12
254.028	67.12
254.261	74.12
254.494	69.12
254.727	78.12
254.96	88.12
255.193	86.12
255.426	70.12
255.659	75.12
255.892	92.12
256.124	72.12
256.357	80.12
256.59	78.12
256.823	79.12
257.056	72.12
257.289	77.12
257.521	80.12
257.754	92.12
257.987	88.12
258.22	92.12
258.452	86.12
258.685	73.12
258.918	74.12
259.151	75.12
259.383	93.12
259.616	79.12
259.849	83.12
260.081	88.12
260.314	78.12
260.547	74.12
260.779	77.12
261.012	79.12
261.244	75.12
261.477	88.12
261.71	73.12
261.942	93.12
262.175	109.12
262.407	85.12
262.64	87.12
262.872	83.12
263.105	88.12
263.337	90.12
263.57	87.12
263.802	80.12
264.035	87.12
264.267	83.12
264.499	96.12
264.732	76.12
264.964	84.12
265.197	79.12
265.429	83.12
265.661	88.12
265.894	71.12
266.126	92.12
266.358	88.12
266.591	75.12
266.823	83.12
267.055	86.12
267.287	78.12
267.52	80.12
267.752	83.12
267.984	80.12
268.216	89.12
268.448	80.12
268.681	88.12
268.913	84.12
269.145	81.12
269.377	89.12
269.609	78.12
269.841	75.12
270.073	79.12
270.306	87.12
270.538	85.12
270.77	94.12
271.002	87.12
271.234	78.12
271.466	78.12
271.698	73.12
271.93	85.12
272.162	73.12
272.394	84.12
272.626	75.12
272.858	79.12
273.09	74.12
273.322	73.12
273.553	74.12
273.785	71.12
274.017	86.12
274.249	91.12
274.481	80.12
274.713	86.12
274.945	63.12
275.176	59.12
275.408	90.12
275.64	78.12
275.872	77.12
276.104	90.12
276.335	94.12
276.567	115.12
276.799	99.12
277.031	87.12
277.262	80.12
277.494	85.12
277.726	86.12
277.957	77.12
278.189	78.12
278.421	89.12
278.652	80.12
278.884	84.12
279.115	75.12
279.347	83.12
279.579	69.12
279.81	66.12
280.042	80.12
280.273	85.12
280.505	72.12
280.736	92.12
280.968	83.12
281.199	90.12
281.431	81.12
281.662	82.12
281.894	82.12
282.125	88.12
282.356	101.12
282.588	117.12
282.819	115.12
283.051	89.12
283.282	78.12
283.513	89.12
283.745	87.12
283.976	78.12
284.207	77.12
284.439	94.12
284.67	90.12
284.901	81.12
285.132	85.12
285.364	85.12
285.595	68.12
285.826	95.12
286.057	104.12
286.288	79.12
286.52	91.12
286.751	94.12
286.982	93.12
287.213	71.12
287.444	80.12
287.675	78.12
287.906	64.12
288.138	83.12
288.369	87.12
288.6	94.12
288.831	88.12
289.062	87.12
289.293	74.12
289.524	78.12
289.755	77.12
289.986	75.12
290.217	78.12
290.448	94.12
290.679	88.12
290.91	97.12
291.141	90.12
291.371	87.12
291.602	82.12
291.833	89.12
292.064	78.12
292.295	81.12
292.526	87.12
292.757	80.12
292.987	90.12
293.218	94.12
293.449	84.12
293.68	96.12
293.91	65.12
294.141	70.12
294.372	83.12
294.603	79.12
294.833	74.12
295.064	86.12
295.295	92.12
295.525	84.12
295.756	100.12
295.987	102.12
296.217	117.12
296.448	102.12
296.679	87.12
296.909	78.12
297.14	84.12
297.37	103.12
297.601	96.12
297.831	83.12
298.062	84.12
298.292	83.12
298.523	81.12
298.753	96.12
298.984	89.12
299.214	88.12
299.445	80.12
299.675	71.12
299.905	95.12
300.136	97.12
300.366	95.12
300.597	96.12
300.827	103.12
301.057	94.12
301.288	97.12
301.518	97.12
301.748	71.12
301.979	93.12
302.209	92.12
302.439	91.12
302.669	85.12
302.9	81.12
303.13	90.12
303.36	103.12
303.59	86.12
303.82	95.12
304.051	98.12
304.281	78.12
304.511	99.12
304.741	88.12
304.971	78.12
305.201	85.12
305.431	76.12
305.661	83.12
305.891	101.12
306.121	82.12
306.352	95.12
306.582	106.12
306.812	96.12
307.042	95.12
307.272	93.12
307.502	86.12
307.731	86.12
307.961	95.12
308.191	80.12
308.421	82.12
308.651	87.12
308.881	92.12
309.111	98.12
309.341	91.12
309.571	82.12
309.8	82.12
310.03	99.12
310.26	93.12
310.49	96.12
310.72	82.12
310.949	83.12
311.179	98.12
311.409	95.12
311.639	89.12
311.868	81.12
312.098	96.12
312.328	99.12
312.557	105.12
312.787	89.12
313.017	105.12
313.246	87.12
313.476	92.12
313.706	75.12
313.935	88.12
314.165	99.12
314.394	104.12
314.624	97.12
314.853	103.12
315.083	81.12
315.312	71.12
315.542	94.12
315.771	80.12
316.001	90.12
316.23	94.12
316.46	87.12
316.689	76.12
316.919	80.12
317.148	65.12
317.377	75.12
317.607	91.12
317.836	88.12
318.065	91.12
318.295	90.12
318.524	91.12
318.753	94.12
318.983	91.12
319.212	95.12
319.441	95.12
319.67	109.12
319.9	105.12
320.129	95.12
320.358	93.12
320.587	99.12
320.816	104.12
321.046	87.12
321.275	92.12
321.504	86.12
321.733	81.12
321.962	86.12
322.191	109.12
322.42	99.12
322.649	96.12
322.878	101.12
323.108	121.12
323.337	120.12
323.566	110.12
323.795	138.12
324.024	194.12
324.253	359.12
324.482	724.12
324.71	1433.12
324.939	1923.12
325.168	699.12
325.397	215.12
325.626	126.12
325.855	118.12
326.084	113.12
326.313	134.12
326.542	147.12
326.77	236.12
326.999	419.12
327.228	840.12
327.457	1515.12
327.686	1183.12
327.914	345.12
328.143	189.12
328.372	137.12
328.6	105.12
328.829	108.12
329.058	126.12
329.287	127.12
329.515	104.12
329.744	99.12
329.972	100.12
330.201	87.12
330.43	98.12
330.658	104.12
330.887	137.12
331.115	95.12
331.344	94.12
331.572	83.12
331.801	83.12
332.03	99.12
332.258	100.12
332.486	86.12
332.715	88.12
332.943	83.12
333.172	89.12
333.4	87.12
333.629	84.12
333.857	109.12
334.085	105.12
334.314	92.12
334.542	99.12
334.771	88.12
334.999	103.12
335.227	89.12
335.455	94.12
335.684	93.12
335.912	94.12
336.14	93.12
336.369	99.12
336.597	101.12
336.825	96.12
337.053	97.12
337.281	109.12
337.51	95.12
337.738	93.12
337.966	94.12
338.194	88.12
338.422	89.12
338.65	85.12
338.878	89.12
339.106	84.12
339.334	83.12
339.562	108.12
339.79	92.12
340.018	90.12
340.246	93.12
340.474	101.12
340.702	93.12
340.93	83.12
341.158	76.12
341.386	85.12
341.614	86.12
341.842	93.12
342.07	95.12
342.298	82.12
342.526	78.12
342.754	90.12
342.981	81.12
343.209	77.12
343.437	92.12
343.665	83.12
343.893	75.12
344.12	71.12
344.348	95.12
344.576	84.12
344.804	87.12
345.031	86.12
345.259	82.12
345.487	89.12
345.714	91.12
345.942	89.12
346.17	91.12
346.397	84.12
346.625	84.12
346.853	79.12
347.08	85.12
347.308	72.12
347.535	100.12
347.763	82.12
347.99	96.12
348.218	102.12
348.445	93.12
348.673	107.12
348.9	87.12
349.128	89.12
349.355	71.12
349.583	94.12
349.81	81.12
350.037	85.12
350.265	95.12
350.492	65.12
350.72	86.12
350.947	98.12
351.174	110.12
351.402	87.12
351.629	103.12
351.856	88.12
352.083	105.12
352.311	99.12
352.538	104.12
352.765	96.12
352.992	105.12
353.22	107.12
353.447	103.12
353.674	101.12
353.901	87.12
354.128	91.12
354.355	97.12
354.583	96.12
354.81	89.12
355.037	95.12
355.264	92.12
355.491	96.12
355.718	96.12
355.945	89.12
356.172	93.12
356.399	88.12
356.626	102.12
356.853	97.12
357.08	104.12
357.307	104.12
357.534	83.12
357.761	97.12
357.988	94.12
358.215	92.12
358.441	100.12
358.668	78.12
358.895	80.12
359.122	87.12
359.349	99.12
359.576	80.12
359.802	90.12
360.029	120.12
360.256	103.12
360.483	94.12
360.709	85.12
360.936	97.12
361.163	94.12
361.39	86.12
361.616	75.12
361.843	83.12
362.07	101.12
362.296	102.12
362.523	92.12
362.749	83.12
362.976	91.12
363.203	88.12
363.429	85.12
363.656	71.12
363.882	100.12
364.109	104.12
364.335	108.12
364.562	83.12
364.788	76.12
365.015	94.12
365.241	97.12
365.468	103.12
365.694	93.12
365.92	92.12
366.147	81.12
366.373	82.12
366.599	106.12
366.826	94.12
367.052	87.12
367.278	83.12
367.505	84.12
367.731	103.12
367.957	89.12
368.184	92.12
368.41	101.12
368.636	105.12
368.862	111.12
369.089	106.12
369.315	74.12
369.541	79.12
369.767	81.12
369.993	97.12
370.219	92.12
370.445	96.12
370.672	89.12
370.898	85.12
371.124	90.12
371.35	86.12
371.576	83.12
371.802	93.12
372.028	76.12
372.254	94.12
372.48	80.12
372.706	69.12
372.932	83.12
373.158	82.12
373.384	99.12
373.61	84.12
373.835	84.12
374.061	87.12
374.287	84.12
374.513	83.12
374.739	101.12
374.965	98.12
375.191	89.12
375.416	93.12
375.642	100.12
375.868	93.12
376.094	84.12
376.319	87.12
376.545	85.12
376.771	88.12
376.997	85.12
377.222	94.12
377.448	83.12
377.674	89.12
377.899	95.12
378.125	86.12
378.35	87.12
378.576	78.12
378.802	94.12
379.027	79.12
379.253	92.12
379.478	95.12
379.704	79.12
379.929	92.12
380.155	82.12
380.38	84.12
380.606	80.12
380.831	104.12
381.057	87.12
381.282	95.12
381.507	100.12
381.733	92.12
381.958	91.12
382.184	91.12
382.409	82.12
382.634	85.12
382.86	103.12
383.085	102.12
383.31	84.12
383.535	112.12
383.761	90.12
383.986	98.12
384.211	99.12
384.436	92.12
384.662	91.12
384.887	88.12
385.112	98.12
385.337	89.12
385.562	101.12
385.787	94.12
386.013	104.12
386.238	101.12
386.463	85.12
386.688	99.12
386.913	95.12
387.138	88.12
387.363	99.12
387.588	113.12
387.813	89.12
388.038	105.12
388.263	91.12
388.488	113.12
388.713	102.12
388.938	94.12
389.163	95.12
389.387	97.12
389.612	96.12
389.837	91.12
390.062	89.12
390.287	80.12
390.512	108.12
390.736	95.12
390.961	94.12
391.186	91.12
391.411	91.12
391.636	93.12
391.86	87.12
392.085	83.12
392.31	75.12
392.534	80.12
392.759	94.12
392.984	61.12
393.208	82.12
393.433	71.12
393.658	80.12
393.882	85.12
394.107	84.12
394.331	81.12
394.556	70.12
394.78	84.12
395.005	79.12
395.229	83.12
395.454	79.12
395.678	86.12
395.903	99.12
396.127	80.12
396.352	79.12
396.576	87.12
396.801	92.12
397.025	95.12
397.249	80.12
397.474	96.12
397.698	92.12
397.922	96.12
398.147	91.12
398.371	79.12
398.595	92.12
398.82	86.12
399.044	76.12
399.268	76.12
399.492	88.12
399.717	100.12
399.941	92.12
400.165	80.12
400.389	87.12
400.613	81.12
400.837	85.12
401.062	85.12
401.286	91.12
401.51	92.12
401.734	95.12
401.958	106.12
402.182	114.12
402.406	142.12
402.63	115.12
402.854	85.12
403.078	81.12
403.302	95.12
403.526	92.12
403.75	84.12
403.974	93.12
404.198	74.12
404.422	81.12
404.645	84.12
404.869	75.12
405.093	83.12
405.317	94.12
405.541	85.12
405.765	96.12
405.988	107.12
406.212	154.12
406.436	210.12
406.66	123.12
406.883	99.12
407.107	87.12
407.331	111.12
407.555	78.12
407.778	79.12
408.002	99.12
408.226	87.12
408.449	88.12
408.673	95.12
408.896	82.12
409.12	89.12
409.344	86.12
409.567	81.12
409.791	99.12
410.014	101.12
410.238	79.12
410.461	87.12
410.685	77.12
410.908	87.12
411.132	121.12
411.355	94.12
411.578	99.12
411.802	86.12
412.025	80.12
412.249	76.12
412.472	84.12
412.695	94.12
412.919	91.12
413.142	91.12
413.365	84.12
413.589	81.12
413.812	69.12
414.035	101.12
414.258	91.12
414.482	76.12
414.705	91.12
414.928	82.12
415.151	94.12
415.374	81.12
415.597	83.12
415.821	92.12
416.044	84.12
416.267	91.12
416.49	83.12
416.713	80.12
416.936	77.12
417.159	80.12
417.382	96.12
417.605	84.12
417.828	77.12
418.051	73.12
418.274	85.12
418.497	88.12
418.72	78.12
418.943	98.12
419.166	68.12
419.389	78.12
419.611	73.12
419.834	72.12
420.057	88.12
420.28	91.12
420.503	71.12
420.726	92.12
420.948	95.12
421.171	78.12
421.394	95.12
421.617	96.12
421.839	80.12
422.062	72.12
422.285	91.12
422.507	75.12
422.73	107.12
422.953	75.12
423.175	83.12
423.398	80.12
423.621	79.12
423.843	95.12
424.066	82.12
424.288	80.12
424.511	76.12
424.733	95.12
424.956	100.12
425.178	81.12
425.401	97.12
425.623	88.12
425.846	74.12
426.068	85.12
426.291	76.12
426.513	88.12
426.735	86.12
426.958	95.12
427.18	96.12
427.402	122.12
427.625	145.12
427.847	101.12
428.069	105.12
428.292	84.12
428.514	85.12
428.736	80.12
428.958	85.12
429.181	79.12
429.403	91.12
429.625	80.12
429.847	91.12
430.069	99.12
430.292	83.12
430.514	86.12
430.736	72.12
430.958	93.12
431.18	92.12
431.402	87.12
431.624	59.12
431.846	85.12
432.068	87.12
432.29	89.12
432.512	81.12
432.734	73.12
432.956	94.12
433.178	115.12
433.4	97.12
433.622	83.12
433.844	93.12
434.066	83.12
434.287	92.12
434.509	82.12
434.731	92.12
434.953	89.12
435.175	100.12
435.397	98.12
435.618	86.12
435.84	91.12
436.062	108.12
436.284	103.12
436.505	100.12
436.727	99.12
436.949	98.12
437.17	90.12
437.392	84.12
437.614	84.12
437.835	96.12
438.057	99.12
438.278	102.12
438.5	100.12
438.721	111.12
438.943	87.12
439.165	79.12
439.386	89.12
439.608	92.12
439.829	105.12
440.05	109.12
440.272	122.12
440.493	99.12
440.715	89.12
440.936	98.12
441.158	89.12
441.379	78.12
441.6	96.12
441.822	89.12
442.043	84.12
442.264	103.12
442.486	99.12
442.707	88.12
442.928	114.12
443.149	111.12
443.371	117.12
443.592	104.12
443.813	103.12
444.034	111.12
444.255	83.12
444.476	76.12
444.698	97.12
444.919	90.12
445.14	125.12
445.361	117.12
445.582	117.12
445.803	139.12
446.024	127.12
446.245	123.12
446.466	95.12
446.687	87.12
446.908	83.12
447.129	90.12
447.35	78.12
447.571	91.12
447.792	90.12
448.013	91.12
448.234	95.12
448.455	92.12
448.675	107.12
448.896	119.12
449.117	85.12
449.338	117.12
449.559	126.12
449.779	126.12
450	91.12
450.221	84.12
450.442	92.12
450.662	81.12
450.883	111.12
451.104	100.12
451.324	94.12
451.545	85.12
451.766	86.12
451.986	96.12
452.207	85.12
452.428	95.12
452.648	95.12
452.869	81.12
453.089	108.12
453.31	98.12
453.53	92.12
453.751	83.12
453.971	83.12
454.192	113.12
454.412	76.12
454.633	72.12
454.853	87.12
455.073	88.12
455.294	76.12
455.514	91.12
455.734	79.12
455.955	75.12
456.175	87.12
456.395	85.12
456.616	85.12
456.836	68.12
457.056	71.12
457.276	87.12
457.497	86.12
457.717	92.12
457.937	89.12
458.157	81.12
458.377	90.12
458.598	99.12
458.818	135.12
459.038	135.12
459.258	109.12
459.478	79.12
459.698	88.12
459.918	88.12
460.138	77.12
460.358	95.12
460.578	88.12
460.798	85.12
461.018	76.12
461.238	89.12
461.458	78.12
461.678	69.12
461.898	91.12
462.118	80.12
462.338	93.12
462.558	92.12
462.777	76.12
462.997	80.12
463.217	67.12
463.437	77.12
463.657	69.12
463.876	79.12
464.096	89.12
464.316	85.12
464.536	88.12
464.755	100.12
464.975	112.12
465.195	137.12
465.414	132.12
465.634	102.12
465.854	86.12
466.073	76.12
466.293	93.12
466.512	89.12
466.732	83.12
466.951	92.12
467.171	83.12
467.391	87.12
467.61	93.12
467.829	102.12
468.049	101.12
468.268	80.12
468.488	79.12
468.707	82.12
468.927	79.12
469.146	76.12
469.365	87.12
469.585	87.12
469.804	88.12
470.023	100.12
470.243	79.12
470.462	73.12
470.681	104.12
470.901	82.12
471.12	89.12
471.339	86.12
471.558	95.12
471.777	82.12
471.997	88.12
472.216	93.12
472.435	91.12
472.654	86.12
472.873	89.12
473.092	90.12
473.311	101.12
473.53	97.12
473.749	87.12
473.968	85.12
474.187	99.12
474.406	95.12
474.625	80.12
474.844	84.12
475.063	83.12
475.282	84.12
475.501	83.12
475.72	87.12
475.939	76.12
476.158	72.12
476.377	94.12
476.596	95.12
476.814	92.12
477.033	89.12
477.252	94.12
477.471	93.12
477.69	82.12
477.908	93.12
478.127	95.12
478.346	91.12
478.564	88.12
478.783	99.12
479.002	87.12
479.22	90.12
479.439	96.12
479.658	108.12
479.876	83.12
480.095	79.12
480.313	61.12
480.532	97.12
480.751	94.12
480.969	92.12
481.188	110.12
481.406	88.12
481.624	86.12
481.843	87.12
482.061	90.12
482.28	84.12
482.498	101.12
482.717	96.12
482.935	85.12
483.153	91.12
483.372	85.12
483.59	88.12
483.808	89.12
484.027	90.12
484.245	84.12
484.463	102.12
484.681	94.12
484.9	94.12
485.118	96.12
485.336	87.12
485.554	96.12
485.772	93.12
485.99	102.12
486.209	97.12
486.427	95.12
486.645	95.12
486.863	98.12
487.081	113.12
487.299	88.12
487.517	98.12
487.735	83.12
487.953	90.12
488.171	94.12
488.389	103.12
488.607	99.12
488.825	93.12
489.043	88.12
489.261	78.12
489.479	93.12
489.696	83.12
489.914	85.12
490.132	80.12
490.35	91.12
490.568	79.12
490.786	83.12
491.003	82.12
491.221	88.12
491.439	90.12
491.657	93.12
491.874	89.12
492.092	104.12
492.31	91.12
492.527	82.12
492.745	94.12
492.963	85.12
493.18	79.12
493.398	86.12
493.615	99.12
493.833	94.12
494.05	90.12
494.268	101.12
494.485	87.12
494.703	99.12
494.92	86.12
495.138	90.12
495.355	75.12
495.573	78.12
495.79	74.12
496.008	100.12
496.225	93.12
496.442	77.12
496.66	87.12
496.877	73.12
497.094	84.12
497.312	77.12
497.529	78.12
497.746	83.12
497.963	97.12
498.181	63.12
498.398	88.12
498.615	106.12
498.832	102.12
499.049	92.12
499.267	89.12
499.484	86.12
499.701	93.12
499.918	85.12
500.135	90.12
500.352	100.12
500.569	83.12
500.786	71.12
501.003	84.12
501.22	86.12
501.437	94.12
501.654	83.12
501.871	118.12
502.088	105.12
502.305	79.12
502.522	78.12
502.739	91.12
502.956	101.12
503.172	103.12
503.389	91.12
503.606	89.12
503.823	102.12
504.04	93.12
504.256	96.12
504.473	87.12
504.69	100.12
504.907	91.12
505.123	72.12
505.34	81.12
505.557	86.12
505.773	105.12
505.99	87.12
506.207	69.12
506.423	93.12
506.64	75.12
506.856	87.12
507.073	99.12
507.289	91.12
507.506	84.12
507.722	106.12
507.939	101.12
508.155	94.12
508.372	92.12
508.588	94.12
508.805	93.12
509.021	78.12
509.238	98.12
509.454	103.12
509.67	86.12
509.887	97.12
510.103	119.12
510.319	189.12
510.536	675.12
510.752	2011.12
510.968	569.12
511.184	149.12
511.401	111.12
511.617	91.12
511.833	99.12
512.049	86.12
512.265	95.12
512.481	97.12
512.698	88.12
512.914	82.12
513.13	91.12
513.346	91.12
513.562	101.12
513.778	95.12
513.994	103.12
514.21	83.12
514.426	104.12
514.642	120.12
514.858	117.12
515.074	145.12
515.29	387.12
515.506	1209.12
515.721	463.12
515.937	134.12
516.153	100.12
516.369	99.12
516.585	86.12
516.801	92.12
517.016	73.12
