Data from Uncirc_1998_H10_HRD10591_00014.txt Node
Date: Wed Jan 03 11:25:27 EST 2024
User: Yrep
Spectrometer: HR+D1059
Trigger mode: 1
Integration Time (sec): 1.000000E-1
Scans to average: 1
Electric dark correction enabled: true
Nonlinearity correction enabled: false
Boxcar width: 0
XAxis mode: Wavelengths
Number of Pixels in Spectrum: 2048
>>>>>Begin Spectral Data<<<<<
223.165	-6.19
223.4	-6.19
223.635	-6.19
223.869	-18.19
224.104	-20.19
224.338	-20.19
224.573	-13.19
224.808	-1.19
225.042	-10.19
225.277	-14.19
225.511	-5.19
225.746	7.81
225.98	3.81
226.215	19.81
226.449	13.81
226.683	5.81
226.918	34.81
227.152	22.81
227.387	45.81
227.621	50.81
227.856	50.81
228.09	49.81
228.324	45.81
228.559	59.81
228.793	57.81
229.027	64.81
229.262	62.81
229.496	70.81
229.73	79.81
229.964	85.81
230.199	74.81
230.433	81.81
230.667	75.81
230.901	73.81
231.136	84.81
231.37	77.81
231.604	78.81
231.838	82.81
232.072	78.81
232.306	100.81
232.541	82.81
232.775	84.81
233.009	97.81
233.243	79.81
233.477	80.81
233.711	71.81
233.945	92.81
234.179	81.81
234.413	89.81
234.647	81.81
234.881	93.81
235.115	89.81
235.349	89.81
235.583	68.81
235.817	81.81
236.051	92.81
236.285	87.81
236.519	83.81
236.753	91.81
236.987	96.81
237.221	84.81
237.455	73.81
237.689	89.81
237.922	73.81
238.156	96.81
238.39	90.81
238.624	76.81
238.858	75.81
239.091	90.81
239.325	79.81
239.559	85.81
239.793	81.81
240.027	90.81
240.26	57.81
240.494	84.81
240.728	69.81
240.961	89.81
241.195	96.81
241.429	85.81
241.662	79.81
241.896	70.81
242.13	83.81
242.363	86.81
242.597	86.81
242.83	90.81
243.064	73.81
243.298	65.81
243.531	91.81
243.765	93.81
243.998	75.81
244.232	62.81
244.465	92.81
244.699	82.81
244.932	84.81
245.166	82.81
245.399	77.81
245.633	80.81
245.866	78.81
246.099	79.81
246.333	82.81
246.566	88.81
246.8	90.81
247.033	82.81
247.266	83.81
247.5	81.81
247.733	84.81
247.966	82.81
248.2	94.81
248.433	85.81
248.666	91.81
248.899	97.81
249.133	91.81
249.366	87.81
249.599	90.81
249.832	86.81
250.066	89.81
250.299	86.81
250.532	79.81
250.765	85.81
250.998	77.81
251.231	81.81
251.465	85.81
251.698	86.81
251.931	82.81
252.164	82.81
252.397	84.81
252.63	87.81
252.863	88.81
253.096	77.81
253.329	86.81
253.562	97.81
253.795	99.81
254.028	85.81
254.261	85.81
254.494	90.81
254.727	97.81
254.96	65.81
255.193	80.81
255.426	81.81
255.659	99.81
255.892	80.81
256.124	95.81
256.357	93.81
256.59	87.81
256.823	100.81
257.056	85.81
257.289	83.81
257.521	103.81
257.754	89.81
257.987	103.81
258.22	81.81
258.452	87.81
258.685	82.81
258.918	87.81
259.151	78.81
259.383	83.81
259.616	81.81
259.849	77.81
260.081	82.81
260.314	109.81
260.547	77.81
260.779	94.81
261.012	92.81
261.244	81.81
261.477	92.81
261.71	105.81
261.942	113.81
262.175	113.81
262.407	97.81
262.64	87.81
262.872	94.81
263.105	94.81
263.337	93.81
263.57	73.81
263.802	90.81
264.035	89.81
264.267	86.81
264.499	85.81
264.732	89.81
264.964	85.81
265.197	97.81
265.429	86.81
265.661	85.81
265.894	85.81
266.126	90.81
266.358	103.81
266.591	82.81
266.823	82.81
267.055	89.81
267.287	81.81
267.52	76.81
267.752	88.81
267.984	86.81
268.216	78.81
268.448	99.81
268.681	96.81
268.913	87.81
269.145	79.81
269.377	96.81
269.609	82.81
269.841	74.81
270.073	74.81
270.306	87.81
270.538	79.81
270.77	84.81
271.002	87.81
271.234	91.81
271.466	81.81
271.698	83.81
271.93	90.81
272.162	92.81
272.394	91.81
272.626	81.81
272.858	92.81
273.09	87.81
273.322	80.81
273.553	75.81
273.785	86.81
274.017	87.81
274.249	86.81
274.481	81.81
274.713	70.81
274.945	93.81
275.176	76.81
275.408	88.81
275.64	94.81
275.872	98.81
276.104	97.81
276.335	89.81
276.567	102.81
276.799	90.81
277.031	101.81
277.262	109.81
277.494	95.81
277.726	99.81
277.957	101.81
278.189	89.81
278.421	90.81
278.652	84.81
278.884	77.81
279.115	87.81
279.347	108.81
279.579	103.81
279.81	99.81
280.042	102.81
280.273	87.81
280.505	86.81
280.736	96.81
280.968	88.81
281.199	95.81
281.431	97.81
281.662	101.81
281.894	93.81
282.125	90.81
282.356	109.81
282.588	135.81
282.819	115.81
283.051	93.81
283.282	81.81
283.513	95.81
283.745	84.81
283.976	92.81
284.207	96.81
284.439	90.81
284.67	82.81
284.901	88.81
285.132	87.81
285.364	92.81
285.595	91.81
285.826	102.81
286.057	90.81
286.288	104.81
286.52	77.81
286.751	101.81
286.982	91.81
287.213	95.81
287.444	98.81
287.675	98.81
287.906	86.81
288.138	78.81
288.369	95.81
288.6	87.81
288.831	86.81
289.062	83.81
289.293	83.81
289.524	87.81
289.755	94.81
289.986	101.81
290.217	101.81
290.448	85.81
290.679	88.81
290.91	89.81
291.141	83.81
291.371	94.81
291.602	90.81
291.833	95.81
292.064	93.81
292.295	87.81
292.526	89.81
292.757	89.81
292.987	109.81
293.218	88.81
293.449	93.81
293.68	96.81
293.91	92.81
294.141	100.81
294.372	91.81
294.603	90.81
294.833	93.81
295.064	102.81
295.295	84.81
295.525	93.81
295.756	107.81
295.987	109.81
296.217	132.81
296.448	110.81
296.679	102.81
296.909	101.81
297.14	86.81
297.37	98.81
297.601	92.81
297.831	89.81
298.062	93.81
298.292	87.81
298.523	91.81
298.753	83.81
298.984	98.81
299.214	90.81
299.445	98.81
299.675	94.81
299.905	92.81
300.136	89.81
300.366	88.81
300.597	100.81
300.827	96.81
301.057	100.81
301.288	103.81
301.518	73.81
301.748	88.81
301.979	113.81
302.209	94.81
302.439	97.81
302.669	89.81
302.9	81.81
303.13	79.81
303.36	94.81
303.59	92.81
303.82	99.81
304.051	100.81
304.281	77.81
304.511	88.81
304.741	91.81
304.971	99.81
305.201	98.81
305.431	96.81
305.661	92.81
305.891	100.81
306.121	80.81
306.352	105.81
306.582	99.81
306.812	91.81
307.042	98.81
307.272	91.81
307.502	103.81
307.731	91.81
307.961	87.81
308.191	96.81
308.421	96.81
308.651	99.81
308.881	95.81
309.111	100.81
309.341	108.81
309.571	101.81
309.8	97.81
310.03	98.81
310.26	97.81
310.49	106.81
310.72	107.81
310.949	96.81
311.179	87.81
311.409	102.81
311.639	87.81
311.868	105.81
312.098	102.81
312.328	95.81
312.557	104.81
312.787	105.81
313.017	107.81
313.246	100.81
313.476	95.81
313.706	101.81
313.935	93.81
314.165	96.81
314.394	96.81
314.624	95.81
314.853	100.81
315.083	90.81
315.312	106.81
315.542	90.81
315.771	90.81
316.001	112.81
316.23	103.81
316.46	98.81
316.689	106.81
316.919	97.81
317.148	106.81
317.377	94.81
317.607	80.81
317.836	98.81
318.065	94.81
318.295	79.81
318.524	87.81
318.753	106.81
318.983	101.81
319.212	102.81
319.441	92.81
319.67	104.81
319.9	91.81
320.129	87.81
320.358	95.81
320.587	98.81
320.816	101.81
321.046	103.81
321.275	97.81
321.504	106.81
321.733	109.81
321.962	94.81
322.191	102.81
322.42	108.81
322.649	106.81
322.878	106.81
323.108	105.81
323.337	122.81
323.566	140.81
323.795	159.81
324.024	183.81
324.253	315.81
324.482	659.81
324.71	1298.81
324.939	1727.81
325.168	630.81
325.397	191.81
325.626	133.81
325.855	117.81
326.084	122.81
326.313	126.81
326.542	145.81
326.77	196.81
326.999	384.81
327.228	766.81
327.457	1331.81
327.686	1075.81
327.914	323.81
328.143	199.81
328.372	141.81
328.6	126.81
328.829	120.81
329.058	119.81
329.287	125.81
329.515	103.81
329.744	111.81
329.972	99.81
330.201	101.81
330.43	113.81
330.658	101.81
330.887	115.81
331.115	98.81
331.344	103.81
331.572	101.81
331.801	92.81
332.03	102.81
332.258	91.81
332.486	97.81
332.715	93.81
332.943	97.81
333.172	94.81
333.4	93.81
333.629	106.81
333.857	101.81
334.085	102.81
334.314	108.81
334.542	95.81
334.771	109.81
334.999	100.81
335.227	83.81
335.455	89.81
335.684	70.81
335.912	106.81
336.14	91.81
336.369	90.81
336.597	97.81
336.825	93.81
337.053	81.81
337.281	94.81
337.51	99.81
337.738	117.81
337.966	91.81
338.194	106.81
338.422	111.81
338.65	105.81
338.878	105.81
339.106	96.81
339.334	93.81
339.562	101.81
339.79	95.81
340.018	87.81
340.246	98.81
340.474	98.81
340.702	98.81
340.93	92.81
341.158	98.81
341.386	97.81
341.614	90.81
341.842	93.81
342.07	87.81
342.298	91.81
342.526	107.81
342.754	87.81
342.981	88.81
343.209	109.81
343.437	98.81
343.665	80.81
343.893	105.81
344.12	100.81
344.348	106.81
344.576	83.81
344.804	98.81
345.031	102.81
345.259	110.81
345.487	85.81
345.714	87.81
345.942	105.81
346.17	92.81
346.397	87.81
346.625	87.81
346.853	106.81
347.08	98.81
347.308	87.81
347.535	90.81
347.763	98.81
347.99	91.81
348.218	106.81
348.445	97.81
348.673	104.81
348.9	92.81
349.128	90.81
349.355	80.81
349.583	79.81
349.81	91.81
350.037	107.81
350.265	94.81
350.492	103.81
350.72	93.81
350.947	98.81
351.174	95.81
351.402	101.81
351.629	102.81
351.856	96.81
352.083	102.81
352.311	114.81
352.538	115.81
352.765	107.81
352.992	114.81
353.22	115.81
353.447	103.81
353.674	113.81
353.901	97.81
354.128	117.81
354.355	94.81
354.583	90.81
354.81	95.81
355.037	99.81
355.264	86.81
355.491	87.81
355.718	108.81
355.945	96.81
356.172	98.81
356.399	90.81
356.626	91.81
356.853	98.81
357.08	109.81
357.307	89.81
357.534	95.81
357.761	90.81
357.988	97.81
358.215	94.81
358.441	92.81
358.668	77.81
358.895	86.81
359.122	99.81
359.349	98.81
359.576	102.81
359.802	88.81
360.029	107.81
360.256	99.81
360.483	100.81
360.709	89.81
360.936	94.81
361.163	97.81
361.39	99.81
361.616	96.81
361.843	96.81
362.07	98.81
362.296	99.81
362.523	103.81
362.749	94.81
362.976	91.81
363.203	83.81
363.429	97.81
363.656	107.81
363.882	94.81
364.109	94.81
364.335	106.81
364.562	89.81
364.788	104.81
365.015	99.81
365.241	116.81
365.468	100.81
365.694	92.81
365.92	110.81
366.147	99.81
366.373	105.81
366.599	103.81
366.826	79.81
367.052	95.81
367.278	87.81
367.505	91.81
367.731	99.81
367.957	84.81
368.184	104.81
368.41	94.81
368.636	108.81
368.862	97.81
369.089	106.81
369.315	103.81
369.541	100.81
369.767	75.81
369.993	89.81
370.219	93.81
370.445	94.81
370.672	67.81
370.898	82.81
371.124	87.81
371.35	84.81
371.576	93.81
371.802	89.81
372.028	86.81
372.254	101.81
372.48	79.81
372.706	92.81
372.932	93.81
373.158	88.81
373.384	91.81
373.61	91.81
373.835	93.81
374.061	68.81
374.287	85.81
374.513	94.81
374.739	97.81
374.965	78.81
375.191	101.81
375.416	83.81
375.642	102.81
375.868	77.81
376.094	93.81
376.319	85.81
376.545	90.81
376.771	83.81
376.997	101.81
377.222	93.81
377.448	97.81
377.674	83.81
377.899	90.81
378.125	96.81
378.35	113.81
378.576	88.81
378.802	94.81
379.027	94.81
379.253	79.81
379.478	90.81
379.704	103.81
379.929	101.81
380.155	98.81
380.38	98.81
380.606	90.81
380.831	94.81
381.057	84.81
381.282	101.81
381.507	92.81
381.733	114.81
381.958	79.81
382.184	102.81
382.409	106.81
382.634	109.81
382.86	88.81
383.085	105.81
383.31	100.81
383.535	109.81
383.761	102.81
383.986	103.81
384.211	92.81
384.436	102.81
384.662	97.81
384.887	95.81
385.112	118.81
385.337	114.81
385.562	104.81
385.787	110.81
386.013	117.81
386.238	109.81
386.463	101.81
386.688	117.81
386.913	110.81
387.138	117.81
387.363	110.81
387.588	94.81
387.813	111.81
388.038	97.81
388.263	113.81
388.488	129.81
388.713	106.81
388.938	109.81
389.163	103.81
389.387	116.81
389.612	92.81
389.837	90.81
390.062	91.81
390.287	91.81
390.512	100.81
390.736	99.81
390.961	92.81
391.186	101.81
391.411	88.81
391.636	97.81
391.86	86.81
392.085	94.81
392.31	90.81
392.534	92.81
392.759	100.81
392.984	96.81
393.208	82.81
393.433	90.81
393.658	84.81
393.882	97.81
394.107	94.81
394.331	92.81
394.556	87.81
394.78	101.81
395.005	97.81
395.229	98.81
395.454	102.81
395.678	87.81
395.903	90.81
396.127	107.81
396.352	93.81
396.576	92.81
396.801	100.81
397.025	96.81
397.249	97.81
397.474	102.81
397.698	82.81
397.922	95.81
398.147	93.81
398.371	89.81
398.595	76.81
398.82	98.81
399.044	88.81
399.268	94.81
399.492	93.81
399.717	85.81
399.941	92.81
400.165	108.81
400.389	103.81
400.613	95.81
400.837	85.81
401.062	84.81
401.286	98.81
401.51	91.81
401.734	85.81
401.958	89.81
402.182	106.81
402.406	122.81
402.63	107.81
402.854	90.81
403.078	90.81
403.302	91.81
403.526	90.81
403.75	102.81
403.974	87.81
404.198	97.81
404.422	101.81
404.645	83.81
404.869	98.81
405.093	96.81
405.317	93.81
405.541	85.81
405.765	98.81
405.988	121.81
406.212	135.81
406.436	180.81
406.66	128.81
406.883	105.81
407.107	88.81
407.331	97.81
407.555	99.81
407.778	96.81
408.002	85.81
408.226	82.81
408.449	92.81
408.673	94.81
408.896	100.81
409.12	84.81
409.344	106.81
409.567	91.81
409.791	76.81
410.014	89.81
410.238	95.81
410.461	100.81
410.685	92.81
410.908	111.81
411.132	118.81
411.355	97.81
411.578	103.81
411.802	106.81
412.025	89.81
412.249	110.81
412.472	78.81
412.695	95.81
412.919	84.81
413.142	103.81
413.365	89.81
413.589	81.81
413.812	82.81
414.035	86.81
414.258	103.81
414.482	99.81
414.705	99.81
414.928	95.81
415.151	94.81
415.374	107.81
415.597	92.81
415.821	69.81
416.044	86.81
416.267	82.81
416.49	96.81
416.713	71.81
416.936	101.81
417.159	90.81
417.382	93.81
417.605	96.81
417.828	96.81
418.051	86.81
418.274	101.81
418.497	85.81
418.72	92.81
418.943	83.81
419.166	93.81
419.389	85.81
419.611	83.81
419.834	79.81
420.057	89.81
420.28	87.81
420.503	68.81
420.726	97.81
420.948	97.81
421.171	109.81
421.394	97.81
421.617	98.81
421.839	109.81
422.062	93.81
422.285	98.81
422.507	102.81
422.73	101.81
422.953	100.81
423.175	98.81
423.398	77.81
423.621	90.81
423.843	88.81
424.066	88.81
424.288	89.81
424.511	89.81
424.733	112.81
424.956	81.81
425.178	95.81
425.401	107.81
425.623	101.81
425.846	90.81
426.068	86.81
426.291	101.81
426.513	90.81
426.735	97.81
426.958	109.81
427.18	103.81
427.402	130.81
427.625	125.81
427.847	102.81
428.069	96.81
428.292	78.81
428.514	93.81
428.736	84.81
428.958	87.81
429.181	93.81
429.403	83.81
429.625	81.81
429.847	77.81
430.069	92.81
430.292	91.81
430.514	79.81
430.736	103.81
430.958	100.81
431.18	89.81
431.402	89.81
431.624	92.81
431.846	82.81
432.068	87.81
432.29	95.81
432.512	100.81
432.734	98.81
432.956	97.81
433.178	97.81
433.4	111.81
433.622	92.81
433.844	100.81
434.066	91.81
434.287	91.81
434.509	92.81
434.731	90.81
434.953	93.81
435.175	94.81
435.397	92.81
435.618	92.81
435.84	113.81
436.062	114.81
436.284	101.81
436.505	101.81
436.727	98.81
436.949	92.81
437.17	109.81
437.392	82.81
437.614	91.81
437.835	96.81
438.057	105.81
438.278	120.81
438.5	99.81
438.721	125.81
438.943	91.81
439.165	84.81
439.386	82.81
439.608	90.81
439.829	97.81
440.05	111.81
440.272	126.81
440.493	92.81
440.715	79.81
440.936	98.81
441.158	92.81
441.379	98.81
441.6	95.81
441.822	87.81
442.043	100.81
442.264	101.81
442.486	105.81
442.707	104.81
442.928	93.81
443.149	124.81
443.371	109.81
443.592	94.81
443.813	91.81
444.034	99.81
444.255	101.81
444.476	96.81
444.698	86.81
444.919	92.81
445.14	124.81
445.361	119.81
445.582	119.81
445.803	131.81
446.024	125.81
446.245	119.81
446.466	121.81
446.687	87.81
446.908	87.81
447.129	100.81
447.35	89.81
447.571	101.81
447.792	98.81
448.013	91.81
448.234	90.81
448.455	105.81
448.675	97.81
448.896	101.81
449.117	100.81
449.338	103.81
449.559	128.81
449.779	123.81
450	97.81
450.221	88.81
450.442	91.81
450.662	93.81
450.883	90.81
451.104	115.81
451.324	91.81
451.545	87.81
451.766	85.81
451.986	84.81
452.207	88.81
452.428	93.81
452.648	101.81
452.869	99.81
453.089	106.81
453.31	96.81
453.53	111.81
453.751	93.81
453.971	104.81
454.192	95.81
454.412	96.81
454.633	86.81
454.853	75.81
455.073	83.81
455.294	100.81
455.514	97.81
455.734	99.81
455.955	97.81
456.175	87.81
456.395	77.81
456.616	91.81
456.836	77.81
457.056	87.81
457.276	90.81
457.497	78.81
457.717	86.81
457.937	65.81
458.157	85.81
458.377	83.81
458.598	102.81
458.818	134.81
459.038	133.81
459.258	114.81
459.478	93.81
459.698	83.81
459.918	96.81
460.138	85.81
460.358	93.81
460.578	89.81
460.798	87.81
461.018	73.81
461.238	89.81
461.458	75.81
461.678	101.81
461.898	86.81
462.118	85.81
462.338	83.81
462.558	90.81
462.777	91.81
462.997	94.81
463.217	93.81
463.437	80.81
463.657	80.81
463.876	85.81
464.096	89.81
464.316	99.81
464.536	108.81
464.755	104.81
464.975	99.81
465.195	147.81
465.414	139.81
465.634	103.81
465.854	95.81
466.073	94.81
466.293	92.81
466.512	78.81
466.732	97.81
466.951	97.81
467.171	94.81
467.391	98.81
467.61	88.81
467.829	104.81
468.049	92.81
468.268	90.81
468.488	93.81
468.707	90.81
468.927	93.81
469.146	99.81
469.365	93.81
469.585	80.81
469.804	89.81
470.023	97.81
470.243	80.81
470.462	102.81
470.681	106.81
470.901	97.81
471.12	90.81
471.339	100.81
471.558	93.81
471.777	81.81
471.997	101.81
472.216	85.81
472.435	78.81
472.654	90.81
472.873	93.81
473.092	84.81
473.311	91.81
473.53	75.81
473.749	101.81
473.968	97.81
474.187	89.81
474.406	99.81
474.625	86.81
474.844	99.81
475.063	81.81
475.282	97.81
475.501	95.81
475.72	99.81
475.939	85.81
476.158	71.81
476.377	93.81
476.596	92.81
476.814	85.81
477.033	96.81
477.252	90.81
477.471	79.81
477.69	86.81
477.908	103.81
478.127	95.81
478.346	103.81
478.564	95.81
478.783	89.81
479.002	95.81
479.22	97.81
479.439	107.81
479.658	99.81
479.876	86.81
480.095	101.81
480.313	85.81
480.532	98.81
480.751	100.81
480.969	92.81
481.188	117.81
481.406	108.81
481.624	103.81
481.843	92.81
482.061	97.81
482.28	93.81
482.498	84.81
482.717	100.81
482.935	85.81
483.153	102.81
483.372	93.81
483.59	92.81
483.808	84.81
484.027	102.81
484.245	111.81
484.463	97.81
484.681	99.81
484.9	83.81
485.118	120.81
485.336	89.81
485.554	101.81
485.772	107.81
485.99	88.81
486.209	105.81
486.427	102.81
486.645	107.81
486.863	113.81
487.081	105.81
487.299	118.81
487.517	98.81
487.735	102.81
487.953	79.81
488.171	98.81
488.389	93.81
488.607	101.81
488.825	78.81
489.043	88.81
489.261	96.81
489.479	98.81
489.696	83.81
489.914	87.81
490.132	93.81
490.35	97.81
490.568	83.81
490.786	83.81
491.003	82.81
491.221	97.81
491.439	85.81
491.657	91.81
491.874	102.81
492.092	89.81
492.31	99.81
492.527	92.81
492.745	100.81
492.963	91.81
493.18	98.81
493.398	92.81
493.615	104.81
493.833	87.81
494.05	100.81
494.268	92.81
494.485	91.81
494.703	82.81
494.92	91.81
495.138	89.81
495.355	99.81
495.573	97.81
495.79	94.81
496.008	93.81
496.225	93.81
496.442	89.81
496.66	90.81
496.877	94.81
497.094	88.81
497.312	84.81
497.529	91.81
497.746	93.81
497.963	101.81
498.181	89.81
498.398	98.81
498.615	94.81
498.832	103.81
499.049	98.81
499.267	101.81
499.484	104.81
499.701	79.81
499.918	82.81
500.135	88.81
500.352	85.81
500.569	85.81
500.786	97.81
501.003	75.81
501.22	89.81
501.437	94.81
501.654	88.81
501.871	108.81
502.088	79.81
502.305	97.81
502.522	98.81
502.739	97.81
502.956	99.81
503.172	94.81
503.389	101.81
503.606	105.81
503.823	105.81
504.04	93.81
504.256	87.81
504.473	98.81
504.69	83.81
504.907	79.81
505.123	97.81
505.34	113.81
505.557	87.81
505.773	95.81
505.99	96.81
506.207	93.81
506.423	82.81
506.64	107.81
506.856	84.81
507.073	77.81
507.289	101.81
507.506	103.81
507.722	108.81
507.939	97.81
508.155	90.81
508.372	101.81
508.588	100.81
508.805	92.81
509.021	89.81
509.238	89.81
509.454	108.81
509.67	107.81
509.887	110.81
510.103	129.81
510.319	191.81
510.536	601.81
510.752	1718.81
510.968	495.81
511.184	148.81
511.401	107.81
511.617	96.81
511.833	101.81
512.049	95.81
512.265	87.81
512.481	94.81
512.698	89.81
512.914	93.81
513.13	107.81
513.346	97.81
513.562	97.81
513.778	107.81
513.994	80.81
514.21	107.81
514.426	110.81
514.642	134.81
514.858	120.81
