Data from Uncirc_1998_H10_HRD10591_00047.txt Node
Date: Wed Jan 03 11:25:34 EST 2024
User: Yrep
Spectrometer: HR+D1059
Trigger mode: 1
Integration Time (sec): 1.000000E-1
Scans to average: 1
Electric dark correction enabled: true
Nonlinearity correction enabled: false
Boxcar width: 0
XAxis mode: Wavelengths
Number of Pixels in Spectrum: 2048
>>>>>Begin Spectral Data<<<<<
223.165	-11.38
223.4	-11.38
223.635	-11.38
223.869	-28.38
224.104	-10.38
224.338	-16.38
224.573	-21.38
224.808	-20.38
225.042	-2.38
225.277	-10.38
225.511	-4.38
225.746	11.62
225.98	5.62
226.215	16.62
226.449	8.62
226.683	13.62
226.918	38.62
227.152	30.62
227.387	27.62
227.621	33.62
227.856	39.62
228.09	55.62
228.324	55.62
228.559	62.62
228.793	47.62
229.027	45.62
229.262	60.62
229.496	81.62
229.73	63.62
229.964	53.62
230.199	76.62
230.433	81.62
230.667	80.62
230.901	83.62
231.136	77.62
231.37	67.62
231.604	67.62
231.838	68.62
232.072	73.62
232.306	68.62
232.541	82.62
232.775	78.62
233.009	79.62
233.243	85.62
233.477	74.62
233.711	67.62
233.945	71.62
234.179	71.62
234.413	71.62
234.647	85.62
234.881	86.62
235.115	78.62
235.349	88.62
235.583	83.62
235.817	83.62
236.051	87.62
236.285	75.62
236.519	71.62
236.753	69.62
236.987	83.62
237.221	74.62
237.455	67.62
237.689	63.62
237.922	69.62
238.156	66.62
238.39	75.62
238.624	71.62
238.858	79.62
239.091	71.62
239.325	68.62
239.559	69.62
239.793	75.62
240.027	70.62
240.26	67.62
240.494	71.62
240.728	70.62
240.961	68.62
241.195	62.62
241.429	81.62
241.662	71.62
241.896	70.62
242.13	54.62
242.363	65.62
242.597	71.62
242.83	79.62
243.064	72.62
243.298	75.62
243.531	69.62
243.765	59.62
243.998	77.62
244.232	88.62
244.465	58.62
244.699	64.62
244.932	63.62
245.166	75.62
245.399	78.62
245.633	81.62
245.866	79.62
246.099	89.62
246.333	71.62
246.566	80.62
246.8	68.62
247.033	80.62
247.266	65.62
247.5	59.62
247.733	65.62
247.966	72.62
248.2	81.62
248.433	76.62
248.666	73.62
248.899	67.62
249.133	91.62
249.366	85.62
249.599	77.62
249.832	75.62
250.066	72.62
250.299	71.62
250.532	69.62
250.765	71.62
250.998	78.62
251.231	73.62
251.465	80.62
251.698	72.62
251.931	77.62
252.164	76.62
252.397	60.62
252.63	83.62
252.863	71.62
253.096	77.62
253.329	81.62
253.562	68.62
253.795	78.62
254.028	81.62
254.261	67.62
254.494	76.62
254.727	85.62
254.96	97.62
255.193	72.62
255.426	86.62
255.659	80.62
255.892	87.62
256.124	93.62
256.357	78.62
256.59	83.62
256.823	78.62
257.056	78.62
257.289	93.62
257.521	81.62
257.754	73.62
257.987	55.62
258.22	79.62
258.452	88.62
258.685	81.62
258.918	70.62
259.151	65.62
259.383	73.62
259.616	71.62
259.849	75.62
260.081	73.62
260.314	69.62
260.547	93.62
260.779	63.62
261.012	74.62
261.244	83.62
261.477	78.62
261.71	75.62
261.942	84.62
262.175	89.62
262.407	88.62
262.64	65.62
262.872	97.62
263.105	82.62
263.337	67.62
263.57	59.62
263.802	81.62
264.035	93.62
264.267	80.62
264.499	83.62
264.732	80.62
264.964	86.62
265.197	88.62
265.429	79.62
265.661	90.62
265.894	91.62
266.126	77.62
266.358	78.62
266.591	87.62
266.823	83.62
267.055	81.62
267.287	82.62
267.52	88.62
267.752	80.62
267.984	73.62
268.216	81.62
268.448	77.62
268.681	78.62
268.913	78.62
269.145	83.62
269.377	90.62
269.609	90.62
269.841	89.62
270.073	76.62
270.306	85.62
270.538	86.62
270.77	82.62
271.002	85.62
271.234	80.62
271.466	81.62
271.698	84.62
271.93	83.62
272.162	78.62
272.394	90.62
272.626	78.62
272.858	66.62
273.09	85.62
273.322	74.62
273.553	74.62
273.785	69.62
274.017	82.62
274.249	75.62
274.481	73.62
274.713	87.62
274.945	84.62
275.176	76.62
275.408	87.62
275.64	75.62
275.872	75.62
276.104	77.62
276.335	79.62
276.567	83.62
276.799	90.62
277.031	85.62
277.262	89.62
277.494	95.62
277.726	77.62
277.957	73.62
278.189	85.62
278.421	86.62
278.652	69.62
278.884	88.62
279.115	90.62
279.347	83.62
279.579	97.62
279.81	82.62
280.042	99.62
280.273	76.62
280.505	87.62
280.736	75.62
280.968	85.62
281.199	79.62
281.431	74.62
281.662	85.62
281.894	86.62
282.125	99.62
282.356	101.62
282.588	109.62
282.819	102.62
283.051	82.62
283.282	71.62
283.513	95.62
283.745	91.62
283.976	81.62
284.207	84.62
284.439	86.62
284.67	78.62
284.901	94.62
285.132	76.62
285.364	81.62
285.595	79.62
285.826	94.62
286.057	89.62
286.288	83.62
286.52	83.62
286.751	72.62
286.982	82.62
287.213	86.62
287.444	77.62
287.675	89.62
287.906	84.62
288.138	73.62
288.369	85.62
288.6	100.62
288.831	86.62
289.062	91.62
289.293	88.62
289.524	93.62
289.755	90.62
289.986	85.62
290.217	87.62
290.448	71.62
290.679	84.62
290.91	76.62
291.141	90.62
291.371	84.62
291.602	105.62
291.833	90.62
292.064	84.62
292.295	87.62
292.526	88.62
292.757	71.62
292.987	84.62
293.218	68.62
293.449	92.62
293.68	87.62
293.91	88.62
294.141	95.62
294.372	98.62
294.603	83.62
294.833	83.62
295.064	73.62
295.295	81.62
295.525	97.62
295.756	104.62
295.987	102.62
296.217	118.62
296.448	113.62
296.679	89.62
296.909	91.62
297.14	91.62
297.37	89.62
297.601	78.62
297.831	98.62
298.062	83.62
298.292	82.62
298.523	101.62
298.753	84.62
298.984	94.62
299.214	84.62
299.445	83.62
299.675	67.62
299.905	83.62
300.136	85.62
300.366	85.62
300.597	100.62
300.827	69.62
301.057	95.62
301.288	95.62
301.518	93.62
301.748	75.62
301.979	99.62
302.209	86.62
302.439	75.62
302.669	94.62
302.9	89.62
303.13	81.62
303.36	88.62
303.59	94.62
303.82	96.62
304.051	80.62
304.281	93.62
304.511	85.62
304.741	87.62
304.971	82.62
305.201	92.62
305.431	83.62
305.661	96.62
305.891	84.62
306.121	75.62
306.352	89.62
306.582	86.62
306.812	82.62
307.042	76.62
307.272	88.62
307.502	97.62
307.731	86.62
307.961	76.62
308.191	86.62
308.421	95.62
308.651	86.62
308.881	94.62
309.111	84.62
309.341	90.62
309.571	85.62
309.8	87.62
310.03	81.62
310.26	69.62
310.49	88.62
310.72	85.62
310.949	80.62
311.179	90.62
311.409	81.62
311.639	85.62
311.868	91.62
312.098	86.62
312.328	89.62
312.557	84.62
312.787	93.62
313.017	101.62
313.246	89.62
313.476	84.62
313.706	84.62
313.935	86.62
314.165	92.62
314.394	99.62
314.624	99.62
314.853	86.62
315.083	79.62
315.312	69.62
315.542	86.62
315.771	77.62
316.001	99.62
316.23	85.62
316.46	74.62
316.689	100.62
316.919	81.62
317.148	86.62
317.377	94.62
317.607	98.62
317.836	87.62
318.065	85.62
318.295	89.62
318.524	84.62
318.753	105.62
318.983	86.62
319.212	93.62
319.441	99.62
319.67	93.62
319.9	93.62
320.129	89.62
320.358	87.62
320.587	85.62
320.816	89.62
321.046	91.62
321.275	89.62
321.504	92.62
321.733	82.62
321.962	102.62
322.191	102.62
322.42	104.62
322.649	92.62
322.878	94.62
323.108	102.62
323.337	108.62
323.566	120.62
323.795	126.62
324.024	173.62
324.253	349.62
324.482	713.62
324.71	1443.62
324.939	1885.62
325.168	681.62
325.397	201.62
325.626	129.62
325.855	121.62
326.084	106.62
326.313	123.62
326.542	131.62
326.77	195.62
326.999	414.62
327.228	830.62
327.457	1470.62
327.686	1127.62
327.914	321.62
328.143	172.62
328.372	129.62
328.6	112.62
328.829	94.62
329.058	99.62
329.287	108.62
329.515	99.62
329.744	92.62
329.972	107.62
330.201	99.62
330.43	90.62
330.658	103.62
330.887	119.62
331.115	97.62
331.344	84.62
331.572	110.62
331.801	96.62
332.03	108.62
332.258	88.62
332.486	77.62
332.715	85.62
332.943	92.62
333.172	77.62
333.4	101.62
333.629	104.62
333.857	92.62
334.085	112.62
334.314	85.62
334.542	87.62
334.771	100.62
334.999	90.62
335.227	89.62
335.455	87.62
335.684	89.62
335.912	75.62
336.14	96.62
336.369	91.62
336.597	89.62
336.825	90.62
337.053	94.62
337.281	82.62
337.51	84.62
337.738	78.62
337.966	83.62
338.194	106.62
338.422	104.62
338.65	93.62
338.878	69.62
339.106	101.62
339.334	89.62
339.562	81.62
339.79	78.62
340.018	89.62
340.246	94.62
340.474	85.62
340.702	95.62
340.93	101.62
341.158	88.62
341.386	77.62
341.614	76.62
341.842	79.62
342.07	80.62
342.298	90.62
342.526	93.62
342.754	84.62
342.981	83.62
343.209	101.62
343.437	98.62
343.665	78.62
343.893	87.62
344.12	85.62
344.348	84.62
344.576	85.62
344.804	84.62
345.031	76.62
345.259	95.62
345.487	89.62
345.714	83.62
345.942	93.62
346.17	86.62
346.397	72.62
346.625	86.62
346.853	93.62
347.08	78.62
347.308	82.62
347.535	89.62
347.763	81.62
347.99	81.62
348.218	92.62
348.445	88.62
348.673	81.62
348.9	93.62
349.128	99.62
349.355	81.62
349.583	105.62
349.81	83.62
350.037	78.62
350.265	93.62
350.492	88.62
350.72	84.62
350.947	102.62
351.174	90.62
351.402	96.62
351.629	85.62
351.856	104.62
352.083	89.62
352.311	81.62
352.538	104.62
352.765	89.62
352.992	101.62
353.22	108.62
353.447	92.62
353.674	95.62
353.901	95.62
354.128	92.62
354.355	103.62
354.583	95.62
354.81	81.62
355.037	94.62
355.264	105.62
355.491	93.62
355.718	108.62
355.945	78.62
356.172	101.62
356.399	90.62
356.626	93.62
356.853	77.62
357.08	88.62
357.307	86.62
357.534	83.62
357.761	90.62
357.988	89.62
358.215	81.62
358.441	87.62
358.668	78.62
358.895	91.62
359.122	85.62
359.349	85.62
359.576	85.62
359.802	108.62
360.029	115.62
360.256	87.62
360.483	97.62
360.709	91.62
360.936	78.62
361.163	94.62
361.39	95.62
361.616	78.62
361.843	93.62
362.07	95.62
362.296	74.62
362.523	89.62
362.749	89.62
362.976	84.62
363.203	78.62
363.429	90.62
363.656	88.62
363.882	68.62
364.109	86.62
364.335	76.62
364.562	82.62
364.788	92.62
365.015	91.62
365.241	97.62
365.468	100.62
365.694	110.62
365.92	98.62
366.147	86.62
366.373	84.62
366.599	82.62
366.826	82.62
367.052	82.62
367.278	99.62
367.505	87.62
367.731	93.62
367.957	88.62
368.184	76.62
368.41	88.62
368.636	97.62
368.862	93.62
369.089	93.62
369.315	90.62
369.541	86.62
369.767	75.62
369.993	83.62
370.219	85.62
370.445	86.62
370.672	82.62
370.898	85.62
371.124	95.62
371.35	83.62
371.576	88.62
371.802	79.62
372.028	84.62
372.254	77.62
372.48	81.62
372.706	86.62
372.932	70.62
373.158	94.62
373.384	90.62
373.61	90.62
373.835	84.62
374.061	72.62
374.287	99.62
374.513	77.62
374.739	81.62
374.965	78.62
375.191	88.62
375.416	85.62
375.642	75.62
375.868	84.62
376.094	78.62
376.319	78.62
376.545	86.62
376.771	82.62
376.997	89.62
377.222	87.62
377.448	96.62
377.674	95.62
377.899	78.62
378.125	74.62
378.35	86.62
378.576	84.62
378.802	85.62
379.027	84.62
379.253	75.62
379.478	82.62
379.704	83.62
379.929	94.62
380.155	87.62
380.38	101.62
380.606	79.62
380.831	85.62
381.057	99.62
381.282	95.62
381.507	99.62
381.733	81.62
381.958	90.62
382.184	104.62
382.409	91.62
382.634	96.62
382.86	78.62
383.085	81.62
383.31	81.62
383.535	82.62
383.761	77.62
383.986	84.62
384.211	85.62
384.436	94.62
384.662	82.62
384.887	84.62
385.112	85.62
385.337	95.62
385.562	88.62
385.787	102.62
386.013	92.62
386.238	101.62
386.463	94.62
386.688	115.62
386.913	100.62
387.138	101.62
387.363	105.62
387.588	95.62
387.813	114.62
388.038	88.62
388.263	104.62
388.488	86.62
388.713	85.62
388.938	94.62
389.163	100.62
389.387	92.62
389.612	94.62
389.837	88.62
390.062	105.62
390.287	99.62
390.512	94.62
390.736	93.62
390.961	78.62
391.186	94.62
391.411	98.62
391.636	78.62
391.86	65.62
392.085	75.62
392.31	73.62
392.534	82.62
392.759	74.62
392.984	77.62
393.208	79.62
393.433	92.62
393.658	82.62
393.882	84.62
394.107	66.62
394.331	87.62
394.556	76.62
394.78	88.62
395.005	85.62
395.229	87.62
395.454	79.62
395.678	81.62
395.903	90.62
396.127	81.62
396.352	92.62
396.576	75.62
396.801	77.62
397.025	85.62
397.249	68.62
397.474	89.62
397.698	89.62
397.922	76.62
398.147	90.62
398.371	86.62
398.595	67.62
398.82	68.62
399.044	79.62
399.268	66.62
399.492	74.62
399.717	70.62
399.941	93.62
400.165	87.62
400.389	75.62
400.613	76.62
400.837	79.62
401.062	78.62
401.286	91.62
401.51	98.62
401.734	83.62
401.958	101.62
402.182	88.62
402.406	142.62
402.63	89.62
402.854	94.62
403.078	86.62
403.302	73.62
403.526	74.62
403.75	87.62
403.974	77.62
404.198	65.62
404.422	103.62
404.645	82.62
404.869	94.62
405.093	75.62
405.317	90.62
405.541	74.62
405.765	92.62
405.988	94.62
406.212	145.62
406.436	185.62
406.66	131.62
406.883	89.62
407.107	86.62
407.331	82.62
407.555	87.62
407.778	91.62
408.002	84.62
408.226	84.62
408.449	91.62
408.673	81.62
408.896	89.62
409.12	91.62
409.344	83.62
409.567	77.62
409.791	89.62
410.014	89.62
410.238	78.62
410.461	92.62
410.685	70.62
410.908	97.62
411.132	88.62
411.355	92.62
411.578	78.62
411.802	75.62
412.025	87.62
412.249	83.62
412.472	89.62
412.695	97.62
412.919	90.62
413.142	74.62
413.365	89.62
413.589	89.62
413.812	89.62
414.035	97.62
414.258	74.62
414.482	87.62
414.705	85.62
414.928	75.62
415.151	95.62
415.374	78.62
415.597	74.62
415.821	89.62
416.044	91.62
416.267	87.62
416.49	84.62
416.713	82.62
416.936	93.62
417.159	79.62
417.382	81.62
417.605	81.62
417.828	81.62
418.051	90.62
418.274	83.62
418.497	79.62
418.72	93.62
418.943	87.62
419.166	83.62
419.389	70.62
419.611	93.62
419.834	73.62
420.057	87.62
420.28	78.62
420.503	78.62
420.726	91.62
420.948	89.62
421.171	92.62
421.394	97.62
421.617	89.62
421.839	88.62
422.062	84.62
422.285	88.62
422.507	98.62
422.73	84.62
422.953	77.62
423.175	75.62
423.398	77.62
423.621	78.62
423.843	68.62
424.066	83.62
424.288	76.62
424.511	103.62
424.733	89.62
424.956	95.62
425.178	82.62
425.401	85.62
425.623	86.62
425.846	79.62
426.068	102.62
426.291	81.62
426.513	81.62
426.735	87.62
426.958	72.62
427.18	85.62
427.402	121.62
427.625	143.62
427.847	116.62
428.069	101.62
428.292	84.62
428.514	89.62
428.736	82.62
428.958	83.62
429.181	88.62
429.403	89.62
429.625	92.62
429.847	91.62
430.069	89.62
430.292	86.62
430.514	86.62
430.736	87.62
430.958	80.62
431.18	85.62
431.402	77.62
431.624	89.62
431.846	80.62
432.068	87.62
432.29	89.62
432.512	84.62
432.734	74.62
432.956	78.62
433.178	84.62
433.4	102.62
433.622	83.62
433.844	83.62
434.066	87.62
434.287	77.62
434.509	70.62
434.731	72.62
434.953	102.62
435.175	94.62
435.397	80.62
435.618	91.62
435.84	107.62
436.062	116.62
436.284	112.62
436.505	97.62
436.727	78.62
436.949	77.62
437.17	98.62
437.392	84.62
437.614	90.62
437.835	95.62
438.057	102.62
438.278	91.62
438.5	91.62
438.721	107.62
438.943	96.62
439.165	78.62
439.386	81.62
439.608	81.62
439.829	91.62
440.05	109.62
440.272	112.62
440.493	104.62
440.715	88.62
440.936	86.62
441.158	77.62
441.379	83.62
441.6	85.62
441.822	85.62
442.043	88.62
442.264	93.62
442.486	93.62
442.707	86.62
442.928	93.62
443.149	104.62
443.371	94.62
443.592	110.62
443.813	95.62
444.034	99.62
444.255	84.62
444.476	90.62
444.698	79.62
444.919	82.62
445.14	145.62
445.361	126.62
445.582	99.62
445.803	113.62
446.024	118.62
446.245	112.62
446.466	112.62
446.687	81.62
446.908	77.62
447.129	84.62
447.35	75.62
447.571	84.62
447.792	74.62
448.013	89.62
448.234	102.62
448.455	85.62
448.675	113.62
448.896	101.62
449.117	82.62
449.338	69.62
449.559	119.62
449.779	109.62
450	96.62
450.221	83.62
450.442	87.62
450.662	85.62
450.883	108.62
451.104	96.62
451.324	85.62
451.545	78.62
451.766	81.62
451.986	72.62
452.207	68.62
452.428	87.62
452.648	83.62
452.869	99.62
453.089	92.62
453.31	102.62
453.53	90.62
453.751	92.62
453.971	106.62
454.192	88.62
454.412	80.62
454.633	96.62
454.853	90.62
455.073	93.62
455.294	89.62
455.514	89.62
455.734	83.62
455.955	80.62
456.175	78.62
456.395	72.62
456.616	84.62
456.836	88.62
457.056	84.62
457.276	79.62
457.497	66.62
457.717	73.62
457.937	84.62
458.157	74.62
458.377	76.62
458.598	98.62
458.818	124.62
459.038	135.62
459.258	103.62
459.478	84.62
459.698	87.62
459.918	77.62
460.138	69.62
460.358	75.62
460.578	90.62
460.798	86.62
461.018	77.62
461.238	83.62
461.458	93.62
461.678	68.62
461.898	73.62
462.118	79.62
462.338	83.62
462.558	71.62
462.777	81.62
462.997	91.62
463.217	81.62
463.437	78.62
463.657	61.62
463.876	84.62
464.096	81.62
464.316	77.62
464.536	84.62
464.755	96.62
464.975	83.62
465.195	132.62
465.414	121.62
465.634	83.62
465.854	81.62
466.073	81.62
466.293	99.62
466.512	95.62
466.732	74.62
466.951	77.62
467.171	75.62
467.391	82.62
467.61	84.62
467.829	94.62
468.049	88.62
468.268	85.62
468.488	78.62
468.707	92.62
468.927	80.62
469.146	97.62
469.365	86.62
469.585	84.62
469.804	86.62
470.023	83.62
470.243	79.62
470.462	91.62
470.681	100.62
470.901	73.62
471.12	69.62
471.339	84.62
471.558	92.62
471.777	84.62
471.997	78.62
472.216	97.62
472.435	99.62
472.654	83.62
472.873	79.62
473.092	89.62
473.311	68.62
473.53	75.62
473.749	89.62
473.968	84.62
474.187	105.62
474.406	92.62
474.625	75.62
474.844	74.62
475.063	92.62
475.282	90.62
475.501	80.62
475.72	79.62
475.939	90.62
476.158	85.62
476.377	86.62
476.596	85.62
476.814	96.62
477.033	71.62
477.252	88.62
477.471	84.62
477.69	82.62
477.908	95.62
478.127	87.62
478.346	83.62
478.564	100.62
478.783	84.62
479.002	85.62
479.22	85.62
479.439	87.62
479.658	94.62
479.876	82.62
480.095	75.62
480.313	86.62
480.532	76.62
480.751	98.62
480.969	82.62
481.188	107.62
481.406	97.62
481.624	83.62
481.843	79.62
482.061	80.62
482.28	93.62
482.498	80.62
482.717	79.62
482.935	87.62
483.153	86.62
483.372	70.62
483.59	78.62
483.808	86.62
484.027	82.62
484.245	90.62
484.463	77.62
484.681	91.62
484.9	84.62
485.118	81.62
485.336	97.62
485.554	106.62
485.772	107.62
485.99	101.62
486.209	103.62
486.427	93.62
486.645	91.62
486.863	91.62
487.081	91.62
487.299	95.62
487.517	80.62
487.735	95.62
487.953	83.62
488.171	104.62
488.389	94.62
488.607	105.62
488.825	89.62
489.043	89.62
489.261	81.62
489.479	90.62
489.696	81.62
489.914	97.62
490.132	80.62
490.35	85.62
490.568	85.62
490.786	89.62
491.003	85.62
491.221	81.62
491.439	90.62
491.657	85.62
491.874	75.62
492.092	101.62
492.31	86.62
492.527	86.62
492.745	95.62
492.963	96.62
493.18	87.62
493.398	87.62
493.615	109.62
493.833	89.62
494.05	96.62
494.268	81.62
494.485	87.62
494.703	77.62
494.92	83.62
495.138	84.62
495.355	88.62
495.573	89.62
495.79	78.62
496.008	83.62
496.225	88.62
496.442	87.62
496.66	100.62
496.877	70.62
497.094	85.62
497.312	86.62
497.529	88.62
497.746	83.62
497.963	105.62
498.181	81.62
498.398	95.62
498.615	99.62
498.832	88.62
499.049	106.62
499.267	96.62
499.484	89.62
499.701	74.62
499.918	99.62
500.135	94.62
500.352	89.62
500.569	74.62
500.786	99.62
501.003	102.62
501.22	102.62
501.437	87.62
501.654	79.62
501.871	99.62
502.088	84.62
502.305	81.62
502.522	95.62
502.739	80.62
502.956	100.62
503.172	89.62
503.389	91.62
503.606	91.62
503.823	83.62
504.04	84.62
504.256	88.62
504.473	93.62
504.69	98.62
504.907	91.62
505.123	74.62
505.34	87.62
505.557	90.62
505.773	95.62
505.99	76.62
506.207	85.62
506.423	87.62
506.64	101.62
506.856	95.62
507.073	94.62
507.289	100.62
507.506	78.62
507.722	99.62
507.939	95.62
508.155	78.62
508.372	78.62
508.588	83.62
508.805	76.62
509.021	78.62
509.238	81.62
509.454	91.62
509.67	103.62
509.887	109.62
510.103	102.62
510.319	192.62
510.536	624.62
510.752	1842.62
510.968	542.62
511.184	147.62
511.401	110.62
511.617	91.62
511.833	99.62
512.049	95.62
512.265	77.62
512.481	88.62
512.698	85.62
512.914	86.62
513.13	85.62
513.346	98.62
513.562	75.62
513.778	88.62
513.994	88.62
514.21	101.62
514.426	107.62
514.642	119.62
514.858	110.62
515.074	146.62
515.29	355.62
515.506	1076.62
515.721	412.62
515.937	131.62
516.153	106.62
516.369	90.62
516.585	93.62
516.801	90.62
517.016	98.62
517.232	101.62
517.448	86.62
517.664	78.62
