Data from Uncirc_1998_H10_HRD10591_00064.txt Node
Date: Wed Jan 03 11:25:37 EST 2024
User: Yrep
Spectrometer: HR+D1059
Trigger mode: 1
Integration Time (sec): 1.000000E-1
Scans to average: 1
Electric dark correction enabled: true
Nonlinearity correction enabled: false
Boxcar width: 0
XAxis mode: Wavelengths
Number of Pixels in Spectrum: 2048
>>>>>Begin Spectral Data<<<<<
223.165	-20.25
223.4	-20.25
223.635	-20.25
223.869	-22.25
224.104	-19.25
224.338	-26.25
224.573	-4.25
224.808	-24.25
225.042	-14.25
225.277	-7.25
225.511	12.75
225.746	0.75
225.98	9.75
226.215	13.75
226.449	23.75
226.683	34.75
226.918	22.75
227.152	19.75
227.387	38.75
227.621	23.75
227.856	33.75
228.09	34.75
228.324	45.75
228.559	42.75
228.793	58.75
229.027	61.75
229.262	62.75
229.496	71.75
229.73	73.75
229.964	88.75
230.199	80.75
230.433	70.75
230.667	84.75
230.901	84.75
231.136	72.75
231.37	70.75
231.604	87.75
231.838	76.75
232.072	75.75
232.306	85.75
232.541	83.75
232.775	75.75
233.009	82.75
233.243	69.75
233.477	62.75
233.711	67.75
233.945	69.75
234.179	70.75
234.413	89.75
234.647	92.75
234.881	75.75
235.115	58.75
235.349	65.75
235.583	87.75
235.817	87.75
236.051	78.75
236.285	87.75
236.519	71.75
236.753	80.75
236.987	70.75
237.221	78.75
237.455	82.75
237.689	58.75
237.922	64.75
238.156	81.75
238.39	94.75
238.624	74.75
238.858	80.75
239.091	79.75
239.325	78.75
239.559	85.75
239.793	81.75
240.027	75.75
240.26	69.75
240.494	85.75
240.728	80.75
240.961	86.75
241.195	80.75
241.429	68.75
241.662	78.75
241.896	83.75
242.13	72.75
242.363	76.75
242.597	61.75
242.83	69.75
243.064	72.75
243.298	67.75
243.531	73.75
243.765	69.75
243.998	93.75
244.232	75.75
244.465	103.75
244.699	80.75
244.932	75.75
245.166	87.75
245.399	81.75
245.633	76.75
245.866	85.75
246.099	70.75
246.333	76.75
246.566	83.75
246.8	71.75
247.033	71.75
247.266	80.75
247.5	78.75
247.733	78.75
247.966	76.75
248.2	71.75
248.433	77.75
248.666	57.75
248.899	87.75
249.133	80.75
249.366	87.75
249.599	100.75
249.832	72.75
250.066	83.75
250.299	80.75
250.532	74.75
250.765	95.75
250.998	75.75
251.231	86.75
251.465	85.75
251.698	83.75
251.931	77.75
252.164	68.75
252.397	71.75
252.63	83.75
252.863	74.75
253.096	79.75
253.329	78.75
253.562	74.75
253.795	78.75
254.028	75.75
254.261	83.75
254.494	74.75
254.727	79.75
254.96	71.75
255.193	77.75
255.426	68.75
255.659	81.75
255.892	92.75
256.124	69.75
256.357	79.75
256.59	89.75
256.823	79.75
257.056	88.75
257.289	81.75
257.521	81.75
257.754	76.75
257.987	78.75
258.22	94.75
258.452	78.75
258.685	80.75
258.918	94.75
259.151	89.75
259.383	61.75
259.616	89.75
259.849	72.75
260.081	85.75
260.314	81.75
260.547	77.75
260.779	82.75
261.012	88.75
261.244	94.75
261.477	87.75
261.71	89.75
261.942	103.75
262.175	114.75
262.407	90.75
262.64	81.75
262.872	71.75
263.105	87.75
263.337	89.75
263.57	89.75
263.802	93.75
264.035	83.75
264.267	84.75
264.499	74.75
264.732	76.75
264.964	79.75
265.197	83.75
265.429	75.75
265.661	77.75
265.894	91.75
266.126	92.75
266.358	85.75
266.591	79.75
266.823	70.75
267.055	79.75
267.287	83.75
267.52	84.75
267.752	78.75
267.984	73.75
268.216	80.75
268.448	94.75
268.681	82.75
268.913	92.75
269.145	92.75
269.377	77.75
269.609	90.75
269.841	73.75
270.073	86.75
270.306	84.75
270.538	85.75
270.77	77.75
271.002	87.75
271.234	86.75
271.466	88.75
271.698	84.75
271.93	76.75
272.162	89.75
272.394	93.75
272.626	87.75
272.858	75.75
273.09	89.75
273.322	92.75
273.553	94.75
273.785	86.75
274.017	81.75
274.249	71.75
274.481	76.75
274.713	86.75
274.945	87.75
275.176	82.75
275.408	79.75
275.64	90.75
275.872	84.75
276.104	88.75
276.335	96.75
276.567	87.75
276.799	94.75
277.031	105.75
277.262	88.75
277.494	85.75
277.726	95.75
277.957	83.75
278.189	82.75
278.421	69.75
278.652	85.75
278.884	88.75
279.115	78.75
279.347	104.75
279.579	88.75
279.81	87.75
280.042	78.75
280.273	80.75
280.505	89.75
280.736	84.75
280.968	79.75
281.199	65.75
281.431	87.75
281.662	86.75
281.894	75.75
282.125	92.75
282.356	107.75
282.588	119.75
282.819	116.75
283.051	86.75
283.282	73.75
283.513	87.75
283.745	80.75
283.976	84.75
284.207	77.75
284.439	84.75
284.67	90.75
284.901	83.75
285.132	83.75
285.364	79.75
285.595	90.75
285.826	84.75
286.057	96.75
286.288	78.75
286.52	80.75
286.751	94.75
286.982	84.75
287.213	68.75
287.444	85.75
287.675	96.75
287.906	91.75
288.138	77.75
288.369	92.75
288.6	100.75
288.831	92.75
289.062	85.75
289.293	92.75
289.524	89.75
289.755	81.75
289.986	80.75
290.217	79.75
290.448	91.75
290.679	85.75
290.91	81.75
291.141	87.75
291.371	99.75
291.602	85.75
291.833	76.75
292.064	74.75
292.295	74.75
292.526	83.75
292.757	82.75
292.987	93.75
293.218	86.75
293.449	88.75
293.68	79.75
293.91	81.75
294.141	95.75
294.372	96.75
294.603	72.75
294.833	90.75
295.064	84.75
295.295	86.75
295.525	79.75
295.756	91.75
295.987	104.75
296.217	112.75
296.448	109.75
296.679	80.75
296.909	91.75
297.14	93.75
297.37	87.75
297.601	84.75
297.831	96.75
298.062	86.75
298.292	76.75
298.523	74.75
298.753	105.75
298.984	100.75
299.214	96.75
299.445	100.75
299.675	89.75
299.905	95.75
300.136	77.75
300.366	84.75
300.597	98.75
300.827	92.75
301.057	82.75
301.288	97.75
301.518	93.75
301.748	97.75
301.979	101.75
302.209	83.75
302.439	84.75
302.669	67.75
302.9	93.75
303.13	81.75
303.36	95.75
303.59	99.75
303.82	94.75
304.051	100.75
304.281	86.75
304.511	98.75
304.741	95.75
304.971	101.75
305.201	97.75
305.431	98.75
305.661	84.75
305.891	92.75
306.121	90.75
306.352	71.75
306.582	114.75
306.812	89.75
307.042	92.75
307.272	104.75
307.502	93.75
307.731	97.75
307.961	85.75
308.191	76.75
308.421	85.75
308.651	101.75
308.881	91.75
309.111	83.75
309.341	97.75
309.571	93.75
309.8	103.75
310.03	103.75
310.26	95.75
310.49	84.75
310.72	77.75
310.949	88.75
311.179	100.75
311.409	97.75
311.639	92.75
311.868	85.75
312.098	78.75
312.328	77.75
312.557	94.75
312.787	109.75
313.017	97.75
313.246	94.75
313.476	103.75
313.706	83.75
313.935	91.75
314.165	86.75
314.394	87.75
314.624	98.75
314.853	97.75
315.083	87.75
315.312	85.75
315.542	89.75
315.771	94.75
316.001	90.75
316.23	91.75
316.46	87.75
316.689	86.75
316.919	83.75
317.148	95.75
317.377	88.75
317.607	87.75
317.836	101.75
318.065	98.75
318.295	93.75
318.524	83.75
318.753	93.75
318.983	88.75
319.212	104.75
319.441	127.75
319.67	100.75
319.9	84.75
320.129	94.75
320.358	88.75
320.587	74.75
320.816	106.75
321.046	95.75
321.275	102.75
321.504	77.75
321.733	88.75
321.962	108.75
322.191	100.75
322.42	89.75
322.649	102.75
322.878	105.75
323.108	120.75
323.337	115.75
323.566	133.75
323.795	143.75
324.024	197.75
324.253	343.75
324.482	768.75
324.71	1510.75
324.939	2079.75
325.168	749.75
325.397	237.75
325.626	127.75
325.855	117.75
326.084	138.75
326.313	143.75
326.542	140.75
326.77	207.75
326.999	434.75
327.228	908.75
327.457	1572.75
327.686	1261.75
327.914	339.75
328.143	183.75
328.372	147.75
328.6	103.75
328.829	93.75
329.058	112.75
329.287	110.75
329.515	94.75
329.744	100.75
329.972	96.75
330.201	89.75
330.43	117.75
330.658	122.75
330.887	128.75
331.115	119.75
331.344	102.75
331.572	105.75
331.801	110.75
332.03	107.75
332.258	103.75
332.486	91.75
332.715	97.75
332.943	94.75
333.172	87.75
333.4	100.75
333.629	101.75
333.857	95.75
334.085	99.75
334.314	87.75
334.542	114.75
334.771	89.75
334.999	95.75
335.227	93.75
335.455	104.75
335.684	91.75
335.912	103.75
336.14	91.75
336.369	99.75
336.597	100.75
336.825	92.75
337.053	80.75
337.281	98.75
337.51	107.75
337.738	94.75
337.966	90.75
338.194	87.75
338.422	82.75
338.65	91.75
338.878	96.75
339.106	100.75
339.334	86.75
339.562	91.75
339.79	96.75
340.018	87.75
340.246	84.75
340.474	80.75
340.702	88.75
340.93	95.75
341.158	95.75
341.386	81.75
341.614	89.75
341.842	86.75
342.07	90.75
342.298	106.75
342.526	90.75
342.754	73.75
342.981	66.75
343.209	92.75
343.437	103.75
343.665	78.75
343.893	90.75
344.12	82.75
344.348	92.75
344.576	88.75
344.804	81.75
345.031	89.75
345.259	75.75
345.487	95.75
345.714	102.75
345.942	103.75
346.17	95.75
346.397	95.75
346.625	92.75
346.853	88.75
347.08	84.75
347.308	93.75
347.535	94.75
347.763	92.75
347.99	97.75
348.218	108.75
348.445	96.75
348.673	91.75
348.9	87.75
349.128	92.75
349.355	94.75
349.583	89.75
349.81	84.75
350.037	109.75
350.265	89.75
350.492	76.75
350.72	87.75
350.947	97.75
351.174	104.75
351.402	102.75
351.629	77.75
351.856	106.75
352.083	91.75
352.311	88.75
352.538	99.75
352.765	92.75
352.992	112.75
353.22	94.75
353.447	100.75
353.674	89.75
353.901	91.75
354.128	86.75
354.355	87.75
354.583	91.75
354.81	90.75
355.037	88.75
355.264	78.75
355.491	90.75
355.718	87.75
355.945	88.75
356.172	95.75
356.399	82.75
356.626	81.75
356.853	91.75
357.08	88.75
357.307	100.75
357.534	97.75
357.761	96.75
357.988	83.75
358.215	87.75
358.441	76.75
358.668	82.75
358.895	88.75
359.122	87.75
359.349	79.75
359.576	94.75
359.802	84.75
360.029	101.75
360.256	107.75
360.483	99.75
360.709	92.75
360.936	97.75
361.163	87.75
361.39	85.75
361.616	104.75
361.843	78.75
362.07	85.75
362.296	87.75
362.523	78.75
362.749	97.75
362.976	87.75
363.203	84.75
363.429	63.75
363.656	83.75
363.882	89.75
364.109	86.75
364.335	104.75
364.562	97.75
364.788	85.75
365.015	78.75
365.241	98.75
365.468	101.75
365.694	110.75
365.92	81.75
366.147	93.75
366.373	91.75
366.599	94.75
366.826	92.75
367.052	91.75
367.278	89.75
367.505	85.75
367.731	92.75
367.957	93.75
368.184	92.75
368.41	101.75
368.636	98.75
368.862	120.75
369.089	92.75
369.315	83.75
369.541	87.75
369.767	84.75
369.993	85.75
370.219	76.75
370.445	81.75
370.672	96.75
370.898	84.75
371.124	94.75
371.35	79.75
371.576	89.75
371.802	86.75
372.028	85.75
372.254	93.75
372.48	91.75
372.706	89.75
372.932	87.75
373.158	85.75
373.384	95.75
373.61	72.75
373.835	96.75
374.061	80.75
374.287	78.75
374.513	89.75
374.739	87.75
374.965	96.75
375.191	99.75
375.416	91.75
375.642	78.75
375.868	93.75
376.094	85.75
376.319	84.75
376.545	79.75
376.771	78.75
376.997	92.75
377.222	83.75
377.448	80.75
377.674	81.75
377.899	88.75
378.125	87.75
378.35	86.75
378.576	86.75
378.802	96.75
379.027	101.75
379.253	94.75
379.478	100.75
379.704	86.75
379.929	77.75
380.155	87.75
380.38	79.75
380.606	101.75
380.831	89.75
381.057	95.75
381.282	86.75
381.507	92.75
381.733	83.75
381.958	88.75
382.184	88.75
382.409	93.75
382.634	97.75
382.86	84.75
383.085	108.75
383.31	100.75
383.535	109.75
383.761	112.75
383.986	84.75
384.211	98.75
384.436	102.75
384.662	85.75
384.887	92.75
385.112	76.75
385.337	102.75
385.562	96.75
385.787	91.75
386.013	106.75
386.238	112.75
386.463	101.75
386.688	105.75
386.913	100.75
387.138	109.75
387.363	104.75
387.588	92.75
387.813	95.75
388.038	96.75
388.263	126.75
388.488	106.75
388.713	96.75
388.938	95.75
389.163	103.75
389.387	101.75
389.612	85.75
389.837	88.75
390.062	87.75
390.287	81.75
390.512	93.75
390.736	85.75
390.961	88.75
391.186	91.75
391.411	93.75
391.636	78.75
391.86	103.75
392.085	82.75
392.31	77.75
392.534	91.75
392.759	78.75
392.984	96.75
393.208	89.75
393.433	81.75
393.658	85.75
393.882	87.75
394.107	85.75
394.331	88.75
394.556	85.75
394.78	90.75
395.005	97.75
395.229	90.75
395.454	92.75
395.678	89.75
395.903	92.75
396.127	84.75
396.352	77.75
396.576	85.75
396.801	90.75
397.025	91.75
397.249	75.75
397.474	85.75
397.698	73.75
397.922	88.75
398.147	81.75
398.371	91.75
398.595	78.75
398.82	73.75
399.044	96.75
399.268	72.75
399.492	81.75
399.717	88.75
399.941	75.75
400.165	89.75
400.389	79.75
400.613	72.75
400.837	91.75
401.062	92.75
401.286	83.75
401.51	89.75
401.734	82.75
401.958	88.75
402.182	111.75
402.406	150.75
402.63	116.75
402.854	88.75
403.078	86.75
403.302	93.75
403.526	90.75
403.75	83.75
403.974	76.75
404.198	71.75
404.422	86.75
404.645	86.75
404.869	87.75
405.093	94.75
405.317	97.75
405.541	104.75
405.765	84.75
405.988	112.75
406.212	157.75
406.436	212.75
406.66	142.75
406.883	111.75
407.107	86.75
407.331	96.75
407.555	85.75
407.778	101.75
408.002	95.75
408.226	84.75
408.449	80.75
408.673	93.75
408.896	93.75
409.12	84.75
409.344	82.75
409.567	83.75
409.791	94.75
410.014	72.75
410.238	94.75
410.461	96.75
410.685	93.75
410.908	95.75
411.132	87.75
411.355	100.75
411.578	88.75
411.802	83.75
412.025	90.75
412.249	94.75
412.472	83.75
412.695	84.75
412.919	84.75
413.142	91.75
413.365	83.75
413.589	76.75
413.812	72.75
414.035	87.75
414.258	84.75
414.482	96.75
414.705	79.75
414.928	93.75
415.151	103.75
415.374	89.75
415.597	91.75
415.821	93.75
416.044	85.75
416.267	85.75
416.49	85.75
416.713	90.75
416.936	79.75
417.159	80.75
417.382	68.75
417.605	89.75
417.828	97.75
418.051	85.75
418.274	84.75
418.497	92.75
418.72	84.75
418.943	72.75
419.166	86.75
419.389	79.75
419.611	72.75
419.834	81.75
420.057	83.75
420.28	91.75
420.503	87.75
420.726	88.75
420.948	85.75
421.171	83.75
421.394	84.75
421.617	87.75
421.839	83.75
422.062	79.75
422.285	93.75
422.507	105.75
422.73	102.75
422.953	94.75
423.175	96.75
423.398	94.75
423.621	72.75
423.843	87.75
424.066	91.75
424.288	91.75
424.511	94.75
424.733	94.75
424.956	104.75
425.178	80.75
425.401	96.75
425.623	97.75
425.846	93.75
426.068	94.75
426.291	97.75
426.513	94.75
426.735	73.75
426.958	89.75
427.18	100.75
427.402	122.75
427.625	148.75
427.847	120.75
428.069	100.75
428.292	91.75
428.514	80.75
428.736	90.75
428.958	72.75
429.181	77.75
429.403	76.75
429.625	88.75
429.847	88.75
430.069	95.75
430.292	71.75
430.514	79.75
430.736	87.75
430.958	77.75
431.18	84.75
431.402	88.75
431.624	80.75
431.846	73.75
432.068	84.75
432.29	79.75
432.512	83.75
432.734	83.75
432.956	102.75
433.178	94.75
433.4	99.75
433.622	89.75
433.844	92.75
434.066	78.75
434.287	76.75
434.509	97.75
434.731	76.75
434.953	79.75
435.175	87.75
435.397	80.75
435.618	94.75
435.84	109.75
436.062	107.75
436.284	104.75
436.505	90.75
436.727	91.75
436.949	91.75
437.17	88.75
437.392	83.75
437.614	93.75
437.835	98.75
438.057	109.75
438.278	105.75
438.5	102.75
438.721	122.75
438.943	96.75
439.165	92.75
439.386	93.75
439.608	83.75
439.829	91.75
440.05	97.75
440.272	128.75
440.493	93.75
440.715	83.75
440.936	83.75
441.158	96.75
441.379	64.75
441.6	85.75
441.822	70.75
442.043	81.75
442.264	103.75
442.486	89.75
442.707	96.75
442.928	116.75
443.149	120.75
443.371	104.75
443.592	109.75
443.813	98.75
444.034	109.75
444.255	85.75
444.476	97.75
444.698	95.75
444.919	86.75
445.14	124.75
445.361	114.75
445.582	114.75
445.803	121.75
446.024	126.75
446.245	122.75
446.466	111.75
446.687	88.75
446.908	81.75
447.129	75.75
447.35	97.75
447.571	85.75
447.792	102.75
448.013	102.75
448.234	104.75
448.455	96.75
448.675	109.75
448.896	134.75
449.117	113.75
449.338	112.75
449.559	128.75
449.779	132.75
450	107.75
450.221	87.75
450.442	93.75
450.662	86.75
450.883	97.75
451.104	104.75
451.324	91.75
451.545	95.75
451.766	72.75
451.986	69.75
452.207	72.75
452.428	85.75
452.648	91.75
452.869	93.75
453.089	104.75
453.31	105.75
453.53	81.75
453.751	100.75
453.971	93.75
454.192	83.75
454.412	106.75
454.633	86.75
454.853	89.75
455.073	81.75
455.294	80.75
455.514	93.75
455.734	68.75
455.955	81.75
456.175	73.75
456.395	85.75
456.616	72.75
456.836	76.75
457.056	84.75
457.276	79.75
457.497	85.75
457.717	85.75
457.937	87.75
458.157	85.75
458.377	83.75
458.598	103.75
458.818	125.75
459.038	139.75
459.258	109.75
459.478	86.75
459.698	83.75
459.918	85.75
460.138	93.75
460.358	72.75
460.578	85.75
460.798	94.75
461.018	97.75
461.238	75.75
461.458	96.75
461.678	92.75
461.898	84.75
462.118	76.75
462.338	77.75
462.558	91.75
462.777	86.75
462.997	87.75
463.217	81.75
463.437	70.75
463.657	72.75
463.876	95.75
464.096	91.75
464.316	87.75
464.536	92.75
464.755	90.75
464.975	92.75
465.195	126.75
465.414	137.75
465.634	83.75
465.854	79.75
466.073	87.75
466.293	94.75
466.512	99.75
466.732	81.75
466.951	85.75
467.171	80.75
467.391	88.75
467.61	96.75
467.829	87.75
468.049	92.75
468.268	81.75
468.488	99.75
468.707	87.75
468.927	80.75
469.146	80.75
469.365	80.75
469.585	85.75
469.804	101.75
470.023	79.75
470.243	85.75
470.462	86.75
470.681	87.75
470.901	88.75
471.12	97.75
471.339	87.75
471.558	88.75
471.777	83.75
471.997	76.75
472.216	89.75
472.435	96.75
472.654	94.75
472.873	76.75
473.092	82.75
473.311	78.75
473.53	86.75
473.749	84.75
473.968	90.75
474.187	99.75
474.406	93.75
474.625	60.75
474.844	84.75
475.063	71.75
475.282	76.75
475.501	81.75
475.72	101.75
475.939	83.75
476.158	84.75
476.377	89.75
476.596	77.75
476.814	86.75
477.033	86.75
477.252	88.75
477.471	87.75
477.69	94.75
477.908	83.75
478.127	75.75
478.346	84.75
478.564	89.75
478.783	86.75
479.002	90.75
479.22	73.75
479.439	101.75
479.658	106.75
479.876	88.75
480.095	84.75
480.313	102.75
480.532	85.75
480.751	88.75
480.969	91.75
481.188	93.75
481.406	108.75
481.624	88.75
481.843	80.75
482.061	80.75
482.28	84.75
482.498	83.75
482.717	68.75
482.935	78.75
483.153	85.75
483.372	94.75
483.59	96.75
483.808	93.75
484.027	81.75
484.245	81.75
484.463	73.75
484.681	77.75
484.9	89.75
485.118	83.75
485.336	93.75
485.554	94.75
485.772	104.75
485.99	96.75
486.209	102.75
486.427	97.75
486.645	96.75
486.863	110.75
487.081	87.75
487.299	98.75
487.517	99.75
487.735	93.75
487.953	91.75
488.171	98.75
488.389	87.75
488.607	87.75
488.825	96.75
489.043	75.75
489.261	85.75
489.479	83.75
489.696	88.75
489.914	83.75
490.132	87.75
490.35	90.75
490.568	97.75
490.786	86.75
491.003	86.75
491.221	91.75
491.439	81.75
491.657	81.75
491.874	89.75
492.092	86.75
492.31	92.75
492.527	88.75
492.745	84.75
492.963	80.75
493.18	83.75
493.398	99.75
493.615	110.75
493.833	84.75
494.05	89.75
494.268	79.75
494.485	80.75
494.703	89.75
494.92	89.75
495.138	97.75
495.355	88.75
495.573	92.75
495.79	73.75
496.008	85.75
496.225	81.75
496.442	85.75
496.66	93.75
496.877	90.75
497.094	89.75
497.312	87.75
497.529	83.75
497.746	85.75
497.963	80.75
498.181	80.75
498.398	89.75
498.615	100.75
498.832	104.75
499.049	82.75
499.267	87.75
499.484	78.75
499.701	94.75
499.918	89.75
500.135	80.75
500.352	99.75
500.569	86.75
500.786	79.75
501.003	89.75
501.22	83.75
501.437	89.75
501.654	86.75
501.871	91.75
502.088	77.75
502.305	100.75
502.522	92.75
502.739	95.75
502.956	74.75
503.172	84.75
503.389	102.75
503.606	91.75
503.823	93.75
504.04	79.75
504.256	80.75
504.473	90.75
504.69	85.75
504.907	93.75
505.123	79.75
505.34	83.75
505.557	85.75
505.773	94.75
505.99	83.75
506.207	95.75
506.423	87.75
506.64	80.75
506.856	99.75
507.073	94.75
507.289	87.75
507.506	94.75
507.722	101.75
507.939	108.75
508.155	93.75
508.372	73.75
508.588	87.75
508.805	91.75
509.021	96.75
509.238	91.75
509.454	85.75
509.67	103.75
509.887	103.75
510.103	135.75
510.319	206.75
510.536	700.75
510.752	2125.75
510.968	588.75
511.184	146.75
511.401	119.75
511.617	89.75
511.833	91.75
512.049	104.75
512.265	101.75
512.481	98.75
512.698	81.75
512.914	89.75
513.13	77.75
513.346	108.75
513.562	94.75
513.778	100.75
513.994	88.75
514.21	105.75
514.426	117.75
514.642	127.75
514.858	106.75
515.074	150.75
515.29	401.75
515.506	1311.75
515.721	489.75
515.937	140.75
516.153	103.75
516.369	94.75
516.585	101.75
516.801	87.75
