Data from Uncirc_1998_H10_HRD10591_00009.txt Node
Date: Wed Jan 03 11:25:26 EST 2024
User: Yrep
Spectrometer: HR+D1059
Trigger mode: 1
Integration Time (sec): 1.000000E-1
Scans to average: 1
Electric dark correction enabled: true
Nonlinearity correction enabled: false
Boxcar width: 0
XAxis mode: Wavelengths
Number of Pixels in Spectrum: 2048
>>>>>Begin Spectral Data<<<<<
223.165	-21.69
223.4	-21.69
223.635	-21.69
223.869	-22.69
224.104	-19.69
224.338	-10.69
224.573	-15.69
224.808	-15.69
225.042	4.31
225.277	-13.69
225.511	0.31
225.746	12.31
225.98	3.31
226.215	2.31
226.449	18.31
226.683	15.31
226.918	33.31
227.152	30.31
227.387	26.31
227.621	49.31
227.856	48.31
228.09	40.31
228.324	56.31
228.559	52.31
228.793	55.31
229.027	68.31
229.262	72.31
229.496	64.31
229.73	73.31
229.964	70.31
230.199	75.31
230.433	70.31
230.667	71.31
230.901	86.31
231.136	77.31
231.37	75.31
231.604	72.31
231.838	87.31
232.072	61.31
232.306	71.31
232.541	74.31
232.775	82.31
233.009	76.31
233.243	78.31
233.477	87.31
233.711	85.31
233.945	77.31
234.179	74.31
234.413	72.31
234.647	94.31
234.881	80.31
235.115	85.31
235.349	75.31
235.583	86.31
235.817	77.31
236.051	80.31
236.285	77.31
236.519	70.31
236.753	64.31
236.987	75.31
237.221	88.31
237.455	70.31
237.689	88.31
237.922	79.31
238.156	72.31
238.39	74.31
238.624	65.31
238.858	73.31
239.091	81.31
239.325	71.31
239.559	76.31
239.793	82.31
240.027	66.31
240.26	71.31
240.494	74.31
240.728	80.31
240.961	66.31
241.195	85.31
241.429	68.31
241.662	62.31
241.896	62.31
242.13	75.31
242.363	61.31
242.597	75.31
242.83	74.31
243.064	66.31
243.298	79.31
243.531	61.31
243.765	80.31
243.998	91.31
244.232	86.31
244.465	93.31
244.699	76.31
244.932	78.31
245.166	85.31
245.399	75.31
245.633	75.31
245.866	81.31
246.099	78.31
246.333	86.31
246.566	87.31
246.8	84.31
247.033	75.31
247.266	89.31
247.5	81.31
247.733	89.31
247.966	86.31
248.2	81.31
248.433	70.31
248.666	86.31
248.899	82.31
249.133	85.31
249.366	94.31
249.599	85.31
249.832	79.31
250.066	74.31
250.299	77.31
250.532	82.31
250.765	78.31
250.998	71.31
251.231	74.31
251.465	81.31
251.698	75.31
251.931	74.31
252.164	89.31
252.397	76.31
252.63	80.31
252.863	64.31
253.096	76.31
253.329	74.31
253.562	94.31
253.795	74.31
254.028	73.31
254.261	70.31
254.494	72.31
254.727	94.31
254.96	74.31
255.193	76.31
255.426	73.31
255.659	74.31
255.892	71.31
256.124	76.31
256.357	93.31
256.59	85.31
256.823	68.31
257.056	90.31
257.289	85.31
257.521	86.31
257.754	78.31
257.987	84.31
258.22	80.31
258.452	74.31
258.685	80.31
258.918	79.31
259.151	76.31
259.383	81.31
259.616	84.31
259.849	79.31
260.081	75.31
260.314	75.31
260.547	72.31
260.779	66.31
261.012	90.31
261.244	88.31
261.477	72.31
261.71	79.31
261.942	102.31
262.175	102.31
262.407	87.31
262.64	86.31
262.872	76.31
263.105	90.31
263.337	80.31
263.57	84.31
263.802	80.31
264.035	68.31
264.267	97.31
264.499	93.31
264.732	86.31
264.964	79.31
265.197	75.31
265.429	84.31
265.661	80.31
265.894	80.31
266.126	73.31
266.358	97.31
266.591	88.31
266.823	85.31
267.055	73.31
267.287	81.31
267.52	83.31
267.752	86.31
267.984	93.31
268.216	83.31
268.448	80.31
268.681	73.31
268.913	82.31
269.145	75.31
269.377	70.31
269.609	84.31
269.841	79.31
270.073	64.31
270.306	75.31
270.538	85.31
270.77	93.31
271.002	99.31
271.234	84.31
271.466	93.31
271.698	74.31
271.93	77.31
272.162	89.31
272.394	87.31
272.626	75.31
272.858	90.31
273.09	97.31
273.322	70.31
273.553	86.31
273.785	79.31
274.017	89.31
274.249	82.31
274.481	84.31
274.713	74.31
274.945	89.31
275.176	82.31
275.408	87.31
275.64	81.31
275.872	91.31
276.104	89.31
276.335	109.31
276.567	85.31
276.799	82.31
277.031	83.31
277.262	87.31
277.494	84.31
277.726	86.31
277.957	77.31
278.189	83.31
278.421	79.31
278.652	72.31
278.884	92.31
279.115	82.31
279.347	89.31
279.579	73.31
279.81	78.31
280.042	92.31
280.273	84.31
280.505	74.31
280.736	80.31
280.968	89.31
281.199	72.31
281.431	91.31
281.662	77.31
281.894	84.31
282.125	107.31
282.356	103.31
282.588	116.31
282.819	102.31
283.051	69.31
283.282	73.31
283.513	78.31
283.745	83.31
283.976	77.31
284.207	76.31
284.439	91.31
284.67	86.31
284.901	90.31
285.132	81.31
285.364	88.31
285.595	76.31
285.826	92.31
286.057	72.31
286.288	93.31
286.52	97.31
286.751	88.31
286.982	96.31
287.213	75.31
287.444	76.31
287.675	81.31
287.906	79.31
288.138	92.31
288.369	98.31
288.6	97.31
288.831	89.31
289.062	75.31
289.293	106.31
289.524	88.31
289.755	76.31
289.986	76.31
290.217	91.31
290.448	80.31
290.679	82.31
290.91	92.31
291.141	88.31
291.371	87.31
291.602	81.31
291.833	90.31
292.064	86.31
292.295	77.31
292.526	89.31
292.757	81.31
292.987	92.31
293.218	85.31
293.449	83.31
293.68	104.31
293.91	89.31
294.141	85.31
294.372	81.31
294.603	85.31
294.833	92.31
295.064	89.31
295.295	80.31
295.525	73.31
295.756	90.31
295.987	110.31
296.217	109.31
296.448	125.31
296.679	92.31
296.909	85.31
297.14	86.31
297.37	86.31
297.601	92.31
297.831	76.31
298.062	91.31
298.292	93.31
298.523	92.31
298.753	95.31
298.984	85.31
299.214	90.31
299.445	83.31
299.675	84.31
299.905	93.31
300.136	85.31
300.366	88.31
300.597	93.31
300.827	101.31
301.057	97.31
301.288	103.31
301.518	95.31
301.748	90.31
301.979	102.31
302.209	88.31
302.439	88.31
302.669	85.31
302.9	85.31
303.13	87.31
303.36	82.31
303.59	97.31
303.82	103.31
304.051	96.31
304.281	83.31
304.511	84.31
304.741	70.31
304.971	86.31
305.201	78.31
305.431	92.31
305.661	83.31
305.891	93.31
306.121	105.31
306.352	97.31
306.582	88.31
306.812	111.31
307.042	85.31
307.272	84.31
307.502	92.31
307.731	102.31
307.961	84.31
308.191	97.31
308.421	95.31
308.651	96.31
308.881	83.31
309.111	89.31
309.341	76.31
309.571	90.31
309.8	85.31
310.03	82.31
310.26	98.31
310.49	95.31
310.72	101.31
310.949	100.31
311.179	94.31
311.409	81.31
311.639	92.31
311.868	94.31
312.098	92.31
312.328	86.31
312.557	100.31
312.787	95.31
313.017	79.31
313.246	104.31
313.476	87.31
313.706	97.31
313.935	90.31
314.165	93.31
314.394	88.31
314.624	79.31
314.853	88.31
315.083	95.31
315.312	80.31
315.542	85.31
315.771	94.31
316.001	86.31
316.23	95.31
316.46	77.31
316.689	89.31
316.919	88.31
317.148	95.31
317.377	86.31
317.607	77.31
317.836	89.31
318.065	78.31
318.295	87.31
318.524	96.31
318.753	94.31
318.983	87.31
319.212	93.31
319.441	109.31
319.67	101.31
319.9	85.31
320.129	85.31
320.358	89.31
320.587	84.31
320.816	94.31
321.046	99.31
321.275	94.31
321.504	98.31
321.733	96.31
321.962	95.31
322.191	102.31
322.42	91.31
322.649	98.31
322.878	88.31
323.108	103.31
323.337	117.31
323.566	129.31
323.795	129.31
324.024	192.31
324.253	353.31
324.482	728.31
324.71	1440.31
324.939	1851.31
325.168	683.31
325.397	216.31
325.626	136.31
325.855	121.31
326.084	116.31
326.313	120.31
326.542	135.31
326.77	226.31
326.999	400.31
327.228	822.31
327.457	1446.31
327.686	1152.31
327.914	345.31
328.143	194.31
328.372	152.31
328.6	122.31
328.829	102.31
329.058	117.31
329.287	117.31
329.515	111.31
329.744	105.31
329.972	102.31
330.201	101.31
330.43	113.31
330.658	111.31
330.887	130.31
331.115	113.31
331.344	97.31
331.572	102.31
331.801	98.31
332.03	79.31
332.258	98.31
332.486	105.31
332.715	93.31
332.943	84.31
333.172	86.31
333.4	98.31
333.629	97.31
333.857	104.31
334.085	86.31
334.314	97.31
334.542	94.31
334.771	105.31
334.999	90.31
335.227	94.31
335.455	97.31
335.684	84.31
335.912	87.31
336.14	107.31
336.369	95.31
336.597	106.31
336.825	98.31
337.053	85.31
337.281	95.31
337.51	90.31
337.738	88.31
337.966	103.31
338.194	98.31
338.422	101.31
338.65	100.31
338.878	93.31
339.106	78.31
339.334	103.31
339.562	80.31
339.79	90.31
340.018	94.31
340.246	76.31
340.474	81.31
340.702	87.31
340.93	87.31
341.158	101.31
341.386	95.31
341.614	105.31
341.842	105.31
342.07	87.31
342.298	91.31
342.526	92.31
342.754	82.31
342.981	87.31
343.209	86.31
343.437	88.31
343.665	86.31
343.893	98.31
344.12	95.31
344.348	96.31
344.576	82.31
344.804	91.31
345.031	85.31
345.259	104.31
345.487	94.31
345.714	104.31
345.942	108.31
346.17	93.31
346.397	90.31
346.625	92.31
346.853	94.31
347.08	98.31
347.308	100.31
347.535	93.31
347.763	86.31
347.99	90.31
348.218	95.31
348.445	93.31
348.673	100.31
348.9	105.31
349.128	97.31
349.355	97.31
349.583	96.31
349.81	85.31
350.037	95.31
350.265	102.31
350.492	95.31
350.72	85.31
350.947	106.31
351.174	105.31
351.402	100.31
351.629	92.31
351.856	95.31
352.083	112.31
352.311	106.31
352.538	101.31
352.765	105.31
352.992	110.31
353.22	84.31
353.447	111.31
353.674	107.31
353.901	93.31
354.128	93.31
354.355	89.31
354.583	109.31
354.81	106.31
355.037	89.31
355.264	72.31
355.491	93.31
355.718	95.31
355.945	99.31
356.172	100.31
356.399	100.31
356.626	84.31
356.853	89.31
357.08	95.31
357.307	108.31
357.534	93.31
357.761	96.31
357.988	101.31
358.215	93.31
358.441	99.31
358.668	117.31
358.895	97.31
359.122	93.31
359.349	79.31
359.576	93.31
359.802	91.31
360.029	98.31
360.256	102.31
360.483	110.31
360.709	86.31
360.936	95.31
361.163	90.31
361.39	90.31
361.616	92.31
361.843	97.31
362.07	92.31
362.296	87.31
362.523	84.31
362.749	88.31
362.976	77.31
363.203	96.31
363.429	77.31
363.656	105.31
363.882	90.31
364.109	81.31
364.335	81.31
364.562	99.31
364.788	81.31
365.015	88.31
365.241	97.31
365.468	88.31
365.694	96.31
365.92	102.31
366.147	87.31
366.373	79.31
366.599	95.31
366.826	91.31
367.052	87.31
367.278	79.31
367.505	98.31
367.731	88.31
367.957	96.31
368.184	96.31
368.41	97.31
368.636	112.31
368.862	110.31
369.089	101.31
369.315	72.31
369.541	96.31
369.767	79.31
369.993	84.31
370.219	103.31
370.445	72.31
370.672	88.31
370.898	90.31
371.124	82.31
371.35	79.31
371.576	88.31
371.802	74.31
372.028	93.31
372.254	89.31
372.48	92.31
372.706	98.31
372.932	91.31
373.158	81.31
373.384	83.31
373.61	83.31
373.835	94.31
374.061	87.31
374.287	87.31
374.513	77.31
374.739	92.31
374.965	94.31
375.191	88.31
375.416	104.31
375.642	79.31
375.868	97.31
376.094	96.31
376.319	104.31
376.545	97.31
376.771	89.31
376.997	86.31
377.222	83.31
377.448	81.31
377.674	88.31
377.899	84.31
378.125	108.31
378.35	96.31
378.576	88.31
378.802	91.31
379.027	78.31
379.253	76.31
379.478	70.31
379.704	94.31
379.929	96.31
380.155	79.31
380.38	99.31
380.606	91.31
380.831	96.31
381.057	94.31
381.282	110.31
381.507	94.31
381.733	93.31
381.958	95.31
382.184	98.31
382.409	100.31
382.634	93.31
382.86	93.31
383.085	93.31
383.31	91.31
383.535	85.31
383.761	96.31
383.986	100.31
384.211	93.31
384.436	88.31
384.662	105.31
384.887	109.31
385.112	92.31
385.337	102.31
385.562	104.31
385.787	87.31
386.013	115.31
386.238	102.31
386.463	111.31
386.688	108.31
386.913	97.31
387.138	89.31
387.363	103.31
387.588	109.31
387.813	100.31
388.038	106.31
388.263	118.31
388.488	98.31
388.713	105.31
388.938	104.31
389.163	90.31
389.387	91.31
389.612	100.31
389.837	78.31
390.062	80.31
390.287	106.31
390.512	82.31
390.736	96.31
390.961	85.31
391.186	101.31
391.411	92.31
391.636	98.31
391.86	83.31
392.085	78.31
392.31	94.31
392.534	66.31
392.759	75.31
392.984	84.31
393.208	73.31
393.433	100.31
393.658	88.31
393.882	94.31
394.107	96.31
394.331	87.31
394.556	90.31
394.78	77.31
395.005	91.31
395.229	92.31
395.454	107.31
395.678	94.31
395.903	76.31
396.127	77.31
396.352	94.31
396.576	91.31
396.801	93.31
397.025	93.31
397.249	74.31
397.474	72.31
397.698	81.31
397.922	81.31
398.147	95.31
398.371	84.31
398.595	93.31
398.82	100.31
399.044	87.31
399.268	87.31
399.492	87.31
399.717	88.31
399.941	95.31
400.165	94.31
400.389	98.31
400.613	73.31
400.837	80.31
401.062	68.31
401.286	85.31
401.51	94.31
401.734	87.31
401.958	92.31
402.182	106.31
402.406	139.31
402.63	112.31
402.854	96.31
403.078	86.31
403.302	80.31
403.526	73.31
403.75	88.31
403.974	84.31
404.198	84.31
404.422	75.31
404.645	75.31
404.869	94.31
405.093	85.31
405.317	93.31
405.541	94.31
405.765	82.31
405.988	100.31
406.212	126.31
406.436	161.31
406.66	112.31
406.883	77.31
407.107	86.31
407.331	102.31
407.555	97.31
407.778	74.31
408.002	88.31
408.226	101.31
408.449	94.31
408.673	102.31
408.896	94.31
409.12	95.31
409.344	98.31
409.567	81.31
409.791	90.31
410.014	85.31
410.238	108.31
410.461	99.31
410.685	91.31
410.908	98.31
411.132	98.31
411.355	101.31
411.578	72.31
411.802	85.31
412.025	95.31
412.249	96.31
412.472	88.31
412.695	81.31
412.919	84.31
413.142	84.31
413.365	85.31
413.589	93.31
413.812	90.31
414.035	104.31
414.258	76.31
414.482	86.31
414.705	84.31
414.928	92.31
415.151	86.31
415.374	109.31
415.597	94.31
415.821	100.31
416.044	77.31
416.267	93.31
416.49	89.31
416.713	97.31
416.936	86.31
417.159	74.31
417.382	82.31
417.605	96.31
417.828	109.31
418.051	89.31
418.274	76.31
418.497	86.31
418.72	101.31
418.943	102.31
419.166	82.31
419.389	82.31
419.611	75.31
419.834	92.31
420.057	84.31
420.28	91.31
420.503	80.31
420.726	96.31
420.948	81.31
421.171	88.31
421.394	93.31
421.617	97.31
421.839	88.31
422.062	79.31
422.285	94.31
422.507	101.31
422.73	102.31
422.953	83.31
423.175	105.31
423.398	98.31
423.621	101.31
423.843	91.31
424.066	89.31
424.288	78.31
424.511	93.31
424.733	97.31
424.956	89.31
425.178	89.31
425.401	94.31
425.623	98.31
425.846	92.31
426.068	82.31
426.291	89.31
426.513	82.31
426.735	96.31
426.958	93.31
427.18	95.31
427.402	136.31
427.625	135.31
427.847	93.31
428.069	104.31
428.292	77.31
428.514	89.31
428.736	85.31
428.958	86.31
429.181	100.31
429.403	84.31
429.625	87.31
429.847	92.31
430.069	97.31
430.292	91.31
430.514	79.31
430.736	82.31
430.958	92.31
431.18	87.31
431.402	76.31
431.624	88.31
431.846	78.31
432.068	94.31
432.29	78.31
432.512	103.31
432.734	93.31
432.956	90.31
433.178	95.31
433.4	88.31
433.622	85.31
433.844	85.31
434.066	81.31
434.287	91.31
434.509	79.31
434.731	89.31
434.953	102.31
435.175	88.31
435.397	96.31
435.618	95.31
435.84	99.31
436.062	111.31
436.284	110.31
436.505	99.31
436.727	117.31
436.949	98.31
437.17	99.31
437.392	72.31
437.614	81.31
437.835	96.31
438.057	98.31
438.278	109.31
438.5	101.31
438.721	96.31
438.943	88.31
439.165	93.31
439.386	84.31
439.608	93.31
439.829	97.31
440.05	105.31
440.272	128.31
440.493	105.31
440.715	84.31
440.936	100.31
441.158	92.31
441.379	75.31
441.6	101.31
441.822	98.31
442.043	85.31
442.264	97.31
442.486	96.31
442.707	82.31
442.928	95.31
443.149	117.31
443.371	126.31
443.592	102.31
443.813	100.31
444.034	93.31
444.255	90.31
444.476	97.31
444.698	90.31
444.919	103.31
445.14	140.31
445.361	117.31
445.582	110.31
445.803	139.31
446.024	120.31
446.245	114.31
446.466	109.31
446.687	97.31
446.908	90.31
447.129	100.31
447.35	78.31
447.571	100.31
447.792	85.31
448.013	90.31
448.234	100.31
448.455	101.31
448.675	96.31
448.896	118.31
449.117	88.31
449.338	99.31
449.559	125.31
449.779	113.31
450	93.31
450.221	92.31
450.442	78.31
450.662	92.31
450.883	87.31
451.104	103.31
451.324	87.31
451.545	93.31
451.766	100.31
451.986	80.31
452.207	80.31
452.428	89.31
452.648	85.31
452.869	99.31
453.089	98.31
453.31	108.31
453.53	97.31
453.751	89.31
453.971	102.31
454.192	99.31
454.412	95.31
454.633	92.31
454.853	81.31
455.073	86.31
455.294	89.31
455.514	113.31
455.734	92.31
455.955	92.31
456.175	86.31
456.395	82.31
456.616	78.31
456.836	82.31
457.056	86.31
457.276	97.31
457.497	82.31
457.717	79.31
457.937	90.31
458.157	81.31
458.377	78.31
458.598	101.31
458.818	128.31
459.038	123.31
459.258	110.31
459.478	103.31
459.698	93.31
459.918	83.31
460.138	80.31
460.358	80.31
460.578	69.31
460.798	78.31
461.018	85.31
461.238	92.31
461.458	89.31
461.678	78.31
461.898	87.31
462.118	95.31
462.338	89.31
462.558	74.31
462.777	77.31
462.997	81.31
463.217	87.31
463.437	84.31
463.657	85.31
463.876	82.31
464.096	93.31
464.316	90.31
464.536	97.31
464.755	78.31
464.975	110.31
465.195	147.31
465.414	135.31
465.634	98.31
465.854	95.31
466.073	96.31
466.293	82.31
466.512	86.31
466.732	96.31
466.951	97.31
467.171	98.31
467.391	97.31
467.61	86.31
467.829	85.31
468.049	88.31
468.268	88.31
468.488	98.31
468.707	85.31
468.927	78.31
469.146	82.31
469.365	85.31
469.585	88.31
469.804	85.31
470.023	98.31
470.243	93.31
470.462	103.31
470.681	88.31
470.901	89.31
471.12	91.31
471.339	94.31
471.558	82.31
471.777	87.31
471.997	85.31
472.216	77.31
472.435	100.31
472.654	75.31
472.873	87.31
473.092	85.31
473.311	90.31
473.53	100.31
473.749	88.31
473.968	102.31
474.187	83.31
474.406	98.31
474.625	90.31
474.844	86.31
475.063	92.31
475.282	102.31
475.501	86.31
475.72	90.31
475.939	89.31
476.158	79.31
476.377	82.31
476.596	94.31
476.814	98.31
477.033	92.31
477.252	77.31
477.471	78.31
477.69	99.31
477.908	81.31
478.127	86.31
478.346	76.31
478.564	96.31
478.783	96.31
479.002	89.31
479.22	89.31
479.439	91.31
479.658	99.31
479.876	72.31
480.095	95.31
480.313	102.31
480.532	95.31
480.751	87.31
480.969	79.31
481.188	112.31
481.406	104.31
481.624	87.31
481.843	82.31
482.061	97.31
482.28	91.31
482.498	83.31
482.717	84.31
482.935	94.31
483.153	94.31
483.372	93.31
483.59	90.31
483.808	100.31
484.027	78.31
484.245	92.31
484.463	97.31
484.681	93.31
484.9	92.31
485.118	81.31
485.336	89.31
485.554	87.31
485.772	108.31
485.99	96.31
486.209	102.31
486.427	104.31
486.645	109.31
486.863	113.31
487.081	102.31
487.299	93.31
487.517	97.31
487.735	96.31
487.953	90.31
488.171	96.31
488.389	96.31
488.607	101.31
488.825	74.31
489.043	84.31
489.261	86.31
489.479	81.31
489.696	91.31
489.914	84.31
490.132	86.31
490.35	90.31
490.568	79.31
490.786	82.31
491.003	88.31
491.221	85.31
491.439	90.31
491.657	88.31
491.874	91.31
492.092	84.31
492.31	74.31
492.527	102.31
492.745	92.31
492.963	86.31
493.18	82.31
493.398	105.31
493.615	89.31
493.833	105.31
494.05	89.31
494.268	90.31
494.485	101.31
494.703	77.31
494.92	86.31
495.138	94.31
495.355	97.31
495.573	91.31
495.79	91.31
496.008	90.31
496.225	86.31
496.442	80.31
496.66	101.31
496.877	78.31
497.094	84.31
497.312	95.31
497.529	76.31
497.746	82.31
497.963	102.31
498.181	87.31
498.398	92.31
498.615	95.31
498.832	88.31
499.049	92.31
499.267	93.31
499.484	88.31
499.701	90.31
499.918	94.31
500.135	82.31
500.352	84.31
500.569	97.31
500.786	81.31
501.003	80.31
501.22	78.31
501.437	82.31
501.654	92.31
501.871	103.31
502.088	92.31
502.305	90.31
502.522	89.31
502.739	94.31
502.956	93.31
503.172	103.31
503.389	105.31
503.606	107.31
503.823	97.31
504.04	97.31
504.256	103.31
504.473	105.31
504.69	90.31
504.907	104.31
505.123	93.31
505.34	82.31
505.557	92.31
505.773	85.31
505.99	98.31
506.207	85.31
506.423	88.31
506.64	98.31
506.856	105.31
507.073	92.31
507.289	91.31
507.506	95.31
507.722	111.31
507.939	109.31
508.155	96.31
508.372	90.31
508.588	87.31
508.805	84.31
509.021	109.31
509.238	91.31
509.454	98.31
509.67	105.31
509.887	117.31
510.103	120.31
510.319	200.31
510.536	614.31
510.752	1863.31
510.968	520.31
511.184	135.31
511.401	120.31
511.617	117.31
511.833	90.31
512.049	84.31
512.265	104.31
512.481	88.31
512.698	83.31
512.914	93.31
513.13	87.31
513.346	78.31
513.562	86.31
513.778	92.31
513.994	94.31
514.21	100.31
514.426	106.31
514.642	127.31
514.858	93.31
515.074	158.31
515.29	367.31
515.506	1153.31
515.721	427.31
515.937	133.31
516.153	105.31
516.369	108.31
