Data from Uncirc_1998_H10_HRD10591_00031.txt Node
Date: Wed Jan 03 11:25:31 EST 2024
User: Yrep
Spectrometer: HR+D1059
Trigger mode: 1
Integration Time (sec): 1.000000E-1
Scans to average: 1
Electric dark correction enabled: true
Nonlinearity correction enabled: false
Boxcar width: 0
XAxis mode: Wavelengths
Number of Pixels in Spectrum: 2048
>>>>>Begin Spectral Data<<<<<
223.165	-20.25
223.4	-20.25
223.635	-20.25
223.869	-28.25
224.104	-26.25
224.338	-13.25
224.573	-9.25
224.808	-3.25
225.042	-11.25
225.277	-1.25
225.511	5.75
225.746	-6.25
225.98	11.75
226.215	16.75
226.449	29.75
226.683	19.75
226.918	12.75
227.152	22.75
227.387	31.75
227.621	36.75
227.856	48.75
228.09	41.75
228.324	48.75
228.559	48.75
228.793	55.75
229.027	54.75
229.262	56.75
229.496	71.75
229.73	81.75
229.964	85.75
230.199	60.75
230.433	67.75
230.667	88.75
230.901	72.75
231.136	78.75
231.37	78.75
231.604	62.75
231.838	80.75
232.072	73.75
232.306	83.75
232.541	71.75
232.775	74.75
233.009	71.75
233.243	71.75
233.477	85.75
233.711	74.75
233.945	63.75
234.179	88.75
234.413	75.75
234.647	72.75
234.881	72.75
235.115	78.75
235.349	71.75
235.583	62.75
235.817	83.75
236.051	71.75
236.285	70.75
236.519	61.75
236.753	83.75
236.987	66.75
237.221	71.75
237.455	70.75
237.689	67.75
237.922	81.75
238.156	76.75
238.39	63.75
238.624	59.75
238.858	73.75
239.091	74.75
239.325	77.75
239.559	79.75
239.793	79.75
240.027	80.75
240.26	74.75
240.494	72.75
240.728	81.75
240.961	96.75
241.195	84.75
241.429	70.75
241.662	74.75
241.896	79.75
242.13	70.75
242.363	75.75
242.597	69.75
242.83	81.75
243.064	67.75
243.298	67.75
243.531	72.75
243.765	82.75
243.998	86.75
244.232	76.75
244.465	81.75
244.699	78.75
244.932	84.75
245.166	74.75
245.399	70.75
245.633	85.75
245.866	70.75
246.099	71.75
246.333	72.75
246.566	72.75
246.8	71.75
247.033	80.75
247.266	73.75
247.5	68.75
247.733	77.75
247.966	81.75
248.2	81.75
248.433	69.75
248.666	68.75
248.899	89.75
249.133	84.75
249.366	81.75
249.599	90.75
249.832	83.75
250.066	83.75
250.299	70.75
250.532	75.75
250.765	56.75
250.998	87.75
251.231	72.75
251.465	79.75
251.698	73.75
251.931	83.75
252.164	71.75
252.397	75.75
252.63	68.75
252.863	69.75
253.096	79.75
253.329	81.75
253.562	88.75
253.795	84.75
254.028	83.75
254.261	76.75
254.494	79.75
254.727	81.75
254.96	79.75
255.193	72.75
255.426	84.75
255.659	85.75
255.892	81.75
256.124	77.75
256.357	75.75
256.59	84.75
256.823	74.75
257.056	73.75
257.289	85.75
257.521	73.75
257.754	99.75
257.987	76.75
258.22	68.75
258.452	82.75
258.685	75.75
258.918	79.75
259.151	88.75
259.383	77.75
259.616	73.75
259.849	88.75
260.081	80.75
260.314	68.75
260.547	89.75
260.779	87.75
261.012	69.75
261.244	69.75
261.477	84.75
261.71	74.75
261.942	97.75
262.175	109.75
262.407	95.75
262.64	82.75
262.872	78.75
263.105	83.75
263.337	87.75
263.57	78.75
263.802	80.75
264.035	84.75
264.267	77.75
264.499	71.75
264.732	92.75
264.964	72.75
265.197	76.75
265.429	84.75
265.661	75.75
265.894	75.75
266.126	74.75
266.358	77.75
266.591	84.75
266.823	89.75
267.055	77.75
267.287	80.75
267.52	85.75
267.752	86.75
267.984	71.75
268.216	66.75
268.448	91.75
268.681	85.75
268.913	80.75
269.145	73.75
269.377	74.75
269.609	86.75
269.841	80.75
270.073	89.75
270.306	88.75
270.538	80.75
270.77	70.75
271.002	84.75
271.234	98.75
271.466	81.75
271.698	83.75
271.93	84.75
272.162	96.75
272.394	80.75
272.626	95.75
272.858	75.75
273.09	85.75
273.322	75.75
273.553	71.75
273.785	85.75
274.017	90.75
274.249	81.75
274.481	80.75
274.713	74.75
274.945	80.75
275.176	84.75
275.408	96.75
275.64	80.75
275.872	75.75
276.104	82.75
276.335	71.75
276.567	89.75
276.799	97.75
277.031	96.75
277.262	78.75
277.494	104.75
277.726	93.75
277.957	94.75
278.189	91.75
278.421	91.75
278.652	82.75
278.884	81.75
279.115	77.75
279.347	81.75
279.579	76.75
279.81	88.75
280.042	85.75
280.273	84.75
280.505	86.75
280.736	87.75
280.968	75.75
281.199	82.75
281.431	86.75
281.662	92.75
281.894	89.75
282.125	97.75
282.356	112.75
282.588	120.75
282.819	94.75
283.051	74.75
283.282	89.75
283.513	88.75
283.745	84.75
283.976	80.75
284.207	76.75
284.439	85.75
284.67	92.75
284.901	71.75
285.132	81.75
285.364	82.75
285.595	86.75
285.826	90.75
286.057	92.75
286.288	78.75
286.52	83.75
286.751	97.75
286.982	81.75
287.213	83.75
287.444	96.75
287.675	85.75
287.906	94.75
288.138	81.75
288.369	84.75
288.6	105.75
288.831	88.75
289.062	97.75
289.293	88.75
289.524	81.75
289.755	88.75
289.986	86.75
290.217	84.75
290.448	79.75
290.679	92.75
290.91	82.75
291.141	77.75
291.371	88.75
291.602	83.75
291.833	77.75
292.064	85.75
292.295	87.75
292.526	89.75
292.757	91.75
292.987	79.75
293.218	91.75
293.449	90.75
293.68	74.75
293.91	83.75
294.141	84.75
294.372	93.75
294.603	77.75
294.833	69.75
295.064	93.75
295.295	80.75
295.525	92.75
295.756	94.75
295.987	115.75
296.217	138.75
296.448	120.75
296.679	92.75
296.909	90.75
297.14	86.75
297.37	86.75
297.601	82.75
297.831	92.75
298.062	88.75
298.292	71.75
298.523	77.75
298.753	75.75
298.984	88.75
299.214	90.75
299.445	112.75
299.675	77.75
299.905	94.75
300.136	89.75
300.366	82.75
300.597	88.75
300.827	76.75
301.057	93.75
301.288	92.75
301.518	101.75
301.748	85.75
301.979	99.75
302.209	86.75
302.439	92.75
302.669	94.75
302.9	81.75
303.13	85.75
303.36	90.75
303.59	94.75
303.82	94.75
304.051	87.75
304.281	96.75
304.511	82.75
304.741	93.75
304.971	106.75
305.201	94.75
305.431	97.75
305.661	73.75
305.891	96.75
306.121	104.75
306.352	88.75
306.582	93.75
306.812	102.75
307.042	91.75
307.272	71.75
307.502	91.75
307.731	87.75
307.961	80.75
308.191	84.75
308.421	87.75
308.651	89.75
308.881	97.75
309.111	84.75
309.341	85.75
309.571	89.75
309.8	93.75
310.03	98.75
310.26	95.75
310.49	89.75
310.72	101.75
310.949	103.75
311.179	105.75
311.409	103.75
311.639	86.75
311.868	90.75
312.098	91.75
312.328	79.75
312.557	85.75
312.787	106.75
313.017	106.75
313.246	90.75
313.476	97.75
313.706	90.75
313.935	93.75
314.165	83.75
314.394	109.75
314.624	95.75
314.853	93.75
315.083	86.75
315.312	92.75
315.542	76.75
315.771	89.75
316.001	83.75
316.23	99.75
316.46	85.75
316.689	84.75
316.919	88.75
317.148	86.75
317.377	97.75
317.607	91.75
317.836	91.75
318.065	84.75
318.295	93.75
318.524	94.75
318.753	92.75
318.983	90.75
319.212	88.75
319.441	101.75
319.67	98.75
319.9	82.75
320.129	96.75
320.358	86.75
320.587	87.75
320.816	86.75
321.046	100.75
321.275	89.75
321.504	100.75
321.733	91.75
321.962	75.75
322.191	90.75
322.42	91.75
322.649	82.75
322.878	110.75
323.108	98.75
323.337	95.75
323.566	109.75
323.795	136.75
324.024	176.75
324.253	336.75
324.482	702.75
324.71	1412.75
324.939	1877.75
325.168	715.75
325.397	210.75
325.626	157.75
325.855	127.75
326.084	115.75
326.313	104.75
326.542	127.75
326.77	203.75
326.999	408.75
327.228	855.75
327.457	1442.75
327.686	1173.75
327.914	331.75
328.143	171.75
328.372	149.75
328.6	110.75
328.829	103.75
329.058	112.75
329.287	112.75
329.515	84.75
329.744	92.75
329.972	90.75
330.201	93.75
330.43	94.75
330.658	108.75
330.887	132.75
331.115	91.75
331.344	95.75
331.572	96.75
331.801	91.75
332.03	80.75
332.258	79.75
332.486	78.75
332.715	91.75
332.943	91.75
333.172	93.75
333.4	95.75
333.629	107.75
333.857	107.75
334.085	92.75
334.314	79.75
334.542	96.75
334.771	86.75
334.999	101.75
335.227	99.75
335.455	93.75
335.684	103.75
335.912	87.75
336.14	98.75
336.369	91.75
336.597	87.75
336.825	87.75
337.053	85.75
337.281	101.75
337.51	94.75
337.738	92.75
337.966	86.75
338.194	105.75
338.422	101.75
338.65	103.75
338.878	71.75
339.106	85.75
339.334	90.75
339.562	88.75
339.79	87.75
340.018	85.75
340.246	81.75
340.474	75.75
340.702	81.75
340.93	77.75
341.158	85.75
341.386	85.75
341.614	95.75
341.842	94.75
342.07	98.75
342.298	75.75
342.526	85.75
342.754	86.75
342.981	89.75
343.209	81.75
343.437	105.75
343.665	85.75
343.893	102.75
344.12	88.75
344.348	69.75
344.576	83.75
344.804	79.75
345.031	91.75
345.259	91.75
345.487	86.75
345.714	79.75
345.942	103.75
346.17	90.75
346.397	72.75
346.625	80.75
346.853	89.75
347.08	81.75
347.308	87.75
347.535	94.75
347.763	93.75
347.99	86.75
348.218	96.75
348.445	95.75
348.673	76.75
348.9	75.75
349.128	103.75
349.355	94.75
349.583	94.75
349.81	85.75
350.037	93.75
350.265	94.75
350.492	85.75
350.72	91.75
350.947	103.75
351.174	110.75
351.402	101.75
351.629	87.75
351.856	103.75
352.083	107.75
352.311	90.75
352.538	107.75
352.765	107.75
352.992	110.75
353.22	96.75
353.447	94.75
353.674	107.75
353.901	107.75
354.128	93.75
354.355	101.75
354.583	89.75
354.81	81.75
355.037	98.75
355.264	99.75
355.491	75.75
355.718	93.75
355.945	97.75
356.172	93.75
356.399	88.75
356.626	96.75
356.853	93.75
357.08	105.75
357.307	86.75
357.534	74.75
357.761	95.75
357.988	97.75
358.215	91.75
358.441	87.75
358.668	96.75
358.895	86.75
359.122	101.75
359.349	92.75
359.576	96.75
359.802	108.75
360.029	103.75
360.256	100.75
360.483	80.75
360.709	76.75
360.936	92.75
361.163	88.75
361.39	89.75
361.616	89.75
361.843	100.75
362.07	99.75
362.296	91.75
362.523	77.75
362.749	81.75
362.976	92.75
363.203	94.75
363.429	86.75
363.656	88.75
363.882	69.75
364.109	105.75
364.335	85.75
364.562	87.75
364.788	105.75
365.015	90.75
365.241	108.75
365.468	110.75
365.694	96.75
365.92	84.75
366.147	86.75
366.373	72.75
366.599	86.75
366.826	79.75
367.052	91.75
367.278	90.75
367.505	89.75
367.731	95.75
367.957	86.75
368.184	84.75
368.41	95.75
368.636	91.75
368.862	106.75
369.089	100.75
369.315	78.75
369.541	77.75
369.767	82.75
369.993	91.75
370.219	97.75
370.445	79.75
370.672	87.75
370.898	80.75
371.124	85.75
371.35	89.75
371.576	84.75
371.802	79.75
372.028	77.75
372.254	81.75
372.48	98.75
372.706	76.75
372.932	76.75
373.158	86.75
373.384	84.75
373.61	91.75
373.835	83.75
374.061	80.75
374.287	88.75
374.513	78.75
374.739	87.75
374.965	78.75
375.191	85.75
375.416	85.75
375.642	93.75
375.868	80.75
376.094	79.75
376.319	69.75
376.545	94.75
376.771	97.75
376.997	89.75
377.222	80.75
377.448	90.75
377.674	77.75
377.899	86.75
378.125	75.75
378.35	88.75
378.576	87.75
378.802	84.75
379.027	79.75
379.253	71.75
379.478	84.75
379.704	83.75
379.929	81.75
380.155	88.75
380.38	79.75
380.606	105.75
380.831	89.75
381.057	84.75
381.282	99.75
381.507	89.75
381.733	89.75
381.958	74.75
382.184	97.75
382.409	88.75
382.634	108.75
382.86	112.75
383.085	107.75
383.31	98.75
383.535	100.75
383.761	116.75
383.986	98.75
384.211	88.75
384.436	102.75
384.662	96.75
384.887	109.75
385.112	94.75
385.337	86.75
385.562	80.75
385.787	93.75
386.013	89.75
386.238	103.75
386.463	81.75
386.688	108.75
386.913	101.75
387.138	95.75
387.363	98.75
387.588	83.75
387.813	95.75
388.038	98.75
388.263	96.75
388.488	108.75
388.713	80.75
388.938	102.75
389.163	74.75
389.387	90.75
389.612	108.75
389.837	76.75
390.062	78.75
390.287	79.75
390.512	94.75
390.736	87.75
390.961	93.75
391.186	89.75
391.411	82.75
391.636	86.75
391.86	87.75
392.085	80.75
392.31	96.75
392.534	86.75
392.759	75.75
392.984	95.75
393.208	93.75
393.433	64.75
393.658	80.75
393.882	83.75
394.107	84.75
394.331	87.75
394.556	82.75
394.78	103.75
395.005	85.75
395.229	82.75
395.454	86.75
395.678	84.75
395.903	73.75
396.127	82.75
396.352	79.75
396.576	93.75
396.801	90.75
397.025	97.75
397.249	87.75
397.474	82.75
397.698	79.75
397.922	83.75
398.147	82.75
398.371	80.75
398.595	80.75
398.82	96.75
399.044	75.75
399.268	65.75
399.492	83.75
399.717	95.75
399.941	89.75
400.165	87.75
400.389	103.75
400.613	89.75
400.837	84.75
401.062	83.75
401.286	83.75
401.51	80.75
401.734	95.75
401.958	95.75
402.182	120.75
402.406	134.75
402.63	97.75
402.854	72.75
403.078	84.75
403.302	88.75
403.526	79.75
403.75	79.75
403.974	78.75
404.198	77.75
404.422	100.75
404.645	79.75
404.869	77.75
405.093	96.75
405.317	80.75
405.541	102.75
405.765	91.75
405.988	115.75
406.212	161.75
406.436	183.75
406.66	124.75
406.883	88.75
407.107	89.75
407.331	107.75
407.555	94.75
407.778	87.75
408.002	87.75
408.226	94.75
408.449	92.75
408.673	89.75
408.896	107.75
409.12	85.75
409.344	81.75
409.567	80.75
409.791	97.75
410.014	83.75
410.238	91.75
410.461	93.75
410.685	80.75
410.908	91.75
411.132	98.75
411.355	89.75
411.578	90.75
411.802	97.75
412.025	84.75
412.249	88.75
412.472	90.75
412.695	87.75
412.919	87.75
413.142	54.75
413.365	86.75
413.589	77.75
413.812	89.75
414.035	96.75
414.258	76.75
414.482	76.75
414.705	96.75
414.928	85.75
415.151	97.75
415.374	72.75
415.597	75.75
415.821	90.75
416.044	68.75
416.267	92.75
416.49	91.75
416.713	93.75
416.936	95.75
417.159	87.75
417.382	77.75
417.605	84.75
417.828	101.75
418.051	81.75
418.274	92.75
418.497	83.75
418.72	79.75
418.943	90.75
419.166	91.75
419.389	90.75
419.611	87.75
419.834	75.75
420.057	74.75
420.28	86.75
420.503	93.75
420.726	90.75
420.948	92.75
421.171	90.75
421.394	100.75
421.617	76.75
421.839	83.75
422.062	81.75
422.285	74.75
422.507	81.75
422.73	91.75
422.953	84.75
423.175	77.75
423.398	81.75
423.621	82.75
423.843	90.75
424.066	73.75
424.288	84.75
424.511	83.75
424.733	100.75
424.956	98.75
425.178	76.75
425.401	100.75
425.623	81.75
425.846	92.75
426.068	87.75
426.291	87.75
426.513	83.75
426.735	85.75
426.958	89.75
427.18	94.75
427.402	119.75
427.625	135.75
427.847	117.75
428.069	98.75
428.292	95.75
428.514	90.75
428.736	79.75
428.958	79.75
429.181	84.75
429.403	86.75
429.625	97.75
429.847	90.75
430.069	98.75
430.292	79.75
430.514	75.75
430.736	68.75
430.958	76.75
431.18	81.75
431.402	87.75
431.624	92.75
431.846	95.75
432.068	82.75
432.29	72.75
432.512	75.75
432.734	89.75
432.956	80.75
433.178	96.75
433.4	81.75
433.622	86.75
433.844	88.75
434.066	85.75
434.287	85.75
434.509	80.75
434.731	77.75
434.953	81.75
435.175	85.75
435.397	92.75
435.618	93.75
435.84	106.75
436.062	112.75
436.284	96.75
436.505	88.75
436.727	97.75
436.949	92.75
437.17	92.75
437.392	100.75
437.614	91.75
437.835	100.75
438.057	109.75
438.278	105.75
438.5	99.75
438.721	115.75
438.943	105.75
439.165	79.75
439.386	78.75
439.608	84.75
439.829	99.75
440.05	116.75
440.272	106.75
440.493	85.75
440.715	80.75
440.936	75.75
441.158	83.75
441.379	87.75
441.6	80.75
441.822	103.75
442.043	94.75
442.264	90.75
442.486	95.75
442.707	77.75
442.928	96.75
443.149	109.75
443.371	117.75
443.592	113.75
443.813	102.75
444.034	91.75
444.255	71.75
444.476	89.75
444.698	77.75
444.919	85.75
445.14	115.75
445.361	119.75
445.582	109.75
445.803	116.75
446.024	115.75
446.245	119.75
446.466	104.75
446.687	78.75
446.908	81.75
447.129	85.75
447.35	88.75
447.571	94.75
447.792	90.75
448.013	85.75
448.234	67.75
448.455	84.75
448.675	101.75
448.896	112.75
449.117	90.75
449.338	94.75
449.559	113.75
449.779	119.75
450	96.75
450.221	81.75
450.442	83.75
450.662	89.75
450.883	96.75
451.104	104.75
451.324	85.75
451.545	86.75
451.766	83.75
451.986	83.75
452.207	83.75
452.428	96.75
452.648	92.75
452.869	94.75
453.089	107.75
453.31	96.75
453.53	81.75
453.751	85.75
453.971	77.75
454.192	96.75
454.412	88.75
454.633	104.75
454.853	73.75
455.073	79.75
455.294	83.75
455.514	92.75
455.734	85.75
455.955	81.75
456.175	75.75
456.395	77.75
456.616	84.75
456.836	74.75
457.056	81.75
457.276	62.75
457.497	77.75
457.717	81.75
457.937	92.75
458.157	76.75
458.377	83.75
458.598	94.75
458.818	113.75
459.038	128.75
459.258	115.75
459.478	95.75
459.698	77.75
459.918	69.75
460.138	72.75
460.358	72.75
460.578	86.75
460.798	88.75
461.018	89.75
461.238	81.75
461.458	80.75
461.678	68.75
461.898	88.75
462.118	81.75
462.338	85.75
462.558	89.75
462.777	86.75
462.997	84.75
463.217	84.75
463.437	92.75
463.657	80.75
463.876	78.75
464.096	88.75
464.316	86.75
464.536	101.75
464.755	88.75
464.975	88.75
465.195	132.75
465.414	135.75
465.634	85.75
465.854	83.75
466.073	95.75
466.293	83.75
466.512	88.75
466.732	84.75
466.951	91.75
467.171	83.75
467.391	96.75
467.61	81.75
467.829	95.75
468.049	93.75
468.268	62.75
468.488	80.75
468.707	84.75
468.927	83.75
469.146	80.75
469.365	75.75
469.585	85.75
469.804	80.75
470.023	107.75
470.243	97.75
470.462	93.75
470.681	95.75
470.901	70.75
471.12	80.75
471.339	77.75
471.558	84.75
471.777	85.75
471.997	86.75
472.216	77.75
472.435	91.75
472.654	76.75
472.873	81.75
473.092	78.75
473.311	86.75
473.53	90.75
473.749	97.75
473.968	83.75
474.187	102.75
474.406	100.75
474.625	73.75
474.844	86.75
475.063	71.75
475.282	77.75
475.501	74.75
475.72	75.75
475.939	80.75
476.158	89.75
476.377	89.75
476.596	93.75
476.814	95.75
477.033	85.75
477.252	85.75
477.471	92.75
477.69	84.75
477.908	76.75
478.127	73.75
478.346	94.75
478.564	91.75
478.783	82.75
479.002	77.75
479.22	95.75
479.439	91.75
479.658	91.75
479.876	91.75
480.095	97.75
480.313	82.75
480.532	79.75
480.751	95.75
480.969	89.75
481.188	99.75
481.406	103.75
481.624	86.75
481.843	84.75
482.061	88.75
482.28	81.75
482.498	86.75
482.717	91.75
482.935	78.75
483.153	72.75
483.372	75.75
483.59	81.75
483.808	89.75
484.027	91.75
484.245	91.75
484.463	93.75
484.681	89.75
484.9	84.75
485.118	95.75
485.336	89.75
485.554	103.75
485.772	93.75
485.99	115.75
486.209	99.75
486.427	103.75
486.645	117.75
486.863	104.75
487.081	104.75
487.299	94.75
487.517	93.75
487.735	93.75
487.953	95.75
488.171	91.75
488.389	86.75
488.607	96.75
488.825	81.75
489.043	84.75
489.261	80.75
489.479	99.75
489.696	89.75
489.914	78.75
490.132	95.75
490.35	89.75
490.568	80.75
490.786	88.75
491.003	95.75
491.221	77.75
491.439	97.75
491.657	88.75
491.874	93.75
492.092	77.75
492.31	78.75
492.527	90.75
492.745	86.75
492.963	95.75
493.18	83.75
493.398	91.75
493.615	97.75
493.833	79.75
494.05	78.75
494.268	83.75
494.485	92.75
494.703	87.75
494.92	79.75
495.138	96.75
495.355	84.75
495.573	78.75
495.79	88.75
496.008	77.75
496.225	103.75
496.442	83.75
496.66	88.75
496.877	84.75
497.094	90.75
497.312	82.75
497.529	100.75
497.746	87.75
497.963	85.75
498.181	80.75
498.398	77.75
498.615	99.75
498.832	92.75
499.049	79.75
499.267	101.75
499.484	88.75
499.701	80.75
499.918	84.75
500.135	87.75
500.352	81.75
500.569	87.75
500.786	79.75
501.003	84.75
501.22	87.75
501.437	73.75
501.654	74.75
501.871	94.75
502.088	82.75
502.305	79.75
502.522	79.75
502.739	82.75
502.956	93.75
503.172	94.75
503.389	90.75
503.606	94.75
503.823	99.75
504.04	95.75
504.256	82.75
504.473	78.75
504.69	85.75
504.907	88.75
505.123	94.75
505.34	87.75
505.557	74.75
505.773	86.75
505.99	83.75
506.207	94.75
506.423	83.75
506.64	82.75
506.856	81.75
507.073	94.75
507.289	93.75
507.506	84.75
507.722	100.75
507.939	104.75
508.155	93.75
508.372	94.75
508.588	87.75
508.805	83.75
509.021	96.75
509.238	84.75
509.454	91.75
509.67	88.75
509.887	95.75
510.103	123.75
510.319	195.75
510.536	625.75
510.752	1868.75
510.968	531.75
511.184	131.75
511.401	91.75
511.617	92.75
511.833	95.75
512.049	82.75
512.265	86.75
512.481	80.75
512.698	71.75
512.914	101.75
513.13	91.75
513.346	92.75
513.562	98.75
513.778	94.75
513.994	94.75
514.21	96.75
514.426	96.75
514.642	116.75
514.858	111.75
515.074	147.75
515.29	351.75
515.506	1105.75
515.721	447.75
515.937	147.75
516.153	96.75
516.369	96.75
516.585	89.75
516.801	91.75
517.016	81.75
517.232	86.75
517.448	85.75
