Data from Uncirc_1998_H10_HRD10591_00060.txt Node
Date: Wed Jan 03 11:25:36 EST 2024
User: Yrep
Spectrometer: HR+D1059
Trigger mode: 1
Integration Time (sec): 1.000000E-1
Scans to average: 1
Electric dark correction enabled: true
Nonlinearity correction enabled: false
Boxcar width: 0
XAxis mode: Wavelengths
Number of Pixels in Spectrum: 2048
>>>>>Begin Spectral Data<<<<<
223.165	-21.06
223.4	-21.06
223.635	-21.06
223.869	-17.06
224.104	-16.06
224.338	-9.06
224.573	-11.06
224.808	-16.06
225.042	-15.06
225.277	-10.06
225.511	3.94
225.746	9.94
225.98	-2.06
226.215	4.94
226.449	18.94
226.683	18.94
226.918	25.94
227.152	34.94
227.387	28.94
227.621	40.94
227.856	56.94
228.09	50.94
228.324	65.94
228.559	56.94
228.793	47.94
229.027	68.94
229.262	76.94
229.496	61.94
229.73	76.94
229.964	83.94
230.199	79.94
230.433	83.94
230.667	93.94
230.901	90.94
231.136	87.94
231.37	81.94
231.604	86.94
231.838	93.94
232.072	91.94
232.306	82.94
232.541	89.94
232.775	85.94
233.009	78.94
233.243	87.94
233.477	94.94
233.711	87.94
233.945	77.94
234.179	76.94
234.413	72.94
234.647	91.94
234.881	84.94
235.115	81.94
235.349	81.94
235.583	75.94
235.817	82.94
236.051	72.94
236.285	78.94
236.519	95.94
236.753	86.94
236.987	85.94
237.221	93.94
237.455	77.94
237.689	93.94
237.922	70.94
238.156	70.94
238.39	97.94
238.624	75.94
238.858	63.94
239.091	80.94
239.325	66.94
239.559	89.94
239.793	82.94
240.027	82.94
240.26	82.94
240.494	88.94
240.728	82.94
240.961	79.94
241.195	92.94
241.429	87.94
241.662	89.94
241.896	82.94
242.13	89.94
242.363	84.94
242.597	86.94
242.83	78.94
243.064	81.94
243.298	75.94
243.531	76.94
243.765	78.94
243.998	90.94
244.232	98.94
244.465	93.94
244.699	86.94
244.932	72.94
245.166	86.94
245.399	77.94
245.633	82.94
245.866	81.94
246.099	85.94
246.333	85.94
246.566	80.94
246.8	96.94
247.033	85.94
247.266	83.94
247.5	72.94
247.733	87.94
247.966	84.94
248.2	80.94
248.433	80.94
248.666	74.94
248.899	66.94
249.133	88.94
249.366	85.94
249.599	85.94
249.832	85.94
250.066	83.94
250.299	80.94
250.532	80.94
250.765	86.94
250.998	87.94
251.231	91.94
251.465	88.94
251.698	86.94
251.931	77.94
252.164	84.94
252.397	81.94
252.63	66.94
252.863	78.94
253.096	85.94
253.329	79.94
253.562	84.94
253.795	92.94
254.028	87.94
254.261	72.94
254.494	97.94
254.727	83.94
254.96	80.94
255.193	74.94
255.426	95.94
255.659	82.94
255.892	93.94
256.124	75.94
256.357	98.94
256.59	85.94
256.823	95.94
257.056	85.94
257.289	100.94
257.521	90.94
257.754	82.94
257.987	96.94
258.22	91.94
258.452	86.94
258.685	73.94
258.918	82.94
259.151	96.94
259.383	79.94
259.616	94.94
259.849	63.94
260.081	89.94
260.314	88.94
260.547	99.94
260.779	99.94
261.012	99.94
261.244	85.94
261.477	75.94
261.71	99.94
261.942	92.94
262.175	96.94
262.407	96.94
262.64	72.94
262.872	84.94
263.105	85.94
263.337	87.94
263.57	80.94
263.802	70.94
264.035	90.94
264.267	91.94
264.499	87.94
264.732	91.94
264.964	81.94
265.197	83.94
265.429	83.94
265.661	97.94
265.894	83.94
266.126	69.94
266.358	75.94
266.591	89.94
266.823	99.94
267.055	88.94
267.287	81.94
267.52	68.94
267.752	86.94
267.984	92.94
268.216	97.94
268.448	85.94
268.681	85.94
268.913	102.94
269.145	87.94
269.377	90.94
269.609	81.94
269.841	88.94
270.073	84.94
270.306	90.94
270.538	84.94
270.77	78.94
271.002	87.94
271.234	87.94
271.466	97.94
271.698	77.94
271.93	74.94
272.162	81.94
272.394	90.94
272.626	75.94
272.858	88.94
273.09	90.94
273.322	77.94
273.553	89.94
273.785	90.94
274.017	97.94
274.249	80.94
274.481	86.94
274.713	93.94
274.945	83.94
275.176	88.94
275.408	87.94
275.64	93.94
275.872	76.94
276.104	89.94
276.335	74.94
276.567	103.94
276.799	102.94
277.031	106.94
277.262	94.94
277.494	82.94
277.726	81.94
277.957	95.94
278.189	104.94
278.421	82.94
278.652	88.94
278.884	80.94
279.115	90.94
279.347	93.94
279.579	76.94
279.81	82.94
280.042	96.94
280.273	92.94
280.505	89.94
280.736	82.94
280.968	90.94
281.199	86.94
281.431	87.94
281.662	94.94
281.894	97.94
282.125	101.94
282.356	101.94
282.588	124.94
282.819	95.94
283.051	104.94
283.282	82.94
283.513	97.94
283.745	86.94
283.976	88.94
284.207	78.94
284.439	100.94
284.67	85.94
284.901	91.94
285.132	97.94
285.364	92.94
285.595	77.94
285.826	95.94
286.057	84.94
286.288	89.94
286.52	99.94
286.751	86.94
286.982	85.94
287.213	110.94
287.444	92.94
287.675	85.94
287.906	88.94
288.138	99.94
288.369	78.94
288.6	86.94
288.831	88.94
289.062	94.94
289.293	111.94
289.524	91.94
289.755	86.94
289.986	93.94
290.217	104.94
290.448	83.94
290.679	86.94
290.91	96.94
291.141	92.94
291.371	97.94
291.602	99.94
291.833	89.94
292.064	84.94
292.295	81.94
292.526	73.94
292.757	101.94
292.987	96.94
293.218	88.94
293.449	98.94
293.68	105.94
293.91	106.94
294.141	77.94
294.372	77.94
294.603	89.94
294.833	92.94
295.064	82.94
295.295	102.94
295.525	94.94
295.756	112.94
295.987	108.94
296.217	122.94
296.448	114.94
296.679	92.94
296.909	91.94
297.14	92.94
297.37	99.94
297.601	76.94
297.831	89.94
298.062	96.94
298.292	79.94
298.523	97.94
298.753	89.94
298.984	82.94
299.214	95.94
299.445	93.94
299.675	85.94
299.905	97.94
300.136	93.94
300.366	76.94
300.597	88.94
300.827	96.94
301.057	98.94
301.288	102.94
301.518	107.94
301.748	75.94
301.979	108.94
302.209	64.94
302.439	86.94
302.669	96.94
302.9	103.94
303.13	88.94
303.36	98.94
303.59	92.94
303.82	114.94
304.051	93.94
304.281	93.94
304.511	97.94
304.741	85.94
304.971	80.94
305.201	93.94
305.431	94.94
305.661	93.94
305.891	100.94
306.121	103.94
306.352	104.94
306.582	100.94
306.812	87.94
307.042	97.94
307.272	107.94
307.502	100.94
307.731	100.94
307.961	86.94
308.191	93.94
308.421	102.94
308.651	85.94
308.881	84.94
309.111	95.94
309.341	93.94
309.571	113.94
309.8	98.94
310.03	92.94
310.26	98.94
310.49	101.94
310.72	95.94
310.949	92.94
311.179	96.94
311.409	96.94
311.639	97.94
311.868	101.94
312.098	94.94
312.328	105.94
312.557	99.94
312.787	93.94
313.017	96.94
313.246	89.94
313.476	100.94
313.706	101.94
313.935	92.94
314.165	82.94
314.394	88.94
314.624	90.94
314.853	93.94
315.083	98.94
315.312	89.94
315.542	96.94
315.771	98.94
316.001	101.94
316.23	104.94
316.46	94.94
316.689	81.94
316.919	117.94
317.148	82.94
317.377	104.94
317.607	118.94
317.836	110.94
318.065	105.94
318.295	99.94
318.524	103.94
318.753	99.94
318.983	89.94
319.212	94.94
319.441	118.94
319.67	100.94
319.9	97.94
320.129	99.94
320.358	99.94
320.587	84.94
320.816	102.94
321.046	97.94
321.275	102.94
321.504	94.94
321.733	110.94
321.962	104.94
322.191	93.94
322.42	108.94
322.649	99.94
322.878	113.94
323.108	108.94
323.337	115.94
323.566	121.94
323.795	144.94
324.024	206.94
324.253	374.94
324.482	784.94
324.71	1568.94
324.939	1996.94
325.168	744.94
325.397	230.94
325.626	133.94
325.855	123.94
326.084	140.94
326.313	125.94
326.542	151.94
326.77	216.94
326.999	433.94
327.228	901.94
327.457	1581.94
327.686	1279.94
327.914	366.94
328.143	181.94
328.372	134.94
328.6	112.94
328.829	110.94
329.058	138.94
329.287	112.94
329.515	113.94
329.744	95.94
329.972	99.94
330.201	107.94
330.43	99.94
330.658	120.94
330.887	134.94
331.115	126.94
331.344	106.94
331.572	109.94
331.801	88.94
332.03	93.94
332.258	96.94
332.486	88.94
332.715	92.94
332.943	105.94
333.172	101.94
333.4	100.94
333.629	102.94
333.857	117.94
334.085	97.94
334.314	100.94
334.542	102.94
334.771	101.94
334.999	100.94
335.227	99.94
335.455	110.94
335.684	113.94
335.912	112.94
336.14	93.94
336.369	104.94
336.597	106.94
336.825	99.94
337.053	102.94
337.281	94.94
337.51	97.94
337.738	106.94
337.966	96.94
338.194	97.94
338.422	100.94
338.65	87.94
338.878	91.94
339.106	95.94
339.334	94.94
339.562	86.94
339.79	92.94
340.018	93.94
340.246	96.94
340.474	105.94
340.702	96.94
340.93	91.94
341.158	96.94
341.386	96.94
341.614	115.94
341.842	92.94
342.07	93.94
342.298	90.94
342.526	75.94
342.754	96.94
342.981	82.94
343.209	101.94
343.437	98.94
343.665	105.94
343.893	99.94
344.12	94.94
344.348	89.94
344.576	93.94
344.804	85.94
345.031	106.94
345.259	96.94
345.487	103.94
345.714	111.94
345.942	100.94
346.17	96.94
346.397	84.94
346.625	96.94
346.853	94.94
347.08	96.94
347.308	98.94
347.535	94.94
347.763	101.94
347.99	116.94
348.218	98.94
348.445	105.94
348.673	85.94
348.9	99.94
349.128	106.94
349.355	101.94
349.583	97.94
349.81	108.94
350.037	83.94
350.265	106.94
350.492	96.94
350.72	82.94
350.947	98.94
351.174	113.94
351.402	105.94
351.629	98.94
351.856	102.94
352.083	102.94
352.311	109.94
352.538	123.94
352.765	120.94
352.992	113.94
353.22	107.94
353.447	107.94
353.674	102.94
353.901	112.94
354.128	104.94
354.355	97.94
354.583	91.94
354.81	85.94
355.037	78.94
355.264	98.94
355.491	106.94
355.718	100.94
355.945	107.94
356.172	94.94
356.399	96.94
356.626	96.94
356.853	86.94
357.08	92.94
357.307	100.94
357.534	88.94
357.761	98.94
357.988	109.94
358.215	92.94
358.441	95.94
358.668	87.94
358.895	91.94
359.122	98.94
359.349	91.94
359.576	85.94
359.802	106.94
360.029	110.94
360.256	102.94
360.483	96.94
360.709	97.94
360.936	99.94
361.163	84.94
361.39	92.94
361.616	94.94
361.843	92.94
362.07	107.94
362.296	74.94
362.523	98.94
362.749	88.94
362.976	81.94
363.203	93.94
363.429	101.94
363.656	105.94
363.882	112.94
364.109	84.94
364.335	96.94
364.562	94.94
364.788	95.94
365.015	86.94
365.241	94.94
365.468	108.94
365.694	108.94
365.92	89.94
366.147	100.94
366.373	84.94
366.599	97.94
366.826	92.94
367.052	94.94
367.278	99.94
367.505	76.94
367.731	91.94
367.957	87.94
368.184	92.94
368.41	94.94
368.636	108.94
368.862	96.94
369.089	100.94
369.315	85.94
369.541	113.94
369.767	83.94
369.993	105.94
370.219	96.94
370.445	81.94
370.672	80.94
370.898	88.94
371.124	101.94
371.35	85.94
371.576	106.94
371.802	93.94
372.028	88.94
372.254	93.94
372.48	84.94
372.706	92.94
372.932	84.94
373.158	93.94
373.384	102.94
373.61	92.94
373.835	90.94
374.061	94.94
374.287	94.94
374.513	84.94
374.739	88.94
374.965	74.94
375.191	108.94
375.416	91.94
375.642	75.94
375.868	88.94
376.094	94.94
376.319	92.94
376.545	84.94
376.771	80.94
376.997	99.94
377.222	99.94
377.448	87.94
377.674	93.94
377.899	84.94
378.125	88.94
378.35	94.94
378.576	84.94
378.802	92.94
379.027	86.94
379.253	104.94
379.478	88.94
379.704	92.94
379.929	86.94
380.155	88.94
380.38	102.94
380.606	116.94
380.831	95.94
381.057	88.94
381.282	87.94
381.507	91.94
381.733	77.94
381.958	84.94
382.184	90.94
382.409	98.94
382.634	90.94
382.86	100.94
383.085	108.94
383.31	101.94
383.535	101.94
383.761	96.94
383.986	107.94
384.211	97.94
384.436	96.94
384.662	99.94
384.887	108.94
385.112	97.94
385.337	96.94
385.562	98.94
385.787	92.94
386.013	113.94
386.238	108.94
386.463	101.94
386.688	106.94
386.913	93.94
387.138	104.94
387.363	102.94
387.588	90.94
387.813	94.94
388.038	99.94
388.263	113.94
388.488	98.94
388.713	107.94
388.938	105.94
389.163	99.94
389.387	105.94
389.612	99.94
389.837	95.94
390.062	94.94
390.287	92.94
390.512	91.94
390.736	96.94
390.961	91.94
391.186	98.94
391.411	100.94
391.636	108.94
391.86	84.94
392.085	77.94
392.31	84.94
392.534	95.94
392.759	88.94
392.984	85.94
393.208	92.94
393.433	84.94
393.658	94.94
393.882	96.94
394.107	88.94
394.331	93.94
394.556	96.94
394.78	82.94
395.005	88.94
395.229	96.94
395.454	88.94
395.678	97.94
395.903	80.94
396.127	93.94
396.352	80.94
396.576	91.94
396.801	97.94
397.025	82.94
397.249	94.94
397.474	106.94
397.698	87.94
397.922	99.94
398.147	97.94
398.371	94.94
398.595	93.94
398.82	85.94
399.044	100.94
399.268	92.94
399.492	88.94
399.717	85.94
399.941	91.94
400.165	93.94
400.389	107.94
400.613	94.94
400.837	96.94
401.062	88.94
401.286	80.94
401.51	90.94
401.734	99.94
401.958	97.94
402.182	110.94
402.406	156.94
402.63	100.94
402.854	97.94
403.078	92.94
403.302	103.94
403.526	85.94
403.75	84.94
403.974	98.94
404.198	98.94
404.422	84.94
404.645	94.94
404.869	83.94
405.093	115.94
405.317	91.94
405.541	92.94
405.765	92.94
405.988	100.94
406.212	156.94
406.436	204.94
406.66	126.94
406.883	89.94
407.107	101.94
407.331	91.94
407.555	99.94
407.778	102.94
408.002	98.94
408.226	85.94
408.449	109.94
408.673	100.94
408.896	99.94
409.12	97.94
409.344	92.94
409.567	88.94
409.791	92.94
410.014	82.94
410.238	86.94
410.461	103.94
410.685	83.94
410.908	101.94
411.132	95.94
411.355	113.94
411.578	92.94
411.802	86.94
412.025	78.94
412.249	100.94
412.472	81.94
412.695	89.94
412.919	92.94
413.142	85.94
413.365	91.94
413.589	72.94
413.812	102.94
414.035	89.94
414.258	100.94
414.482	97.94
414.705	93.94
414.928	91.94
415.151	94.94
415.374	102.94
415.597	81.94
415.821	94.94
416.044	100.94
416.267	102.94
416.49	93.94
416.713	92.94
416.936	105.94
417.159	78.94
417.382	90.94
417.605	93.94
417.828	86.94
418.051	89.94
418.274	89.94
418.497	100.94
418.72	92.94
418.943	78.94
419.166	93.94
419.389	111.94
419.611	99.94
419.834	91.94
420.057	114.94
420.28	93.94
420.503	89.94
420.726	100.94
420.948	67.94
421.171	95.94
421.394	96.94
421.617	96.94
421.839	95.94
422.062	86.94
422.285	99.94
422.507	118.94
422.73	110.94
422.953	91.94
423.175	95.94
423.398	80.94
423.621	80.94
423.843	88.94
424.066	104.94
424.288	91.94
424.511	85.94
424.733	105.94
424.956	115.94
425.178	103.94
425.401	96.94
425.623	100.94
425.846	101.94
426.068	85.94
426.291	84.94
426.513	95.94
426.735	93.94
426.958	98.94
427.18	97.94
427.402	130.94
427.625	158.94
427.847	126.94
428.069	105.94
428.292	98.94
428.514	87.94
428.736	92.94
428.958	84.94
429.181	89.94
429.403	84.94
429.625	98.94
429.847	97.94
430.069	89.94
430.292	93.94
430.514	97.94
430.736	91.94
430.958	88.94
431.18	88.94
431.402	85.94
431.624	91.94
431.846	98.94
432.068	83.94
432.29	93.94
432.512	90.94
432.734	90.94
432.956	98.94
433.178	105.94
433.4	102.94
433.622	101.94
433.844	95.94
434.066	90.94
434.287	100.94
434.509	98.94
434.731	88.94
434.953	94.94
435.175	102.94
435.397	101.94
435.618	110.94
435.84	90.94
436.062	118.94
436.284	106.94
436.505	112.94
436.727	105.94
436.949	92.94
437.17	85.94
437.392	95.94
437.614	112.94
437.835	98.94
438.057	117.94
438.278	99.94
438.5	106.94
438.721	121.94
438.943	113.94
439.165	81.94
439.386	82.94
439.608	85.94
439.829	105.94
440.05	108.94
440.272	136.94
440.493	116.94
440.715	87.94
440.936	88.94
441.158	86.94
441.379	89.94
441.6	92.94
441.822	99.94
442.043	93.94
442.264	115.94
442.486	105.94
442.707	74.94
442.928	97.94
443.149	127.94
443.371	119.94
443.592	102.94
443.813	109.94
444.034	112.94
444.255	99.94
444.476	99.94
444.698	97.94
444.919	84.94
445.14	133.94
445.361	135.94
445.582	116.94
445.803	139.94
446.024	134.94
446.245	140.94
446.466	107.94
446.687	89.94
446.908	100.94
447.129	99.94
447.35	95.94
447.571	89.94
447.792	93.94
448.013	100.94
448.234	102.94
448.455	94.94
448.675	115.94
448.896	136.94
449.117	105.94
449.338	114.94
449.559	132.94
449.779	144.94
450	95.94
450.221	93.94
450.442	81.94
450.662	105.94
450.883	93.94
451.104	120.94
451.324	102.94
451.545	89.94
451.766	101.94
451.986	93.94
452.207	92.94
452.428	94.94
452.648	115.94
452.869	92.94
453.089	107.94
453.31	118.94
453.53	101.94
453.751	105.94
453.971	105.94
454.192	120.94
454.412	99.94
454.633	92.94
454.853	94.94
455.073	89.94
455.294	96.94
455.514	91.94
455.734	89.94
455.955	89.94
456.175	89.94
456.395	85.94
456.616	85.94
456.836	91.94
457.056	91.94
457.276	102.94
457.497	88.94
457.717	83.94
457.937	88.94
458.157	89.94
458.377	84.94
458.598	109.94
458.818	142.94
459.038	152.94
459.258	111.94
459.478	92.94
459.698	104.94
459.918	91.94
460.138	83.94
460.358	80.94
460.578	89.94
460.798	102.94
461.018	98.94
461.238	93.94
461.458	78.94
461.678	67.94
461.898	86.94
462.118	84.94
462.338	90.94
462.558	88.94
462.777	87.94
462.997	92.94
463.217	95.94
463.437	94.94
463.657	95.94
463.876	88.94
464.096	78.94
464.316	104.94
464.536	105.94
464.755	94.94
464.975	109.94
465.195	146.94
465.414	150.94
465.634	91.94
465.854	98.94
466.073	88.94
466.293	80.94
466.512	100.94
466.732	93.94
466.951	92.94
467.171	83.94
467.391	101.94
467.61	106.94
467.829	104.94
468.049	100.94
468.268	87.94
468.488	83.94
468.707	97.94
468.927	79.94
469.146	89.94
469.365	98.94
469.585	98.94
469.804	98.94
470.023	103.94
470.243	98.94
470.462	107.94
470.681	99.94
470.901	108.94
471.12	84.94
471.339	100.94
471.558	85.94
471.777	90.94
471.997	83.94
472.216	98.94
472.435	103.94
472.654	96.94
472.873	92.94
473.092	93.94
473.311	97.94
473.53	75.94
473.749	93.94
473.968	102.94
474.187	108.94
474.406	103.94
474.625	97.94
474.844	88.94
475.063	87.94
475.282	81.94
475.501	89.94
475.72	84.94
475.939	78.94
476.158	86.94
476.377	80.94
476.596	101.94
476.814	87.94
477.033	99.94
477.252	93.94
477.471	82.94
477.69	99.94
477.908	90.94
478.127	85.94
478.346	77.94
478.564	82.94
478.783	99.94
479.002	90.94
479.22	92.94
479.439	100.94
479.658	106.94
479.876	102.94
480.095	94.94
480.313	85.94
480.532	106.94
480.751	84.94
480.969	76.94
481.188	110.94
481.406	95.94
481.624	92.94
481.843	105.94
482.061	100.94
482.28	88.94
482.498	90.94
482.717	93.94
482.935	93.94
483.153	105.94
483.372	86.94
483.59	102.94
483.808	91.94
484.027	101.94
484.245	106.94
484.463	97.94
484.681	85.94
484.9	92.94
485.118	96.94
485.336	91.94
485.554	108.94
485.772	97.94
485.99	110.94
486.209	104.94
486.427	100.94
486.645	104.94
486.863	104.94
487.081	108.94
487.299	96.94
487.517	101.94
487.735	98.94
487.953	101.94
488.171	104.94
488.389	102.94
488.607	96.94
488.825	100.94
489.043	101.94
489.261	91.94
489.479	94.94
489.696	101.94
489.914	85.94
490.132	77.94
490.35	94.94
490.568	78.94
490.786	80.94
491.003	89.94
491.221	88.94
491.439	82.94
491.657	77.94
491.874	99.94
492.092	107.94
492.31	90.94
492.527	92.94
492.745	99.94
492.963	84.94
493.18	97.94
493.398	103.94
493.615	95.94
493.833	99.94
494.05	100.94
494.268	92.94
494.485	92.94
494.703	97.94
494.92	94.94
495.138	96.94
495.355	107.94
495.573	81.94
495.79	92.94
496.008	95.94
496.225	100.94
496.442	102.94
496.66	104.94
496.877	81.94
497.094	91.94
497.312	89.94
497.529	91.94
497.746	105.94
497.963	94.94
498.181	91.94
498.398	92.94
498.615	106.94
498.832	90.94
499.049	83.94
499.267	90.94
499.484	89.94
499.701	90.94
499.918	85.94
500.135	86.94
500.352	107.94
500.569	90.94
500.786	95.94
501.003	79.94
501.22	95.94
501.437	91.94
501.654	117.94
501.871	112.94
502.088	107.94
502.305	108.94
502.522	91.94
502.739	91.94
502.956	95.94
503.172	81.94
503.389	97.94
503.606	107.94
503.823	104.94
504.04	96.94
504.256	101.94
504.473	90.94
504.69	80.94
504.907	85.94
505.123	96.94
505.34	83.94
505.557	92.94
505.773	108.94
505.99	96.94
506.207	94.94
506.423	97.94
506.64	91.94
506.856	88.94
507.073	105.94
507.289	87.94
507.506	101.94
507.722	128.94
507.939	100.94
508.155	99.94
508.372	80.94
508.588	108.94
508.805	102.94
509.021	99.94
509.238	97.94
509.454	90.94
509.67	101.94
509.887	129.94
510.103	130.94
510.319	204.94
510.536	685.94
510.752	2120.94
510.968	584.94
511.184	158.94
511.401	106.94
511.617	109.94
511.833	85.94
512.049	101.94
512.265	103.94
512.481	88.94
512.698	84.94
512.914	91.94
513.13	101.94
513.346	108.94
513.562	104.94
513.778	111.94
513.994	89.94
514.21	95.94
514.426	118.94
514.642	153.94
514.858	136.94
