Data from Uncirc_1998_H10_HRD10591_00090.txt Node
Date: Wed Jan 03 11:25:42 EST 2024
User: Yrep
Spectrometer: HR+D1059
Trigger mode: 1
Integration Time (sec): 1.000000E-1
Scans to average: 1
Electric dark correction enabled: true
Nonlinearity correction enabled: false
Boxcar width: 0
XAxis mode: Wavelengths
Number of Pixels in Spectrum: 2048
>>>>>Begin Spectral Data<<<<<
223.165	-24.19
223.4	-24.19
223.635	-24.19
223.869	-11.19
224.104	-19.19
224.338	-23.19
224.573	-10.19
224.808	-18.19
225.042	-14.19
225.277	-10.19
225.511	1.81
225.746	0.81
225.98	-1.19
226.215	-2.19
226.449	25.81
226.683	25.81
226.918	29.81
227.152	49.81
227.387	22.81
227.621	31.81
227.856	41.81
228.09	40.81
228.324	44.81
228.559	56.81
228.793	52.81
229.027	63.81
229.262	58.81
229.496	71.81
229.73	89.81
229.964	65.81
230.199	76.81
230.433	81.81
230.667	80.81
230.901	88.81
231.136	80.81
231.37	88.81
231.604	67.81
231.838	83.81
232.072	72.81
232.306	80.81
232.541	85.81
232.775	86.81
233.009	78.81
233.243	79.81
233.477	75.81
233.711	78.81
233.945	87.81
234.179	92.81
234.413	87.81
234.647	76.81
234.881	99.81
235.115	100.81
235.349	83.81
235.583	85.81
235.817	69.81
236.051	83.81
236.285	64.81
236.519	87.81
236.753	80.81
236.987	78.81
237.221	84.81
237.455	83.81
237.689	71.81
237.922	64.81
238.156	81.81
238.39	70.81
238.624	69.81
238.858	77.81
239.091	72.81
239.325	80.81
239.559	60.81
239.793	90.81
240.027	80.81
240.26	77.81
240.494	86.81
240.728	78.81
240.961	61.81
241.195	83.81
241.429	61.81
241.662	68.81
241.896	71.81
242.13	83.81
242.363	63.81
242.597	71.81
242.83	74.81
243.064	75.81
243.298	79.81
243.531	68.81
243.765	73.81
243.998	72.81
244.232	86.81
244.465	79.81
244.699	69.81
244.932	71.81
245.166	85.81
245.399	67.81
245.633	81.81
245.866	70.81
246.099	67.81
246.333	74.81
246.566	67.81
246.8	83.81
247.033	70.81
247.266	73.81
247.5	91.81
247.733	68.81
247.966	71.81
248.2	85.81
248.433	75.81
248.666	72.81
248.899	77.81
249.133	79.81
249.366	94.81
249.599	93.81
249.832	92.81
250.066	75.81
250.299	82.81
250.532	80.81
250.765	74.81
250.998	79.81
251.231	76.81
251.465	70.81
251.698	85.81
251.931	75.81
252.164	62.81
252.397	89.81
252.63	79.81
252.863	71.81
253.096	78.81
253.329	81.81
253.562	82.81
253.795	86.81
254.028	93.81
254.261	78.81
254.494	87.81
254.727	75.81
254.96	65.81
255.193	91.81
255.426	83.81
255.659	76.81
255.892	77.81
256.124	73.81
256.357	74.81
256.59	73.81
256.823	82.81
257.056	89.81
257.289	63.81
257.521	83.81
257.754	83.81
257.987	68.81
258.22	79.81
258.452	70.81
258.685	84.81
258.918	71.81
259.151	91.81
259.383	82.81
259.616	77.81
259.849	78.81
260.081	90.81
260.314	77.81
260.547	68.81
260.779	79.81
261.012	96.81
261.244	76.81
261.477	73.81
261.71	97.81
261.942	98.81
262.175	89.81
262.407	91.81
262.64	75.81
262.872	72.81
263.105	83.81
263.337	99.81
263.57	67.81
263.802	73.81
264.035	85.81
264.267	85.81
264.499	77.81
264.732	73.81
264.964	69.81
265.197	78.81
265.429	85.81
265.661	88.81
265.894	85.81
266.126	80.81
266.358	70.81
266.591	86.81
266.823	84.81
267.055	92.81
267.287	81.81
267.52	80.81
267.752	88.81
267.984	72.81
268.216	86.81
268.448	85.81
268.681	73.81
268.913	74.81
269.145	83.81
269.377	91.81
269.609	81.81
269.841	62.81
270.073	80.81
270.306	79.81
270.538	75.81
270.77	85.81
271.002	81.81
271.234	85.81
271.466	89.81
271.698	88.81
271.93	85.81
272.162	85.81
272.394	82.81
272.626	76.81
272.858	84.81
273.09	68.81
273.322	76.81
273.553	75.81
273.785	89.81
274.017	89.81
274.249	86.81
274.481	91.81
274.713	80.81
274.945	89.81
275.176	75.81
275.408	69.81
275.64	81.81
275.872	87.81
276.104	81.81
276.335	96.81
276.567	92.81
276.799	106.81
277.031	107.81
277.262	85.81
277.494	92.81
277.726	78.81
277.957	88.81
278.189	79.81
278.421	87.81
278.652	86.81
278.884	86.81
279.115	78.81
279.347	96.81
279.579	76.81
279.81	71.81
280.042	83.81
280.273	90.81
280.505	94.81
280.736	78.81
280.968	82.81
281.199	81.81
281.431	81.81
281.662	91.81
281.894	83.81
282.125	101.81
282.356	99.81
282.588	103.81
282.819	109.81
283.051	80.81
283.282	78.81
283.513	75.81
283.745	81.81
283.976	90.81
284.207	83.81
284.439	81.81
284.67	83.81
284.901	92.81
285.132	86.81
285.364	82.81
285.595	88.81
285.826	90.81
286.057	88.81
286.288	83.81
286.52	85.81
286.751	77.81
286.982	83.81
287.213	83.81
287.444	82.81
287.675	77.81
287.906	77.81
288.138	88.81
288.369	92.81
288.6	78.81
288.831	78.81
289.062	72.81
289.293	81.81
289.524	86.81
289.755	85.81
289.986	110.81
290.217	80.81
290.448	79.81
290.679	83.81
290.91	84.81
291.141	82.81
291.371	79.81
291.602	79.81
291.833	95.81
292.064	84.81
292.295	91.81
292.526	71.81
292.757	84.81
292.987	100.81
293.218	83.81
293.449	83.81
293.68	83.81
293.91	77.81
294.141	92.81
294.372	92.81
294.603	92.81
294.833	94.81
295.064	97.81
295.295	91.81
295.525	73.81
295.756	86.81
295.987	107.81
296.217	117.81
296.448	107.81
296.679	94.81
296.909	77.81
297.14	87.81
297.37	80.81
297.601	76.81
297.831	96.81
298.062	81.81
298.292	83.81
298.523	96.81
298.753	89.81
298.984	96.81
299.214	80.81
299.445	95.81
299.675	103.81
299.905	101.81
300.136	75.81
300.366	71.81
300.597	79.81
300.827	95.81
301.057	101.81
301.288	91.81
301.518	92.81
301.748	92.81
301.979	105.81
302.209	97.81
302.439	85.81
302.669	92.81
302.9	71.81
303.13	85.81
303.36	109.81
303.59	97.81
303.82	111.81
304.051	95.81
304.281	73.81
304.511	90.81
304.741	87.81
304.971	91.81
305.201	88.81
305.431	79.81
305.661	95.81
305.891	102.81
306.121	94.81
306.352	99.81
306.582	86.81
306.812	95.81
307.042	80.81
307.272	78.81
307.502	85.81
307.731	92.81
307.961	101.81
308.191	87.81
308.421	83.81
308.651	84.81
308.881	84.81
309.111	98.81
309.341	94.81
309.571	95.81
309.8	97.81
310.03	88.81
310.26	106.81
310.49	76.81
310.72	75.81
310.949	101.81
311.179	98.81
311.409	95.81
311.639	88.81
311.868	100.81
312.098	91.81
312.328	96.81
312.557	107.81
312.787	97.81
313.017	102.81
313.246	99.81
313.476	79.81
313.706	89.81
313.935	86.81
314.165	89.81
314.394	109.81
314.624	87.81
314.853	95.81
315.083	90.81
315.312	84.81
315.542	92.81
315.771	85.81
316.001	79.81
316.23	87.81
316.46	82.81
316.689	90.81
316.919	92.81
317.148	73.81
317.377	99.81
317.607	74.81
317.836	77.81
318.065	101.81
318.295	91.81
318.524	83.81
318.753	96.81
318.983	79.81
319.212	99.81
319.441	109.81
319.67	106.81
319.9	94.81
320.129	99.81
320.358	90.81
320.587	104.81
320.816	93.81
321.046	87.81
321.275	89.81
321.504	92.81
321.733	112.81
321.962	103.81
322.191	100.81
322.42	80.81
322.649	92.81
322.878	91.81
323.108	124.81
323.337	122.81
323.566	127.81
323.795	134.81
324.024	207.81
324.253	325.81
324.482	712.81
324.71	1424.81
324.939	1856.81
325.168	692.81
325.397	220.81
325.626	133.81
325.855	122.81
326.084	112.81
326.313	121.81
326.542	141.81
326.77	217.81
326.999	407.81
327.228	826.81
327.457	1495.81
327.686	1148.81
327.914	322.81
328.143	165.81
328.372	131.81
328.6	127.81
328.829	110.81
329.058	111.81
329.287	110.81
329.515	85.81
329.744	93.81
329.972	103.81
330.201	102.81
330.43	102.81
330.658	116.81
330.887	116.81
331.115	100.81
331.344	97.81
331.572	101.81
331.801	97.81
332.03	100.81
332.258	93.81
332.486	96.81
332.715	93.81
332.943	92.81
333.172	91.81
333.4	85.81
333.629	97.81
333.857	98.81
334.085	124.81
334.314	87.81
334.542	92.81
334.771	76.81
334.999	113.81
335.227	88.81
335.455	107.81
335.684	93.81
335.912	97.81
336.14	82.81
336.369	88.81
336.597	87.81
336.825	89.81
337.053	85.81
337.281	91.81
337.51	89.81
337.738	92.81
337.966	79.81
338.194	87.81
338.422	100.81
338.65	84.81
338.878	87.81
339.106	88.81
339.334	102.81
339.562	79.81
339.79	84.81
340.018	91.81
340.246	100.81
340.474	77.81
340.702	93.81
340.93	87.81
341.158	103.81
341.386	78.81
341.614	92.81
341.842	84.81
342.07	93.81
342.298	100.81
342.526	96.81
342.754	81.81
342.981	80.81
343.209	95.81
343.437	108.81
343.665	79.81
343.893	96.81
344.12	85.81
344.348	71.81
344.576	77.81
344.804	90.81
345.031	91.81
345.259	109.81
345.487	83.81
345.714	92.81
345.942	98.81
346.17	82.81
346.397	86.81
346.625	102.81
346.853	86.81
347.08	91.81
347.308	94.81
347.535	104.81
347.763	95.81
347.99	97.81
348.218	95.81
348.445	79.81
348.673	89.81
348.9	95.81
349.128	88.81
349.355	88.81
349.583	89.81
349.81	92.81
350.037	87.81
350.265	90.81
350.492	88.81
350.72	89.81
350.947	97.81
351.174	109.81
351.402	98.81
351.629	87.81
351.856	106.81
352.083	95.81
352.311	98.81
352.538	101.81
352.765	100.81
352.992	111.81
353.22	105.81
353.447	94.81
353.674	96.81
353.901	97.81
354.128	91.81
354.355	83.81
354.583	87.81
354.81	89.81
355.037	106.81
355.264	84.81
355.491	90.81
355.718	90.81
355.945	102.81
356.172	90.81
356.399	99.81
356.626	89.81
356.853	87.81
357.08	99.81
357.307	103.81
357.534	73.81
357.761	83.81
357.988	90.81
358.215	91.81
358.441	97.81
358.668	90.81
358.895	77.81
359.122	87.81
359.349	85.81
359.576	84.81
359.802	97.81
360.029	118.81
360.256	87.81
360.483	83.81
360.709	95.81
360.936	96.81
361.163	81.81
361.39	91.81
361.616	85.81
361.843	87.81
362.07	75.81
362.296	90.81
362.523	85.81
362.749	98.81
362.976	88.81
363.203	91.81
363.429	76.81
363.656	80.81
363.882	76.81
364.109	87.81
364.335	94.81
364.562	91.81
364.788	82.81
365.015	91.81
365.241	91.81
365.468	100.81
365.694	89.81
365.92	90.81
366.147	89.81
366.373	87.81
366.599	80.81
366.826	73.81
367.052	92.81
367.278	77.81
367.505	94.81
367.731	92.81
367.957	93.81
368.184	88.81
368.41	90.81
368.636	101.81
368.862	127.81
369.089	103.81
369.315	91.81
369.541	84.81
369.767	76.81
369.993	103.81
370.219	92.81
370.445	83.81
370.672	87.81
370.898	87.81
371.124	82.81
371.35	91.81
371.576	83.81
371.802	71.81
372.028	92.81
372.254	77.81
372.48	83.81
372.706	81.81
372.932	89.81
373.158	90.81
373.384	93.81
373.61	94.81
373.835	87.81
374.061	71.81
374.287	88.81
374.513	79.81
374.739	79.81
374.965	81.81
375.191	78.81
375.416	90.81
375.642	96.81
375.868	89.81
376.094	81.81
376.319	80.81
376.545	109.81
376.771	91.81
376.997	88.81
377.222	81.81
377.448	93.81
377.674	79.81
377.899	94.81
378.125	83.81
378.35	95.81
378.576	91.81
378.802	79.81
379.027	74.81
379.253	94.81
379.478	97.81
379.704	84.81
379.929	91.81
380.155	86.81
380.38	85.81
380.606	67.81
380.831	83.81
381.057	102.81
381.282	94.81
381.507	94.81
381.733	95.81
381.958	93.81
382.184	91.81
382.409	100.81
382.634	115.81
382.86	101.81
383.085	98.81
383.31	84.81
383.535	96.81
383.761	92.81
383.986	100.81
384.211	77.81
384.436	85.81
384.662	80.81
384.887	102.81
385.112	91.81
385.337	91.81
385.562	87.81
385.787	103.81
386.013	112.81
386.238	103.81
386.463	102.81
386.688	104.81
386.913	92.81
387.138	96.81
387.363	92.81
387.588	81.81
387.813	85.81
388.038	96.81
388.263	86.81
388.488	95.81
388.713	91.81
388.938	91.81
389.163	88.81
389.387	86.81
389.612	85.81
389.837	79.81
390.062	82.81
390.287	91.81
390.512	82.81
390.736	91.81
390.961	93.81
391.186	84.81
391.411	92.81
391.636	86.81
391.86	73.81
392.085	76.81
392.31	87.81
392.534	83.81
392.759	88.81
392.984	88.81
393.208	96.81
393.433	80.81
393.658	93.81
393.882	76.81
394.107	80.81
394.331	79.81
394.556	72.81
394.78	73.81
395.005	81.81
395.229	79.81
395.454	63.81
395.678	96.81
395.903	74.81
396.127	86.81
396.352	84.81
396.576	80.81
396.801	78.81
397.025	78.81
397.249	83.81
397.474	93.81
397.698	72.81
397.922	91.81
398.147	92.81
398.371	82.81
398.595	96.81
398.82	79.81
399.044	81.81
399.268	71.81
399.492	72.81
399.717	87.81
399.941	88.81
400.165	89.81
400.389	80.81
400.613	76.81
400.837	88.81
401.062	85.81
401.286	87.81
401.51	76.81
401.734	95.81
401.958	81.81
402.182	109.81
402.406	143.81
402.63	102.81
402.854	96.81
403.078	95.81
403.302	78.81
403.526	89.81
403.75	74.81
403.974	83.81
404.198	83.81
404.422	69.81
404.645	80.81
404.869	97.81
405.093	100.81
405.317	85.81
405.541	76.81
405.765	94.81
405.988	105.81
406.212	157.81
406.436	199.81
406.66	123.81
406.883	94.81
407.107	93.81
407.331	80.81
407.555	83.81
407.778	96.81
408.002	71.81
408.226	73.81
408.449	84.81
408.673	74.81
408.896	93.81
409.12	89.81
409.344	90.81
409.567	85.81
409.791	93.81
410.014	90.81
410.238	91.81
410.461	87.81
410.685	89.81
410.908	96.81
411.132	108.81
411.355	97.81
411.578	80.81
411.802	77.81
412.025	88.81
412.249	86.81
412.472	82.81
412.695	87.81
412.919	87.81
413.142	88.81
413.365	84.81
413.589	83.81
413.812	81.81
414.035	96.81
414.258	100.81
414.482	94.81
414.705	87.81
414.928	82.81
415.151	81.81
415.374	84.81
415.597	80.81
415.821	88.81
416.044	70.81
416.267	92.81
416.49	88.81
416.713	80.81
416.936	85.81
417.159	89.81
417.382	86.81
417.605	84.81
417.828	87.81
418.051	84.81
418.274	81.81
418.497	90.81
418.72	77.81
418.943	91.81
419.166	85.81
419.389	81.81
419.611	94.81
419.834	91.81
420.057	77.81
420.28	86.81
420.503	75.81
420.726	94.81
420.948	81.81
421.171	90.81
421.394	87.81
421.617	84.81
421.839	88.81
422.062	67.81
422.285	83.81
422.507	92.81
422.73	105.81
422.953	69.81
423.175	97.81
423.398	83.81
423.621	83.81
423.843	88.81
424.066	75.81
424.288	86.81
424.511	80.81
424.733	101.81
424.956	93.81
425.178	84.81
425.401	103.81
425.623	84.81
425.846	96.81
426.068	103.81
426.291	101.81
426.513	82.81
426.735	79.81
426.958	82.81
427.18	98.81
427.402	108.81
427.625	137.81
427.847	127.81
428.069	105.81
428.292	84.81
428.514	87.81
428.736	81.81
428.958	82.81
429.181	76.81
429.403	79.81
429.625	78.81
429.847	82.81
430.069	95.81
430.292	84.81
430.514	74.81
430.736	66.81
430.958	68.81
431.18	78.81
431.402	93.81
431.624	79.81
431.846	84.81
432.068	72.81
432.29	78.81
432.512	90.81
432.734	81.81
432.956	85.81
433.178	90.81
433.4	101.81
433.622	83.81
433.844	83.81
434.066	87.81
434.287	91.81
434.509	87.81
434.731	97.81
434.953	87.81
435.175	83.81
435.397	87.81
435.618	91.81
435.84	88.81
436.062	100.81
436.284	110.81
436.505	86.81
436.727	88.81
436.949	100.81
437.17	94.81
437.392	84.81
437.614	84.81
437.835	102.81
438.057	105.81
438.278	96.81
438.5	89.81
438.721	108.81
438.943	101.81
439.165	86.81
439.386	89.81
439.608	99.81
439.829	87.81
440.05	102.81
440.272	138.81
440.493	108.81
440.715	99.81
440.936	91.81
441.158	88.81
441.379	92.81
441.6	97.81
441.822	94.81
442.043	75.81
442.264	98.81
442.486	73.81
442.707	77.81
442.928	98.81
443.149	100.81
443.371	122.81
443.592	105.81
443.813	101.81
444.034	91.81
444.255	83.81
444.476	89.81
444.698	75.81
444.919	83.81
445.14	135.81
445.361	107.81
445.582	93.81
445.803	123.81
446.024	122.81
446.245	122.81
446.466	103.81
446.687	89.81
446.908	77.81
447.129	79.81
447.35	81.81
447.571	88.81
447.792	97.81
448.013	94.81
448.234	83.81
448.455	93.81
448.675	93.81
448.896	108.81
449.117	88.81
449.338	93.81
449.559	106.81
449.779	116.81
450	89.81
450.221	75.81
450.442	96.81
450.662	102.81
450.883	95.81
451.104	92.81
451.324	89.81
451.545	86.81
451.766	85.81
451.986	69.81
452.207	69.81
452.428	84.81
452.648	94.81
452.869	111.81
453.089	91.81
453.31	115.81
453.53	100.81
453.751	97.81
453.971	104.81
454.192	108.81
454.412	96.81
454.633	80.81
454.853	92.81
455.073	83.81
455.294	90.81
455.514	91.81
455.734	95.81
455.955	91.81
456.175	74.81
456.395	79.81
456.616	83.81
456.836	88.81
457.056	88.81
457.276	78.81
457.497	75.81
457.717	83.81
457.937	83.81
458.157	92.81
458.377	86.81
458.598	109.81
458.818	126.81
459.038	138.81
459.258	104.81
459.478	90.81
459.698	72.81
459.918	74.81
460.138	91.81
460.358	75.81
460.578	75.81
460.798	63.81
461.018	75.81
461.238	69.81
461.458	77.81
461.678	96.81
461.898	80.81
462.118	74.81
462.338	90.81
462.558	80.81
462.777	88.81
462.997	75.81
463.217	92.81
463.437	81.81
463.657	86.81
463.876	77.81
464.096	87.81
464.316	91.81
464.536	93.81
464.755	96.81
464.975	92.81
465.195	140.81
465.414	132.81
465.634	90.81
465.854	97.81
466.073	84.81
466.293	89.81
466.512	91.81
466.732	92.81
466.951	83.81
467.171	83.81
467.391	88.81
467.61	89.81
467.829	96.81
468.049	93.81
468.268	91.81
468.488	96.81
468.707	97.81
468.927	88.81
469.146	92.81
469.365	101.81
469.585	93.81
469.804	100.81
470.023	92.81
470.243	78.81
470.462	98.81
470.681	99.81
470.901	83.81
471.12	81.81
471.339	83.81
471.558	96.81
471.777	77.81
471.997	80.81
472.216	86.81
472.435	96.81
472.654	71.81
472.873	94.81
473.092	89.81
473.311	78.81
473.53	65.81
473.749	86.81
473.968	84.81
474.187	96.81
474.406	90.81
474.625	75.81
474.844	84.81
475.063	91.81
475.282	73.81
475.501	64.81
475.72	88.81
475.939	91.81
476.158	99.81
476.377	69.81
476.596	86.81
476.814	90.81
477.033	91.81
477.252	93.81
477.471	82.81
477.69	108.81
477.908	77.81
478.127	91.81
478.346	86.81
478.564	86.81
478.783	97.81
479.002	77.81
479.22	85.81
479.439	105.81
479.658	96.81
479.876	91.81
480.095	89.81
480.313	104.81
480.532	78.81
480.751	90.81
480.969	76.81
481.188	107.81
481.406	94.81
481.624	78.81
481.843	87.81
482.061	79.81
482.28	90.81
482.498	87.81
482.717	85.81
482.935	90.81
483.153	86.81
483.372	81.81
483.59	99.81
483.808	98.81
484.027	98.81
484.245	109.81
484.463	92.81
484.681	107.81
484.9	77.81
485.118	91.81
485.336	92.81
485.554	93.81
485.772	97.81
485.99	97.81
486.209	93.81
486.427	85.81
486.645	103.81
486.863	109.81
487.081	85.81
487.299	85.81
487.517	81.81
487.735	92.81
487.953	99.81
488.171	92.81
488.389	86.81
488.607	100.81
488.825	93.81
489.043	95.81
489.261	88.81
489.479	79.81
489.696	88.81
489.914	88.81
490.132	87.81
490.35	91.81
490.568	79.81
490.786	88.81
491.003	71.81
491.221	73.81
491.439	87.81
491.657	84.81
491.874	93.81
492.092	72.81
492.31	75.81
492.527	86.81
492.745	71.81
492.963	86.81
493.18	100.81
493.398	88.81
493.615	103.81
493.833	101.81
494.05	84.81
494.268	89.81
494.485	87.81
494.703	72.81
494.92	90.81
495.138	95.81
495.355	79.81
495.573	87.81
495.79	91.81
496.008	84.81
496.225	107.81
496.442	82.81
496.66	91.81
496.877	92.81
497.094	103.81
497.312	92.81
497.529	85.81
497.746	101.81
497.963	102.81
498.181	94.81
498.398	100.81
498.615	91.81
498.832	102.81
499.049	89.81
499.267	85.81
499.484	90.81
499.701	96.81
499.918	87.81
500.135	90.81
500.352	83.81
500.569	78.81
500.786	87.81
501.003	87.81
501.22	79.81
501.437	77.81
501.654	112.81
501.871	89.81
502.088	89.81
502.305	89.81
502.522	82.81
502.739	100.81
502.956	83.81
503.172	97.81
503.389	94.81
503.606	115.81
503.823	86.81
504.04	92.81
504.256	85.81
504.473	94.81
504.69	81.81
504.907	90.81
505.123	91.81
505.34	90.81
505.557	93.81
505.773	84.81
505.99	74.81
506.207	81.81
506.423	75.81
506.64	83.81
506.856	97.81
507.073	83.81
507.289	101.81
507.506	87.81
507.722	105.81
507.939	115.81
508.155	93.81
508.372	92.81
508.588	87.81
508.805	103.81
509.021	85.81
509.238	88.81
509.454	95.81
509.67	91.81
509.887	116.81
510.103	120.81
510.319	202.81
510.536	657.81
510.752	1976.81
510.968	573.81
511.184	145.81
511.401	115.81
511.617	101.81
511.833	94.81
512.049	87.81
512.265	100.81
512.481	99.81
512.698	92.81
512.914	100.81
513.13	97.81
513.346	91.81
513.562	81.81
513.778	85.81
513.994	100.81
514.21	97.81
514.426	117.81
514.642	125.81
514.858	110.81
515.074	152.81
515.29	386.81
515.506	1216.81
515.721	474.81
515.937	133.81
516.153	111.81
516.369	90.81
516.585	96.81
516.801	97.81
517.016	88.81
