Data from Uncirc_1998_H10_HRD10591_00016.txt Node
Date: Wed Jan 03 11:25:28 EST 2024
User: Yrep
Spectrometer: HR+D1059
Trigger mode: 1
Integration Time (sec): 1.000000E-1
Scans to average: 1
Electric dark correction enabled: true
Nonlinearity correction enabled: false
Boxcar width: 0
XAxis mode: Wavelengths
Number of Pixels in Spectrum: 2048
>>>>>Begin Spectral Data<<<<<
223.165	-7.81
223.4	-7.81
223.635	-7.81
223.869	-19.81
224.104	-17.81
224.338	-25.81
224.573	3.19
224.808	-22.81
225.042	-17.81
225.277	-0.81
225.511	3.19
225.746	1.19
225.98	8.19
226.215	0.19
226.449	20.19
226.683	17.19
226.918	29.19
227.152	30.19
227.387	42.19
227.621	34.19
227.856	29.19
228.09	49.19
228.324	47.19
228.559	53.19
228.793	58.19
229.027	63.19
229.262	58.19
229.496	73.19
229.73	81.19
229.964	66.19
230.199	78.19
230.433	65.19
230.667	79.19
230.901	87.19
231.136	73.19
231.37	73.19
231.604	85.19
231.838	65.19
232.072	75.19
232.306	84.19
232.541	75.19
232.775	87.19
233.009	78.19
233.243	63.19
233.477	71.19
233.711	86.19
233.945	76.19
234.179	64.19
234.413	81.19
234.647	68.19
234.881	86.19
235.115	78.19
235.349	72.19
235.583	67.19
235.817	68.19
236.051	65.19
236.285	73.19
236.519	84.19
236.753	83.19
236.987	83.19
237.221	83.19
237.455	64.19
237.689	73.19
237.922	86.19
238.156	95.19
238.39	76.19
238.624	71.19
238.858	74.19
239.091	80.19
239.325	84.19
239.559	80.19
239.793	74.19
240.027	82.19
240.26	73.19
240.494	79.19
240.728	80.19
240.961	90.19
241.195	70.19
241.429	81.19
241.662	82.19
241.896	83.19
242.13	85.19
242.363	74.19
242.597	59.19
242.83	81.19
243.064	77.19
243.298	86.19
243.531	70.19
243.765	92.19
243.998	104.19
244.232	76.19
244.465	82.19
244.699	73.19
244.932	77.19
245.166	86.19
245.399	73.19
245.633	81.19
245.866	72.19
246.099	79.19
246.333	79.19
246.566	82.19
246.8	87.19
247.033	88.19
247.266	84.19
247.5	79.19
247.733	77.19
247.966	84.19
248.2	88.19
248.433	88.19
248.666	97.19
248.899	83.19
249.133	76.19
249.366	97.19
249.599	96.19
249.832	82.19
250.066	76.19
250.299	75.19
250.532	84.19
250.765	75.19
250.998	77.19
251.231	85.19
251.465	82.19
251.698	77.19
251.931	85.19
252.164	80.19
252.397	56.19
252.63	73.19
252.863	76.19
253.096	75.19
253.329	86.19
253.562	74.19
253.795	81.19
254.028	75.19
254.261	65.19
254.494	82.19
254.727	69.19
254.96	74.19
255.193	75.19
255.426	77.19
255.659	82.19
255.892	94.19
256.124	72.19
256.357	94.19
256.59	74.19
256.823	88.19
257.056	83.19
257.289	87.19
257.521	85.19
257.754	101.19
257.987	82.19
258.22	80.19
258.452	76.19
258.685	94.19
258.918	75.19
259.151	73.19
259.383	95.19
259.616	86.19
259.849	94.19
260.081	97.19
260.314	90.19
260.547	87.19
260.779	89.19
261.012	90.19
261.244	90.19
261.477	95.19
261.71	93.19
261.942	97.19
262.175	96.19
262.407	99.19
262.64	96.19
262.872	77.19
263.105	62.19
263.337	73.19
263.57	71.19
263.802	80.19
264.035	82.19
264.267	90.19
264.499	78.19
264.732	83.19
264.964	89.19
265.197	90.19
265.429	81.19
265.661	95.19
265.894	78.19
266.126	82.19
266.358	86.19
266.591	65.19
266.823	85.19
267.055	71.19
267.287	87.19
267.52	87.19
267.752	88.19
267.984	86.19
268.216	76.19
268.448	94.19
268.681	85.19
268.913	93.19
269.145	75.19
269.377	71.19
269.609	73.19
269.841	79.19
270.073	70.19
270.306	80.19
270.538	79.19
270.77	93.19
271.002	83.19
271.234	81.19
271.466	82.19
271.698	85.19
271.93	93.19
272.162	87.19
272.394	91.19
272.626	89.19
272.858	75.19
273.09	71.19
273.322	82.19
273.553	82.19
273.785	78.19
274.017	88.19
274.249	89.19
274.481	81.19
274.713	74.19
274.945	81.19
275.176	97.19
275.408	80.19
275.64	100.19
275.872	79.19
276.104	88.19
276.335	102.19
276.567	93.19
276.799	90.19
277.031	85.19
277.262	73.19
277.494	105.19
277.726	71.19
277.957	88.19
278.189	91.19
278.421	77.19
278.652	79.19
278.884	92.19
279.115	86.19
279.347	71.19
279.579	94.19
279.81	83.19
280.042	90.19
280.273	77.19
280.505	78.19
280.736	90.19
280.968	94.19
281.199	89.19
281.431	85.19
281.662	81.19
281.894	90.19
282.125	77.19
282.356	115.19
282.588	124.19
282.819	110.19
283.051	105.19
283.282	93.19
283.513	88.19
283.745	85.19
283.976	88.19
284.207	93.19
284.439	81.19
284.67	79.19
284.901	92.19
285.132	75.19
285.364	74.19
285.595	79.19
285.826	102.19
286.057	87.19
286.288	84.19
286.52	81.19
286.751	80.19
286.982	84.19
287.213	71.19
287.444	85.19
287.675	78.19
287.906	97.19
288.138	87.19
288.369	85.19
288.6	84.19
288.831	88.19
289.062	94.19
289.293	81.19
289.524	86.19
289.755	84.19
289.986	83.19
290.217	82.19
290.448	90.19
290.679	82.19
290.91	88.19
291.141	81.19
291.371	88.19
291.602	77.19
291.833	81.19
292.064	95.19
292.295	80.19
292.526	88.19
292.757	84.19
292.987	92.19
293.218	82.19
293.449	74.19
293.68	86.19
293.91	92.19
294.141	80.19
294.372	79.19
294.603	80.19
294.833	89.19
295.064	94.19
295.295	95.19
295.525	84.19
295.756	83.19
295.987	103.19
296.217	123.19
296.448	108.19
296.679	93.19
296.909	95.19
297.14	96.19
297.37	90.19
297.601	80.19
297.831	73.19
298.062	92.19
298.292	79.19
298.523	74.19
298.753	96.19
298.984	85.19
299.214	86.19
299.445	100.19
299.675	86.19
299.905	81.19
300.136	93.19
300.366	95.19
300.597	89.19
300.827	88.19
301.057	97.19
301.288	86.19
301.518	88.19
301.748	82.19
301.979	99.19
302.209	92.19
302.439	91.19
302.669	82.19
302.9	87.19
303.13	82.19
303.36	93.19
303.59	110.19
303.82	102.19
304.051	86.19
304.281	101.19
304.511	99.19
304.741	87.19
304.971	79.19
305.201	95.19
305.431	82.19
305.661	99.19
305.891	95.19
306.121	102.19
306.352	96.19
306.582	106.19
306.812	83.19
307.042	99.19
307.272	102.19
307.502	83.19
307.731	95.19
307.961	88.19
308.191	98.19
308.421	85.19
308.651	92.19
308.881	87.19
309.111	84.19
309.341	80.19
309.571	84.19
309.8	89.19
310.03	96.19
310.26	106.19
310.49	104.19
310.72	95.19
310.949	94.19
311.179	85.19
311.409	95.19
311.639	88.19
311.868	90.19
312.098	94.19
312.328	94.19
312.557	101.19
312.787	95.19
313.017	94.19
313.246	92.19
313.476	86.19
313.706	82.19
313.935	90.19
314.165	97.19
314.394	92.19
314.624	91.19
314.853	101.19
315.083	77.19
315.312	91.19
315.542	95.19
315.771	97.19
316.001	98.19
316.23	82.19
316.46	86.19
316.689	85.19
316.919	78.19
317.148	91.19
317.377	100.19
317.607	94.19
317.836	98.19
318.065	93.19
318.295	99.19
318.524	93.19
318.753	90.19
318.983	84.19
319.212	97.19
319.441	96.19
319.67	97.19
319.9	87.19
320.129	99.19
320.358	98.19
320.587	89.19
320.816	105.19
321.046	94.19
321.275	80.19
321.504	83.19
321.733	93.19
321.962	103.19
322.191	89.19
322.42	103.19
322.649	105.19
322.878	99.19
323.108	96.19
323.337	112.19
323.566	114.19
323.795	132.19
324.024	204.19
324.253	344.19
324.482	712.19
324.71	1464.19
324.939	1871.19
325.168	689.19
325.397	222.19
325.626	126.19
325.855	122.19
326.084	118.19
326.313	120.19
326.542	133.19
326.77	216.19
326.999	427.19
327.228	813.19
327.457	1537.19
327.686	1197.19
327.914	327.19
328.143	201.19
328.372	142.19
328.6	112.19
328.829	101.19
329.058	111.19
329.287	113.19
329.515	97.19
329.744	91.19
329.972	90.19
330.201	108.19
330.43	116.19
330.658	121.19
330.887	122.19
331.115	121.19
331.344	87.19
331.572	87.19
331.801	81.19
332.03	103.19
332.258	96.19
332.486	98.19
332.715	93.19
332.943	106.19
333.172	103.19
333.4	83.19
333.629	105.19
333.857	96.19
334.085	96.19
334.314	93.19
334.542	102.19
334.771	98.19
334.999	93.19
335.227	80.19
335.455	101.19
335.684	90.19
335.912	99.19
336.14	91.19
336.369	99.19
336.597	87.19
336.825	91.19
337.053	88.19
337.281	89.19
337.51	82.19
337.738	82.19
337.966	89.19
338.194	99.19
338.422	106.19
338.65	97.19
338.878	85.19
339.106	95.19
339.334	88.19
339.562	82.19
339.79	93.19
340.018	85.19
340.246	94.19
340.474	91.19
340.702	89.19
340.93	85.19
341.158	86.19
341.386	93.19
341.614	85.19
341.842	76.19
342.07	88.19
342.298	91.19
342.526	93.19
342.754	90.19
342.981	94.19
343.209	86.19
343.437	94.19
343.665	95.19
343.893	94.19
344.12	91.19
344.348	78.19
344.576	80.19
344.804	87.19
345.031	75.19
345.259	81.19
345.487	81.19
345.714	103.19
345.942	92.19
346.17	86.19
346.397	85.19
346.625	90.19
346.853	91.19
347.08	82.19
347.308	85.19
347.535	103.19
347.763	99.19
347.99	98.19
348.218	95.19
348.445	96.19
348.673	96.19
348.9	94.19
349.128	103.19
349.355	76.19
349.583	90.19
349.81	96.19
350.037	87.19
350.265	98.19
350.492	99.19
350.72	101.19
350.947	99.19
351.174	107.19
351.402	109.19
351.629	99.19
351.856	95.19
352.083	101.19
352.311	88.19
352.538	97.19
352.765	99.19
352.992	112.19
353.22	105.19
353.447	110.19
353.674	94.19
353.901	87.19
354.128	110.19
354.355	118.19
354.583	95.19
354.81	85.19
355.037	109.19
355.264	96.19
355.491	94.19
355.718	90.19
355.945	97.19
356.172	96.19
356.399	95.19
356.626	87.19
356.853	99.19
357.08	101.19
357.307	87.19
357.534	96.19
357.761	104.19
357.988	97.19
358.215	106.19
358.441	86.19
358.668	95.19
358.895	84.19
359.122	87.19
359.349	96.19
359.576	83.19
359.802	92.19
360.029	95.19
360.256	87.19
360.483	99.19
360.709	88.19
360.936	84.19
361.163	90.19
361.39	110.19
361.616	97.19
361.843	74.19
362.07	98.19
362.296	91.19
362.523	90.19
362.749	91.19
362.976	94.19
363.203	86.19
363.429	95.19
363.656	75.19
363.882	99.19
364.109	100.19
364.335	85.19
364.562	91.19
364.788	87.19
365.015	101.19
365.241	96.19
365.468	104.19
365.694	99.19
365.92	83.19
366.147	78.19
366.373	87.19
366.599	95.19
366.826	89.19
367.052	98.19
367.278	83.19
367.505	91.19
367.731	96.19
367.957	79.19
368.184	84.19
368.41	109.19
368.636	107.19
368.862	113.19
369.089	93.19
369.315	84.19
369.541	93.19
369.767	89.19
369.993	99.19
370.219	90.19
370.445	91.19
370.672	95.19
370.898	87.19
371.124	94.19
371.35	79.19
371.576	89.19
371.802	96.19
372.028	84.19
372.254	83.19
372.48	76.19
372.706	79.19
372.932	87.19
373.158	84.19
373.384	86.19
373.61	96.19
373.835	85.19
374.061	94.19
374.287	102.19
374.513	75.19
374.739	71.19
374.965	92.19
375.191	85.19
375.416	83.19
375.642	96.19
375.868	91.19
376.094	105.19
376.319	74.19
376.545	83.19
376.771	98.19
376.997	83.19
377.222	84.19
377.448	92.19
377.674	82.19
377.899	88.19
378.125	90.19
378.35	99.19
378.576	95.19
378.802	83.19
379.027	80.19
379.253	88.19
379.478	103.19
379.704	88.19
379.929	99.19
380.155	106.19
380.38	102.19
380.606	90.19
380.831	91.19
381.057	98.19
381.282	95.19
381.507	86.19
381.733	92.19
381.958	98.19
382.184	105.19
382.409	86.19
382.634	99.19
382.86	97.19
383.085	112.19
383.31	86.19
383.535	93.19
383.761	92.19
383.986	102.19
384.211	90.19
384.436	103.19
384.662	100.19
384.887	106.19
385.112	106.19
385.337	90.19
385.562	102.19
385.787	98.19
386.013	94.19
386.238	108.19
386.463	104.19
386.688	118.19
386.913	90.19
387.138	92.19
387.363	109.19
387.588	98.19
387.813	94.19
388.038	92.19
388.263	114.19
388.488	107.19
388.713	98.19
388.938	90.19
389.163	72.19
389.387	99.19
389.612	99.19
389.837	99.19
390.062	86.19
390.287	98.19
390.512	87.19
390.736	91.19
390.961	92.19
391.186	91.19
391.411	80.19
391.636	78.19
391.86	93.19
392.085	82.19
392.31	80.19
392.534	88.19
392.759	73.19
392.984	96.19
393.208	94.19
393.433	95.19
393.658	86.19
393.882	88.19
394.107	89.19
394.331	78.19
394.556	83.19
394.78	85.19
395.005	94.19
395.229	94.19
395.454	82.19
395.678	93.19
395.903	96.19
396.127	87.19
396.352	79.19
396.576	88.19
396.801	73.19
397.025	84.19
397.249	87.19
397.474	91.19
397.698	93.19
397.922	91.19
398.147	109.19
398.371	105.19
398.595	88.19
398.82	88.19
399.044	99.19
399.268	91.19
399.492	71.19
399.717	91.19
399.941	79.19
400.165	86.19
400.389	95.19
400.613	99.19
400.837	77.19
401.062	66.19
401.286	81.19
401.51	80.19
401.734	84.19
401.958	86.19
402.182	115.19
402.406	147.19
402.63	112.19
402.854	82.19
403.078	86.19
403.302	89.19
403.526	78.19
403.75	91.19
403.974	84.19
404.198	78.19
404.422	81.19
404.645	91.19
404.869	97.19
405.093	75.19
405.317	87.19
405.541	92.19
405.765	105.19
405.988	114.19
406.212	145.19
406.436	178.19
406.66	122.19
406.883	96.19
407.107	89.19
407.331	94.19
407.555	91.19
407.778	105.19
408.002	88.19
408.226	83.19
408.449	81.19
408.673	79.19
408.896	87.19
409.12	93.19
409.344	108.19
409.567	92.19
409.791	97.19
410.014	96.19
410.238	75.19
410.461	83.19
410.685	86.19
410.908	107.19
411.132	96.19
411.355	96.19
411.578	107.19
411.802	89.19
412.025	104.19
412.249	102.19
412.472	93.19
412.695	100.19
412.919	101.19
413.142	91.19
413.365	83.19
413.589	89.19
413.812	88.19
414.035	89.19
414.258	75.19
414.482	73.19
414.705	82.19
414.928	80.19
415.151	93.19
415.374	105.19
415.597	88.19
415.821	86.19
416.044	94.19
416.267	105.19
416.49	81.19
416.713	82.19
416.936	87.19
417.159	85.19
417.382	72.19
417.605	103.19
417.828	90.19
418.051	103.19
418.274	85.19
418.497	86.19
418.72	89.19
418.943	85.19
419.166	91.19
419.389	77.19
419.611	88.19
419.834	90.19
420.057	93.19
420.28	80.19
420.503	90.19
420.726	94.19
420.948	83.19
421.171	90.19
421.394	88.19
421.617	96.19
421.839	89.19
422.062	87.19
422.285	85.19
422.507	88.19
422.73	102.19
422.953	94.19
423.175	97.19
423.398	89.19
423.621	81.19
423.843	77.19
424.066	86.19
424.288	83.19
424.511	94.19
424.733	102.19
424.956	96.19
425.178	99.19
425.401	88.19
425.623	105.19
425.846	95.19
426.068	106.19
426.291	95.19
426.513	89.19
426.735	84.19
426.958	96.19
427.18	108.19
427.402	125.19
427.625	134.19
427.847	113.19
428.069	93.19
428.292	96.19
428.514	93.19
428.736	83.19
428.958	73.19
429.181	99.19
429.403	76.19
429.625	83.19
429.847	103.19
430.069	90.19
430.292	85.19
430.514	82.19
430.736	79.19
430.958	83.19
431.18	95.19
431.402	80.19
431.624	93.19
431.846	72.19
432.068	82.19
432.29	90.19
432.512	78.19
432.734	91.19
432.956	91.19
433.178	110.19
433.4	89.19
433.622	91.19
433.844	86.19
434.066	88.19
434.287	73.19
434.509	94.19
434.731	84.19
434.953	81.19
435.175	81.19
435.397	87.19
435.618	98.19
435.84	94.19
436.062	110.19
436.284	102.19
436.505	89.19
436.727	99.19
436.949	92.19
437.17	91.19
437.392	89.19
437.614	81.19
437.835	99.19
438.057	96.19
438.278	113.19
438.5	100.19
438.721	106.19
438.943	81.19
439.165	95.19
439.386	80.19
439.608	105.19
439.829	105.19
440.05	111.19
440.272	125.19
440.493	90.19
440.715	95.19
440.936	86.19
441.158	98.19
441.379	89.19
441.6	90.19
441.822	92.19
442.043	94.19
442.264	100.19
442.486	93.19
442.707	94.19
442.928	92.19
443.149	115.19
443.371	112.19
443.592	91.19
443.813	77.19
444.034	95.19
444.255	99.19
444.476	97.19
444.698	80.19
444.919	95.19
445.14	142.19
445.361	104.19
445.582	99.19
445.803	108.19
446.024	130.19
446.245	136.19
446.466	96.19
446.687	97.19
446.908	94.19
447.129	97.19
447.35	89.19
447.571	81.19
447.792	87.19
448.013	94.19
448.234	105.19
448.455	94.19
448.675	103.19
448.896	106.19
449.117	94.19
449.338	107.19
449.559	127.19
449.779	111.19
450	94.19
450.221	89.19
450.442	89.19
450.662	111.19
450.883	92.19
451.104	98.19
451.324	83.19
451.545	96.19
451.766	76.19
451.986	83.19
452.207	84.19
452.428	81.19
452.648	85.19
452.869	96.19
453.089	113.19
453.31	111.19
453.53	90.19
453.751	89.19
453.971	99.19
454.192	111.19
454.412	94.19
454.633	93.19
454.853	92.19
455.073	87.19
455.294	90.19
455.514	86.19
455.734	86.19
455.955	93.19
456.175	78.19
456.395	71.19
456.616	87.19
456.836	85.19
457.056	89.19
457.276	80.19
457.497	81.19
457.717	63.19
457.937	90.19
458.157	83.19
458.377	79.19
458.598	83.19
458.818	117.19
459.038	130.19
459.258	115.19
459.478	84.19
459.698	74.19
459.918	86.19
460.138	79.19
460.358	76.19
460.578	75.19
460.798	93.19
461.018	84.19
461.238	92.19
461.458	86.19
461.678	84.19
461.898	83.19
462.118	93.19
462.338	97.19
462.558	83.19
462.777	86.19
462.997	97.19
463.217	80.19
463.437	88.19
463.657	84.19
463.876	89.19
464.096	83.19
464.316	88.19
464.536	85.19
464.755	78.19
464.975	99.19
465.195	147.19
465.414	138.19
465.634	93.19
465.854	81.19
466.073	99.19
466.293	97.19
466.512	89.19
466.732	77.19
466.951	91.19
467.171	95.19
467.391	93.19
467.61	106.19
467.829	95.19
468.049	104.19
468.268	79.19
468.488	88.19
468.707	86.19
468.927	83.19
469.146	102.19
469.365	98.19
469.585	75.19
469.804	96.19
470.023	89.19
470.243	88.19
470.462	106.19
470.681	105.19
470.901	89.19
471.12	72.19
471.339	89.19
471.558	81.19
471.777	86.19
471.997	87.19
472.216	92.19
472.435	87.19
472.654	78.19
472.873	95.19
473.092	92.19
473.311	89.19
473.53	94.19
473.749	93.19
473.968	94.19
474.187	99.19
474.406	76.19
474.625	89.19
474.844	88.19
475.063	76.19
475.282	91.19
475.501	89.19
475.72	107.19
475.939	92.19
476.158	86.19
476.377	86.19
476.596	90.19
476.814	94.19
477.033	86.19
477.252	94.19
477.471	86.19
477.69	97.19
477.908	89.19
478.127	92.19
478.346	82.19
478.564	92.19
478.783	85.19
479.002	97.19
479.22	90.19
479.439	105.19
479.658	101.19
479.876	102.19
480.095	94.19
480.313	88.19
480.532	93.19
480.751	97.19
480.969	79.19
481.188	118.19
481.406	101.19
481.624	78.19
481.843	86.19
482.061	98.19
482.28	81.19
482.498	81.19
482.717	83.19
482.935	80.19
483.153	85.19
483.372	81.19
483.59	94.19
483.808	95.19
484.027	96.19
484.245	97.19
484.463	83.19
484.681	104.19
484.9	93.19
485.118	111.19
485.336	94.19
485.554	90.19
485.772	78.19
485.99	102.19
486.209	102.19
486.427	100.19
486.645	110.19
486.863	102.19
487.081	107.19
487.299	95.19
487.517	91.19
487.735	85.19
487.953	83.19
488.171	94.19
488.389	92.19
488.607	101.19
488.825	98.19
489.043	88.19
489.261	88.19
489.479	88.19
489.696	83.19
489.914	84.19
490.132	94.19
490.35	91.19
490.568	87.19
490.786	86.19
491.003	90.19
491.221	76.19
491.439	92.19
491.657	68.19
491.874	96.19
492.092	106.19
492.31	97.19
492.527	89.19
492.745	74.19
492.963	82.19
493.18	103.19
493.398	94.19
493.615	81.19
493.833	97.19
494.05	87.19
494.268	81.19
494.485	78.19
494.703	106.19
494.92	86.19
495.138	99.19
495.355	90.19
495.573	93.19
495.79	95.19
496.008	87.19
496.225	80.19
496.442	92.19
496.66	87.19
496.877	98.19
497.094	93.19
497.312	96.19
497.529	102.19
497.746	103.19
497.963	88.19
498.181	89.19
498.398	85.19
498.615	86.19
498.832	108.19
499.049	86.19
499.267	95.19
499.484	82.19
499.701	95.19
499.918	94.19
500.135	73.19
500.352	82.19
500.569	80.19
500.786	91.19
501.003	89.19
501.22	94.19
501.437	99.19
501.654	102.19
501.871	113.19
502.088	109.19
502.305	89.19
502.522	84.19
502.739	83.19
502.956	90.19
503.172	95.19
503.389	111.19
503.606	121.19
503.823	103.19
504.04	93.19
504.256	95.19
504.473	85.19
504.69	89.19
504.907	100.19
505.123	110.19
505.34	101.19
505.557	100.19
505.773	98.19
505.99	94.19
506.207	92.19
506.423	96.19
506.64	87.19
506.856	81.19
507.073	88.19
507.289	91.19
507.506	90.19
507.722	87.19
507.939	109.19
508.155	84.19
508.372	94.19
508.588	90.19
508.805	79.19
509.021	99.19
509.238	88.19
509.454	94.19
509.67	93.19
509.887	105.19
510.103	134.19
510.319	197.19
510.536	616.19
510.752	1852.19
510.968	522.19
511.184	145.19
511.401	118.19
511.617	97.19
511.833	93.19
512.049	77.19
512.265	109.19
512.481	90.19
512.698	101.19
512.914	85.19
513.13	84.19
513.346	94.19
513.562	104.19
513.778	97.19
513.994	93.19
514.21	102.19
514.426	107.19
514.642	130.19
514.858	96.19
515.074	149.19
515.29	360.19
515.506	1090.19
515.721	434.19
515.937	130.19
516.153	99.19
516.369	91.19
516.585	102.19
516.801	86.19
