Data from Uncirc_1998_H10_HRD10591_00037.txt Node
Date: Wed Jan 03 11:25:32 EST 2024
User: Yrep
Spectrometer: HR+D1059
Trigger mode: 1
Integration Time (sec): 1.000000E-1
Scans to average: 1
Electric dark correction enabled: true
Nonlinearity correction enabled: false
Boxcar width: 0
XAxis mode: Wavelengths
Number of Pixels in Spectrum: 2048
>>>>>Begin Spectral Data<<<<<
223.165	-31.06
223.4	-31.06
223.635	-31.06
223.869	-19.06
224.104	-18.06
224.338	-6.06
224.573	-6.06
224.808	-3.06
225.042	0.94
225.277	-1.06
225.511	2.94
225.746	-8.06
225.98	1.94
226.215	4.94
226.449	11.94
226.683	27.94
226.918	24.94
227.152	16.94
227.387	21.94
227.621	29.94
227.856	47.94
228.09	47.94
228.324	36.94
228.559	47.94
228.793	55.94
229.027	58.94
229.262	63.94
229.496	68.94
229.73	72.94
229.964	80.94
230.199	66.94
230.433	68.94
230.667	72.94
230.901	85.94
231.136	76.94
231.37	86.94
231.604	75.94
231.838	80.94
232.072	79.94
232.306	86.94
232.541	79.94
232.775	86.94
233.009	83.94
233.243	83.94
233.477	80.94
233.711	87.94
233.945	77.94
234.179	75.94
234.413	70.94
234.647	62.94
234.881	79.94
235.115	74.94
235.349	66.94
235.583	76.94
235.817	87.94
236.051	79.94
236.285	62.94
236.519	84.94
236.753	74.94
236.987	78.94
237.221	74.94
237.455	84.94
237.689	77.94
237.922	83.94
238.156	78.94
238.39	82.94
238.624	90.94
238.858	75.94
239.091	75.94
239.325	74.94
239.559	65.94
239.793	66.94
240.027	80.94
240.26	70.94
240.494	85.94
240.728	55.94
240.961	76.94
241.195	78.94
241.429	79.94
241.662	68.94
241.896	72.94
242.13	78.94
242.363	70.94
242.597	71.94
242.83	77.94
243.064	74.94
243.298	58.94
243.531	73.94
243.765	68.94
243.998	72.94
244.232	63.94
244.465	74.94
244.699	85.94
244.932	76.94
245.166	78.94
245.399	86.94
245.633	70.94
245.866	76.94
246.099	76.94
246.333	71.94
246.566	55.94
246.8	63.94
247.033	80.94
247.266	67.94
247.5	63.94
247.733	82.94
247.966	79.94
248.2	74.94
248.433	74.94
248.666	79.94
248.899	67.94
249.133	89.94
249.366	95.94
249.599	98.94
249.832	80.94
250.066	89.94
250.299	80.94
250.532	69.94
250.765	75.94
250.998	72.94
251.231	76.94
251.465	73.94
251.698	80.94
251.931	87.94
252.164	78.94
252.397	66.94
252.63	73.94
252.863	82.94
253.096	78.94
253.329	66.94
253.562	78.94
253.795	63.94
254.028	76.94
254.261	86.94
254.494	77.94
254.727	69.94
254.96	67.94
255.193	70.94
255.426	73.94
255.659	91.94
255.892	84.94
256.124	81.94
256.357	68.94
256.59	80.94
256.823	76.94
257.056	80.94
257.289	77.94
257.521	90.94
257.754	64.94
257.987	77.94
258.22	78.94
258.452	77.94
258.685	86.94
258.918	82.94
259.151	74.94
259.383	62.94
259.616	74.94
259.849	82.94
260.081	80.94
260.314	70.94
260.547	75.94
260.779	92.94
261.012	86.94
261.244	77.94
261.477	70.94
261.71	75.94
261.942	87.94
262.175	106.94
262.407	88.94
262.64	82.94
262.872	87.94
263.105	93.94
263.337	70.94
263.57	67.94
263.802	74.94
264.035	75.94
264.267	82.94
264.499	60.94
264.732	67.94
264.964	81.94
265.197	87.94
265.429	75.94
265.661	75.94
265.894	76.94
266.126	84.94
266.358	83.94
266.591	88.94
266.823	87.94
267.055	76.94
267.287	75.94
267.52	90.94
267.752	94.94
267.984	72.94
268.216	64.94
268.448	78.94
268.681	90.94
268.913	89.94
269.145	83.94
269.377	77.94
269.609	67.94
269.841	66.94
270.073	79.94
270.306	80.94
270.538	89.94
270.77	66.94
271.002	76.94
271.234	79.94
271.466	83.94
271.698	93.94
271.93	73.94
272.162	86.94
272.394	86.94
272.626	78.94
272.858	82.94
273.09	91.94
273.322	79.94
273.553	78.94
273.785	71.94
274.017	75.94
274.249	68.94
274.481	79.94
274.713	82.94
274.945	83.94
275.176	87.94
275.408	72.94
275.64	77.94
275.872	96.94
276.104	83.94
276.335	88.94
276.567	86.94
276.799	95.94
277.031	84.94
277.262	91.94
277.494	72.94
277.726	84.94
277.957	85.94
278.189	84.94
278.421	77.94
278.652	90.94
278.884	80.94
279.115	79.94
279.347	80.94
279.579	76.94
279.81	83.94
280.042	78.94
280.273	92.94
280.505	93.94
280.736	78.94
280.968	73.94
281.199	88.94
281.431	88.94
281.662	90.94
281.894	84.94
282.125	83.94
282.356	103.94
282.588	116.94
282.819	102.94
283.051	91.94
283.282	82.94
283.513	88.94
283.745	74.94
283.976	75.94
284.207	87.94
284.439	86.94
284.67	83.94
284.901	86.94
285.132	92.94
285.364	86.94
285.595	72.94
285.826	75.94
286.057	82.94
286.288	78.94
286.52	84.94
286.751	88.94
286.982	80.94
287.213	91.94
287.444	86.94
287.675	83.94
287.906	78.94
288.138	92.94
288.369	88.94
288.6	86.94
288.831	67.94
289.062	76.94
289.293	87.94
289.524	92.94
289.755	82.94
289.986	76.94
290.217	90.94
290.448	83.94
290.679	90.94
290.91	78.94
291.141	93.94
291.371	79.94
291.602	89.94
291.833	84.94
292.064	90.94
292.295	61.94
292.526	69.94
292.757	79.94
292.987	92.94
293.218	86.94
293.449	85.94
293.68	85.94
293.91	84.94
294.141	87.94
294.372	63.94
294.603	93.94
294.833	88.94
295.064	82.94
295.295	91.94
295.525	84.94
295.756	106.94
295.987	93.94
296.217	126.94
296.448	117.94
296.679	95.94
296.909	97.94
297.14	81.94
297.37	68.94
297.601	80.94
297.831	67.94
298.062	78.94
298.292	83.94
298.523	82.94
298.753	89.94
298.984	100.94
299.214	100.94
299.445	94.94
299.675	98.94
299.905	93.94
300.136	95.94
300.366	89.94
300.597	82.94
300.827	92.94
301.057	91.94
301.288	95.94
301.518	83.94
301.748	88.94
301.979	87.94
302.209	79.94
302.439	83.94
302.669	84.94
302.9	87.94
303.13	88.94
303.36	83.94
303.59	94.94
303.82	91.94
304.051	93.94
304.281	98.94
304.511	86.94
304.741	89.94
304.971	87.94
305.201	86.94
305.431	94.94
305.661	80.94
305.891	92.94
306.121	85.94
306.352	93.94
306.582	98.94
306.812	95.94
307.042	89.94
307.272	87.94
307.502	79.94
307.731	87.94
307.961	90.94
308.191	83.94
308.421	88.94
308.651	80.94
308.881	88.94
309.111	96.94
309.341	93.94
309.571	88.94
309.8	85.94
310.03	83.94
310.26	87.94
310.49	78.94
310.72	95.94
310.949	84.94
311.179	85.94
311.409	101.94
311.639	90.94
311.868	92.94
312.098	100.94
312.328	86.94
312.557	100.94
312.787	107.94
313.017	85.94
313.246	84.94
313.476	78.94
313.706	93.94
313.935	91.94
314.165	74.94
314.394	97.94
314.624	94.94
314.853	99.94
315.083	80.94
315.312	83.94
315.542	82.94
315.771	88.94
316.001	85.94
316.23	81.94
316.46	88.94
316.689	90.94
316.919	90.94
317.148	86.94
317.377	94.94
317.607	91.94
317.836	77.94
318.065	79.94
318.295	91.94
318.524	86.94
318.753	101.94
318.983	78.94
319.212	83.94
319.441	92.94
319.67	91.94
319.9	91.94
320.129	82.94
320.358	87.94
320.587	80.94
320.816	99.94
321.046	102.94
321.275	89.94
321.504	87.94
321.733	88.94
321.962	101.94
322.191	94.94
322.42	107.94
322.649	94.94
322.878	110.94
323.108	123.94
323.337	118.94
323.566	128.94
323.795	124.94
324.024	170.94
324.253	368.94
324.482	719.94
324.71	1491.94
324.939	1908.94
325.168	721.94
325.397	233.94
325.626	121.94
325.855	123.94
326.084	113.94
326.313	111.94
326.542	137.94
326.77	207.94
326.999	402.94
327.228	827.94
327.457	1500.94
327.686	1155.94
327.914	337.94
328.143	181.94
328.372	130.94
328.6	107.94
328.829	100.94
329.058	107.94
329.287	114.94
329.515	94.94
329.744	88.94
329.972	85.94
330.201	99.94
330.43	87.94
330.658	103.94
330.887	132.94
331.115	98.94
331.344	90.94
331.572	99.94
331.801	91.94
332.03	92.94
332.258	89.94
332.486	87.94
332.715	87.94
332.943	94.94
333.172	82.94
333.4	103.94
333.629	95.94
333.857	92.94
334.085	107.94
334.314	82.94
334.542	87.94
334.771	88.94
334.999	89.94
335.227	87.94
335.455	89.94
335.684	79.94
335.912	79.94
336.14	91.94
336.369	100.94
336.597	83.94
336.825	86.94
337.053	90.94
337.281	67.94
337.51	85.94
337.738	88.94
337.966	92.94
338.194	101.94
338.422	87.94
338.65	72.94
338.878	98.94
339.106	95.94
339.334	101.94
339.562	77.94
339.79	101.94
340.018	87.94
340.246	89.94
340.474	88.94
340.702	89.94
340.93	83.94
341.158	92.94
341.386	97.94
341.614	66.94
341.842	82.94
342.07	87.94
342.298	96.94
342.526	93.94
342.754	82.94
342.981	75.94
343.209	76.94
343.437	99.94
343.665	103.94
343.893	89.94
344.12	83.94
344.348	93.94
344.576	79.94
344.804	93.94
345.031	82.94
345.259	95.94
345.487	96.94
345.714	96.94
345.942	82.94
346.17	78.94
346.397	90.94
346.625	93.94
346.853	66.94
347.08	83.94
347.308	91.94
347.535	85.94
347.763	97.94
347.99	87.94
348.218	94.94
348.445	112.94
348.673	76.94
348.9	104.94
349.128	81.94
349.355	78.94
349.583	87.94
349.81	86.94
350.037	89.94
350.265	85.94
350.492	87.94
350.72	91.94
350.947	88.94
351.174	101.94
351.402	103.94
351.629	97.94
351.856	116.94
352.083	88.94
352.311	93.94
352.538	104.94
352.765	110.94
352.992	112.94
353.22	106.94
353.447	107.94
353.674	99.94
353.901	111.94
354.128	92.94
354.355	112.94
354.583	95.94
354.81	101.94
355.037	92.94
355.264	82.94
355.491	88.94
355.718	83.94
355.945	71.94
356.172	96.94
356.399	83.94
356.626	82.94
356.853	99.94
357.08	79.94
357.307	97.94
357.534	82.94
357.761	79.94
357.988	82.94
358.215	93.94
358.441	76.94
358.668	88.94
358.895	85.94
359.122	87.94
359.349	79.94
359.576	89.94
359.802	94.94
360.029	96.94
360.256	97.94
360.483	94.94
360.709	65.94
360.936	77.94
361.163	92.94
361.39	102.94
361.616	91.94
361.843	74.94
362.07	92.94
362.296	82.94
362.523	96.94
362.749	96.94
362.976	99.94
363.203	92.94
363.429	69.94
363.656	89.94
363.882	88.94
364.109	92.94
364.335	82.94
364.562	83.94
364.788	80.94
365.015	92.94
365.241	97.94
365.468	95.94
365.694	100.94
365.92	84.94
366.147	77.94
366.373	73.94
366.599	88.94
366.826	94.94
367.052	93.94
367.278	91.94
367.505	88.94
367.731	82.94
367.957	90.94
368.184	99.94
368.41	94.94
368.636	99.94
368.862	96.94
369.089	99.94
369.315	92.94
369.541	88.94
369.767	103.94
369.993	87.94
370.219	78.94
370.445	93.94
370.672	86.94
370.898	85.94
371.124	95.94
371.35	76.94
371.576	80.94
371.802	76.94
372.028	79.94
372.254	77.94
372.48	78.94
372.706	69.94
372.932	83.94
373.158	101.94
373.384	84.94
373.61	95.94
373.835	78.94
374.061	92.94
374.287	89.94
374.513	78.94
374.739	86.94
374.965	81.94
375.191	84.94
375.416	91.94
375.642	72.94
375.868	94.94
376.094	83.94
376.319	84.94
376.545	71.94
376.771	89.94
376.997	79.94
377.222	91.94
377.448	86.94
377.674	88.94
377.899	84.94
378.125	90.94
378.35	79.94
378.576	87.94
378.802	81.94
379.027	91.94
379.253	87.94
379.478	93.94
379.704	89.94
379.929	88.94
380.155	94.94
380.38	84.94
380.606	88.94
380.831	90.94
381.057	94.94
381.282	96.94
381.507	94.94
381.733	85.94
381.958	100.94
382.184	88.94
382.409	82.94
382.634	106.94
382.86	100.94
383.085	93.94
383.31	92.94
383.535	94.94
383.761	97.94
383.986	87.94
384.211	102.94
384.436	82.94
384.662	95.94
384.887	98.94
385.112	97.94
385.337	92.94
385.562	86.94
385.787	90.94
386.013	84.94
386.238	92.94
386.463	92.94
386.688	95.94
386.913	94.94
387.138	96.94
387.363	91.94
387.588	96.94
387.813	89.94
388.038	84.94
388.263	91.94
388.488	104.94
388.713	92.94
388.938	101.94
389.163	96.94
389.387	96.94
389.612	83.94
389.837	80.94
390.062	95.94
390.287	78.94
390.512	83.94
390.736	78.94
390.961	84.94
391.186	96.94
391.411	91.94
391.636	92.94
391.86	71.94
392.085	87.94
392.31	93.94
392.534	77.94
392.759	87.94
392.984	91.94
393.208	87.94
393.433	86.94
393.658	103.94
393.882	84.94
394.107	88.94
394.331	84.94
394.556	99.94
394.78	85.94
395.005	70.94
395.229	83.94
395.454	78.94
395.678	81.94
395.903	82.94
396.127	74.94
396.352	83.94
396.576	92.94
396.801	84.94
397.025	83.94
397.249	88.94
397.474	94.94
397.698	85.94
397.922	91.94
398.147	82.94
398.371	88.94
398.595	82.94
398.82	84.94
399.044	78.94
399.268	66.94
399.492	95.94
399.717	99.94
399.941	101.94
400.165	93.94
400.389	85.94
400.613	79.94
400.837	89.94
401.062	85.94
401.286	78.94
401.51	61.94
401.734	84.94
401.958	106.94
402.182	106.94
402.406	142.94
402.63	107.94
402.854	66.94
403.078	84.94
403.302	86.94
403.526	95.94
403.75	84.94
403.974	89.94
404.198	89.94
404.422	85.94
404.645	98.94
404.869	81.94
405.093	82.94
405.317	95.94
405.541	99.94
405.765	95.94
405.988	100.94
406.212	157.94
406.436	191.94
406.66	118.94
406.883	90.94
407.107	64.94
407.331	100.94
407.555	100.94
407.778	94.94
408.002	91.94
408.226	92.94
408.449	81.94
408.673	90.94
408.896	77.94
409.12	69.94
409.344	85.94
409.567	87.94
409.791	88.94
410.014	94.94
410.238	92.94
410.461	87.94
410.685	96.94
410.908	102.94
411.132	114.94
411.355	103.94
411.578	83.94
411.802	83.94
412.025	90.94
412.249	93.94
412.472	79.94
412.695	76.94
412.919	88.94
413.142	89.94
413.365	82.94
413.589	70.94
413.812	86.94
414.035	86.94
414.258	79.94
414.482	96.94
414.705	87.94
414.928	90.94
415.151	87.94
415.374	78.94
415.597	93.94
415.821	100.94
416.044	87.94
416.267	82.94
416.49	74.94
416.713	88.94
416.936	90.94
417.159	83.94
417.382	86.94
417.605	87.94
417.828	95.94
418.051	75.94
418.274	91.94
418.497	63.94
418.72	77.94
418.943	100.94
419.166	91.94
419.389	96.94
419.611	87.94
419.834	92.94
420.057	77.94
420.28	90.94
420.503	90.94
420.726	88.94
420.948	83.94
421.171	79.94
421.394	92.94
421.617	78.94
421.839	95.94
422.062	87.94
422.285	100.94
422.507	82.94
422.73	86.94
422.953	71.94
423.175	90.94
423.398	80.94
423.621	89.94
423.843	78.94
424.066	83.94
424.288	91.94
424.511	96.94
424.733	85.94
424.956	93.94
425.178	110.94
425.401	100.94
425.623	94.94
425.846	88.94
426.068	91.94
426.291	101.94
426.513	92.94
426.735	91.94
426.958	92.94
427.18	101.94
427.402	114.94
427.625	133.94
427.847	127.94
428.069	96.94
428.292	94.94
428.514	84.94
428.736	71.94
428.958	82.94
429.181	87.94
429.403	96.94
429.625	80.94
429.847	88.94
430.069	88.94
430.292	77.94
430.514	83.94
430.736	72.94
430.958	75.94
431.18	84.94
431.402	73.94
431.624	70.94
431.846	74.94
432.068	85.94
432.29	82.94
432.512	92.94
432.734	87.94
432.956	85.94
433.178	99.94
433.4	99.94
433.622	77.94
433.844	83.94
434.066	95.94
434.287	82.94
434.509	92.94
434.731	87.94
434.953	94.94
435.175	83.94
435.397	92.94
435.618	75.94
435.84	95.94
436.062	113.94
436.284	105.94
436.505	97.94
436.727	83.94
436.949	85.94
437.17	93.94
437.392	104.94
437.614	85.94
437.835	107.94
438.057	104.94
438.278	112.94
438.5	85.94
438.721	116.94
438.943	95.94
439.165	93.94
439.386	76.94
439.608	79.94
439.829	75.94
440.05	109.94
440.272	114.94
440.493	87.94
440.715	74.94
440.936	72.94
441.158	87.94
441.379	96.94
441.6	90.94
441.822	74.94
442.043	81.94
442.264	93.94
442.486	78.94
442.707	83.94
442.928	91.94
443.149	116.94
443.371	120.94
443.592	82.94
443.813	101.94
444.034	91.94
444.255	93.94
444.476	81.94
444.698	92.94
444.919	82.94
445.14	127.94
445.361	109.94
445.582	108.94
445.803	123.94
446.024	104.94
446.245	105.94
446.466	95.94
446.687	87.94
446.908	90.94
447.129	94.94
447.35	93.94
447.571	91.94
447.792	82.94
448.013	79.94
448.234	94.94
448.455	97.94
448.675	103.94
448.896	124.94
449.117	96.94
449.338	106.94
449.559	120.94
449.779	126.94
450	89.94
450.221	89.94
450.442	86.94
450.662	91.94
450.883	95.94
451.104	109.94
451.324	88.94
451.545	96.94
451.766	83.94
451.986	90.94
452.207	73.94
452.428	104.94
452.648	86.94
452.869	95.94
453.089	109.94
453.31	106.94
453.53	101.94
453.751	75.94
453.971	98.94
454.192	106.94
454.412	72.94
454.633	82.94
454.853	87.94
455.073	88.94
455.294	89.94
455.514	89.94
455.734	87.94
455.955	88.94
456.175	83.94
456.395	92.94
456.616	74.94
456.836	90.94
457.056	83.94
457.276	85.94
457.497	82.94
457.717	95.94
457.937	84.94
458.157	92.94
458.377	84.94
458.598	107.94
458.818	136.94
459.038	136.94
459.258	104.94
459.478	82.94
459.698	77.94
459.918	89.94
460.138	93.94
460.358	86.94
460.578	92.94
460.798	86.94
461.018	79.94
461.238	82.94
461.458	94.94
461.678	82.94
461.898	98.94
462.118	76.94
462.338	94.94
462.558	90.94
462.777	82.94
462.997	79.94
463.217	84.94
463.437	92.94
463.657	83.94
463.876	91.94
464.096	89.94
464.316	86.94
464.536	94.94
464.755	97.94
464.975	108.94
465.195	149.94
465.414	128.94
465.634	94.94
465.854	88.94
466.073	92.94
466.293	91.94
466.512	78.94
466.732	90.94
466.951	68.94
467.171	77.94
467.391	81.94
467.61	102.94
467.829	90.94
468.049	81.94
468.268	84.94
468.488	85.94
468.707	82.94
468.927	83.94
469.146	77.94
469.365	77.94
469.585	93.94
469.804	110.94
470.023	99.94
470.243	79.94
470.462	79.94
470.681	104.94
470.901	92.94
471.12	89.94
471.339	86.94
471.558	77.94
471.777	86.94
471.997	84.94
472.216	104.94
472.435	81.94
472.654	84.94
472.873	84.94
473.092	90.94
473.311	82.94
473.53	78.94
473.749	99.94
473.968	92.94
474.187	97.94
474.406	82.94
474.625	74.94
474.844	75.94
475.063	83.94
475.282	83.94
475.501	104.94
475.72	68.94
475.939	87.94
476.158	82.94
476.377	88.94
476.596	101.94
476.814	75.94
477.033	91.94
477.252	80.94
477.471	83.94
477.69	89.94
477.908	75.94
478.127	85.94
478.346	84.94
478.564	76.94
478.783	87.94
479.002	77.94
479.22	89.94
479.439	110.94
479.658	109.94
479.876	89.94
480.095	82.94
480.313	96.94
480.532	83.94
480.751	94.94
480.969	85.94
481.188	117.94
481.406	82.94
481.624	80.94
481.843	90.94
482.061	58.94
482.28	97.94
482.498	76.94
482.717	86.94
482.935	90.94
483.153	101.94
483.372	84.94
483.59	90.94
483.808	79.94
484.027	96.94
484.245	93.94
484.463	90.94
484.681	87.94
484.9	89.94
485.118	94.94
485.336	107.94
485.554	78.94
485.772	83.94
485.99	93.94
486.209	99.94
486.427	95.94
486.645	87.94
486.863	110.94
487.081	88.94
487.299	89.94
487.517	93.94
487.735	82.94
487.953	89.94
488.171	83.94
488.389	103.94
488.607	89.94
488.825	83.94
489.043	81.94
489.261	93.94
489.479	75.94
489.696	85.94
489.914	91.94
490.132	91.94
490.35	76.94
490.568	87.94
490.786	85.94
491.003	88.94
491.221	93.94
491.439	93.94
491.657	101.94
491.874	81.94
492.092	92.94
492.31	93.94
492.527	96.94
492.745	81.94
492.963	100.94
493.18	95.94
493.398	100.94
493.615	101.94
493.833	79.94
494.05	91.94
494.268	90.94
494.485	86.94
494.703	82.94
494.92	90.94
495.138	107.94
495.355	85.94
495.573	92.94
495.79	100.94
496.008	85.94
496.225	72.94
496.442	82.94
496.66	77.94
496.877	84.94
497.094	101.94
497.312	82.94
497.529	85.94
497.746	77.94
497.963	75.94
498.181	86.94
498.398	101.94
498.615	94.94
498.832	99.94
499.049	86.94
499.267	94.94
499.484	76.94
499.701	84.94
499.918	89.94
500.135	88.94
500.352	80.94
500.569	97.94
500.786	94.94
501.003	86.94
501.22	77.94
501.437	100.94
501.654	72.94
501.871	95.94
502.088	100.94
502.305	92.94
502.522	89.94
502.739	74.94
502.956	88.94
503.172	89.94
503.389	91.94
503.606	93.94
503.823	75.94
504.04	98.94
504.256	78.94
504.473	79.94
504.69	97.94
504.907	92.94
505.123	80.94
505.34	90.94
505.557	83.94
505.773	76.94
505.99	90.94
506.207	91.94
506.423	86.94
506.64	84.94
506.856	83.94
507.073	69.94
507.289	95.94
507.506	89.94
507.722	93.94
507.939	95.94
508.155	102.94
508.372	92.94
508.588	86.94
508.805	92.94
509.021	88.94
509.238	101.94
509.454	108.94
509.67	107.94
509.887	109.94
510.103	123.94
510.319	185.94
510.536	703.94
510.752	2004.94
510.968	572.94
511.184	144.94
511.401	113.94
511.617	100.94
511.833	85.94
512.049	87.94
512.265	95.94
512.481	90.94
512.698	92.94
512.914	95.94
513.13	98.94
513.346	89.94
513.562	94.94
513.778	83.94
513.994	85.94
514.21	93.94
514.426	88.94
514.642	116.94
514.858	112.94
515.074	147.94
515.29	386.94
515.506	1240.94
515.721	470.94
515.937	134.94
516.153	101.94
516.369	86.94
516.585	105.94
516.801	76.94
517.016	95.94
517.232	91.94
517.448	97.94
