Data from Uncirc_1998_H10_HRD10591_00045.txt Node
Date: Wed Jan 03 11:25:33 EST 2024
User: Yrep
Spectrometer: HR+D1059
Trigger mode: 1
Integration Time (sec): 1.000000E-1
Scans to average: 1
Electric dark correction enabled: true
Nonlinearity correction enabled: false
Boxcar width: 0
XAxis mode: Wavelengths
Number of Pixels in Spectrum: 2048
>>>>>Begin Spectral Data<<<<<
223.165	-5.38
223.4	-5.38
223.635	-5.38
223.869	-17.38
224.104	-16.38
224.338	-12.38
224.573	-20.38
224.808	-14.38
225.042	-10.38
225.277	-8.38
225.511	-9.38
225.746	3.62
225.98	3.62
226.215	16.62
226.449	17.62
226.683	21.62
226.918	20.62
227.152	30.62
227.387	33.62
227.621	42.62
227.856	54.62
228.09	44.62
228.324	53.62
228.559	63.62
228.793	47.62
229.027	70.62
229.262	69.62
229.496	57.62
229.73	73.62
229.964	83.62
230.199	75.62
230.433	92.62
230.667	88.62
230.901	75.62
231.136	77.62
231.37	93.62
231.604	72.62
231.838	77.62
232.072	66.62
232.306	80.62
232.541	75.62
232.775	66.62
233.009	83.62
233.243	85.62
233.477	62.62
233.711	86.62
233.945	83.62
234.179	73.62
234.413	75.62
234.647	72.62
234.881	90.62
235.115	87.62
235.349	85.62
235.583	70.62
235.817	86.62
236.051	86.62
236.285	79.62
236.519	87.62
236.753	81.62
236.987	88.62
237.221	80.62
237.455	79.62
237.689	78.62
237.922	66.62
238.156	88.62
238.39	69.62
238.624	63.62
238.858	78.62
239.091	68.62
239.325	75.62
239.559	72.62
239.793	79.62
240.027	81.62
240.26	73.62
240.494	69.62
240.728	87.62
240.961	82.62
241.195	79.62
241.429	74.62
241.662	77.62
241.896	85.62
242.13	81.62
242.363	75.62
242.597	85.62
242.83	85.62
243.064	70.62
243.298	72.62
243.531	75.62
243.765	78.62
243.998	76.62
244.232	76.62
244.465	88.62
244.699	77.62
244.932	78.62
245.166	75.62
245.399	62.62
245.633	82.62
245.866	65.62
246.099	86.62
246.333	75.62
246.566	82.62
246.8	84.62
247.033	85.62
247.266	74.62
247.5	88.62
247.733	70.62
247.966	71.62
248.2	80.62
248.433	93.62
248.666	66.62
248.899	94.62
249.133	89.62
249.366	103.62
249.599	98.62
249.832	86.62
250.066	62.62
250.299	75.62
250.532	73.62
250.765	72.62
250.998	76.62
251.231	89.62
251.465	77.62
251.698	68.62
251.931	81.62
252.164	83.62
252.397	72.62
252.63	83.62
252.863	88.62
253.096	81.62
253.329	94.62
253.562	89.62
253.795	87.62
254.028	85.62
254.261	82.62
254.494	64.62
254.727	78.62
254.96	82.62
255.193	76.62
255.426	82.62
255.659	87.62
255.892	78.62
256.124	89.62
256.357	84.62
256.59	77.62
256.823	80.62
257.056	79.62
257.289	71.62
257.521	71.62
257.754	74.62
257.987	84.62
258.22	81.62
258.452	91.62
258.685	64.62
258.918	82.62
259.151	75.62
259.383	81.62
259.616	98.62
259.849	86.62
260.081	79.62
260.314	77.62
260.547	93.62
260.779	80.62
261.012	90.62
261.244	87.62
261.477	85.62
261.71	92.62
261.942	103.62
262.175	111.62
262.407	81.62
262.64	77.62
262.872	77.62
263.105	76.62
263.337	78.62
263.57	81.62
263.802	74.62
264.035	77.62
264.267	70.62
264.499	87.62
264.732	83.62
264.964	78.62
265.197	84.62
265.429	85.62
265.661	77.62
265.894	71.62
266.126	83.62
266.358	87.62
266.591	89.62
266.823	102.62
267.055	81.62
267.287	81.62
267.52	80.62
267.752	69.62
267.984	85.62
268.216	81.62
268.448	85.62
268.681	76.62
268.913	88.62
269.145	74.62
269.377	89.62
269.609	83.62
269.841	86.62
270.073	85.62
270.306	83.62
270.538	94.62
270.77	76.62
271.002	77.62
271.234	81.62
271.466	84.62
271.698	85.62
271.93	87.62
272.162	93.62
272.394	93.62
272.626	69.62
272.858	91.62
273.09	87.62
273.322	90.62
273.553	79.62
273.785	95.62
274.017	102.62
274.249	85.62
274.481	71.62
274.713	92.62
274.945	82.62
275.176	90.62
275.408	95.62
275.64	76.62
275.872	99.62
276.104	98.62
276.335	88.62
276.567	91.62
276.799	97.62
277.031	104.62
277.262	89.62
277.494	82.62
277.726	97.62
277.957	83.62
278.189	85.62
278.421	97.62
278.652	104.62
278.884	78.62
279.115	95.62
279.347	82.62
279.579	80.62
279.81	83.62
280.042	87.62
280.273	86.62
280.505	91.62
280.736	79.62
280.968	82.62
281.199	70.62
281.431	92.62
281.662	97.62
281.894	96.62
282.125	88.62
282.356	99.62
282.588	112.62
282.819	90.62
283.051	95.62
283.282	75.62
283.513	81.62
283.745	81.62
283.976	77.62
284.207	84.62
284.439	87.62
284.67	85.62
284.901	78.62
285.132	75.62
285.364	70.62
285.595	79.62
285.826	91.62
286.057	88.62
286.288	89.62
286.52	99.62
286.751	90.62
286.982	88.62
287.213	85.62
287.444	86.62
287.675	62.62
287.906	91.62
288.138	99.62
288.369	102.62
288.6	93.62
288.831	90.62
289.062	89.62
289.293	91.62
289.524	86.62
289.755	88.62
289.986	77.62
290.217	76.62
290.448	92.62
290.679	92.62
290.91	75.62
291.141	77.62
291.371	79.62
291.602	71.62
291.833	95.62
292.064	109.62
292.295	94.62
292.526	80.62
292.757	82.62
292.987	91.62
293.218	90.62
293.449	95.62
293.68	92.62
293.91	82.62
294.141	72.62
294.372	71.62
294.603	85.62
294.833	84.62
295.064	88.62
295.295	76.62
295.525	101.62
295.756	94.62
295.987	99.62
296.217	123.62
296.448	113.62
296.679	97.62
296.909	91.62
297.14	85.62
297.37	81.62
297.601	90.62
297.831	92.62
298.062	92.62
298.292	89.62
298.523	97.62
298.753	106.62
298.984	95.62
299.214	93.62
299.445	92.62
299.675	81.62
299.905	90.62
300.136	85.62
300.366	94.62
300.597	96.62
300.827	88.62
301.057	94.62
301.288	85.62
301.518	91.62
301.748	80.62
301.979	99.62
302.209	72.62
302.439	82.62
302.669	82.62
302.9	88.62
303.13	91.62
303.36	77.62
303.59	99.62
303.82	110.62
304.051	93.62
304.281	95.62
304.511	88.62
304.741	74.62
304.971	96.62
305.201	81.62
305.431	88.62
305.661	89.62
305.891	97.62
306.121	86.62
306.352	96.62
306.582	96.62
306.812	94.62
307.042	81.62
307.272	67.62
307.502	102.62
307.731	98.62
307.961	85.62
308.191	85.62
308.421	85.62
308.651	95.62
308.881	97.62
309.111	87.62
309.341	97.62
309.571	92.62
309.8	94.62
310.03	104.62
310.26	103.62
310.49	93.62
310.72	91.62
310.949	94.62
311.179	95.62
311.409	80.62
311.639	98.62
311.868	94.62
312.098	99.62
312.328	87.62
312.557	90.62
312.787	105.62
313.017	85.62
313.246	83.62
313.476	88.62
313.706	88.62
313.935	88.62
314.165	98.62
314.394	105.62
314.624	98.62
314.853	100.62
315.083	80.62
315.312	71.62
315.542	85.62
315.771	94.62
316.001	96.62
316.23	100.62
316.46	90.62
316.689	95.62
316.919	108.62
317.148	99.62
317.377	94.62
317.607	98.62
317.836	84.62
318.065	81.62
318.295	82.62
318.524	95.62
318.753	87.62
318.983	97.62
319.212	97.62
319.441	99.62
319.67	103.62
319.9	96.62
320.129	87.62
320.358	91.62
320.587	88.62
320.816	93.62
321.046	95.62
321.275	107.62
321.504	85.62
321.733	104.62
321.962	85.62
322.191	98.62
322.42	95.62
322.649	93.62
322.878	109.62
323.108	105.62
323.337	106.62
323.566	113.62
323.795	125.62
324.024	174.62
324.253	312.62
324.482	669.62
324.71	1331.62
324.939	1721.62
325.168	637.62
325.397	213.62
325.626	125.62
325.855	115.62
326.084	114.62
326.313	101.62
326.542	145.62
326.77	206.62
326.999	376.62
327.228	764.62
327.457	1395.62
327.686	1079.62
327.914	306.62
328.143	167.62
328.372	145.62
328.6	122.62
328.829	107.62
329.058	117.62
329.287	123.62
329.515	109.62
329.744	113.62
329.972	98.62
330.201	94.62
330.43	115.62
330.658	111.62
330.887	98.62
331.115	111.62
331.344	95.62
331.572	96.62
331.801	94.62
332.03	101.62
332.258	95.62
332.486	93.62
332.715	92.62
332.943	85.62
333.172	95.62
333.4	88.62
333.629	99.62
333.857	97.62
334.085	106.62
334.314	93.62
334.542	97.62
334.771	104.62
334.999	100.62
335.227	85.62
335.455	102.62
335.684	104.62
335.912	82.62
336.14	101.62
336.369	89.62
336.597	86.62
336.825	104.62
337.053	87.62
337.281	79.62
337.51	97.62
337.738	91.62
337.966	91.62
338.194	111.62
338.422	81.62
338.65	105.62
338.878	94.62
339.106	75.62
339.334	102.62
339.562	101.62
339.79	90.62
340.018	90.62
340.246	88.62
340.474	90.62
340.702	96.62
340.93	88.62
341.158	95.62
341.386	107.62
341.614	83.62
341.842	103.62
342.07	94.62
342.298	86.62
342.526	102.62
342.754	84.62
342.981	89.62
343.209	85.62
343.437	85.62
343.665	80.62
343.893	91.62
344.12	83.62
344.348	83.62
344.576	92.62
344.804	99.62
345.031	98.62
345.259	98.62
345.487	106.62
345.714	106.62
345.942	89.62
346.17	93.62
346.397	106.62
346.625	102.62
346.853	81.62
347.08	97.62
347.308	88.62
347.535	99.62
347.763	94.62
347.99	95.62
348.218	102.62
348.445	92.62
348.673	86.62
348.9	87.62
349.128	107.62
349.355	99.62
349.583	94.62
349.81	98.62
350.037	87.62
350.265	101.62
350.492	98.62
350.72	99.62
350.947	93.62
351.174	97.62
351.402	114.62
351.629	96.62
351.856	101.62
352.083	105.62
352.311	106.62
352.538	111.62
352.765	109.62
352.992	106.62
353.22	107.62
353.447	98.62
353.674	107.62
353.901	106.62
354.128	105.62
354.355	103.62
354.583	92.62
354.81	102.62
355.037	106.62
355.264	83.62
355.491	73.62
355.718	79.62
355.945	87.62
356.172	90.62
356.399	108.62
356.626	97.62
356.853	90.62
357.08	95.62
357.307	90.62
357.534	91.62
357.761	90.62
357.988	83.62
358.215	82.62
358.441	79.62
358.668	100.62
358.895	96.62
359.122	92.62
359.349	80.62
359.576	75.62
359.802	85.62
360.029	110.62
360.256	106.62
360.483	86.62
360.709	83.62
360.936	93.62
361.163	104.62
361.39	86.62
361.616	83.62
361.843	85.62
362.07	83.62
362.296	94.62
362.523	101.62
362.749	86.62
362.976	86.62
363.203	97.62
363.429	73.62
363.656	96.62
363.882	82.62
364.109	94.62
364.335	88.62
364.562	99.62
364.788	89.62
365.015	87.62
365.241	90.62
365.468	111.62
365.694	102.62
365.92	95.62
366.147	95.62
366.373	90.62
366.599	94.62
366.826	86.62
367.052	93.62
367.278	96.62
367.505	101.62
367.731	74.62
367.957	89.62
368.184	90.62
368.41	95.62
368.636	99.62
368.862	117.62
369.089	92.62
369.315	80.62
369.541	80.62
369.767	86.62
369.993	92.62
370.219	95.62
370.445	89.62
370.672	70.62
370.898	87.62
371.124	87.62
371.35	83.62
371.576	82.62
371.802	89.62
372.028	79.62
372.254	90.62
372.48	91.62
372.706	86.62
372.932	98.62
373.158	90.62
373.384	84.62
373.61	87.62
373.835	93.62
374.061	100.62
374.287	94.62
374.513	83.62
374.739	89.62
374.965	90.62
375.191	89.62
375.416	94.62
375.642	105.62
375.868	86.62
376.094	82.62
376.319	69.62
376.545	109.62
376.771	89.62
376.997	88.62
377.222	81.62
377.448	91.62
377.674	79.62
377.899	94.62
378.125	94.62
378.35	85.62
378.576	84.62
378.802	84.62
379.027	80.62
379.253	83.62
379.478	93.62
379.704	92.62
379.929	94.62
380.155	93.62
380.38	104.62
380.606	96.62
380.831	93.62
381.057	90.62
381.282	103.62
381.507	85.62
381.733	103.62
381.958	102.62
382.184	102.62
382.409	90.62
382.634	114.62
382.86	90.62
383.085	84.62
383.31	103.62
383.535	90.62
383.761	94.62
383.986	102.62
384.211	111.62
384.436	106.62
384.662	91.62
384.887	105.62
385.112	99.62
385.337	104.62
385.562	108.62
385.787	106.62
386.013	97.62
386.238	94.62
386.463	101.62
386.688	101.62
386.913	85.62
387.138	105.62
387.363	109.62
387.588	98.62
387.813	103.62
388.038	99.62
388.263	99.62
388.488	99.62
388.713	110.62
388.938	86.62
389.163	98.62
389.387	95.62
389.612	90.62
389.837	80.62
390.062	94.62
390.287	105.62
390.512	91.62
390.736	83.62
390.961	97.62
391.186	94.62
391.411	85.62
391.636	98.62
391.86	86.62
392.085	76.62
392.31	87.62
392.534	81.62
392.759	81.62
392.984	80.62
393.208	73.62
393.433	82.62
393.658	85.62
393.882	79.62
394.107	90.62
394.331	75.62
394.556	73.62
394.78	85.62
395.005	96.62
395.229	88.62
395.454	88.62
395.678	93.62
395.903	83.62
396.127	83.62
396.352	81.62
396.576	83.62
396.801	85.62
397.025	85.62
397.249	76.62
397.474	82.62
397.698	78.62
397.922	84.62
398.147	85.62
398.371	83.62
398.595	93.62
398.82	81.62
399.044	86.62
399.268	94.62
399.492	76.62
399.717	98.62
399.941	86.62
400.165	93.62
400.389	88.62
400.613	85.62
400.837	88.62
401.062	77.62
401.286	99.62
401.51	89.62
401.734	85.62
401.958	89.62
402.182	121.62
402.406	133.62
402.63	98.62
402.854	97.62
403.078	86.62
403.302	82.62
403.526	83.62
403.75	76.62
403.974	91.62
404.198	99.62
404.422	73.62
404.645	81.62
404.869	77.62
405.093	90.62
405.317	91.62
405.541	108.62
405.765	101.62
405.988	100.62
406.212	150.62
406.436	195.62
406.66	133.62
406.883	104.62
407.107	75.62
407.331	78.62
407.555	94.62
407.778	98.62
408.002	84.62
408.226	84.62
408.449	78.62
408.673	85.62
408.896	80.62
409.12	109.62
409.344	97.62
409.567	85.62
409.791	90.62
410.014	88.62
410.238	96.62
410.461	91.62
410.685	65.62
410.908	88.62
411.132	106.62
411.355	94.62
411.578	110.62
411.802	91.62
412.025	83.62
412.249	85.62
412.472	99.62
412.695	91.62
412.919	83.62
413.142	85.62
413.365	77.62
413.589	87.62
413.812	84.62
414.035	86.62
414.258	83.62
414.482	92.62
414.705	72.62
414.928	94.62
415.151	99.62
415.374	92.62
415.597	87.62
415.821	93.62
416.044	98.62
416.267	91.62
416.49	89.62
416.713	84.62
416.936	97.62
417.159	83.62
417.382	79.62
417.605	78.62
417.828	85.62
418.051	90.62
418.274	86.62
418.497	76.62
418.72	85.62
418.943	73.62
419.166	93.62
419.389	93.62
419.611	98.62
419.834	87.62
420.057	92.62
420.28	91.62
420.503	101.62
420.726	85.62
420.948	94.62
421.171	105.62
421.394	95.62
421.617	75.62
421.839	62.62
422.062	92.62
422.285	90.62
422.507	97.62
422.73	87.62
422.953	85.62
423.175	80.62
423.398	85.62
423.621	86.62
423.843	87.62
424.066	80.62
424.288	81.62
424.511	89.62
424.733	86.62
424.956	92.62
425.178	94.62
425.401	109.62
425.623	109.62
425.846	86.62
426.068	104.62
426.291	91.62
426.513	82.62
426.735	101.62
426.958	90.62
427.18	90.62
427.402	129.62
427.625	138.62
427.847	99.62
428.069	94.62
428.292	80.62
428.514	82.62
428.736	81.62
428.958	95.62
429.181	89.62
429.403	72.62
429.625	102.62
429.847	78.62
430.069	86.62
430.292	80.62
430.514	87.62
430.736	93.62
430.958	83.62
431.18	87.62
431.402	95.62
431.624	84.62
431.846	75.62
432.068	81.62
432.29	92.62
432.512	87.62
432.734	92.62
432.956	87.62
433.178	95.62
433.4	86.62
433.622	94.62
433.844	89.62
434.066	78.62
434.287	99.62
434.509	93.62
434.731	86.62
434.953	79.62
435.175	89.62
435.397	97.62
435.618	95.62
435.84	97.62
436.062	108.62
436.284	114.62
436.505	105.62
436.727	107.62
436.949	102.62
437.17	83.62
437.392	77.62
437.614	94.62
437.835	83.62
438.057	111.62
438.278	120.62
438.5	97.62
438.721	114.62
438.943	103.62
439.165	94.62
439.386	81.62
439.608	103.62
439.829	94.62
440.05	113.62
440.272	112.62
440.493	86.62
440.715	86.62
440.936	87.62
441.158	94.62
441.379	100.62
441.6	96.62
441.822	102.62
442.043	95.62
442.264	98.62
442.486	100.62
442.707	100.62
442.928	99.62
443.149	117.62
443.371	114.62
443.592	101.62
443.813	104.62
444.034	90.62
444.255	97.62
444.476	87.62
444.698	82.62
444.919	80.62
445.14	126.62
445.361	118.62
445.582	113.62
445.803	110.62
446.024	118.62
446.245	130.62
446.466	106.62
446.687	97.62
446.908	82.62
447.129	99.62
447.35	80.62
447.571	83.62
447.792	85.62
448.013	93.62
448.234	110.62
448.455	96.62
448.675	113.62
448.896	103.62
449.117	97.62
449.338	95.62
449.559	99.62
449.779	123.62
450	90.62
450.221	105.62
450.442	81.62
450.662	98.62
450.883	90.62
451.104	97.62
451.324	86.62
451.545	81.62
451.766	101.62
451.986	87.62
452.207	94.62
452.428	93.62
452.648	118.62
452.869	99.62
453.089	106.62
453.31	101.62
453.53	93.62
453.751	99.62
453.971	93.62
454.192	102.62
454.412	87.62
454.633	73.62
454.853	80.62
455.073	85.62
455.294	79.62
455.514	95.62
455.734	90.62
455.955	87.62
456.175	89.62
456.395	79.62
456.616	72.62
456.836	78.62
457.056	102.62
457.276	81.62
457.497	90.62
457.717	95.62
457.937	82.62
458.157	82.62
458.377	95.62
458.598	111.62
458.818	120.62
459.038	130.62
459.258	113.62
459.478	90.62
459.698	85.62
459.918	71.62
460.138	91.62
460.358	85.62
460.578	75.62
460.798	87.62
461.018	95.62
461.238	84.62
461.458	85.62
461.678	69.62
461.898	88.62
462.118	90.62
462.338	75.62
462.558	84.62
462.777	81.62
462.997	85.62
463.217	87.62
463.437	76.62
463.657	82.62
463.876	103.62
464.096	78.62
464.316	96.62
464.536	96.62
464.755	99.62
464.975	105.62
465.195	127.62
465.414	137.62
465.634	104.62
465.854	81.62
466.073	82.62
466.293	84.62
466.512	94.62
466.732	71.62
466.951	75.62
467.171	98.62
467.391	99.62
467.61	98.62
467.829	93.62
468.049	92.62
468.268	84.62
468.488	90.62
468.707	93.62
468.927	85.62
469.146	73.62
469.365	102.62
469.585	81.62
469.804	94.62
470.023	82.62
470.243	89.62
470.462	95.62
470.681	93.62
470.901	86.62
471.12	96.62
471.339	90.62
471.558	82.62
471.777	99.62
471.997	82.62
472.216	83.62
472.435	99.62
472.654	90.62
472.873	99.62
473.092	86.62
473.311	82.62
473.53	73.62
473.749	99.62
473.968	90.62
474.187	96.62
474.406	84.62
474.625	92.62
474.844	101.62
475.063	69.62
475.282	87.62
475.501	94.62
475.72	99.62
475.939	87.62
476.158	85.62
476.377	80.62
476.596	93.62
476.814	81.62
477.033	105.62
477.252	90.62
477.471	93.62
477.69	76.62
477.908	89.62
478.127	79.62
478.346	87.62
478.564	89.62
478.783	94.62
479.002	74.62
479.22	90.62
479.439	108.62
479.658	93.62
479.876	91.62
480.095	79.62
480.313	89.62
480.532	102.62
480.751	98.62
480.969	96.62
481.188	91.62
481.406	98.62
481.624	86.62
481.843	95.62
482.061	91.62
482.28	89.62
482.498	95.62
482.717	90.62
482.935	87.62
483.153	85.62
483.372	95.62
483.59	103.62
483.808	94.62
484.027	81.62
484.245	97.62
484.463	82.62
484.681	94.62
484.9	77.62
485.118	97.62
485.336	105.62
485.554	87.62
485.772	107.62
485.99	101.62
486.209	112.62
486.427	104.62
486.645	122.62
486.863	94.62
487.081	84.62
487.299	91.62
487.517	91.62
487.735	90.62
487.953	90.62
488.171	97.62
488.389	92.62
488.607	97.62
488.825	83.62
489.043	81.62
489.261	95.62
489.479	91.62
489.696	93.62
489.914	85.62
490.132	77.62
490.35	91.62
490.568	91.62
490.786	79.62
491.003	84.62
491.221	102.62
491.439	77.62
491.657	91.62
491.874	106.62
492.092	85.62
492.31	99.62
492.527	98.62
492.745	81.62
492.963	95.62
493.18	105.62
493.398	97.62
493.615	99.62
493.833	101.62
494.05	102.62
494.268	86.62
494.485	78.62
494.703	78.62
494.92	87.62
495.138	90.62
495.355	92.62
495.573	71.62
495.79	93.62
496.008	101.62
496.225	99.62
496.442	95.62
496.66	79.62
496.877	90.62
497.094	85.62
497.312	90.62
497.529	70.62
497.746	95.62
497.963	85.62
498.181	91.62
498.398	107.62
498.615	108.62
498.832	92.62
499.049	107.62
499.267	89.62
499.484	86.62
499.701	88.62
499.918	88.62
500.135	91.62
500.352	80.62
500.569	75.62
500.786	97.62
501.003	107.62
501.22	95.62
501.437	88.62
501.654	93.62
501.871	96.62
502.088	91.62
502.305	91.62
502.522	94.62
502.739	92.62
502.956	87.62
503.172	91.62
503.389	102.62
503.606	95.62
503.823	93.62
504.04	86.62
504.256	80.62
504.473	88.62
504.69	85.62
504.907	103.62
505.123	100.62
505.34	85.62
505.557	101.62
505.773	94.62
505.99	83.62
506.207	90.62
506.423	88.62
506.64	95.62
506.856	88.62
507.073	89.62
507.289	93.62
507.506	90.62
507.722	99.62
507.939	97.62
508.155	96.62
508.372	82.62
508.588	97.62
508.805	96.62
509.021	91.62
509.238	105.62
509.454	94.62
509.67	113.62
509.887	106.62
510.103	135.62
510.319	196.62
510.536	619.62
510.752	1857.62
510.968	537.62
511.184	143.62
511.401	111.62
511.617	102.62
511.833	96.62
512.049	96.62
512.265	100.62
512.481	95.62
512.698	108.62
512.914	77.62
513.13	91.62
513.346	89.62
513.562	94.62
513.778	98.62
513.994	96.62
514.21	94.62
514.426	115.62
514.642	120.62
514.858	106.62
515.074	141.62
515.29	367.62
515.506	1048.62
515.721	420.62
515.937	127.62
516.153	99.62
516.369	82.62
516.585	98.62
