Data from Uncirc_1998_H10_HRD10591_00013.txt Node
Date: Wed Jan 03 11:25:27 EST 2024
User: Yrep
Spectrometer: HR+D1059
Trigger mode: 1
Integration Time (sec): 1.000000E-1
Scans to average: 1
Electric dark correction enabled: true
Nonlinearity correction enabled: false
Boxcar width: 0
XAxis mode: Wavelengths
Number of Pixels in Spectrum: 2048
>>>>>Begin Spectral Data<<<<<
223.165	-22.31
223.4	-22.31
223.635	-22.31
223.869	-22.31
224.104	-24.31
224.338	-11.31
224.573	-12.31
224.808	-22.31
225.042	-8.31
225.277	1.69
225.511	-2.31
225.746	7.69
225.98	16.69
226.215	10.69
226.449	15.69
226.683	17.69
226.918	23.69
227.152	31.69
227.387	31.69
227.621	36.69
227.856	51.69
228.09	51.69
228.324	66.69
228.559	64.69
228.793	64.69
229.027	60.69
229.262	68.69
229.496	61.69
229.73	67.69
229.964	74.69
230.199	66.69
230.433	70.69
230.667	76.69
230.901	78.69
231.136	69.69
231.37	70.69
231.604	69.69
231.838	71.69
232.072	70.69
232.306	90.69
232.541	82.69
232.775	69.69
233.009	84.69
233.243	59.69
233.477	89.69
233.711	74.69
233.945	86.69
234.179	90.69
234.413	82.69
234.647	69.69
234.881	82.69
235.115	88.69
235.349	82.69
235.583	82.69
235.817	81.69
236.051	79.69
236.285	75.69
236.519	87.69
236.753	96.69
236.987	60.69
237.221	81.69
237.455	89.69
237.689	62.69
237.922	64.69
238.156	76.69
238.39	81.69
238.624	78.69
238.858	71.69
239.091	87.69
239.325	80.69
239.559	69.69
239.793	79.69
240.027	73.69
240.26	87.69
240.494	76.69
240.728	75.69
240.961	72.69
241.195	76.69
241.429	77.69
241.662	77.69
241.896	66.69
242.13	73.69
242.363	80.69
242.597	90.69
242.83	89.69
243.064	73.69
243.298	65.69
243.531	78.69
243.765	77.69
243.998	74.69
244.232	80.69
244.465	74.69
244.699	96.69
244.932	69.69
245.166	81.69
245.399	81.69
245.633	96.69
245.866	70.69
246.099	79.69
246.333	70.69
246.566	67.69
246.8	88.69
247.033	68.69
247.266	86.69
247.5	76.69
247.733	76.69
247.966	56.69
248.2	64.69
248.433	71.69
248.666	73.69
248.899	73.69
249.133	93.69
249.366	97.69
249.599	87.69
249.832	89.69
250.066	80.69
250.299	88.69
250.532	78.69
250.765	95.69
250.998	75.69
251.231	84.69
251.465	80.69
251.698	82.69
251.931	74.69
252.164	70.69
252.397	64.69
252.63	88.69
252.863	72.69
253.096	72.69
253.329	83.69
253.562	94.69
253.795	82.69
254.028	79.69
254.261	87.69
254.494	78.69
254.727	81.69
254.96	81.69
255.193	66.69
255.426	83.69
255.659	80.69
255.892	70.69
256.124	81.69
256.357	86.69
256.59	97.69
256.823	80.69
257.056	85.69
257.289	67.69
257.521	80.69
257.754	96.69
257.987	78.69
258.22	79.69
258.452	82.69
258.685	83.69
258.918	81.69
259.151	85.69
259.383	80.69
259.616	77.69
259.849	81.69
260.081	94.69
260.314	92.69
260.547	97.69
260.779	78.69
261.012	79.69
261.244	84.69
261.477	83.69
261.71	85.69
261.942	100.69
262.175	105.69
262.407	88.69
262.64	69.69
262.872	71.69
263.105	78.69
263.337	88.69
263.57	87.69
263.802	83.69
264.035	86.69
264.267	79.69
264.499	83.69
264.732	92.69
264.964	71.69
265.197	81.69
265.429	72.69
265.661	95.69
265.894	65.69
266.126	79.69
266.358	73.69
266.591	85.69
266.823	74.69
267.055	105.69
267.287	85.69
267.52	89.69
267.752	80.69
267.984	82.69
268.216	81.69
268.448	90.69
268.681	95.69
268.913	77.69
269.145	82.69
269.377	97.69
269.609	91.69
269.841	88.69
270.073	76.69
270.306	91.69
270.538	67.69
270.77	87.69
271.002	88.69
271.234	87.69
271.466	93.69
271.698	70.69
271.93	99.69
272.162	75.69
272.394	85.69
272.626	75.69
272.858	83.69
273.09	87.69
273.322	85.69
273.553	99.69
273.785	73.69
274.017	86.69
274.249	88.69
274.481	80.69
274.713	87.69
274.945	91.69
275.176	76.69
275.408	82.69
275.64	85.69
275.872	79.69
276.104	73.69
276.335	87.69
276.567	90.69
276.799	102.69
277.031	88.69
277.262	80.69
277.494	82.69
277.726	85.69
277.957	51.69
278.189	83.69
278.421	89.69
278.652	77.69
278.884	85.69
279.115	101.69
279.347	97.69
279.579	75.69
279.81	80.69
280.042	81.69
280.273	93.69
280.505	80.69
280.736	84.69
280.968	95.69
281.199	97.69
281.431	88.69
281.662	88.69
281.894	74.69
282.125	89.69
282.356	106.69
282.588	120.69
282.819	94.69
283.051	81.69
283.282	69.69
283.513	96.69
283.745	87.69
283.976	82.69
284.207	74.69
284.439	87.69
284.67	86.69
284.901	94.69
285.132	79.69
285.364	84.69
285.595	88.69
285.826	80.69
286.057	88.69
286.288	87.69
286.52	87.69
286.751	71.69
286.982	79.69
287.213	73.69
287.444	81.69
287.675	81.69
287.906	74.69
288.138	81.69
288.369	88.69
288.6	86.69
288.831	85.69
289.062	89.69
289.293	89.69
289.524	66.69
289.755	87.69
289.986	91.69
290.217	90.69
290.448	95.69
290.679	103.69
290.91	82.69
291.141	74.69
291.371	81.69
291.602	80.69
291.833	88.69
292.064	90.69
292.295	73.69
292.526	90.69
292.757	75.69
292.987	83.69
293.218	79.69
293.449	84.69
293.68	76.69
293.91	84.69
294.141	93.69
294.372	89.69
294.603	86.69
294.833	95.69
295.064	91.69
295.295	102.69
295.525	95.69
295.756	103.69
295.987	101.69
296.217	95.69
296.448	113.69
296.679	87.69
296.909	78.69
297.14	88.69
297.37	103.69
297.601	96.69
297.831	90.69
298.062	92.69
298.292	83.69
298.523	89.69
298.753	89.69
298.984	78.69
299.214	97.69
299.445	98.69
299.675	88.69
299.905	77.69
300.136	87.69
300.366	100.69
300.597	91.69
300.827	93.69
301.057	86.69
301.288	96.69
301.518	96.69
301.748	87.69
301.979	93.69
302.209	95.69
302.439	93.69
302.669	103.69
302.9	92.69
303.13	90.69
303.36	87.69
303.59	96.69
303.82	93.69
304.051	79.69
304.281	79.69
304.511	93.69
304.741	85.69
304.971	90.69
305.201	79.69
305.431	89.69
305.661	92.69
305.891	96.69
306.121	81.69
306.352	96.69
306.582	95.69
306.812	79.69
307.042	85.69
307.272	95.69
307.502	86.69
307.731	73.69
307.961	83.69
308.191	81.69
308.421	88.69
308.651	87.69
308.881	92.69
309.111	83.69
309.341	90.69
309.571	89.69
309.8	89.69
310.03	83.69
310.26	97.69
310.49	94.69
310.72	87.69
310.949	96.69
311.179	94.69
311.409	96.69
311.639	96.69
311.868	91.69
312.098	99.69
312.328	109.69
312.557	95.69
312.787	91.69
313.017	90.69
313.246	103.69
313.476	110.69
313.706	96.69
313.935	93.69
314.165	95.69
314.394	94.69
314.624	97.69
314.853	99.69
315.083	96.69
315.312	105.69
315.542	88.69
315.771	93.69
316.001	88.69
316.23	90.69
316.46	89.69
316.689	94.69
316.919	107.69
317.148	89.69
317.377	90.69
317.607	104.69
317.836	92.69
318.065	87.69
318.295	93.69
318.524	82.69
318.753	95.69
318.983	99.69
319.212	95.69
319.441	88.69
319.67	101.69
319.9	104.69
320.129	89.69
320.358	86.69
320.587	97.69
320.816	87.69
321.046	93.69
321.275	98.69
321.504	89.69
321.733	94.69
321.962	88.69
322.191	88.69
322.42	103.69
322.649	114.69
322.878	113.69
323.108	98.69
323.337	108.69
323.566	108.69
323.795	138.69
324.024	174.69
324.253	308.69
324.482	645.69
324.71	1299.69
324.939	1681.69
325.168	600.69
325.397	206.69
325.626	130.69
325.855	111.69
326.084	99.69
326.313	119.69
326.542	137.69
326.77	198.69
326.999	374.69
327.228	758.69
327.457	1310.69
327.686	1037.69
327.914	317.69
328.143	174.69
328.372	146.69
328.6	118.69
328.829	107.69
329.058	100.69
329.287	128.69
329.515	115.69
329.744	91.69
329.972	82.69
330.201	96.69
330.43	96.69
330.658	109.69
330.887	112.69
331.115	107.69
331.344	98.69
331.572	102.69
331.801	99.69
332.03	108.69
332.258	98.69
332.486	101.69
332.715	93.69
332.943	85.69
333.172	76.69
333.4	92.69
333.629	105.69
333.857	105.69
334.085	89.69
334.314	98.69
334.542	100.69
334.771	101.69
334.999	91.69
335.227	110.69
335.455	91.69
335.684	109.69
335.912	98.69
336.14	95.69
336.369	96.69
336.597	81.69
336.825	92.69
337.053	92.69
337.281	97.69
337.51	96.69
337.738	108.69
337.966	90.69
338.194	95.69
338.422	109.69
338.65	95.69
338.878	102.69
339.106	90.69
339.334	101.69
339.562	77.69
339.79	86.69
340.018	84.69
340.246	86.69
340.474	93.69
340.702	97.69
340.93	87.69
341.158	97.69
341.386	90.69
341.614	90.69
341.842	98.69
342.07	87.69
342.298	95.69
342.526	96.69
342.754	98.69
342.981	91.69
343.209	86.69
343.437	93.69
343.665	86.69
343.893	91.69
344.12	94.69
344.348	93.69
344.576	75.69
344.804	93.69
345.031	101.69
345.259	91.69
345.487	103.69
345.714	99.69
345.942	78.69
346.17	103.69
346.397	104.69
346.625	92.69
346.853	94.69
347.08	92.69
347.308	86.69
347.535	94.69
347.763	77.69
347.99	86.69
348.218	95.69
348.445	99.69
348.673	93.69
348.9	96.69
349.128	92.69
349.355	87.69
349.583	85.69
349.81	98.69
350.037	94.69
350.265	96.69
350.492	90.69
350.72	102.69
350.947	92.69
351.174	103.69
351.402	106.69
351.629	108.69
351.856	95.69
352.083	115.69
352.311	94.69
352.538	91.69
352.765	106.69
352.992	105.69
353.22	121.69
353.447	101.69
353.674	102.69
353.901	93.69
354.128	87.69
354.355	98.69
354.583	87.69
354.81	99.69
355.037	103.69
355.264	93.69
355.491	105.69
355.718	101.69
355.945	88.69
356.172	86.69
356.399	88.69
356.626	86.69
356.853	97.69
357.08	94.69
357.307	107.69
357.534	96.69
357.761	110.69
357.988	99.69
358.215	103.69
358.441	87.69
358.668	83.69
358.895	85.69
359.122	89.69
359.349	87.69
359.576	93.69
359.802	93.69
360.029	102.69
360.256	102.69
360.483	93.69
360.709	86.69
360.936	95.69
361.163	87.69
361.39	106.69
361.616	83.69
361.843	90.69
362.07	87.69
362.296	111.69
362.523	95.69
362.749	96.69
362.976	84.69
363.203	81.69
363.429	88.69
363.656	93.69
363.882	90.69
364.109	67.69
364.335	84.69
364.562	97.69
364.788	84.69
365.015	73.69
365.241	74.69
365.468	93.69
365.694	82.69
365.92	91.69
366.147	87.69
366.373	85.69
366.599	77.69
366.826	86.69
367.052	106.69
367.278	87.69
367.505	88.69
367.731	89.69
367.957	79.69
368.184	95.69
368.41	89.69
368.636	91.69
368.862	109.69
369.089	98.69
369.315	92.69
369.541	90.69
369.767	102.69
369.993	105.69
370.219	81.69
370.445	97.69
370.672	79.69
370.898	85.69
371.124	96.69
371.35	92.69
371.576	80.69
371.802	82.69
372.028	81.69
372.254	71.69
372.48	87.69
372.706	92.69
372.932	89.69
373.158	93.69
373.384	112.69
373.61	87.69
373.835	104.69
374.061	83.69
374.287	95.69
374.513	89.69
374.739	91.69
374.965	71.69
375.191	90.69
375.416	85.69
375.642	96.69
375.868	100.69
376.094	85.69
376.319	84.69
376.545	90.69
376.771	86.69
376.997	90.69
377.222	103.69
377.448	87.69
377.674	93.69
377.899	78.69
378.125	88.69
378.35	97.69
378.576	93.69
378.802	92.69
379.027	86.69
379.253	110.69
379.478	99.69
379.704	89.69
379.929	86.69
380.155	99.69
380.38	87.69
380.606	106.69
380.831	92.69
381.057	103.69
381.282	113.69
381.507	87.69
381.733	78.69
381.958	92.69
382.184	95.69
382.409	92.69
382.634	98.69
382.86	93.69
383.085	94.69
383.31	103.69
383.535	82.69
383.761	117.69
383.986	115.69
384.211	98.69
384.436	105.69
384.662	88.69
384.887	97.69
385.112	102.69
385.337	102.69
385.562	97.69
385.787	100.69
386.013	121.69
386.238	100.69
386.463	108.69
386.688	113.69
386.913	103.69
387.138	93.69
387.363	95.69
387.588	120.69
387.813	91.69
388.038	108.69
388.263	120.69
388.488	105.69
388.713	79.69
388.938	95.69
389.163	106.69
389.387	90.69
389.612	83.69
389.837	82.69
390.062	91.69
390.287	94.69
390.512	94.69
390.736	91.69
390.961	93.69
391.186	88.69
391.411	88.69
391.636	86.69
391.86	82.69
392.085	89.69
392.31	83.69
392.534	85.69
392.759	85.69
392.984	94.69
393.208	97.69
393.433	93.69
393.658	88.69
393.882	103.69
394.107	89.69
394.331	102.69
394.556	103.69
394.78	93.69
395.005	88.69
395.229	72.69
395.454	66.69
395.678	81.69
395.903	98.69
396.127	94.69
396.352	96.69
396.576	80.69
396.801	81.69
397.025	90.69
397.249	89.69
397.474	83.69
397.698	86.69
397.922	99.69
398.147	75.69
398.371	80.69
398.595	92.69
398.82	86.69
399.044	79.69
399.268	78.69
399.492	86.69
399.717	90.69
399.941	78.69
400.165	85.69
400.389	91.69
400.613	94.69
400.837	79.69
401.062	89.69
401.286	84.69
401.51	93.69
401.734	94.69
401.958	110.69
402.182	112.69
402.406	122.69
402.63	106.69
402.854	85.69
403.078	93.69
403.302	94.69
403.526	77.69
403.75	82.69
403.974	95.69
404.198	105.69
404.422	87.69
404.645	89.69
404.869	80.69
405.093	88.69
405.317	100.69
405.541	105.69
405.765	95.69
405.988	110.69
406.212	146.69
406.436	170.69
406.66	127.69
406.883	89.69
407.107	97.69
407.331	96.69
407.555	102.69
407.778	99.69
408.002	93.69
408.226	80.69
408.449	85.69
408.673	81.69
408.896	85.69
409.12	81.69
409.344	95.69
409.567	95.69
409.791	96.69
410.014	87.69
410.238	98.69
410.461	86.69
410.685	100.69
410.908	95.69
411.132	104.69
411.355	92.69
411.578	86.69
411.802	87.69
412.025	89.69
412.249	97.69
412.472	88.69
412.695	79.69
412.919	89.69
413.142	94.69
413.365	88.69
413.589	87.69
413.812	96.69
414.035	99.69
414.258	84.69
414.482	82.69
414.705	76.69
414.928	89.69
415.151	80.69
415.374	101.69
415.597	111.69
415.821	88.69
416.044	79.69
416.267	77.69
416.49	98.69
416.713	100.69
416.936	87.69
417.159	79.69
417.382	89.69
417.605	94.69
417.828	82.69
418.051	90.69
418.274	102.69
418.497	84.69
418.72	77.69
418.943	85.69
419.166	87.69
419.389	83.69
419.611	102.69
419.834	90.69
420.057	93.69
420.28	101.69
420.503	84.69
420.726	88.69
420.948	87.69
421.171	83.69
421.394	100.69
421.617	85.69
421.839	80.69
422.062	98.69
422.285	106.69
422.507	80.69
422.73	101.69
422.953	79.69
423.175	90.69
423.398	96.69
423.621	83.69
423.843	95.69
424.066	75.69
424.288	93.69
424.511	84.69
424.733	73.69
424.956	95.69
425.178	98.69
425.401	103.69
425.623	91.69
425.846	110.69
426.068	88.69
426.291	94.69
426.513	82.69
426.735	77.69
426.958	98.69
427.18	99.69
427.402	115.69
427.625	118.69
427.847	102.69
428.069	93.69
428.292	83.69
428.514	91.69
428.736	91.69
428.958	94.69
429.181	81.69
429.403	86.69
429.625	75.69
429.847	91.69
430.069	98.69
430.292	81.69
430.514	91.69
430.736	79.69
430.958	87.69
431.18	87.69
431.402	79.69
431.624	94.69
431.846	96.69
432.068	95.69
432.29	90.69
432.512	100.69
432.734	82.69
432.956	94.69
433.178	103.69
433.4	99.69
433.622	89.69
433.844	99.69
434.066	98.69
434.287	72.69
434.509	70.69
434.731	80.69
434.953	92.69
435.175	102.69
435.397	91.69
435.618	105.69
435.84	94.69
436.062	102.69
436.284	102.69
436.505	102.69
436.727	105.69
436.949	91.69
437.17	94.69
437.392	87.69
437.614	85.69
437.835	117.69
438.057	98.69
438.278	91.69
438.5	101.69
438.721	113.69
438.943	100.69
439.165	79.69
439.386	91.69
439.608	104.69
439.829	89.69
440.05	105.69
440.272	106.69
440.493	84.69
440.715	74.69
440.936	88.69
441.158	94.69
441.379	81.69
441.6	93.69
441.822	83.69
442.043	89.69
442.264	96.69
442.486	104.69
442.707	86.69
442.928	94.69
443.149	119.69
443.371	98.69
443.592	103.69
443.813	114.69
444.034	98.69
444.255	95.69
444.476	81.69
444.698	73.69
444.919	91.69
445.14	127.69
445.361	123.69
445.582	99.69
445.803	115.69
446.024	111.69
446.245	114.69
446.466	100.69
446.687	90.69
446.908	78.69
447.129	97.69
447.35	83.69
447.571	98.69
447.792	96.69
448.013	86.69
448.234	87.69
448.455	90.69
448.675	103.69
448.896	105.69
449.117	95.69
449.338	108.69
449.559	119.69
449.779	112.69
450	90.69
450.221	101.69
450.442	74.69
450.662	90.69
450.883	92.69
451.104	93.69
451.324	89.69
451.545	95.69
451.766	86.69
451.986	99.69
452.207	96.69
452.428	76.69
452.648	79.69
452.869	86.69
453.089	99.69
453.31	97.69
453.53	90.69
453.751	94.69
453.971	89.69
454.192	113.69
454.412	93.69
454.633	88.69
454.853	87.69
455.073	89.69
455.294	87.69
455.514	94.69
455.734	90.69
455.955	93.69
456.175	89.69
456.395	82.69
456.616	84.69
456.836	73.69
457.056	86.69
457.276	83.69
457.497	78.69
457.717	81.69
457.937	80.69
458.157	87.69
458.377	93.69
458.598	105.69
458.818	111.69
459.038	126.69
459.258	103.69
459.478	78.69
459.698	83.69
459.918	75.69
460.138	96.69
460.358	98.69
460.578	75.69
460.798	84.69
461.018	96.69
461.238	80.69
461.458	86.69
461.678	85.69
461.898	77.69
462.118	76.69
462.338	89.69
462.558	82.69
462.777	87.69
462.997	83.69
463.217	75.69
463.437	83.69
463.657	82.69
463.876	86.69
464.096	80.69
464.316	96.69
464.536	83.69
464.755	93.69
464.975	109.69
465.195	137.69
465.414	131.69
465.634	97.69
465.854	81.69
466.073	85.69
466.293	96.69
466.512	89.69
466.732	84.69
466.951	93.69
467.171	83.69
467.391	61.69
467.61	81.69
467.829	87.69
468.049	93.69
468.268	100.69
468.488	69.69
468.707	78.69
468.927	85.69
469.146	87.69
469.365	90.69
469.585	104.69
469.804	79.69
470.023	90.69
470.243	91.69
470.462	79.69
470.681	95.69
470.901	83.69
471.12	76.69
471.339	81.69
471.558	81.69
471.777	81.69
471.997	91.69
472.216	93.69
472.435	91.69
472.654	92.69
472.873	88.69
473.092	83.69
473.311	78.69
473.53	81.69
473.749	93.69
473.968	91.69
474.187	103.69
474.406	83.69
474.625	76.69
474.844	85.69
475.063	82.69
475.282	79.69
475.501	88.69
475.72	101.69
475.939	101.69
476.158	75.69
476.377	82.69
476.596	81.69
476.814	79.69
477.033	77.69
477.252	79.69
477.471	88.69
477.69	83.69
477.908	81.69
478.127	92.69
478.346	85.69
478.564	99.69
478.783	96.69
479.002	90.69
479.22	98.69
479.439	85.69
479.658	95.69
479.876	96.69
480.095	89.69
480.313	92.69
480.532	86.69
480.751	86.69
480.969	92.69
481.188	102.69
481.406	92.69
481.624	69.69
481.843	90.69
482.061	98.69
482.28	77.69
482.498	84.69
482.717	98.69
482.935	81.69
483.153	78.69
483.372	88.69
483.59	74.69
483.808	92.69
484.027	85.69
484.245	91.69
484.463	82.69
484.681	96.69
484.9	93.69
485.118	90.69
485.336	103.69
485.554	99.69
485.772	95.69
485.99	98.69
486.209	89.69
486.427	103.69
486.645	98.69
486.863	111.69
487.081	87.69
487.299	81.69
487.517	101.69
487.735	103.69
487.953	87.69
488.171	93.69
488.389	111.69
488.607	96.69
488.825	79.69
489.043	94.69
489.261	93.69
489.479	87.69
489.696	78.69
489.914	90.69
490.132	93.69
490.35	95.69
490.568	81.69
490.786	87.69
491.003	96.69
491.221	77.69
491.439	78.69
491.657	89.69
491.874	99.69
492.092	99.69
492.31	96.69
492.527	76.69
492.745	80.69
492.963	81.69
493.18	87.69
493.398	102.69
493.615	96.69
493.833	85.69
494.05	85.69
494.268	90.69
494.485	81.69
494.703	89.69
494.92	89.69
495.138	96.69
495.355	94.69
495.573	104.69
495.79	89.69
496.008	98.69
496.225	85.69
496.442	75.69
496.66	78.69
496.877	87.69
497.094	90.69
497.312	86.69
497.529	96.69
497.746	72.69
497.963	93.69
498.181	97.69
498.398	88.69
498.615	101.69
498.832	88.69
499.049	73.69
499.267	88.69
499.484	94.69
499.701	84.69
499.918	82.69
500.135	84.69
500.352	87.69
500.569	77.69
500.786	98.69
501.003	107.69
501.22	68.69
501.437	77.69
501.654	92.69
501.871	94.69
502.088	97.69
502.305	85.69
502.522	94.69
502.739	78.69
502.956	83.69
503.172	104.69
503.389	101.69
503.606	97.69
503.823	89.69
504.04	88.69
504.256	89.69
504.473	87.69
504.69	78.69
504.907	97.69
505.123	85.69
505.34	83.69
505.557	86.69
505.773	88.69
505.99	90.69
506.207	100.69
506.423	95.69
506.64	75.69
506.856	88.69
507.073	95.69
507.289	79.69
507.506	99.69
507.722	88.69
507.939	103.69
508.155	97.69
508.372	96.69
508.588	103.69
508.805	90.69
509.021	91.69
509.238	92.69
509.454	99.69
509.67	92.69
509.887	93.69
510.103	119.69
510.319	181.69
510.536	542.69
510.752	1572.69
510.968	445.69
511.184	133.69
511.401	110.69
511.617	96.69
511.833	91.69
512.049	97.69
512.265	88.69
512.481	88.69
512.698	91.69
512.914	85.69
513.13	90.69
513.346	89.69
513.562	81.69
513.778	105.69
513.994	86.69
514.21	101.69
514.426	123.69
514.642	124.69
514.858	104.69
515.074	122.69
515.29	290.69
515.506	896.69
515.721	371.69
515.937	129.69
516.153	94.69
516.369	102.69
516.585	91.69
516.801	102.69
