Data from Uncirc_1998_H10_HRD10591_00040.txt Node
Date: Wed Jan 03 11:25:32 EST 2024
User: Yrep
Spectrometer: HR+D1059
Trigger mode: 1
Integration Time (sec): 1.000000E-1
Scans to average: 1
Electric dark correction enabled: true
Nonlinearity correction enabled: false
Boxcar width: 0
XAxis mode: Wavelengths
Number of Pixels in Spectrum: 2048
>>>>>Begin Spectral Data<<<<<
223.165	-25.06
223.4	-25.06
223.635	-25.06
223.869	-15.06
224.104	-18.06
224.338	-16.06
224.573	-5.06
224.808	-14.06
225.042	-5.06
225.277	-5.06
225.511	1.94
225.746	-5.06
225.98	-0.06
226.215	22.94
226.449	14.94
226.683	7.94
226.918	16.94
227.152	43.94
227.387	42.94
227.621	38.94
227.856	45.94
228.09	48.94
228.324	31.94
228.559	35.94
228.793	49.94
229.027	56.94
229.262	64.94
229.496	75.94
229.73	84.94
229.964	72.94
230.199	74.94
230.433	69.94
230.667	81.94
230.901	75.94
231.136	90.94
231.37	70.94
231.604	78.94
231.838	78.94
232.072	89.94
232.306	77.94
232.541	84.94
232.775	90.94
233.009	88.94
233.243	81.94
233.477	85.94
233.711	63.94
233.945	74.94
234.179	75.94
234.413	83.94
234.647	79.94
234.881	64.94
235.115	86.94
235.349	90.94
235.583	89.94
235.817	81.94
236.051	86.94
236.285	69.94
236.519	84.94
236.753	82.94
236.987	92.94
237.221	66.94
237.455	89.94
237.689	68.94
237.922	74.94
238.156	74.94
238.39	69.94
238.624	81.94
238.858	74.94
239.091	52.94
239.325	70.94
239.559	90.94
239.793	69.94
240.027	73.94
240.26	70.94
240.494	89.94
240.728	77.94
240.961	92.94
241.195	80.94
241.429	86.94
241.662	70.94
241.896	66.94
242.13	79.94
242.363	90.94
242.597	76.94
242.83	80.94
243.064	72.94
243.298	78.94
243.531	68.94
243.765	74.94
243.998	75.94
244.232	77.94
244.465	69.94
244.699	95.94
244.932	76.94
245.166	76.94
245.399	75.94
245.633	73.94
245.866	75.94
246.099	72.94
246.333	60.94
246.566	85.94
246.8	82.94
247.033	76.94
247.266	76.94
247.5	75.94
247.733	87.94
247.966	75.94
248.2	72.94
248.433	76.94
248.666	80.94
248.899	71.94
249.133	66.94
249.366	86.94
249.599	100.94
249.832	87.94
250.066	87.94
250.299	82.94
250.532	76.94
250.765	81.94
250.998	88.94
251.231	78.94
251.465	82.94
251.698	69.94
251.931	83.94
252.164	80.94
252.397	76.94
252.63	68.94
252.863	73.94
253.096	75.94
253.329	78.94
253.562	83.94
253.795	88.94
254.028	82.94
254.261	76.94
254.494	72.94
254.727	76.94
254.96	76.94
255.193	78.94
255.426	78.94
255.659	73.94
255.892	75.94
256.124	84.94
256.357	69.94
256.59	65.94
256.823	79.94
257.056	76.94
257.289	85.94
257.521	74.94
257.754	81.94
257.987	90.94
258.22	80.94
258.452	77.94
258.685	86.94
258.918	98.94
259.151	76.94
259.383	81.94
259.616	86.94
259.849	84.94
260.081	80.94
260.314	84.94
260.547	95.94
260.779	89.94
261.012	85.94
261.244	79.94
261.477	97.94
261.71	102.94
261.942	103.94
262.175	117.94
262.407	79.94
262.64	78.94
262.872	79.94
263.105	72.94
263.337	73.94
263.57	78.94
263.802	88.94
264.035	89.94
264.267	78.94
264.499	86.94
264.732	74.94
264.964	95.94
265.197	80.94
265.429	82.94
265.661	84.94
265.894	60.94
266.126	90.94
266.358	69.94
266.591	81.94
266.823	76.94
267.055	86.94
267.287	69.94
267.52	86.94
267.752	81.94
267.984	70.94
268.216	94.94
268.448	93.94
268.681	82.94
268.913	93.94
269.145	79.94
269.377	86.94
269.609	83.94
269.841	76.94
270.073	72.94
270.306	78.94
270.538	92.94
270.77	78.94
271.002	82.94
271.234	65.94
271.466	93.94
271.698	69.94
271.93	76.94
272.162	80.94
272.394	92.94
272.626	77.94
272.858	76.94
273.09	89.94
273.322	80.94
273.553	74.94
273.785	74.94
274.017	86.94
274.249	79.94
274.481	96.94
274.713	91.94
274.945	92.94
275.176	90.94
275.408	87.94
275.64	86.94
275.872	91.94
276.104	89.94
276.335	101.94
276.567	81.94
276.799	98.94
277.031	102.94
277.262	68.94
277.494	94.94
277.726	94.94
277.957	82.94
278.189	92.94
278.421	102.94
278.652	87.94
278.884	76.94
279.115	86.94
279.347	77.94
279.579	87.94
279.81	103.94
280.042	71.94
280.273	76.94
280.505	82.94
280.736	88.94
280.968	84.94
281.199	72.94
281.431	103.94
281.662	87.94
281.894	89.94
282.125	86.94
282.356	97.94
282.588	130.94
282.819	81.94
283.051	82.94
283.282	80.94
283.513	89.94
283.745	110.94
283.976	86.94
284.207	82.94
284.439	84.94
284.67	84.94
284.901	88.94
285.132	93.94
285.364	105.94
285.595	80.94
285.826	70.94
286.057	78.94
286.288	84.94
286.52	83.94
286.751	78.94
286.982	82.94
287.213	71.94
287.444	85.94
287.675	77.94
287.906	71.94
288.138	95.94
288.369	81.94
288.6	103.94
288.831	90.94
289.062	90.94
289.293	86.94
289.524	80.94
289.755	88.94
289.986	96.94
290.217	94.94
290.448	83.94
290.679	78.94
290.91	88.94
291.141	93.94
291.371	83.94
291.602	71.94
291.833	81.94
292.064	97.94
292.295	87.94
292.526	87.94
292.757	94.94
292.987	84.94
293.218	85.94
293.449	97.94
293.68	82.94
293.91	87.94
294.141	93.94
294.372	93.94
294.603	76.94
294.833	92.94
295.064	72.94
295.295	77.94
295.525	91.94
295.756	97.94
295.987	104.94
296.217	130.94
296.448	109.94
296.679	88.94
296.909	92.94
297.14	80.94
297.37	88.94
297.601	85.94
297.831	85.94
298.062	85.94
298.292	103.94
298.523	97.94
298.753	101.94
298.984	91.94
299.214	84.94
299.445	79.94
299.675	86.94
299.905	89.94
300.136	108.94
300.366	82.94
300.597	86.94
300.827	97.94
301.057	102.94
301.288	98.94
301.518	81.94
301.748	87.94
301.979	117.94
302.209	88.94
302.439	84.94
302.669	88.94
302.9	103.94
303.13	102.94
303.36	87.94
303.59	92.94
303.82	90.94
304.051	89.94
304.281	86.94
304.511	96.94
304.741	100.94
304.971	85.94
305.201	84.94
305.431	91.94
305.661	86.94
305.891	82.94
306.121	96.94
306.352	89.94
306.582	108.94
306.812	84.94
307.042	80.94
307.272	88.94
307.502	87.94
307.731	88.94
307.961	94.94
308.191	87.94
308.421	95.94
308.651	94.94
308.881	93.94
309.111	74.94
309.341	88.94
309.571	85.94
309.8	94.94
310.03	92.94
310.26	89.94
310.49	86.94
310.72	79.94
310.949	102.94
311.179	92.94
311.409	82.94
311.639	104.94
311.868	91.94
312.098	82.94
312.328	104.94
312.557	92.94
312.787	97.94
313.017	93.94
313.246	95.94
313.476	101.94
313.706	84.94
313.935	87.94
314.165	86.94
314.394	99.94
314.624	93.94
314.853	88.94
315.083	96.94
315.312	90.94
315.542	92.94
315.771	87.94
316.001	93.94
316.23	75.94
316.46	91.94
316.689	94.94
316.919	96.94
317.148	102.94
317.377	91.94
317.607	88.94
317.836	85.94
318.065	77.94
318.295	96.94
318.524	92.94
318.753	72.94
318.983	75.94
319.212	82.94
319.441	103.94
319.67	99.94
319.9	90.94
320.129	80.94
320.358	100.94
320.587	94.94
320.816	100.94
321.046	98.94
321.275	98.94
321.504	100.94
321.733	104.94
321.962	103.94
322.191	94.94
322.42	100.94
322.649	96.94
322.878	106.94
323.108	105.94
323.337	116.94
323.566	117.94
323.795	138.94
324.024	193.94
324.253	343.94
324.482	710.94
324.71	1390.94
324.939	1804.94
325.168	684.94
325.397	212.94
325.626	136.94
325.855	132.94
326.084	109.94
326.313	127.94
326.542	146.94
326.77	199.94
326.999	404.94
327.228	810.94
327.457	1447.94
327.686	1121.94
327.914	320.94
328.143	172.94
328.372	144.94
328.6	116.94
328.829	107.94
329.058	112.94
329.287	113.94
329.515	108.94
329.744	93.94
329.972	82.94
330.201	100.94
330.43	107.94
330.658	95.94
330.887	133.94
331.115	104.94
331.344	88.94
331.572	102.94
331.801	93.94
332.03	106.94
332.258	92.94
332.486	94.94
332.715	105.94
332.943	89.94
333.172	86.94
333.4	108.94
333.629	113.94
333.857	117.94
334.085	118.94
334.314	88.94
334.542	106.94
334.771	102.94
334.999	110.94
335.227	87.94
335.455	97.94
335.684	87.94
335.912	105.94
336.14	109.94
336.369	94.94
336.597	89.94
336.825	82.94
337.053	93.94
337.281	86.94
337.51	92.94
337.738	92.94
337.966	99.94
338.194	109.94
338.422	103.94
338.65	99.94
338.878	94.94
339.106	75.94
339.334	97.94
339.562	83.94
339.79	101.94
340.018	80.94
340.246	86.94
340.474	100.94
340.702	98.94
340.93	93.94
341.158	78.94
341.386	82.94
341.614	96.94
341.842	92.94
342.07	93.94
342.298	96.94
342.526	88.94
342.754	104.94
342.981	83.94
343.209	82.94
343.437	93.94
343.665	70.94
343.893	81.94
344.12	87.94
344.348	86.94
344.576	92.94
344.804	91.94
345.031	80.94
345.259	86.94
345.487	97.94
345.714	87.94
345.942	94.94
346.17	86.94
346.397	92.94
346.625	96.94
346.853	105.94
347.08	85.94
347.308	94.94
347.535	94.94
347.763	93.94
347.99	106.94
348.218	109.94
348.445	91.94
348.673	94.94
348.9	92.94
349.128	96.94
349.355	87.94
349.583	80.94
349.81	101.94
350.037	109.94
350.265	106.94
350.492	101.94
350.72	93.94
350.947	96.94
351.174	91.94
351.402	104.94
351.629	95.94
351.856	105.94
352.083	89.94
352.311	97.94
352.538	98.94
352.765	102.94
352.992	113.94
353.22	111.94
353.447	97.94
353.674	99.94
353.901	104.94
354.128	110.94
354.355	92.94
354.583	86.94
354.81	96.94
355.037	86.94
355.264	84.94
355.491	85.94
355.718	88.94
355.945	92.94
356.172	99.94
356.399	87.94
356.626	83.94
356.853	95.94
357.08	92.94
357.307	92.94
357.534	91.94
357.761	85.94
357.988	101.94
358.215	91.94
358.441	89.94
358.668	86.94
358.895	89.94
359.122	89.94
359.349	94.94
359.576	89.94
359.802	101.94
360.029	102.94
360.256	101.94
360.483	91.94
360.709	64.94
360.936	83.94
361.163	95.94
361.39	88.94
361.616	110.94
361.843	93.94
362.07	93.94
362.296	95.94
362.523	93.94
362.749	89.94
362.976	84.94
363.203	86.94
363.429	85.94
363.656	77.94
363.882	78.94
364.109	95.94
364.335	87.94
364.562	87.94
364.788	77.94
365.015	80.94
365.241	78.94
365.468	111.94
365.694	97.94
365.92	97.94
366.147	98.94
366.373	94.94
366.599	90.94
366.826	81.94
367.052	90.94
367.278	93.94
367.505	85.94
367.731	80.94
367.957	102.94
368.184	103.94
368.41	98.94
368.636	106.94
368.862	104.94
369.089	82.94
369.315	97.94
369.541	83.94
369.767	72.94
369.993	90.94
370.219	76.94
370.445	99.94
370.672	80.94
370.898	92.94
371.124	64.94
371.35	94.94
371.576	81.94
371.802	82.94
372.028	82.94
372.254	77.94
372.48	72.94
372.706	86.94
372.932	81.94
373.158	96.94
373.384	91.94
373.61	78.94
373.835	81.94
374.061	92.94
374.287	94.94
374.513	89.94
374.739	90.94
374.965	88.94
375.191	90.94
375.416	98.94
375.642	92.94
375.868	70.94
376.094	95.94
376.319	83.94
376.545	87.94
376.771	86.94
376.997	84.94
377.222	89.94
377.448	92.94
377.674	82.94
377.899	87.94
378.125	80.94
378.35	96.94
378.576	87.94
378.802	87.94
379.027	84.94
379.253	92.94
379.478	93.94
379.704	91.94
379.929	104.94
380.155	92.94
380.38	87.94
380.606	106.94
380.831	84.94
381.057	101.94
381.282	101.94
381.507	93.94
381.733	92.94
381.958	97.94
382.184	101.94
382.409	91.94
382.634	101.94
382.86	105.94
383.085	96.94
383.31	102.94
383.535	95.94
383.761	104.94
383.986	90.94
384.211	97.94
384.436	97.94
384.662	89.94
384.887	92.94
385.112	89.94
385.337	114.94
385.562	90.94
385.787	102.94
386.013	102.94
386.238	106.94
386.463	86.94
386.688	99.94
386.913	97.94
387.138	101.94
387.363	104.94
387.588	91.94
387.813	94.94
388.038	95.94
388.263	108.94
388.488	104.94
388.713	98.94
388.938	95.94
389.163	109.94
389.387	101.94
389.612	93.94
389.837	89.94
390.062	96.94
390.287	93.94
390.512	83.94
390.736	90.94
390.961	88.94
391.186	92.94
391.411	95.94
391.636	89.94
391.86	86.94
392.085	106.94
392.31	81.94
392.534	81.94
392.759	79.94
392.984	93.94
393.208	83.94
393.433	89.94
393.658	85.94
393.882	97.94
394.107	77.94
394.331	65.94
394.556	95.94
394.78	81.94
395.005	96.94
395.229	107.94
395.454	96.94
395.678	83.94
395.903	80.94
396.127	86.94
396.352	74.94
396.576	77.94
396.801	85.94
397.025	70.94
397.249	92.94
397.474	78.94
397.698	94.94
397.922	91.94
398.147	86.94
398.371	89.94
398.595	110.94
398.82	91.94
399.044	91.94
399.268	76.94
399.492	84.94
399.717	90.94
399.941	97.94
400.165	88.94
400.389	83.94
400.613	88.94
400.837	93.94
401.062	87.94
401.286	107.94
401.51	95.94
401.734	97.94
401.958	98.94
402.182	102.94
402.406	136.94
402.63	104.94
402.854	89.94
403.078	82.94
403.302	82.94
403.526	98.94
403.75	84.94
403.974	97.94
404.198	81.94
404.422	94.94
404.645	97.94
404.869	93.94
405.093	85.94
405.317	106.94
405.541	95.94
405.765	97.94
405.988	101.94
406.212	162.94
406.436	196.94
406.66	112.94
406.883	82.94
407.107	113.94
407.331	98.94
407.555	95.94
407.778	92.94
408.002	87.94
408.226	86.94
408.449	84.94
408.673	89.94
408.896	97.94
409.12	89.94
409.344	101.94
409.567	92.94
409.791	100.94
410.014	106.94
410.238	97.94
410.461	96.94
410.685	108.94
410.908	90.94
411.132	104.94
411.355	109.94
411.578	86.94
411.802	72.94
412.025	88.94
412.249	85.94
412.472	89.94
412.695	85.94
412.919	82.94
413.142	87.94
413.365	94.94
413.589	93.94
413.812	86.94
414.035	87.94
414.258	88.94
414.482	96.94
414.705	96.94
414.928	92.94
415.151	93.94
415.374	86.94
415.597	94.94
415.821	78.94
416.044	83.94
416.267	81.94
416.49	82.94
416.713	92.94
416.936	86.94
417.159	96.94
417.382	93.94
417.605	98.94
417.828	98.94
418.051	89.94
418.274	88.94
418.497	73.94
418.72	80.94
418.943	96.94
419.166	90.94
419.389	77.94
419.611	79.94
419.834	86.94
420.057	86.94
420.28	89.94
420.503	82.94
420.726	89.94
420.948	79.94
421.171	86.94
421.394	78.94
421.617	80.94
421.839	92.94
422.062	77.94
422.285	91.94
422.507	98.94
422.73	86.94
422.953	76.94
423.175	81.94
423.398	87.94
423.621	79.94
423.843	90.94
424.066	91.94
424.288	82.94
424.511	102.94
424.733	97.94
424.956	85.94
425.178	91.94
425.401	106.94
425.623	93.94
425.846	93.94
426.068	92.94
426.291	103.94
426.513	87.94
426.735	90.94
426.958	93.94
427.18	100.94
427.402	124.94
427.625	135.94
427.847	114.94
428.069	88.94
428.292	90.94
428.514	88.94
428.736	76.94
428.958	77.94
429.181	81.94
429.403	86.94
429.625	100.94
429.847	98.94
430.069	89.94
430.292	96.94
430.514	80.94
430.736	82.94
430.958	105.94
431.18	85.94
431.402	92.94
431.624	77.94
431.846	90.94
432.068	92.94
432.29	82.94
432.512	89.94
432.734	103.94
432.956	93.94
433.178	90.94
433.4	90.94
433.622	87.94
433.844	88.94
434.066	83.94
434.287	94.94
434.509	82.94
434.731	84.94
434.953	89.94
435.175	72.94
435.397	87.94
435.618	105.94
435.84	91.94
436.062	101.94
436.284	115.94
436.505	93.94
436.727	89.94
436.949	98.94
437.17	75.94
437.392	82.94
437.614	92.94
437.835	104.94
438.057	105.94
438.278	97.94
438.5	108.94
438.721	111.94
438.943	103.94
439.165	86.94
439.386	71.94
439.608	78.94
439.829	84.94
440.05	120.94
440.272	117.94
440.493	98.94
440.715	92.94
440.936	89.94
441.158	80.94
441.379	86.94
441.6	68.94
441.822	97.94
442.043	107.94
442.264	102.94
442.486	95.94
442.707	89.94
442.928	95.94
443.149	113.94
443.371	122.94
443.592	104.94
443.813	108.94
444.034	97.94
444.255	92.94
444.476	96.94
444.698	86.94
444.919	80.94
445.14	115.94
445.361	126.94
445.582	103.94
445.803	117.94
446.024	107.94
446.245	132.94
446.466	110.94
446.687	84.94
446.908	89.94
447.129	72.94
447.35	89.94
447.571	89.94
447.792	82.94
448.013	89.94
448.234	93.94
448.455	97.94
448.675	107.94
448.896	100.94
449.117	95.94
449.338	94.94
449.559	105.94
449.779	121.94
450	93.94
450.221	81.94
450.442	94.94
450.662	85.94
450.883	97.94
451.104	92.94
451.324	74.94
451.545	87.94
451.766	88.94
451.986	89.94
452.207	79.94
452.428	91.94
452.648	95.94
452.869	120.94
453.089	111.94
453.31	104.94
453.53	92.94
453.751	102.94
453.971	100.94
454.192	105.94
454.412	89.94
454.633	59.94
454.853	90.94
455.073	72.94
455.294	97.94
455.514	92.94
455.734	95.94
455.955	79.94
456.175	86.94
456.395	81.94
456.616	91.94
456.836	78.94
457.056	96.94
457.276	70.94
457.497	83.94
457.717	95.94
457.937	82.94
458.157	78.94
458.377	82.94
458.598	85.94
458.818	123.94
459.038	146.94
459.258	116.94
459.478	82.94
459.698	84.94
459.918	78.94
460.138	89.94
460.358	88.94
460.578	90.94
460.798	88.94
461.018	90.94
461.238	84.94
461.458	80.94
461.678	90.94
461.898	88.94
462.118	86.94
462.338	92.94
462.558	76.94
462.777	83.94
462.997	78.94
463.217	76.94
463.437	85.94
463.657	97.94
463.876	73.94
464.096	81.94
464.316	77.94
464.536	90.94
464.755	89.94
464.975	96.94
465.195	127.94
465.414	150.94
465.634	93.94
465.854	72.94
466.073	89.94
466.293	92.94
466.512	76.94
466.732	73.94
466.951	88.94
467.171	92.94
467.391	91.94
467.61	92.94
467.829	101.94
468.049	89.94
468.268	97.94
468.488	74.94
468.707	73.94
468.927	83.94
469.146	82.94
469.365	85.94
469.585	94.94
469.804	90.94
470.023	102.94
470.243	87.94
470.462	88.94
470.681	97.94
470.901	74.94
471.12	91.94
471.339	95.94
471.558	75.94
471.777	78.94
471.997	80.94
472.216	92.94
472.435	101.94
472.654	81.94
472.873	74.94
473.092	86.94
473.311	87.94
473.53	81.94
473.749	74.94
473.968	84.94
474.187	89.94
474.406	100.94
474.625	89.94
474.844	92.94
475.063	87.94
475.282	86.94
475.501	88.94
475.72	88.94
475.939	84.94
476.158	73.94
476.377	82.94
476.596	93.94
476.814	85.94
477.033	86.94
477.252	89.94
477.471	95.94
477.69	74.94
477.908	78.94
478.127	91.94
478.346	86.94
478.564	91.94
478.783	94.94
479.002	85.94
479.22	90.94
479.439	87.94
479.658	103.94
479.876	90.94
480.095	88.94
480.313	80.94
480.532	86.94
480.751	91.94
480.969	93.94
481.188	106.94
481.406	106.94
481.624	87.94
481.843	87.94
482.061	86.94
482.28	87.94
482.498	91.94
482.717	86.94
482.935	92.94
483.153	87.94
483.372	94.94
483.59	84.94
483.808	92.94
484.027	82.94
484.245	89.94
484.463	88.94
484.681	89.94
484.9	80.94
485.118	91.94
485.336	85.94
485.554	101.94
485.772	97.94
485.99	90.94
486.209	106.94
486.427	108.94
486.645	109.94
486.863	115.94
487.081	114.94
487.299	97.94
487.517	93.94
487.735	87.94
487.953	90.94
488.171	96.94
488.389	96.94
488.607	94.94
488.825	89.94
489.043	97.94
489.261	93.94
489.479	74.94
489.696	69.94
489.914	91.94
490.132	99.94
490.35	98.94
490.568	86.94
490.786	91.94
491.003	80.94
491.221	95.94
491.439	100.94
491.657	99.94
491.874	85.94
492.092	89.94
492.31	99.94
492.527	98.94
492.745	92.94
492.963	95.94
493.18	91.94
493.398	86.94
493.615	87.94
493.833	82.94
494.05	82.94
494.268	98.94
494.485	79.94
494.703	75.94
494.92	86.94
495.138	94.94
495.355	88.94
495.573	98.94
495.79	94.94
496.008	90.94
496.225	94.94
496.442	83.94
496.66	100.94
496.877	85.94
497.094	95.94
497.312	89.94
497.529	100.94
497.746	90.94
497.963	97.94
498.181	103.94
498.398	101.94
498.615	95.94
498.832	102.94
499.049	100.94
499.267	86.94
499.484	101.94
499.701	110.94
499.918	86.94
500.135	82.94
500.352	98.94
500.569	85.94
500.786	85.94
501.003	96.94
501.22	90.94
501.437	86.94
501.654	80.94
501.871	114.94
502.088	80.94
502.305	85.94
502.522	87.94
502.739	93.94
502.956	84.94
503.172	100.94
503.389	102.94
503.606	104.94
503.823	81.94
504.04	98.94
504.256	96.94
504.473	95.94
504.69	87.94
504.907	87.94
505.123	93.94
505.34	83.94
505.557	83.94
505.773	82.94
505.99	81.94
506.207	87.94
506.423	82.94
506.64	95.94
506.856	99.94
507.073	85.94
507.289	91.94
507.506	91.94
507.722	87.94
507.939	111.94
508.155	81.94
508.372	88.94
508.588	80.94
508.805	91.94
509.021	105.94
509.238	103.94
509.454	105.94
509.67	80.94
509.887	104.94
510.103	111.94
510.319	189.94
510.536	636.94
510.752	1911.94
510.968	532.94
511.184	140.94
511.401	100.94
511.617	98.94
511.833	92.94
512.049	71.94
512.265	89.94
512.481	90.94
512.698	95.94
512.914	104.94
513.13	80.94
513.346	92.94
513.562	89.94
513.778	86.94
513.994	87.94
514.21	99.94
514.426	102.94
514.642	129.94
514.858	142.94
515.074	154.94
515.29	375.94
515.506	1116.94
515.721	411.94
515.937	142.94
516.153	104.94
516.369	98.94
516.585	92.94
