Data from Uncirc_1998_H10_HRD10591_00062.txt Node
Date: Wed Jan 03 11:25:37 EST 2024
User: Yrep
Spectrometer: HR+D1059
Trigger mode: 1
Integration Time (sec): 1.000000E-1
Scans to average: 1
Electric dark correction enabled: true
Nonlinearity correction enabled: false
Boxcar width: 0
XAxis mode: Wavelengths
Number of Pixels in Spectrum: 2048
>>>>>Begin Spectral Data<<<<<
223.165	-24.81
223.4	-24.81
223.635	-24.81
223.869	-23.81
224.104	-29.81
224.338	-5.81
224.573	-11.81
224.808	-8.81
225.042	-6.81
225.277	8.19
225.511	-15.81
225.746	7.19
225.98	13.19
226.215	17.19
226.449	17.19
226.683	23.19
226.918	15.19
227.152	26.19
227.387	39.19
227.621	40.19
227.856	31.19
228.09	54.19
228.324	44.19
228.559	42.19
228.793	58.19
229.027	71.19
229.262	63.19
229.496	83.19
229.73	74.19
229.964	81.19
230.199	68.19
230.433	82.19
230.667	81.19
230.901	80.19
231.136	84.19
231.37	79.19
231.604	83.19
231.838	88.19
232.072	70.19
232.306	89.19
232.541	82.19
232.775	79.19
233.009	86.19
233.243	86.19
233.477	79.19
233.711	72.19
233.945	87.19
234.179	78.19
234.413	75.19
234.647	74.19
234.881	81.19
235.115	86.19
235.349	84.19
235.583	87.19
235.817	82.19
236.051	86.19
236.285	68.19
236.519	65.19
236.753	75.19
236.987	78.19
237.221	88.19
237.455	90.19
237.689	83.19
237.922	80.19
238.156	78.19
238.39	83.19
238.624	80.19
238.858	83.19
239.091	81.19
239.325	86.19
239.559	87.19
239.793	67.19
240.027	87.19
240.26	66.19
240.494	76.19
240.728	74.19
240.961	72.19
241.195	66.19
241.429	78.19
241.662	82.19
241.896	81.19
242.13	77.19
242.363	69.19
242.597	67.19
242.83	85.19
243.064	75.19
243.298	77.19
243.531	66.19
243.765	71.19
243.998	74.19
244.232	82.19
244.465	88.19
244.699	69.19
244.932	92.19
245.166	86.19
245.399	66.19
245.633	80.19
245.866	81.19
246.099	63.19
246.333	94.19
246.566	98.19
246.8	88.19
247.033	75.19
247.266	74.19
247.5	84.19
247.733	61.19
247.966	80.19
248.2	82.19
248.433	76.19
248.666	83.19
248.899	79.19
249.133	87.19
249.366	90.19
249.599	100.19
249.832	75.19
250.066	91.19
250.299	96.19
250.532	89.19
250.765	94.19
250.998	80.19
251.231	86.19
251.465	78.19
251.698	77.19
251.931	70.19
252.164	93.19
252.397	92.19
252.63	90.19
252.863	78.19
253.096	85.19
253.329	69.19
253.562	68.19
253.795	66.19
254.028	69.19
254.261	74.19
254.494	83.19
254.727	84.19
254.96	94.19
255.193	75.19
255.426	88.19
255.659	72.19
255.892	81.19
256.124	81.19
256.357	95.19
256.59	72.19
256.823	66.19
257.056	85.19
257.289	79.19
257.521	74.19
257.754	82.19
257.987	79.19
258.22	64.19
258.452	85.19
258.685	97.19
258.918	84.19
259.151	82.19
259.383	83.19
259.616	87.19
259.849	86.19
260.081	92.19
260.314	84.19
260.547	75.19
260.779	77.19
261.012	68.19
261.244	66.19
261.477	83.19
261.71	104.19
261.942	115.19
262.175	120.19
262.407	108.19
262.64	93.19
262.872	92.19
263.105	80.19
263.337	90.19
263.57	84.19
263.802	80.19
264.035	87.19
264.267	84.19
264.499	73.19
264.732	78.19
264.964	67.19
265.197	86.19
265.429	99.19
265.661	89.19
265.894	74.19
266.126	59.19
266.358	82.19
266.591	74.19
266.823	85.19
267.055	89.19
267.287	70.19
267.52	83.19
267.752	95.19
267.984	93.19
268.216	73.19
268.448	94.19
268.681	85.19
268.913	75.19
269.145	75.19
269.377	91.19
269.609	79.19
269.841	94.19
270.073	79.19
270.306	86.19
270.538	85.19
270.77	71.19
271.002	84.19
271.234	100.19
271.466	74.19
271.698	73.19
271.93	93.19
272.162	92.19
272.394	90.19
272.626	88.19
272.858	86.19
273.09	88.19
273.322	93.19
273.553	78.19
273.785	83.19
274.017	73.19
274.249	77.19
274.481	95.19
274.713	76.19
274.945	93.19
275.176	82.19
275.408	92.19
275.64	85.19
275.872	73.19
276.104	80.19
276.335	90.19
276.567	89.19
276.799	107.19
277.031	80.19
277.262	82.19
277.494	104.19
277.726	90.19
277.957	97.19
278.189	75.19
278.421	74.19
278.652	87.19
278.884	103.19
279.115	99.19
279.347	84.19
279.579	67.19
279.81	70.19
280.042	82.19
280.273	106.19
280.505	87.19
280.736	95.19
280.968	84.19
281.199	97.19
281.431	79.19
281.662	101.19
281.894	96.19
282.125	87.19
282.356	115.19
282.588	126.19
282.819	113.19
283.051	88.19
283.282	90.19
283.513	82.19
283.745	89.19
283.976	95.19
284.207	84.19
284.439	90.19
284.67	83.19
284.901	88.19
285.132	80.19
285.364	95.19
285.595	92.19
285.826	90.19
286.057	87.19
286.288	87.19
286.52	92.19
286.751	83.19
286.982	92.19
287.213	83.19
287.444	88.19
287.675	90.19
287.906	80.19
288.138	96.19
288.369	104.19
288.6	99.19
288.831	97.19
289.062	97.19
289.293	105.19
289.524	92.19
289.755	74.19
289.986	78.19
290.217	90.19
290.448	81.19
290.679	80.19
290.91	98.19
291.141	83.19
291.371	88.19
291.602	92.19
291.833	95.19
292.064	94.19
292.295	83.19
292.526	82.19
292.757	72.19
292.987	92.19
293.218	83.19
293.449	90.19
293.68	86.19
293.91	88.19
294.141	86.19
294.372	105.19
294.603	100.19
294.833	82.19
295.064	95.19
295.295	76.19
295.525	83.19
295.756	100.19
295.987	128.19
296.217	125.19
296.448	109.19
296.679	92.19
296.909	73.19
297.14	95.19
297.37	96.19
297.601	90.19
297.831	87.19
298.062	93.19
298.292	87.19
298.523	94.19
298.753	103.19
298.984	92.19
299.214	92.19
299.445	90.19
299.675	106.19
299.905	94.19
300.136	89.19
300.366	95.19
300.597	83.19
300.827	94.19
301.057	86.19
301.288	112.19
301.518	88.19
301.748	85.19
301.979	85.19
302.209	97.19
302.439	88.19
302.669	93.19
302.9	88.19
303.13	99.19
303.36	89.19
303.59	100.19
303.82	112.19
304.051	111.19
304.281	95.19
304.511	103.19
304.741	97.19
304.971	75.19
305.201	74.19
305.431	88.19
305.661	88.19
305.891	89.19
306.121	93.19
306.352	102.19
306.582	93.19
306.812	78.19
307.042	88.19
307.272	107.19
307.502	74.19
307.731	93.19
307.961	102.19
308.191	93.19
308.421	83.19
308.651	95.19
308.881	80.19
309.111	95.19
309.341	91.19
309.571	94.19
309.8	97.19
310.03	97.19
310.26	86.19
310.49	89.19
310.72	81.19
310.949	102.19
311.179	93.19
311.409	90.19
311.639	101.19
311.868	95.19
312.098	103.19
312.328	103.19
312.557	107.19
312.787	98.19
313.017	100.19
313.246	95.19
313.476	95.19
313.706	95.19
313.935	80.19
314.165	97.19
314.394	124.19
314.624	102.19
314.853	95.19
315.083	100.19
315.312	95.19
315.542	93.19
315.771	88.19
316.001	90.19
316.23	97.19
316.46	97.19
316.689	87.19
316.919	104.19
317.148	96.19
317.377	102.19
317.607	102.19
317.836	95.19
318.065	100.19
318.295	90.19
318.524	95.19
318.753	83.19
318.983	97.19
319.212	93.19
319.441	123.19
319.67	106.19
319.9	95.19
320.129	110.19
320.358	86.19
320.587	90.19
320.816	112.19
321.046	98.19
321.275	88.19
321.504	86.19
321.733	99.19
321.962	100.19
322.191	98.19
322.42	100.19
322.649	111.19
322.878	110.19
323.108	116.19
323.337	114.19
323.566	138.19
323.795	146.19
324.024	186.19
324.253	361.19
324.482	770.19
324.71	1551.19
324.939	2038.19
325.168	771.19
325.397	239.19
325.626	152.19
325.855	131.19
326.084	117.19
326.313	137.19
326.542	134.19
326.77	209.19
326.999	420.19
327.228	889.19
327.457	1632.19
327.686	1267.19
327.914	361.19
328.143	200.19
328.372	152.19
328.6	122.19
328.829	111.19
329.058	125.19
329.287	134.19
329.515	123.19
329.744	110.19
329.972	82.19
330.201	100.19
330.43	116.19
330.658	105.19
330.887	129.19
331.115	122.19
331.344	92.19
331.572	104.19
331.801	106.19
332.03	110.19
332.258	98.19
332.486	86.19
332.715	83.19
332.943	97.19
333.172	81.19
333.4	97.19
333.629	115.19
333.857	116.19
334.085	94.19
334.314	101.19
334.542	110.19
334.771	96.19
334.999	95.19
335.227	104.19
335.455	98.19
335.684	98.19
335.912	85.19
336.14	96.19
336.369	106.19
336.597	99.19
336.825	102.19
337.053	89.19
337.281	97.19
337.51	84.19
337.738	96.19
337.966	103.19
338.194	87.19
338.422	108.19
338.65	90.19
338.878	91.19
339.106	88.19
339.334	99.19
339.562	94.19
339.79	91.19
340.018	87.19
340.246	105.19
340.474	95.19
340.702	107.19
340.93	88.19
341.158	93.19
341.386	99.19
341.614	107.19
341.842	97.19
342.07	88.19
342.298	95.19
342.526	83.19
342.754	92.19
342.981	90.19
343.209	82.19
343.437	94.19
343.665	93.19
343.893	77.19
344.12	86.19
344.348	96.19
344.576	76.19
344.804	85.19
345.031	100.19
345.259	95.19
345.487	101.19
345.714	104.19
345.942	85.19
346.17	90.19
346.397	92.19
346.625	90.19
346.853	88.19
347.08	96.19
347.308	89.19
347.535	95.19
347.763	98.19
347.99	97.19
348.218	115.19
348.445	101.19
348.673	97.19
348.9	105.19
349.128	92.19
349.355	81.19
349.583	97.19
349.81	106.19
350.037	104.19
350.265	108.19
350.492	100.19
350.72	103.19
350.947	102.19
351.174	107.19
351.402	96.19
351.629	115.19
351.856	91.19
352.083	114.19
352.311	114.19
352.538	96.19
352.765	102.19
352.992	122.19
353.22	107.19
353.447	107.19
353.674	105.19
353.901	107.19
354.128	101.19
354.355	100.19
354.583	99.19
354.81	94.19
355.037	97.19
355.264	101.19
355.491	89.19
355.718	103.19
355.945	99.19
356.172	104.19
356.399	87.19
356.626	86.19
356.853	91.19
357.08	97.19
357.307	87.19
357.534	82.19
357.761	86.19
357.988	101.19
358.215	106.19
358.441	109.19
358.668	102.19
358.895	98.19
359.122	90.19
359.349	105.19
359.576	89.19
359.802	91.19
360.029	106.19
360.256	104.19
360.483	80.19
360.709	91.19
360.936	99.19
361.163	97.19
361.39	100.19
361.616	86.19
361.843	80.19
362.07	89.19
362.296	85.19
362.523	78.19
362.749	100.19
362.976	90.19
363.203	97.19
363.429	93.19
363.656	84.19
363.882	91.19
364.109	90.19
364.335	86.19
364.562	80.19
364.788	79.19
365.015	92.19
365.241	88.19
365.468	88.19
365.694	94.19
365.92	88.19
366.147	100.19
366.373	103.19
366.599	102.19
366.826	100.19
367.052	92.19
367.278	91.19
367.505	95.19
367.731	104.19
367.957	90.19
368.184	98.19
368.41	98.19
368.636	93.19
368.862	108.19
369.089	111.19
369.315	100.19
369.541	105.19
369.767	86.19
369.993	92.19
370.219	94.19
370.445	87.19
370.672	86.19
370.898	83.19
371.124	79.19
371.35	82.19
371.576	82.19
371.802	89.19
372.028	92.19
372.254	90.19
372.48	105.19
372.706	101.19
372.932	85.19
373.158	97.19
373.384	100.19
373.61	104.19
373.835	84.19
374.061	91.19
374.287	100.19
374.513	95.19
374.739	101.19
374.965	94.19
375.191	94.19
375.416	91.19
375.642	88.19
375.868	107.19
376.094	84.19
376.319	96.19
376.545	104.19
376.771	106.19
376.997	94.19
377.222	100.19
377.448	88.19
377.674	97.19
377.899	91.19
378.125	91.19
378.35	82.19
378.576	82.19
378.802	99.19
379.027	86.19
379.253	93.19
379.478	109.19
379.704	95.19
379.929	94.19
380.155	84.19
380.38	97.19
380.606	81.19
380.831	113.19
381.057	95.19
381.282	83.19
381.507	95.19
381.733	97.19
381.958	98.19
382.184	88.19
382.409	96.19
382.634	96.19
382.86	101.19
383.085	95.19
383.31	90.19
383.535	100.19
383.761	106.19
383.986	110.19
384.211	93.19
384.436	106.19
384.662	96.19
384.887	102.19
385.112	90.19
385.337	97.19
385.562	113.19
385.787	105.19
386.013	108.19
386.238	105.19
386.463	97.19
386.688	108.19
386.913	106.19
387.138	118.19
387.363	86.19
387.588	108.19
387.813	83.19
388.038	92.19
388.263	113.19
388.488	94.19
388.713	83.19
388.938	89.19
389.163	110.19
389.387	90.19
389.612	105.19
389.837	98.19
390.062	93.19
390.287	92.19
390.512	84.19
390.736	106.19
390.961	89.19
391.186	109.19
391.411	90.19
391.636	93.19
391.86	82.19
392.085	89.19
392.31	86.19
392.534	84.19
392.759	86.19
392.984	92.19
393.208	88.19
393.433	90.19
393.658	83.19
393.882	90.19
394.107	86.19
394.331	99.19
394.556	109.19
394.78	100.19
395.005	85.19
395.229	94.19
395.454	77.19
395.678	90.19
395.903	91.19
396.127	90.19
396.352	98.19
396.576	84.19
396.801	104.19
397.025	88.19
397.249	103.19
397.474	93.19
397.698	97.19
397.922	94.19
398.147	91.19
398.371	83.19
398.595	84.19
398.82	79.19
399.044	74.19
399.268	91.19
399.492	82.19
399.717	80.19
399.941	89.19
400.165	76.19
400.389	90.19
400.613	83.19
400.837	97.19
401.062	88.19
401.286	79.19
401.51	87.19
401.734	79.19
401.958	110.19
402.182	122.19
402.406	157.19
402.63	128.19
402.854	91.19
403.078	96.19
403.302	87.19
403.526	99.19
403.75	89.19
403.974	89.19
404.198	87.19
404.422	92.19
404.645	94.19
404.869	92.19
405.093	89.19
405.317	96.19
405.541	96.19
405.765	90.19
405.988	130.19
406.212	172.19
406.436	213.19
406.66	128.19
406.883	95.19
407.107	98.19
407.331	106.19
407.555	111.19
407.778	93.19
408.002	104.19
408.226	84.19
408.449	79.19
408.673	82.19
408.896	105.19
409.12	94.19
409.344	90.19
409.567	86.19
409.791	84.19
410.014	98.19
410.238	87.19
410.461	98.19
410.685	92.19
410.908	109.19
411.132	102.19
411.355	96.19
411.578	88.19
411.802	82.19
412.025	90.19
412.249	102.19
412.472	84.19
412.695	87.19
412.919	104.19
413.142	88.19
413.365	92.19
413.589	85.19
413.812	108.19
414.035	96.19
414.258	86.19
414.482	110.19
414.705	95.19
414.928	106.19
415.151	91.19
415.374	80.19
415.597	84.19
415.821	89.19
416.044	79.19
416.267	86.19
416.49	86.19
416.713	82.19
416.936	94.19
417.159	96.19
417.382	95.19
417.605	87.19
417.828	87.19
418.051	88.19
418.274	96.19
418.497	94.19
418.72	96.19
418.943	98.19
419.166	83.19
419.389	82.19
419.611	77.19
419.834	83.19
420.057	89.19
420.28	84.19
420.503	70.19
420.726	87.19
420.948	89.19
421.171	101.19
421.394	94.19
421.617	101.19
421.839	84.19
422.062	84.19
422.285	106.19
422.507	96.19
422.73	91.19
422.953	103.19
423.175	103.19
423.398	90.19
423.621	104.19
423.843	99.19
424.066	79.19
424.288	98.19
424.511	97.19
424.733	94.19
424.956	104.19
425.178	108.19
425.401	87.19
425.623	83.19
425.846	85.19
426.068	94.19
426.291	87.19
426.513	89.19
426.735	92.19
426.958	88.19
427.18	95.19
427.402	128.19
427.625	150.19
427.847	128.19
428.069	98.19
428.292	111.19
428.514	95.19
428.736	94.19
428.958	70.19
429.181	85.19
429.403	78.19
429.625	102.19
429.847	90.19
430.069	104.19
430.292	103.19
430.514	90.19
430.736	62.19
430.958	86.19
431.18	91.19
431.402	86.19
431.624	75.19
431.846	86.19
432.068	106.19
432.29	82.19
432.512	83.19
432.734	75.19
432.956	93.19
433.178	108.19
433.4	104.19
433.622	89.19
433.844	95.19
434.066	89.19
434.287	94.19
434.509	97.19
434.731	91.19
434.953	91.19
435.175	94.19
435.397	87.19
435.618	95.19
435.84	82.19
436.062	135.19
436.284	110.19
436.505	97.19
436.727	92.19
436.949	74.19
437.17	90.19
437.392	83.19
437.614	96.19
437.835	117.19
438.057	112.19
438.278	101.19
438.5	92.19
438.721	110.19
438.943	88.19
439.165	75.19
439.386	89.19
439.608	88.19
439.829	86.19
440.05	128.19
440.272	139.19
440.493	90.19
440.715	92.19
440.936	83.19
441.158	87.19
441.379	90.19
441.6	103.19
441.822	104.19
442.043	100.19
442.264	90.19
442.486	96.19
442.707	75.19
442.928	108.19
443.149	119.19
443.371	134.19
443.592	106.19
443.813	111.19
444.034	114.19
444.255	94.19
444.476	93.19
444.698	87.19
444.919	89.19
445.14	153.19
445.361	130.19
445.582	121.19
445.803	120.19
446.024	131.19
446.245	131.19
446.466	117.19
446.687	90.19
446.908	78.19
447.129	100.19
447.35	91.19
447.571	101.19
447.792	96.19
448.013	102.19
448.234	102.19
448.455	109.19
448.675	98.19
448.896	106.19
449.117	83.19
449.338	102.19
449.559	138.19
449.779	116.19
450	94.19
450.221	86.19
450.442	91.19
450.662	95.19
450.883	95.19
451.104	104.19
451.324	108.19
451.545	99.19
451.766	88.19
451.986	84.19
452.207	97.19
452.428	105.19
452.648	88.19
452.869	100.19
453.089	93.19
453.31	118.19
453.53	109.19
453.751	100.19
453.971	120.19
454.192	107.19
454.412	93.19
454.633	92.19
454.853	76.19
455.073	100.19
455.294	100.19
455.514	108.19
455.734	89.19
455.955	95.19
456.175	85.19
456.395	91.19
456.616	81.19
456.836	83.19
457.056	78.19
457.276	97.19
457.497	95.19
457.717	94.19
457.937	80.19
458.157	86.19
458.377	94.19
458.598	106.19
458.818	140.19
459.038	142.19
459.258	111.19
459.478	94.19
459.698	88.19
459.918	89.19
460.138	75.19
460.358	84.19
460.578	88.19
460.798	82.19
461.018	96.19
461.238	75.19
461.458	92.19
461.678	94.19
461.898	88.19
462.118	83.19
462.338	86.19
462.558	87.19
462.777	78.19
462.997	76.19
463.217	102.19
463.437	104.19
463.657	97.19
463.876	97.19
464.096	80.19
464.316	88.19
464.536	98.19
464.755	89.19
464.975	100.19
465.195	156.19
465.414	147.19
465.634	93.19
465.854	100.19
466.073	91.19
466.293	84.19
466.512	102.19
466.732	86.19
466.951	78.19
467.171	95.19
467.391	88.19
467.61	99.19
467.829	98.19
468.049	77.19
468.268	83.19
468.488	88.19
468.707	89.19
468.927	77.19
469.146	86.19
469.365	89.19
469.585	93.19
469.804	95.19
470.023	103.19
470.243	93.19
470.462	88.19
470.681	96.19
470.901	89.19
471.12	93.19
471.339	98.19
471.558	94.19
471.777	97.19
471.997	70.19
472.216	78.19
472.435	95.19
472.654	84.19
472.873	95.19
473.092	77.19
473.311	84.19
473.53	87.19
473.749	87.19
473.968	83.19
474.187	107.19
474.406	101.19
474.625	96.19
474.844	91.19
475.063	89.19
475.282	103.19
475.501	89.19
475.72	91.19
475.939	84.19
476.158	93.19
476.377	94.19
476.596	89.19
476.814	93.19
477.033	101.19
477.252	86.19
477.471	79.19
477.69	79.19
477.908	97.19
478.127	90.19
478.346	85.19
478.564	91.19
478.783	95.19
479.002	97.19
479.22	84.19
479.439	97.19
479.658	109.19
479.876	93.19
480.095	90.19
480.313	82.19
480.532	93.19
480.751	95.19
480.969	101.19
481.188	86.19
481.406	102.19
481.624	97.19
481.843	88.19
482.061	104.19
482.28	88.19
482.498	80.19
482.717	94.19
482.935	88.19
483.153	87.19
483.372	114.19
483.59	78.19
483.808	75.19
484.027	86.19
484.245	95.19
484.463	91.19
484.681	82.19
484.9	94.19
485.118	92.19
485.336	105.19
485.554	94.19
485.772	109.19
485.99	102.19
486.209	90.19
486.427	84.19
486.645	102.19
486.863	110.19
487.081	99.19
487.299	98.19
487.517	94.19
487.735	106.19
487.953	86.19
488.171	86.19
488.389	105.19
488.607	80.19
488.825	68.19
489.043	83.19
489.261	87.19
489.479	98.19
489.696	93.19
489.914	98.19
490.132	94.19
490.35	77.19
490.568	92.19
490.786	86.19
491.003	82.19
491.221	84.19
491.439	92.19
491.657	96.19
491.874	90.19
492.092	98.19
492.31	99.19
492.527	97.19
492.745	90.19
492.963	98.19
493.18	92.19
493.398	92.19
493.615	91.19
493.833	94.19
494.05	89.19
494.268	82.19
494.485	90.19
494.703	90.19
494.92	89.19
495.138	91.19
495.355	104.19
495.573	84.19
495.79	102.19
496.008	90.19
496.225	91.19
496.442	92.19
496.66	100.19
496.877	111.19
497.094	84.19
497.312	82.19
497.529	87.19
497.746	95.19
497.963	84.19
498.181	96.19
498.398	92.19
498.615	105.19
498.832	100.19
499.049	89.19
499.267	90.19
499.484	99.19
499.701	90.19
499.918	82.19
500.135	80.19
500.352	99.19
500.569	91.19
500.786	97.19
501.003	89.19
501.22	100.19
501.437	96.19
501.654	102.19
501.871	102.19
502.088	85.19
502.305	104.19
502.522	94.19
502.739	105.19
502.956	103.19
503.172	102.19
503.389	88.19
503.606	105.19
503.823	100.19
504.04	102.19
504.256	108.19
504.473	90.19
504.69	95.19
504.907	89.19
505.123	84.19
505.34	85.19
505.557	90.19
505.773	90.19
505.99	92.19
506.207	95.19
506.423	99.19
506.64	87.19
506.856	90.19
507.073	87.19
507.289	81.19
507.506	85.19
507.722	93.19
507.939	101.19
508.155	89.19
508.372	96.19
508.588	77.19
508.805	98.19
509.021	114.19
509.238	107.19
509.454	104.19
509.67	111.19
509.887	105.19
510.103	139.19
510.319	217.19
510.536	724.19
510.752	2158.19
510.968	609.19
511.184	137.19
511.401	111.19
511.617	103.19
511.833	84.19
512.049	105.19
512.265	83.19
512.481	93.19
512.698	92.19
512.914	79.19
513.13	93.19
513.346	87.19
513.562	90.19
513.778	100.19
513.994	88.19
514.21	91.19
514.426	115.19
514.642	128.19
514.858	110.19
515.074	161.19
515.29	413.19
