Data from Uncirc_1998_H10_HRD10591_00079.txt Node
Date: Wed Jan 03 11:25:40 EST 2024
User: Yrep
Spectrometer: HR+D1059
Trigger mode: 1
Integration Time (sec): 1.000000E-1
Scans to average: 1
Electric dark correction enabled: true
Nonlinearity correction enabled: false
Boxcar width: 0
XAxis mode: Wavelengths
Number of Pixels in Spectrum: 2048
>>>>>Begin Spectral Data<<<<<
223.165	-16.81
223.4	-16.81
223.635	-16.81
223.869	-36.81
224.104	-30.81
224.338	-5.81
224.573	-11.81
224.808	-22.81
225.042	-1.81
225.277	-11.81
225.511	-1.81
225.746	3.19
225.98	13.19
226.215	8.19
226.449	11.19
226.683	37.19
226.918	33.19
227.152	34.19
227.387	47.19
227.621	31.19
227.856	37.19
228.09	51.19
228.324	58.19
228.559	61.19
228.793	59.19
229.027	53.19
229.262	50.19
229.496	79.19
229.73	76.19
229.964	71.19
230.199	71.19
230.433	72.19
230.667	66.19
230.901	71.19
231.136	68.19
231.37	85.19
231.604	80.19
231.838	83.19
232.072	75.19
232.306	89.19
232.541	85.19
232.775	83.19
233.009	84.19
233.243	82.19
233.477	63.19
233.711	87.19
233.945	84.19
234.179	79.19
234.413	85.19
234.647	82.19
234.881	67.19
235.115	67.19
235.349	86.19
235.583	75.19
235.817	77.19
236.051	73.19
236.285	71.19
236.519	69.19
236.753	80.19
236.987	84.19
237.221	96.19
237.455	72.19
237.689	63.19
237.922	75.19
238.156	72.19
238.39	77.19
238.624	75.19
238.858	78.19
239.091	80.19
239.325	59.19
239.559	88.19
239.793	59.19
240.027	68.19
240.26	85.19
240.494	79.19
240.728	65.19
240.961	75.19
241.195	59.19
241.429	71.19
241.662	63.19
241.896	72.19
242.13	52.19
242.363	92.19
242.597	85.19
242.83	61.19
243.064	80.19
243.298	67.19
243.531	67.19
243.765	62.19
243.998	71.19
244.232	70.19
244.465	86.19
244.699	75.19
244.932	70.19
245.166	100.19
245.399	83.19
245.633	79.19
245.866	80.19
246.099	75.19
246.333	74.19
246.566	86.19
246.8	77.19
247.033	79.19
247.266	84.19
247.5	88.19
247.733	68.19
247.966	77.19
248.2	69.19
248.433	75.19
248.666	86.19
248.899	80.19
249.133	79.19
249.366	82.19
249.599	96.19
249.832	83.19
250.066	71.19
250.299	79.19
250.532	83.19
250.765	79.19
250.998	74.19
251.231	87.19
251.465	82.19
251.698	71.19
251.931	60.19
252.164	71.19
252.397	80.19
252.63	67.19
252.863	71.19
253.096	75.19
253.329	80.19
253.562	69.19
253.795	63.19
254.028	64.19
254.261	82.19
254.494	78.19
254.727	92.19
254.96	75.19
255.193	86.19
255.426	90.19
255.659	77.19
255.892	76.19
256.124	73.19
256.357	87.19
256.59	71.19
256.823	71.19
257.056	71.19
257.289	79.19
257.521	88.19
257.754	82.19
257.987	70.19
258.22	72.19
258.452	68.19
258.685	87.19
258.918	84.19
259.151	89.19
259.383	76.19
259.616	86.19
259.849	74.19
260.081	77.19
260.314	71.19
260.547	81.19
260.779	89.19
261.012	86.19
261.244	78.19
261.477	78.19
261.71	94.19
261.942	90.19
262.175	113.19
262.407	87.19
262.64	79.19
262.872	78.19
263.105	86.19
263.337	72.19
263.57	85.19
263.802	79.19
264.035	89.19
264.267	77.19
264.499	64.19
264.732	99.19
264.964	67.19
265.197	78.19
265.429	84.19
265.661	85.19
265.894	67.19
266.126	82.19
266.358	72.19
266.591	80.19
266.823	74.19
267.055	93.19
267.287	90.19
267.52	92.19
267.752	84.19
267.984	88.19
268.216	83.19
268.448	76.19
268.681	91.19
268.913	89.19
269.145	93.19
269.377	81.19
269.609	80.19
269.841	75.19
270.073	80.19
270.306	73.19
270.538	91.19
270.77	89.19
271.002	78.19
271.234	83.19
271.466	92.19
271.698	82.19
271.93	68.19
272.162	80.19
272.394	89.19
272.626	86.19
272.858	84.19
273.09	83.19
273.322	71.19
273.553	102.19
273.785	83.19
274.017	75.19
274.249	80.19
274.481	90.19
274.713	75.19
274.945	74.19
275.176	71.19
275.408	83.19
275.64	77.19
275.872	75.19
276.104	93.19
276.335	95.19
276.567	76.19
276.799	112.19
277.031	83.19
277.262	78.19
277.494	75.19
277.726	87.19
277.957	88.19
278.189	90.19
278.421	85.19
278.652	84.19
278.884	90.19
279.115	74.19
279.347	78.19
279.579	97.19
279.81	73.19
280.042	84.19
280.273	80.19
280.505	79.19
280.736	56.19
280.968	59.19
281.199	79.19
281.431	89.19
281.662	91.19
281.894	90.19
282.125	97.19
282.356	112.19
282.588	132.19
282.819	121.19
283.051	89.19
283.282	96.19
283.513	82.19
283.745	80.19
283.976	92.19
284.207	64.19
284.439	86.19
284.67	87.19
284.901	90.19
285.132	68.19
285.364	76.19
285.595	87.19
285.826	66.19
286.057	88.19
286.288	81.19
286.52	73.19
286.751	83.19
286.982	96.19
287.213	97.19
287.444	83.19
287.675	79.19
287.906	89.19
288.138	103.19
288.369	80.19
288.6	81.19
288.831	80.19
289.062	78.19
289.293	100.19
289.524	71.19
289.755	90.19
289.986	94.19
290.217	85.19
290.448	81.19
290.679	77.19
290.91	87.19
291.141	85.19
291.371	94.19
291.602	97.19
291.833	72.19
292.064	93.19
292.295	85.19
292.526	89.19
292.757	79.19
292.987	73.19
293.218	77.19
293.449	95.19
293.68	97.19
293.91	79.19
294.141	89.19
294.372	75.19
294.603	95.19
294.833	77.19
295.064	79.19
295.295	80.19
295.525	90.19
295.756	90.19
295.987	106.19
296.217	115.19
296.448	119.19
296.679	97.19
296.909	83.19
297.14	95.19
297.37	79.19
297.601	64.19
297.831	79.19
298.062	81.19
298.292	79.19
298.523	73.19
298.753	87.19
298.984	91.19
299.214	86.19
299.445	84.19
299.675	85.19
299.905	87.19
300.136	79.19
300.366	79.19
300.597	81.19
300.827	88.19
301.057	111.19
301.288	112.19
301.518	104.19
301.748	95.19
301.979	108.19
302.209	90.19
302.439	104.19
302.669	84.19
302.9	101.19
303.13	97.19
303.36	97.19
303.59	96.19
303.82	96.19
304.051	95.19
304.281	77.19
304.511	89.19
304.741	92.19
304.971	93.19
305.201	99.19
305.431	87.19
305.661	92.19
305.891	81.19
306.121	101.19
306.352	89.19
306.582	116.19
306.812	88.19
307.042	79.19
307.272	109.19
307.502	91.19
307.731	91.19
307.961	79.19
308.191	83.19
308.421	80.19
308.651	85.19
308.881	78.19
309.111	74.19
309.341	89.19
309.571	94.19
309.8	82.19
310.03	84.19
310.26	90.19
310.49	90.19
310.72	96.19
310.949	99.19
311.179	93.19
311.409	92.19
311.639	96.19
311.868	93.19
312.098	75.19
312.328	99.19
312.557	90.19
312.787	108.19
313.017	103.19
313.246	93.19
313.476	87.19
313.706	83.19
313.935	93.19
314.165	111.19
314.394	88.19
314.624	87.19
314.853	85.19
315.083	92.19
315.312	95.19
315.542	77.19
315.771	84.19
316.001	80.19
316.23	86.19
316.46	83.19
316.689	94.19
316.919	85.19
317.148	83.19
317.377	95.19
317.607	91.19
317.836	89.19
318.065	106.19
318.295	88.19
318.524	94.19
318.753	90.19
318.983	93.19
319.212	103.19
319.441	99.19
319.67	94.19
319.9	80.19
320.129	87.19
320.358	92.19
320.587	105.19
320.816	101.19
321.046	92.19
321.275	93.19
321.504	92.19
321.733	89.19
321.962	99.19
322.191	89.19
322.42	92.19
322.649	110.19
322.878	80.19
323.108	105.19
323.337	127.19
323.566	127.19
323.795	140.19
324.024	196.19
324.253	348.19
324.482	736.19
324.71	1519.19
324.939	1983.19
325.168	738.19
325.397	221.19
325.626	138.19
325.855	144.19
326.084	136.19
326.313	124.19
326.542	131.19
326.77	207.19
326.999	432.19
327.228	876.19
327.457	1519.19
327.686	1226.19
327.914	346.19
328.143	181.19
328.372	137.19
328.6	107.19
328.829	115.19
329.058	117.19
329.287	131.19
329.515	107.19
329.744	103.19
329.972	102.19
330.201	95.19
330.43	92.19
330.658	105.19
330.887	118.19
331.115	114.19
331.344	100.19
331.572	104.19
331.801	102.19
332.03	85.19
332.258	103.19
332.486	85.19
332.715	95.19
332.943	95.19
333.172	87.19
333.4	95.19
333.629	106.19
333.857	104.19
334.085	96.19
334.314	104.19
334.542	99.19
334.771	96.19
334.999	93.19
335.227	88.19
335.455	95.19
335.684	90.19
335.912	93.19
336.14	94.19
336.369	94.19
336.597	81.19
336.825	101.19
337.053	97.19
337.281	96.19
337.51	98.19
337.738	84.19
337.966	86.19
338.194	95.19
338.422	112.19
338.65	102.19
338.878	87.19
339.106	93.19
339.334	71.19
339.562	93.19
339.79	76.19
340.018	83.19
340.246	81.19
340.474	80.19
340.702	83.19
340.93	87.19
341.158	88.19
341.386	85.19
341.614	106.19
341.842	87.19
342.07	83.19
342.298	79.19
342.526	90.19
342.754	86.19
342.981	85.19
343.209	80.19
343.437	96.19
343.665	85.19
343.893	84.19
344.12	101.19
344.348	69.19
344.576	87.19
344.804	91.19
345.031	89.19
345.259	96.19
345.487	83.19
345.714	96.19
345.942	94.19
346.17	87.19
346.397	88.19
346.625	92.19
346.853	89.19
347.08	99.19
347.308	107.19
347.535	95.19
347.763	86.19
347.99	94.19
348.218	90.19
348.445	92.19
348.673	96.19
348.9	85.19
349.128	95.19
349.355	101.19
349.583	101.19
349.81	91.19
350.037	84.19
350.265	83.19
350.492	86.19
350.72	94.19
350.947	87.19
351.174	115.19
351.402	103.19
351.629	109.19
351.856	105.19
352.083	97.19
352.311	103.19
352.538	105.19
352.765	100.19
352.992	113.19
353.22	100.19
353.447	91.19
353.674	92.19
353.901	95.19
354.128	96.19
354.355	101.19
354.583	93.19
354.81	96.19
355.037	94.19
355.264	86.19
355.491	97.19
355.718	100.19
355.945	94.19
356.172	91.19
356.399	101.19
356.626	104.19
356.853	88.19
357.08	96.19
357.307	88.19
357.534	86.19
357.761	94.19
357.988	95.19
358.215	87.19
358.441	91.19
358.668	83.19
358.895	79.19
359.122	75.19
359.349	91.19
359.576	85.19
359.802	100.19
360.029	96.19
360.256	95.19
360.483	83.19
360.709	85.19
360.936	89.19
361.163	93.19
361.39	97.19
361.616	98.19
361.843	88.19
362.07	78.19
362.296	95.19
362.523	73.19
362.749	89.19
362.976	92.19
363.203	99.19
363.429	89.19
363.656	90.19
363.882	99.19
364.109	81.19
364.335	73.19
364.562	91.19
364.788	93.19
365.015	103.19
365.241	75.19
365.468	104.19
365.694	101.19
365.92	84.19
366.147	90.19
366.373	81.19
366.599	99.19
366.826	96.19
367.052	91.19
367.278	83.19
367.505	107.19
367.731	83.19
367.957	95.19
368.184	69.19
368.41	77.19
368.636	109.19
368.862	115.19
369.089	103.19
369.315	93.19
369.541	91.19
369.767	86.19
369.993	80.19
370.219	82.19
370.445	79.19
370.672	89.19
370.898	85.19
371.124	79.19
371.35	100.19
371.576	80.19
371.802	80.19
372.028	80.19
372.254	67.19
372.48	89.19
372.706	91.19
372.932	95.19
373.158	99.19
373.384	93.19
373.61	94.19
373.835	76.19
374.061	96.19
374.287	86.19
374.513	92.19
374.739	99.19
374.965	93.19
375.191	78.19
375.416	93.19
375.642	88.19
375.868	87.19
376.094	88.19
376.319	95.19
376.545	92.19
376.771	85.19
376.997	94.19
377.222	96.19
377.448	89.19
377.674	78.19
377.899	103.19
378.125	101.19
378.35	80.19
378.576	91.19
378.802	100.19
379.027	86.19
379.253	89.19
379.478	80.19
379.704	93.19
379.929	97.19
380.155	97.19
380.38	92.19
380.606	87.19
380.831	103.19
381.057	101.19
381.282	88.19
381.507	82.19
381.733	89.19
381.958	94.19
382.184	99.19
382.409	100.19
382.634	82.19
382.86	103.19
383.085	107.19
383.31	99.19
383.535	92.19
383.761	80.19
383.986	91.19
384.211	91.19
384.436	80.19
384.662	95.19
384.887	99.19
385.112	108.19
385.337	98.19
385.562	105.19
385.787	103.19
386.013	91.19
386.238	102.19
386.463	86.19
386.688	119.19
386.913	109.19
387.138	93.19
387.363	107.19
387.588	85.19
387.813	89.19
388.038	101.19
388.263	107.19
388.488	104.19
388.713	83.19
388.938	88.19
389.163	90.19
389.387	84.19
389.612	87.19
389.837	91.19
390.062	87.19
390.287	83.19
390.512	91.19
390.736	103.19
390.961	94.19
391.186	84.19
391.411	83.19
391.636	83.19
391.86	78.19
392.085	104.19
392.31	87.19
392.534	80.19
392.759	81.19
392.984	76.19
393.208	91.19
393.433	93.19
393.658	79.19
393.882	105.19
394.107	83.19
394.331	88.19
394.556	85.19
394.78	99.19
395.005	86.19
395.229	79.19
395.454	83.19
395.678	72.19
395.903	92.19
396.127	69.19
396.352	80.19
396.576	77.19
396.801	70.19
397.025	89.19
397.249	80.19
397.474	92.19
397.698	76.19
397.922	80.19
398.147	81.19
398.371	77.19
398.595	84.19
398.82	87.19
399.044	85.19
399.268	99.19
399.492	102.19
399.717	70.19
399.941	84.19
400.165	88.19
400.389	85.19
400.613	87.19
400.837	104.19
401.062	83.19
401.286	84.19
401.51	80.19
401.734	95.19
401.958	110.19
402.182	123.19
402.406	147.19
402.63	92.19
402.854	92.19
403.078	85.19
403.302	89.19
403.526	75.19
403.75	87.19
403.974	88.19
404.198	77.19
404.422	82.19
404.645	81.19
404.869	85.19
405.093	104.19
405.317	91.19
405.541	97.19
405.765	96.19
405.988	103.19
406.212	171.19
406.436	204.19
406.66	124.19
406.883	83.19
407.107	94.19
407.331	82.19
407.555	105.19
407.778	100.19
408.002	89.19
408.226	76.19
408.449	83.19
408.673	89.19
408.896	96.19
409.12	86.19
409.344	83.19
409.567	93.19
409.791	93.19
410.014	94.19
410.238	83.19
410.461	87.19
410.685	97.19
410.908	95.19
411.132	93.19
411.355	87.19
411.578	104.19
411.802	91.19
412.025	88.19
412.249	99.19
412.472	98.19
412.695	93.19
412.919	94.19
413.142	92.19
413.365	62.19
413.589	87.19
413.812	89.19
414.035	94.19
414.258	84.19
414.482	85.19
414.705	79.19
414.928	90.19
415.151	77.19
415.374	86.19
415.597	81.19
415.821	77.19
416.044	95.19
416.267	88.19
416.49	81.19
416.713	85.19
416.936	69.19
417.159	79.19
417.382	93.19
417.605	88.19
417.828	89.19
418.051	80.19
418.274	69.19
418.497	90.19
418.72	81.19
418.943	85.19
419.166	89.19
419.389	97.19
419.611	81.19
419.834	88.19
420.057	89.19
420.28	90.19
420.503	86.19
420.726	77.19
420.948	91.19
421.171	86.19
421.394	73.19
421.617	82.19
421.839	78.19
422.062	79.19
422.285	91.19
422.507	97.19
422.73	104.19
422.953	84.19
423.175	86.19
423.398	75.19
423.621	78.19
423.843	87.19
424.066	78.19
424.288	82.19
424.511	78.19
424.733	100.19
424.956	92.19
425.178	97.19
425.401	107.19
425.623	85.19
425.846	91.19
426.068	89.19
426.291	99.19
426.513	88.19
426.735	88.19
426.958	74.19
427.18	89.19
427.402	139.19
427.625	147.19
427.847	135.19
428.069	96.19
428.292	65.19
428.514	84.19
428.736	79.19
428.958	98.19
429.181	83.19
429.403	94.19
429.625	80.19
429.847	91.19
430.069	92.19
430.292	93.19
430.514	83.19
430.736	78.19
430.958	80.19
431.18	82.19
431.402	86.19
431.624	80.19
431.846	76.19
432.068	102.19
432.29	68.19
432.512	84.19
432.734	98.19
432.956	91.19
433.178	91.19
433.4	100.19
433.622	87.19
433.844	91.19
434.066	89.19
434.287	97.19
434.509	88.19
434.731	97.19
434.953	83.19
435.175	89.19
435.397	78.19
435.618	86.19
435.84	107.19
436.062	118.19
436.284	103.19
436.505	95.19
436.727	96.19
436.949	70.19
437.17	89.19
437.392	95.19
437.614	80.19
437.835	96.19
438.057	112.19
438.278	109.19
438.5	94.19
438.721	96.19
438.943	86.19
439.165	92.19
439.386	94.19
439.608	92.19
439.829	98.19
440.05	132.19
440.272	134.19
440.493	82.19
440.715	76.19
440.936	93.19
441.158	79.19
441.379	93.19
441.6	93.19
441.822	84.19
442.043	96.19
442.264	89.19
442.486	83.19
442.707	95.19
442.928	96.19
443.149	118.19
443.371	116.19
443.592	98.19
443.813	107.19
444.034	96.19
444.255	99.19
444.476	82.19
444.698	92.19
444.919	79.19
445.14	125.19
445.361	111.19
445.582	103.19
445.803	119.19
446.024	128.19
446.245	139.19
446.466	87.19
446.687	75.19
446.908	90.19
447.129	80.19
447.35	71.19
447.571	81.19
447.792	95.19
448.013	83.19
448.234	81.19
448.455	76.19
448.675	100.19
448.896	97.19
449.117	96.19
449.338	95.19
449.559	104.19
449.779	112.19
450	83.19
450.221	65.19
450.442	85.19
450.662	96.19
450.883	95.19
451.104	106.19
451.324	88.19
451.545	101.19
451.766	80.19
451.986	87.19
452.207	79.19
452.428	77.19
452.648	94.19
452.869	108.19
453.089	99.19
453.31	112.19
453.53	91.19
453.751	97.19
453.971	71.19
454.192	92.19
454.412	81.19
454.633	86.19
454.853	84.19
455.073	84.19
455.294	96.19
455.514	107.19
455.734	87.19
455.955	77.19
456.175	92.19
456.395	81.19
456.616	77.19
456.836	88.19
457.056	89.19
457.276	72.19
457.497	87.19
457.717	85.19
457.937	84.19
458.157	87.19
458.377	99.19
458.598	91.19
458.818	142.19
459.038	139.19
459.258	101.19
459.478	83.19
459.698	83.19
459.918	81.19
460.138	88.19
460.358	71.19
460.578	81.19
460.798	97.19
461.018	85.19
461.238	79.19
461.458	76.19
461.678	79.19
461.898	86.19
462.118	82.19
462.338	88.19
462.558	78.19
462.777	79.19
462.997	75.19
463.217	76.19
463.437	70.19
463.657	86.19
463.876	74.19
464.096	71.19
464.316	92.19
464.536	80.19
464.755	95.19
464.975	110.19
465.195	149.19
465.414	153.19
465.634	112.19
465.854	87.19
466.073	78.19
466.293	88.19
466.512	79.19
466.732	79.19
466.951	99.19
467.171	82.19
467.391	96.19
467.61	96.19
467.829	81.19
468.049	94.19
468.268	81.19
468.488	89.19
468.707	81.19
468.927	76.19
469.146	83.19
469.365	80.19
469.585	80.19
469.804	98.19
470.023	88.19
470.243	82.19
470.462	103.19
470.681	106.19
470.901	89.19
471.12	84.19
471.339	56.19
471.558	74.19
471.777	85.19
471.997	80.19
472.216	84.19
472.435	78.19
472.654	97.19
472.873	94.19
473.092	92.19
473.311	83.19
473.53	80.19
473.749	96.19
473.968	77.19
474.187	105.19
474.406	113.19
474.625	81.19
474.844	61.19
475.063	90.19
475.282	83.19
475.501	94.19
475.72	64.19
475.939	79.19
476.158	80.19
476.377	78.19
476.596	87.19
476.814	97.19
477.033	79.19
477.252	77.19
477.471	71.19
477.69	80.19
477.908	74.19
478.127	90.19
478.346	87.19
478.564	93.19
478.783	98.19
479.002	85.19
479.22	83.19
479.439	104.19
479.658	100.19
479.876	88.19
480.095	69.19
480.313	89.19
480.532	87.19
480.751	75.19
480.969	79.19
481.188	108.19
481.406	110.19
481.624	84.19
481.843	90.19
482.061	92.19
482.28	85.19
482.498	82.19
482.717	75.19
482.935	97.19
483.153	84.19
483.372	65.19
483.59	87.19
483.808	86.19
484.027	99.19
484.245	87.19
484.463	87.19
484.681	74.19
484.9	88.19
485.118	72.19
485.336	90.19
485.554	89.19
485.772	84.19
485.99	83.19
486.209	100.19
486.427	89.19
486.645	95.19
486.863	107.19
487.081	98.19
487.299	99.19
487.517	96.19
487.735	92.19
487.953	62.19
488.171	81.19
488.389	85.19
488.607	88.19
488.825	78.19
489.043	92.19
489.261	88.19
489.479	94.19
489.696	84.19
489.914	72.19
490.132	80.19
490.35	84.19
490.568	88.19
490.786	97.19
491.003	87.19
491.221	103.19
491.439	94.19
491.657	79.19
491.874	83.19
492.092	87.19
492.31	83.19
492.527	81.19
492.745	81.19
492.963	98.19
493.18	70.19
493.398	90.19
493.615	88.19
493.833	87.19
494.05	88.19
494.268	86.19
494.485	85.19
494.703	93.19
494.92	85.19
495.138	97.19
495.355	83.19
495.573	87.19
495.79	92.19
496.008	92.19
496.225	83.19
496.442	72.19
496.66	78.19
496.877	87.19
497.094	83.19
497.312	81.19
497.529	81.19
497.746	79.19
497.963	92.19
498.181	85.19
498.398	88.19
498.615	116.19
498.832	102.19
499.049	96.19
499.267	94.19
499.484	84.19
499.701	68.19
499.918	75.19
500.135	73.19
500.352	84.19
500.569	70.19
500.786	88.19
501.003	87.19
501.22	86.19
501.437	88.19
501.654	96.19
501.871	93.19
502.088	95.19
502.305	83.19
502.522	89.19
502.739	84.19
502.956	110.19
503.172	86.19
503.389	84.19
503.606	106.19
503.823	101.19
504.04	91.19
504.256	99.19
504.473	83.19
504.69	81.19
504.907	92.19
505.123	91.19
505.34	90.19
505.557	85.19
505.773	92.19
505.99	84.19
506.207	85.19
506.423	80.19
506.64	80.19
506.856	84.19
507.073	91.19
507.289	87.19
507.506	82.19
507.722	117.19
507.939	115.19
508.155	94.19
508.372	102.19
508.588	84.19
508.805	91.19
509.021	94.19
509.238	96.19
509.454	87.19
509.67	98.19
509.887	113.19
510.103	124.19
510.319	199.19
510.536	697.19
510.752	2188.19
510.968	607.19
511.184	147.19
511.401	106.19
511.617	97.19
511.833	90.19
512.049	98.19
512.265	104.19
512.481	87.19
512.698	84.19
512.914	82.19
513.13	93.19
513.346	95.19
513.562	93.19
513.778	94.19
513.994	94.19
514.21	110.19
514.426	125.19
514.642	124.19
514.858	111.19
515.074	147.19
515.29	419.19
515.506	1326.19
515.721	488.19
515.937	151.19
516.153	109.19
516.369	103.19
516.585	94.19
516.801	91.19
517.016	91.19
