Data from Uncirc_1998_H10_HRD10591_00068.txt Node
Date: Wed Jan 03 11:25:38 EST 2024
User: Yrep
Spectrometer: HR+D1059
Trigger mode: 1
Integration Time (sec): 1.000000E-1
Scans to average: 1
Electric dark correction enabled: true
Nonlinearity correction enabled: false
Boxcar width: 0
XAxis mode: Wavelengths
Number of Pixels in Spectrum: 2048
>>>>>Begin Spectral Data<<<<<
223.165	-31.88
223.4	-31.88
223.635	-31.88
223.869	-6.88
224.104	-27.88
224.338	-22.88
224.573	-15.88
224.808	-1.88
225.042	-1.88
225.277	-12.88
225.511	0.12
225.746	-2.88
225.98	19.12
226.215	18.12
226.449	18.12
226.683	19.12
226.918	16.12
227.152	34.12
227.387	36.12
227.621	30.12
227.856	50.12
228.09	48.12
228.324	54.12
228.559	61.12
228.793	56.12
229.027	65.12
229.262	61.12
229.496	88.12
229.73	72.12
229.964	79.12
230.199	87.12
230.433	75.12
230.667	80.12
230.901	63.12
231.136	77.12
231.37	94.12
231.604	80.12
231.838	84.12
232.072	101.12
232.306	85.12
232.541	85.12
232.775	80.12
233.009	76.12
233.243	81.12
233.477	76.12
233.711	92.12
233.945	80.12
234.179	86.12
234.413	83.12
234.647	83.12
234.881	81.12
235.115	82.12
235.349	90.12
235.583	85.12
235.817	86.12
236.051	81.12
236.285	72.12
236.519	84.12
236.753	70.12
236.987	101.12
237.221	84.12
237.455	87.12
237.689	84.12
237.922	79.12
238.156	84.12
238.39	78.12
238.624	80.12
238.858	74.12
239.091	68.12
239.325	81.12
239.559	92.12
239.793	83.12
240.027	90.12
240.26	72.12
240.494	74.12
240.728	78.12
240.961	69.12
241.195	69.12
241.429	91.12
241.662	67.12
241.896	71.12
242.13	73.12
242.363	73.12
242.597	75.12
242.83	87.12
243.064	75.12
243.298	76.12
243.531	83.12
243.765	92.12
243.998	90.12
244.232	79.12
244.465	78.12
244.699	68.12
244.932	93.12
245.166	95.12
245.399	80.12
245.633	72.12
245.866	88.12
246.099	79.12
246.333	77.12
246.566	90.12
246.8	86.12
247.033	74.12
247.266	75.12
247.5	75.12
247.733	83.12
247.966	86.12
248.2	81.12
248.433	81.12
248.666	84.12
248.899	74.12
249.133	91.12
249.366	98.12
249.599	94.12
249.832	84.12
250.066	84.12
250.299	73.12
250.532	84.12
250.765	101.12
250.998	91.12
251.231	73.12
251.465	80.12
251.698	83.12
251.931	69.12
252.164	83.12
252.397	78.12
252.63	89.12
252.863	82.12
253.096	89.12
253.329	92.12
253.562	84.12
253.795	82.12
254.028	93.12
254.261	82.12
254.494	82.12
254.727	83.12
254.96	85.12
255.193	78.12
255.426	98.12
255.659	76.12
255.892	79.12
256.124	77.12
256.357	84.12
256.59	73.12
256.823	90.12
257.056	90.12
257.289	70.12
257.521	83.12
257.754	74.12
257.987	72.12
258.22	73.12
258.452	83.12
258.685	86.12
258.918	70.12
259.151	70.12
259.383	100.12
259.616	90.12
259.849	92.12
260.081	94.12
260.314	92.12
260.547	85.12
260.779	100.12
261.012	85.12
261.244	75.12
261.477	97.12
261.71	98.12
261.942	96.12
262.175	97.12
262.407	88.12
262.64	77.12
262.872	77.12
263.105	80.12
263.337	80.12
263.57	96.12
263.802	93.12
264.035	74.12
264.267	65.12
264.499	90.12
264.732	90.12
264.964	105.12
265.197	105.12
265.429	84.12
265.661	88.12
265.894	87.12
266.126	81.12
266.358	89.12
266.591	74.12
266.823	81.12
267.055	86.12
267.287	99.12
267.52	79.12
267.752	81.12
267.984	84.12
268.216	84.12
268.448	88.12
268.681	89.12
268.913	88.12
269.145	87.12
269.377	97.12
269.609	92.12
269.841	96.12
270.073	84.12
270.306	94.12
270.538	82.12
270.77	94.12
271.002	87.12
271.234	100.12
271.466	78.12
271.698	76.12
271.93	97.12
272.162	69.12
272.394	77.12
272.626	86.12
272.858	88.12
273.09	98.12
273.322	82.12
273.553	84.12
273.785	83.12
274.017	91.12
274.249	83.12
274.481	92.12
274.713	88.12
274.945	98.12
275.176	77.12
275.408	91.12
275.64	86.12
275.872	102.12
276.104	81.12
276.335	99.12
276.567	92.12
276.799	96.12
277.031	97.12
277.262	101.12
277.494	84.12
277.726	69.12
277.957	90.12
278.189	96.12
278.421	93.12
278.652	85.12
278.884	91.12
279.115	91.12
279.347	87.12
279.579	83.12
279.81	64.12
280.042	106.12
280.273	88.12
280.505	91.12
280.736	89.12
280.968	91.12
281.199	94.12
281.431	86.12
281.662	86.12
281.894	86.12
282.125	105.12
282.356	112.12
282.588	114.12
282.819	102.12
283.051	88.12
283.282	85.12
283.513	89.12
283.745	74.12
283.976	86.12
284.207	80.12
284.439	95.12
284.67	97.12
284.901	78.12
285.132	80.12
285.364	100.12
285.595	83.12
285.826	91.12
286.057	81.12
286.288	92.12
286.52	83.12
286.751	94.12
286.982	80.12
287.213	88.12
287.444	94.12
287.675	82.12
287.906	96.12
288.138	80.12
288.369	96.12
288.6	83.12
288.831	84.12
289.062	86.12
289.293	80.12
289.524	73.12
289.755	89.12
289.986	97.12
290.217	92.12
290.448	79.12
290.679	92.12
290.91	90.12
291.141	86.12
291.371	88.12
291.602	85.12
291.833	95.12
292.064	95.12
292.295	98.12
292.526	95.12
292.757	82.12
292.987	93.12
293.218	81.12
293.449	102.12
293.68	95.12
293.91	85.12
294.141	99.12
294.372	84.12
294.603	94.12
294.833	96.12
295.064	101.12
295.295	85.12
295.525	99.12
295.756	104.12
295.987	108.12
296.217	126.12
296.448	116.12
296.679	86.12
296.909	81.12
297.14	90.12
297.37	92.12
297.601	102.12
297.831	99.12
298.062	96.12
298.292	89.12
298.523	85.12
298.753	105.12
298.984	104.12
299.214	94.12
299.445	97.12
299.675	98.12
299.905	75.12
300.136	96.12
300.366	91.12
300.597	80.12
300.827	80.12
301.057	100.12
301.288	97.12
301.518	89.12
301.748	96.12
301.979	104.12
302.209	95.12
302.439	81.12
302.669	97.12
302.9	103.12
303.13	75.12
303.36	86.12
303.59	98.12
303.82	91.12
304.051	84.12
304.281	87.12
304.511	101.12
304.741	98.12
304.971	94.12
305.201	91.12
305.431	77.12
305.661	108.12
305.891	89.12
306.121	104.12
306.352	101.12
306.582	80.12
306.812	85.12
307.042	96.12
307.272	94.12
307.502	102.12
307.731	80.12
307.961	89.12
308.191	108.12
308.421	92.12
308.651	101.12
308.881	98.12
309.111	91.12
309.341	98.12
309.571	102.12
309.8	96.12
310.03	88.12
310.26	100.12
310.49	109.12
310.72	106.12
310.949	94.12
311.179	88.12
311.409	92.12
311.639	90.12
311.868	98.12
312.098	104.12
312.328	99.12
312.557	98.12
312.787	99.12
313.017	108.12
313.246	85.12
313.476	96.12
313.706	94.12
313.935	97.12
314.165	90.12
314.394	102.12
314.624	108.12
314.853	101.12
315.083	93.12
315.312	93.12
315.542	94.12
315.771	99.12
316.001	102.12
316.23	86.12
316.46	89.12
316.689	87.12
316.919	86.12
317.148	78.12
317.377	96.12
317.607	93.12
317.836	104.12
318.065	103.12
318.295	98.12
318.524	93.12
318.753	91.12
318.983	105.12
319.212	94.12
319.441	109.12
319.67	96.12
319.9	98.12
320.129	87.12
320.358	102.12
320.587	102.12
320.816	98.12
321.046	100.12
321.275	96.12
321.504	88.12
321.733	101.12
321.962	93.12
322.191	110.12
322.42	107.12
322.649	105.12
322.878	108.12
323.108	102.12
323.337	104.12
323.566	113.12
323.795	139.12
324.024	169.12
324.253	348.12
324.482	696.12
324.71	1361.12
324.939	1728.12
325.168	664.12
325.397	197.12
325.626	126.12
325.855	120.12
326.084	114.12
326.313	138.12
326.542	131.12
326.77	188.12
326.999	394.12
327.228	774.12
327.457	1388.12
327.686	1120.12
327.914	318.12
328.143	182.12
328.372	148.12
328.6	122.12
328.829	114.12
329.058	117.12
329.287	99.12
329.515	117.12
329.744	100.12
329.972	102.12
330.201	115.12
330.43	109.12
330.658	116.12
330.887	124.12
331.115	116.12
331.344	101.12
331.572	102.12
331.801	106.12
332.03	97.12
332.258	112.12
332.486	97.12
332.715	90.12
332.943	100.12
333.172	98.12
333.4	84.12
333.629	96.12
333.857	108.12
334.085	107.12
334.314	100.12
334.542	95.12
334.771	108.12
334.999	101.12
335.227	96.12
335.455	106.12
335.684	92.12
335.912	102.12
336.14	97.12
336.369	92.12
336.597	105.12
336.825	105.12
337.053	91.12
337.281	89.12
337.51	83.12
337.738	96.12
337.966	87.12
338.194	95.12
338.422	111.12
338.65	106.12
338.878	93.12
339.106	89.12
339.334	89.12
339.562	89.12
339.79	101.12
340.018	92.12
340.246	80.12
340.474	100.12
340.702	96.12
340.93	96.12
341.158	93.12
341.386	96.12
341.614	92.12
341.842	86.12
342.07	89.12
342.298	96.12
342.526	106.12
342.754	91.12
342.981	105.12
343.209	90.12
343.437	96.12
343.665	95.12
343.893	104.12
344.12	96.12
344.348	92.12
344.576	93.12
344.804	101.12
345.031	108.12
345.259	97.12
345.487	77.12
345.714	88.12
345.942	110.12
346.17	99.12
346.397	92.12
346.625	99.12
346.853	103.12
347.08	74.12
347.308	106.12
347.535	99.12
347.763	108.12
347.99	92.12
348.218	104.12
348.445	103.12
348.673	89.12
348.9	105.12
349.128	100.12
349.355	98.12
349.583	109.12
349.81	94.12
350.037	106.12
350.265	100.12
350.492	99.12
350.72	95.12
350.947	102.12
351.174	107.12
351.402	106.12
351.629	106.12
351.856	96.12
352.083	96.12
352.311	99.12
352.538	101.12
352.765	105.12
352.992	101.12
353.22	108.12
353.447	101.12
353.674	101.12
353.901	124.12
354.128	106.12
354.355	97.12
354.583	98.12
354.81	90.12
355.037	98.12
355.264	114.12
355.491	93.12
355.718	104.12
355.945	88.12
356.172	85.12
356.399	107.12
356.626	99.12
356.853	105.12
357.08	101.12
357.307	76.12
357.534	96.12
357.761	100.12
357.988	94.12
358.215	86.12
358.441	102.12
358.668	95.12
358.895	105.12
359.122	84.12
359.349	93.12
359.576	93.12
359.802	101.12
360.029	112.12
360.256	112.12
360.483	97.12
360.709	84.12
360.936	90.12
361.163	94.12
361.39	88.12
361.616	83.12
361.843	88.12
362.07	96.12
362.296	88.12
362.523	85.12
362.749	92.12
362.976	78.12
363.203	99.12
363.429	85.12
363.656	92.12
363.882	89.12
364.109	101.12
364.335	92.12
364.562	103.12
364.788	92.12
365.015	84.12
365.241	93.12
365.468	93.12
365.694	105.12
365.92	92.12
366.147	111.12
366.373	94.12
366.599	82.12
366.826	90.12
367.052	88.12
367.278	97.12
367.505	100.12
367.731	105.12
367.957	84.12
368.184	91.12
368.41	100.12
368.636	106.12
368.862	110.12
369.089	99.12
369.315	89.12
369.541	74.12
369.767	107.12
369.993	98.12
370.219	92.12
370.445	82.12
370.672	80.12
370.898	90.12
371.124	101.12
371.35	80.12
371.576	98.12
371.802	98.12
372.028	87.12
372.254	92.12
372.48	101.12
372.706	80.12
372.932	91.12
373.158	87.12
373.384	96.12
373.61	93.12
373.835	108.12
374.061	82.12
374.287	101.12
374.513	118.12
374.739	84.12
374.965	104.12
375.191	104.12
375.416	102.12
375.642	101.12
375.868	104.12
376.094	84.12
376.319	100.12
376.545	93.12
376.771	93.12
376.997	92.12
377.222	89.12
377.448	92.12
377.674	92.12
377.899	106.12
378.125	98.12
378.35	108.12
378.576	96.12
378.802	93.12
379.027	73.12
379.253	101.12
379.478	89.12
379.704	89.12
379.929	101.12
380.155	98.12
380.38	96.12
380.606	104.12
380.831	99.12
381.057	97.12
381.282	97.12
381.507	98.12
381.733	91.12
381.958	87.12
382.184	106.12
382.409	92.12
382.634	99.12
382.86	110.12
383.085	95.12
383.31	110.12
383.535	101.12
383.761	110.12
383.986	105.12
384.211	98.12
384.436	98.12
384.662	88.12
384.887	90.12
385.112	104.12
385.337	101.12
385.562	103.12
385.787	96.12
386.013	107.12
386.238	115.12
386.463	108.12
386.688	96.12
386.913	112.12
387.138	99.12
387.363	83.12
387.588	97.12
387.813	105.12
388.038	108.12
388.263	100.12
388.488	99.12
388.713	93.12
388.938	96.12
389.163	96.12
389.387	96.12
389.612	111.12
389.837	90.12
390.062	99.12
390.287	90.12
390.512	99.12
390.736	85.12
390.961	97.12
391.186	91.12
391.411	92.12
391.636	99.12
391.86	100.12
392.085	97.12
392.31	98.12
392.534	96.12
392.759	74.12
392.984	82.12
393.208	91.12
393.433	82.12
393.658	84.12
393.882	94.12
394.107	83.12
394.331	84.12
394.556	84.12
394.78	93.12
395.005	90.12
395.229	84.12
395.454	103.12
395.678	89.12
395.903	89.12
396.127	84.12
396.352	86.12
396.576	82.12
396.801	82.12
397.025	95.12
397.249	88.12
397.474	82.12
397.698	100.12
397.922	92.12
398.147	90.12
398.371	89.12
398.595	85.12
398.82	93.12
399.044	78.12
399.268	89.12
399.492	86.12
399.717	87.12
399.941	104.12
400.165	97.12
400.389	86.12
400.613	100.12
400.837	90.12
401.062	98.12
401.286	100.12
401.51	99.12
401.734	88.12
401.958	104.12
402.182	107.12
402.406	134.12
402.63	124.12
402.854	94.12
403.078	96.12
403.302	69.12
403.526	81.12
403.75	75.12
403.974	92.12
404.198	83.12
404.422	91.12
404.645	78.12
404.869	105.12
405.093	113.12
405.317	104.12
405.541	102.12
405.765	84.12
405.988	100.12
406.212	157.12
406.436	187.12
406.66	132.12
406.883	97.12
407.107	89.12
407.331	97.12
407.555	116.12
407.778	93.12
408.002	107.12
408.226	106.12
408.449	95.12
408.673	92.12
408.896	101.12
409.12	99.12
409.344	85.12
409.567	101.12
409.791	92.12
410.014	104.12
410.238	96.12
410.461	79.12
410.685	115.12
410.908	114.12
411.132	107.12
411.355	97.12
411.578	102.12
411.802	95.12
412.025	97.12
412.249	83.12
412.472	84.12
412.695	98.12
412.919	82.12
413.142	84.12
413.365	88.12
413.589	93.12
413.812	81.12
414.035	94.12
414.258	98.12
414.482	90.12
414.705	84.12
414.928	75.12
415.151	80.12
415.374	91.12
415.597	89.12
415.821	99.12
416.044	94.12
416.267	84.12
416.49	87.12
416.713	89.12
416.936	93.12
417.159	92.12
417.382	86.12
417.605	96.12
417.828	100.12
418.051	89.12
418.274	97.12
418.497	86.12
418.72	97.12
418.943	95.12
419.166	89.12
419.389	100.12
419.611	84.12
419.834	96.12
420.057	99.12
420.28	90.12
420.503	75.12
420.726	88.12
420.948	92.12
421.171	93.12
421.394	105.12
421.617	97.12
421.839	92.12
422.062	92.12
422.285	98.12
422.507	96.12
422.73	110.12
422.953	106.12
423.175	105.12
423.398	95.12
423.621	105.12
423.843	83.12
424.066	89.12
424.288	94.12
424.511	100.12
424.733	86.12
424.956	104.12
425.178	102.12
425.401	98.12
425.623	101.12
425.846	97.12
426.068	93.12
426.291	91.12
426.513	84.12
426.735	96.12
426.958	105.12
427.18	108.12
427.402	119.12
427.625	121.12
427.847	106.12
428.069	82.12
428.292	87.12
428.514	82.12
428.736	91.12
428.958	74.12
429.181	79.12
429.403	82.12
429.625	96.12
429.847	102.12
430.069	97.12
430.292	96.12
430.514	95.12
430.736	83.12
430.958	85.12
431.18	100.12
431.402	95.12
431.624	95.12
431.846	90.12
432.068	90.12
432.29	104.12
432.512	84.12
432.734	89.12
432.956	93.12
433.178	84.12
433.4	89.12
433.622	79.12
433.844	97.12
434.066	94.12
434.287	96.12
434.509	98.12
434.731	97.12
434.953	93.12
435.175	91.12
435.397	97.12
435.618	89.12
435.84	96.12
436.062	105.12
436.284	117.12
436.505	95.12
436.727	89.12
436.949	99.12
437.17	104.12
437.392	94.12
437.614	95.12
437.835	104.12
438.057	110.12
438.278	92.12
438.5	101.12
438.721	121.12
438.943	104.12
439.165	97.12
439.386	92.12
439.608	92.12
439.829	100.12
440.05	115.12
440.272	130.12
440.493	106.12
440.715	96.12
440.936	93.12
441.158	96.12
441.379	96.12
441.6	81.12
441.822	89.12
442.043	93.12
442.264	91.12
442.486	88.12
442.707	91.12
442.928	104.12
443.149	120.12
443.371	120.12
443.592	105.12
443.813	100.12
444.034	99.12
444.255	96.12
444.476	91.12
444.698	89.12
444.919	102.12
445.14	134.12
445.361	116.12
445.582	99.12
445.803	126.12
446.024	124.12
446.245	136.12
446.466	107.12
446.687	112.12
446.908	92.12
447.129	107.12
447.35	108.12
447.571	87.12
447.792	89.12
448.013	103.12
448.234	93.12
448.455	108.12
448.675	111.12
448.896	112.12
449.117	87.12
449.338	102.12
449.559	113.12
449.779	131.12
450	84.12
450.221	93.12
450.442	92.12
450.662	101.12
450.883	112.12
451.104	101.12
451.324	89.12
451.545	95.12
451.766	85.12
451.986	91.12
452.207	95.12
452.428	88.12
452.648	103.12
452.869	109.12
453.089	104.12
453.31	124.12
453.53	92.12
453.751	77.12
453.971	96.12
454.192	101.12
454.412	99.12
454.633	66.12
454.853	90.12
455.073	88.12
455.294	95.12
455.514	92.12
455.734	86.12
455.955	85.12
456.175	89.12
456.395	89.12
456.616	84.12
456.836	92.12
457.056	97.12
457.276	78.12
457.497	78.12
457.717	91.12
457.937	82.12
458.157	104.12
458.377	85.12
458.598	91.12
458.818	127.12
459.038	144.12
459.258	104.12
459.478	102.12
459.698	91.12
459.918	106.12
460.138	88.12
460.358	86.12
460.578	89.12
460.798	81.12
461.018	92.12
461.238	93.12
461.458	95.12
461.678	80.12
461.898	78.12
462.118	98.12
462.338	87.12
462.558	74.12
462.777	94.12
462.997	97.12
463.217	92.12
463.437	95.12
463.657	85.12
463.876	98.12
464.096	90.12
464.316	86.12
464.536	89.12
464.755	86.12
464.975	97.12
465.195	131.12
465.414	128.12
465.634	114.12
465.854	91.12
466.073	92.12
466.293	92.12
466.512	94.12
466.732	96.12
466.951	86.12
467.171	91.12
467.391	101.12
467.61	112.12
467.829	106.12
468.049	102.12
468.268	80.12
468.488	85.12
468.707	93.12
468.927	74.12
469.146	86.12
469.365	79.12
469.585	100.12
469.804	107.12
470.023	89.12
470.243	98.12
470.462	100.12
470.681	106.12
470.901	93.12
471.12	100.12
471.339	80.12
471.558	93.12
471.777	78.12
471.997	83.12
472.216	82.12
472.435	94.12
472.654	99.12
472.873	101.12
473.092	90.12
473.311	89.12
473.53	92.12
473.749	84.12
473.968	92.12
474.187	94.12
474.406	99.12
474.625	98.12
474.844	100.12
475.063	89.12
475.282	89.12
475.501	98.12
475.72	89.12
475.939	90.12
476.158	89.12
476.377	84.12
476.596	98.12
476.814	83.12
477.033	77.12
477.252	92.12
477.471	86.12
477.69	89.12
477.908	82.12
478.127	96.12
478.346	80.12
478.564	96.12
478.783	84.12
479.002	97.12
479.22	100.12
479.439	94.12
479.658	104.12
479.876	85.12
480.095	84.12
480.313	93.12
480.532	96.12
480.751	96.12
480.969	96.12
481.188	113.12
481.406	93.12
481.624	96.12
481.843	86.12
482.061	90.12
482.28	90.12
482.498	93.12
482.717	103.12
482.935	99.12
483.153	101.12
483.372	100.12
483.59	93.12
483.808	91.12
484.027	101.12
484.245	97.12
484.463	85.12
484.681	76.12
484.9	94.12
485.118	83.12
485.336	90.12
485.554	106.12
485.772	98.12
485.99	102.12
486.209	106.12
486.427	117.12
486.645	104.12
486.863	108.12
487.081	97.12
487.299	99.12
487.517	108.12
487.735	101.12
487.953	107.12
488.171	93.12
488.389	97.12
488.607	106.12
488.825	107.12
489.043	82.12
489.261	85.12
489.479	79.12
489.696	83.12
489.914	84.12
490.132	89.12
490.35	99.12
490.568	100.12
490.786	96.12
491.003	89.12
491.221	105.12
491.439	95.12
491.657	97.12
491.874	86.12
492.092	90.12
492.31	94.12
492.527	75.12
492.745	101.12
492.963	82.12
493.18	96.12
493.398	106.12
493.615	100.12
493.833	101.12
494.05	91.12
494.268	107.12
494.485	96.12
494.703	115.12
494.92	96.12
495.138	84.12
495.355	92.12
495.573	83.12
495.79	84.12
496.008	88.12
496.225	112.12
496.442	83.12
496.66	115.12
496.877	97.12
497.094	88.12
497.312	81.12
497.529	87.12
497.746	86.12
497.963	93.12
498.181	81.12
498.398	102.12
498.615	116.12
498.832	101.12
499.049	68.12
499.267	98.12
499.484	101.12
499.701	93.12
499.918	91.12
500.135	107.12
500.352	98.12
500.569	99.12
500.786	97.12
501.003	100.12
501.22	94.12
501.437	109.12
501.654	95.12
501.871	99.12
502.088	87.12
502.305	102.12
502.522	104.12
502.739	100.12
502.956	94.12
503.172	90.12
503.389	104.12
503.606	109.12
503.823	95.12
504.04	105.12
504.256	95.12
504.473	100.12
504.69	89.12
504.907	92.12
505.123	98.12
505.34	93.12
505.557	102.12
505.773	96.12
505.99	92.12
506.207	103.12
506.423	94.12
506.64	84.12
506.856	93.12
507.073	92.12
507.289	90.12
507.506	99.12
507.722	98.12
507.939	93.12
508.155	88.12
508.372	99.12
508.588	94.12
508.805	87.12
509.021	77.12
509.238	97.12
509.454	98.12
509.67	100.12
509.887	99.12
510.103	139.12
510.319	193.12
510.536	634.12
510.752	1845.12
510.968	524.12
511.184	132.12
511.401	110.12
511.617	92.12
511.833	93.12
512.049	94.12
512.265	87.12
512.481	98.12
512.698	86.12
512.914	86.12
513.13	102.12
513.346	112.12
513.562	87.12
513.778	97.12
513.994	99.12
514.21	102.12
514.426	98.12
514.642	123.12
514.858	110.12
