Data from Uncirc_1998_H10_HRD10591_00085.txt Node
Date: Wed Jan 03 11:25:41 EST 2024
User: Yrep
Spectrometer: HR+D1059
Trigger mode: 1
Integration Time (sec): 1.000000E-1
Scans to average: 1
Electric dark correction enabled: true
Nonlinearity correction enabled: false
Boxcar width: 0
XAxis mode: Wavelengths
Number of Pixels in Spectrum: 2048
>>>>>Begin Spectral Data<<<<<
223.165	-14.94
223.4	-14.94
223.635	-14.94
223.869	-9.94
224.104	-15.94
224.338	-11.94
224.573	-8.94
224.808	-19.94
225.042	-1.94
225.277	-11.94
225.511	-5.94
225.746	-1.94
225.98	11.06
226.215	10.06
226.449	19.06
226.683	17.06
226.918	19.06
227.152	27.06
227.387	24.06
227.621	23.06
227.856	19.06
228.09	36.06
228.324	29.06
228.559	57.06
228.793	63.06
229.027	52.06
229.262	53.06
229.496	66.06
229.73	69.06
229.964	74.06
230.199	63.06
230.433	67.06
230.667	78.06
230.901	53.06
231.136	71.06
231.37	69.06
231.604	79.06
231.838	82.06
232.072	75.06
232.306	79.06
232.541	67.06
232.775	63.06
233.009	79.06
233.243	96.06
233.477	68.06
233.711	77.06
233.945	75.06
234.179	71.06
234.413	82.06
234.647	73.06
234.881	73.06
235.115	76.06
235.349	59.06
235.583	80.06
235.817	77.06
236.051	82.06
236.285	76.06
236.519	72.06
236.753	53.06
236.987	60.06
237.221	59.06
237.455	78.06
237.689	89.06
237.922	82.06
238.156	64.06
238.39	88.06
238.624	72.06
238.858	87.06
239.091	58.06
239.325	71.06
239.559	58.06
239.793	82.06
240.027	81.06
240.26	81.06
240.494	86.06
240.728	79.06
240.961	73.06
241.195	79.06
241.429	61.06
241.662	73.06
241.896	73.06
242.13	72.06
242.363	84.06
242.597	70.06
242.83	66.06
243.064	67.06
243.298	81.06
243.531	56.06
243.765	67.06
243.998	70.06
244.232	77.06
244.465	77.06
244.699	82.06
244.932	87.06
245.166	69.06
245.399	72.06
245.633	63.06
245.866	74.06
246.099	69.06
246.333	66.06
246.566	69.06
246.8	71.06
247.033	68.06
247.266	79.06
247.5	73.06
247.733	66.06
247.966	60.06
248.2	77.06
248.433	80.06
248.666	67.06
248.899	67.06
249.133	77.06
249.366	91.06
249.599	82.06
249.832	81.06
250.066	81.06
250.299	73.06
250.532	68.06
250.765	67.06
250.998	63.06
251.231	80.06
251.465	56.06
251.698	89.06
251.931	69.06
252.164	70.06
252.397	81.06
252.63	75.06
252.863	77.06
253.096	76.06
253.329	78.06
253.562	71.06
253.795	57.06
254.028	71.06
254.261	62.06
254.494	81.06
254.727	80.06
254.96	87.06
255.193	56.06
255.426	77.06
255.659	80.06
255.892	70.06
256.124	77.06
256.357	76.06
256.59	87.06
256.823	75.06
257.056	79.06
257.289	71.06
257.521	75.06
257.754	84.06
257.987	73.06
258.22	73.06
258.452	78.06
258.685	69.06
258.918	69.06
259.151	65.06
259.383	82.06
259.616	87.06
259.849	72.06
260.081	79.06
260.314	85.06
260.547	75.06
260.779	74.06
261.012	98.06
261.244	82.06
261.477	77.06
261.71	87.06
261.942	108.06
262.175	90.06
262.407	90.06
262.64	73.06
262.872	98.06
263.105	75.06
263.337	81.06
263.57	77.06
263.802	75.06
264.035	78.06
264.267	76.06
264.499	89.06
264.732	71.06
264.964	81.06
265.197	66.06
265.429	80.06
265.661	86.06
265.894	83.06
266.126	75.06
266.358	80.06
266.591	83.06
266.823	74.06
267.055	73.06
267.287	84.06
267.52	61.06
267.752	61.06
267.984	61.06
268.216	84.06
268.448	78.06
268.681	80.06
268.913	85.06
269.145	81.06
269.377	84.06
269.609	81.06
269.841	84.06
270.073	75.06
270.306	79.06
270.538	87.06
270.77	61.06
271.002	80.06
271.234	79.06
271.466	82.06
271.698	79.06
271.93	78.06
272.162	86.06
272.394	77.06
272.626	79.06
272.858	76.06
273.09	80.06
273.322	77.06
273.553	82.06
273.785	80.06
274.017	87.06
274.249	78.06
274.481	98.06
274.713	85.06
274.945	71.06
275.176	73.06
275.408	87.06
275.64	89.06
275.872	91.06
276.104	81.06
276.335	81.06
276.567	88.06
276.799	84.06
277.031	93.06
277.262	82.06
277.494	77.06
277.726	91.06
277.957	75.06
278.189	80.06
278.421	79.06
278.652	70.06
278.884	86.06
279.115	71.06
279.347	84.06
279.579	87.06
279.81	85.06
280.042	66.06
280.273	61.06
280.505	66.06
280.736	75.06
280.968	83.06
281.199	79.06
281.431	68.06
281.662	87.06
281.894	92.06
282.125	86.06
282.356	103.06
282.588	124.06
282.819	89.06
283.051	68.06
283.282	71.06
283.513	76.06
283.745	92.06
283.976	93.06
284.207	67.06
284.439	70.06
284.67	82.06
284.901	90.06
285.132	77.06
285.364	88.06
285.595	93.06
285.826	76.06
286.057	76.06
286.288	71.06
286.52	88.06
286.751	74.06
286.982	75.06
287.213	79.06
287.444	76.06
287.675	84.06
287.906	85.06
288.138	79.06
288.369	84.06
288.6	78.06
288.831	88.06
289.062	89.06
289.293	67.06
289.524	82.06
289.755	77.06
289.986	81.06
290.217	91.06
290.448	95.06
290.679	89.06
290.91	83.06
291.141	77.06
291.371	84.06
291.602	83.06
291.833	83.06
292.064	85.06
292.295	75.06
292.526	80.06
292.757	76.06
292.987	92.06
293.218	74.06
293.449	75.06
293.68	78.06
293.91	71.06
294.141	88.06
294.372	78.06
294.603	76.06
294.833	73.06
295.064	92.06
295.295	64.06
295.525	92.06
295.756	95.06
295.987	114.06
296.217	106.06
296.448	117.06
296.679	86.06
296.909	74.06
297.14	72.06
297.37	76.06
297.601	64.06
297.831	68.06
298.062	90.06
298.292	75.06
298.523	84.06
298.753	88.06
298.984	78.06
299.214	83.06
299.445	100.06
299.675	81.06
299.905	89.06
300.136	77.06
300.366	89.06
300.597	96.06
300.827	89.06
301.057	96.06
301.288	85.06
301.518	92.06
301.748	84.06
301.979	93.06
302.209	82.06
302.439	85.06
302.669	93.06
302.9	83.06
303.13	88.06
303.36	85.06
303.59	92.06
303.82	96.06
304.051	76.06
304.281	74.06
304.511	83.06
304.741	84.06
304.971	80.06
305.201	88.06
305.431	87.06
305.661	79.06
305.891	79.06
306.121	90.06
306.352	97.06
306.582	88.06
306.812	87.06
307.042	89.06
307.272	101.06
307.502	84.06
307.731	88.06
307.961	89.06
308.191	87.06
308.421	79.06
308.651	77.06
308.881	87.06
309.111	87.06
309.341	80.06
309.571	90.06
309.8	83.06
310.03	85.06
310.26	73.06
310.49	81.06
310.72	91.06
310.949	84.06
311.179	100.06
311.409	79.06
311.639	81.06
311.868	99.06
312.098	87.06
312.328	80.06
312.557	85.06
312.787	105.06
313.017	103.06
313.246	89.06
313.476	80.06
313.706	82.06
313.935	75.06
314.165	83.06
314.394	74.06
314.624	80.06
314.853	88.06
315.083	72.06
315.312	90.06
315.542	83.06
315.771	82.06
316.001	95.06
316.23	90.06
316.46	78.06
316.689	70.06
316.919	72.06
317.148	90.06
317.377	97.06
317.607	77.06
317.836	76.06
318.065	82.06
318.295	91.06
318.524	77.06
318.753	90.06
318.983	72.06
319.212	85.06
319.441	92.06
319.67	93.06
319.9	86.06
320.129	73.06
320.358	98.06
320.587	80.06
320.816	97.06
321.046	91.06
321.275	87.06
321.504	91.06
321.733	91.06
321.962	85.06
322.191	96.06
322.42	96.06
322.649	100.06
322.878	88.06
323.108	100.06
323.337	114.06
323.566	137.06
323.795	129.06
324.024	180.06
324.253	315.06
324.482	689.06
324.71	1368.06
324.939	1812.06
325.168	665.06
325.397	215.06
325.626	143.06
325.855	118.06
326.084	114.06
326.313	116.06
326.542	130.06
326.77	199.06
326.999	407.06
327.228	807.06
327.457	1452.06
327.686	1133.06
327.914	308.06
328.143	177.06
328.372	135.06
328.6	107.06
328.829	92.06
329.058	108.06
329.287	119.06
329.515	96.06
329.744	94.06
329.972	98.06
330.201	107.06
330.43	88.06
330.658	107.06
330.887	135.06
331.115	87.06
331.344	74.06
331.572	81.06
331.801	92.06
332.03	67.06
332.258	81.06
332.486	84.06
332.715	93.06
332.943	80.06
333.172	92.06
333.4	103.06
333.629	102.06
333.857	92.06
334.085	83.06
334.314	73.06
334.542	97.06
334.771	85.06
334.999	90.06
335.227	78.06
335.455	84.06
335.684	93.06
335.912	93.06
336.14	86.06
336.369	101.06
336.597	87.06
336.825	96.06
337.053	85.06
337.281	82.06
337.51	92.06
337.738	94.06
337.966	91.06
338.194	81.06
338.422	79.06
338.65	99.06
338.878	78.06
339.106	84.06
339.334	80.06
339.562	80.06
339.79	85.06
340.018	88.06
340.246	72.06
340.474	82.06
340.702	91.06
340.93	83.06
341.158	96.06
341.386	83.06
341.614	87.06
341.842	83.06
342.07	80.06
342.298	79.06
342.526	82.06
342.754	78.06
342.981	87.06
343.209	80.06
343.437	103.06
343.665	91.06
343.893	80.06
344.12	84.06
344.348	69.06
344.576	90.06
344.804	79.06
345.031	93.06
345.259	73.06
345.487	73.06
345.714	80.06
345.942	77.06
346.17	74.06
346.397	70.06
346.625	73.06
346.853	71.06
347.08	70.06
347.308	96.06
347.535	84.06
347.763	88.06
347.99	93.06
348.218	88.06
348.445	89.06
348.673	84.06
348.9	98.06
349.128	81.06
349.355	74.06
349.583	86.06
349.81	92.06
350.037	83.06
350.265	96.06
350.492	83.06
350.72	85.06
350.947	89.06
351.174	92.06
351.402	93.06
351.629	93.06
351.856	95.06
352.083	79.06
352.311	93.06
352.538	91.06
352.765	112.06
352.992	89.06
353.22	86.06
353.447	96.06
353.674	100.06
353.901	90.06
354.128	84.06
354.355	97.06
354.583	90.06
354.81	98.06
355.037	97.06
355.264	81.06
355.491	97.06
355.718	103.06
355.945	89.06
356.172	74.06
356.399	87.06
356.626	79.06
356.853	81.06
357.08	85.06
357.307	84.06
357.534	86.06
357.761	84.06
357.988	84.06
358.215	92.06
358.441	87.06
358.668	94.06
358.895	79.06
359.122	84.06
359.349	78.06
359.576	80.06
359.802	100.06
360.029	91.06
360.256	93.06
360.483	93.06
360.709	81.06
360.936	90.06
361.163	90.06
361.39	87.06
361.616	80.06
361.843	83.06
362.07	65.06
362.296	80.06
362.523	87.06
362.749	83.06
362.976	72.06
363.203	83.06
363.429	80.06
363.656	81.06
363.882	93.06
364.109	85.06
364.335	85.06
364.562	79.06
364.788	90.06
365.015	92.06
365.241	93.06
365.468	101.06
365.694	89.06
365.92	80.06
366.147	97.06
366.373	80.06
366.599	84.06
366.826	68.06
367.052	84.06
367.278	77.06
367.505	95.06
367.731	89.06
367.957	78.06
368.184	87.06
368.41	88.06
368.636	103.06
368.862	96.06
369.089	87.06
369.315	94.06
369.541	81.06
369.767	79.06
369.993	84.06
370.219	102.06
370.445	82.06
370.672	78.06
370.898	79.06
371.124	67.06
371.35	85.06
371.576	90.06
371.802	87.06
372.028	81.06
372.254	91.06
372.48	81.06
372.706	82.06
372.932	76.06
373.158	78.06
373.384	90.06
373.61	93.06
373.835	79.06
374.061	84.06
374.287	93.06
374.513	84.06
374.739	80.06
374.965	79.06
375.191	65.06
375.416	85.06
375.642	77.06
375.868	88.06
376.094	76.06
376.319	77.06
376.545	71.06
376.771	95.06
376.997	75.06
377.222	77.06
377.448	73.06
377.674	84.06
377.899	93.06
378.125	68.06
378.35	95.06
378.576	88.06
378.802	83.06
379.027	93.06
379.253	75.06
379.478	75.06
379.704	71.06
379.929	83.06
380.155	84.06
380.38	80.06
380.606	79.06
380.831	88.06
381.057	84.06
381.282	83.06
381.507	100.06
381.733	99.06
381.958	91.06
382.184	82.06
382.409	95.06
382.634	84.06
382.86	97.06
383.085	93.06
383.31	92.06
383.535	78.06
383.761	98.06
383.986	87.06
384.211	97.06
384.436	84.06
384.662	100.06
384.887	85.06
385.112	94.06
385.337	92.06
385.562	83.06
385.787	93.06
386.013	92.06
386.238	101.06
386.463	79.06
386.688	87.06
386.913	86.06
387.138	89.06
387.363	85.06
387.588	101.06
387.813	88.06
388.038	72.06
388.263	93.06
388.488	86.06
388.713	96.06
388.938	91.06
389.163	90.06
389.387	77.06
389.612	86.06
389.837	77.06
390.062	92.06
390.287	85.06
390.512	83.06
390.736	81.06
390.961	78.06
391.186	91.06
391.411	83.06
391.636	93.06
391.86	81.06
392.085	83.06
392.31	73.06
392.534	88.06
392.759	78.06
392.984	79.06
393.208	85.06
393.433	79.06
393.658	77.06
393.882	73.06
394.107	83.06
394.331	80.06
394.556	89.06
394.78	97.06
395.005	91.06
395.229	74.06
395.454	74.06
395.678	75.06
395.903	75.06
396.127	85.06
396.352	88.06
396.576	89.06
396.801	80.06
397.025	68.06
397.249	76.06
397.474	81.06
397.698	90.06
397.922	77.06
398.147	81.06
398.371	85.06
398.595	69.06
398.82	61.06
399.044	71.06
399.268	75.06
399.492	85.06
399.717	94.06
399.941	86.06
400.165	94.06
400.389	80.06
400.613	93.06
400.837	99.06
401.062	76.06
401.286	72.06
401.51	80.06
401.734	92.06
401.958	76.06
402.182	87.06
402.406	127.06
402.63	98.06
402.854	79.06
403.078	73.06
403.302	82.06
403.526	73.06
403.75	81.06
403.974	81.06
404.198	88.06
404.422	77.06
404.645	81.06
404.869	82.06
405.093	88.06
405.317	75.06
405.541	86.06
405.765	86.06
405.988	102.06
406.212	155.06
406.436	180.06
406.66	129.06
406.883	95.06
407.107	82.06
407.331	91.06
407.555	80.06
407.778	101.06
408.002	91.06
408.226	99.06
408.449	81.06
408.673	85.06
408.896	92.06
409.12	88.06
409.344	85.06
409.567	82.06
409.791	88.06
410.014	86.06
410.238	89.06
410.461	83.06
410.685	89.06
410.908	94.06
411.132	84.06
411.355	87.06
411.578	85.06
411.802	85.06
412.025	87.06
412.249	85.06
412.472	82.06
412.695	74.06
412.919	73.06
413.142	80.06
413.365	89.06
413.589	76.06
413.812	81.06
414.035	90.06
414.258	89.06
414.482	90.06
414.705	83.06
414.928	72.06
415.151	69.06
415.374	78.06
415.597	76.06
415.821	71.06
416.044	80.06
416.267	82.06
416.49	76.06
416.713	77.06
416.936	84.06
417.159	73.06
417.382	73.06
417.605	100.06
417.828	81.06
418.051	73.06
418.274	78.06
418.497	76.06
418.72	71.06
418.943	78.06
419.166	70.06
419.389	88.06
419.611	65.06
419.834	72.06
420.057	71.06
420.28	98.06
420.503	77.06
420.726	83.06
420.948	82.06
421.171	89.06
421.394	86.06
421.617	78.06
421.839	88.06
422.062	77.06
422.285	89.06
422.507	83.06
422.73	75.06
422.953	94.06
423.175	88.06
423.398	85.06
423.621	81.06
423.843	76.06
424.066	76.06
424.288	86.06
424.511	76.06
424.733	79.06
424.956	88.06
425.178	90.06
425.401	102.06
425.623	96.06
425.846	80.06
426.068	80.06
426.291	80.06
426.513	97.06
426.735	92.06
426.958	85.06
427.18	97.06
427.402	97.06
427.625	140.06
427.847	109.06
428.069	94.06
428.292	80.06
428.514	71.06
428.736	80.06
428.958	82.06
429.181	87.06
429.403	77.06
429.625	88.06
429.847	83.06
430.069	87.06
430.292	92.06
430.514	76.06
430.736	58.06
430.958	89.06
431.18	84.06
431.402	82.06
431.624	82.06
431.846	85.06
432.068	84.06
432.29	81.06
432.512	77.06
432.734	77.06
432.956	77.06
433.178	80.06
433.4	90.06
433.622	88.06
433.844	73.06
434.066	76.06
434.287	100.06
434.509	77.06
434.731	79.06
434.953	73.06
435.175	90.06
435.397	85.06
435.618	87.06
435.84	101.06
436.062	113.06
436.284	94.06
436.505	82.06
436.727	90.06
436.949	80.06
437.17	69.06
437.392	72.06
437.614	89.06
437.835	91.06
438.057	107.06
438.278	93.06
438.5	96.06
438.721	97.06
438.943	84.06
439.165	85.06
439.386	82.06
439.608	88.06
439.829	95.06
440.05	113.06
440.272	121.06
440.493	80.06
440.715	78.06
440.936	71.06
441.158	78.06
441.379	87.06
441.6	80.06
441.822	86.06
442.043	86.06
442.264	98.06
442.486	107.06
442.707	89.06
442.928	88.06
443.149	110.06
443.371	112.06
443.592	91.06
443.813	108.06
444.034	102.06
444.255	100.06
444.476	87.06
444.698	79.06
444.919	81.06
445.14	125.06
445.361	118.06
445.582	91.06
445.803	111.06
446.024	110.06
446.245	114.06
446.466	93.06
446.687	85.06
446.908	72.06
447.129	83.06
447.35	79.06
447.571	79.06
447.792	69.06
448.013	88.06
448.234	98.06
448.455	102.06
448.675	121.06
448.896	91.06
449.117	85.06
449.338	105.06
449.559	105.06
449.779	125.06
450	88.06
450.221	99.06
450.442	87.06
450.662	94.06
450.883	100.06
451.104	108.06
451.324	88.06
451.545	73.06
451.766	84.06
451.986	88.06
452.207	69.06
452.428	91.06
452.648	96.06
452.869	88.06
453.089	90.06
453.31	120.06
453.53	91.06
453.751	89.06
453.971	99.06
454.192	103.06
454.412	76.06
454.633	91.06
454.853	87.06
455.073	96.06
455.294	72.06
455.514	89.06
455.734	75.06
455.955	81.06
456.175	89.06
456.395	82.06
456.616	85.06
456.836	84.06
457.056	75.06
457.276	63.06
457.497	71.06
457.717	76.06
457.937	79.06
458.157	79.06
458.377	81.06
458.598	100.06
458.818	151.06
459.038	125.06
459.258	99.06
459.478	84.06
459.698	84.06
459.918	81.06
460.138	81.06
460.358	75.06
460.578	82.06
460.798	71.06
461.018	92.06
461.238	71.06
461.458	89.06
461.678	80.06
461.898	76.06
462.118	83.06
462.338	76.06
462.558	84.06
462.777	76.06
462.997	76.06
463.217	85.06
463.437	85.06
463.657	80.06
463.876	96.06
464.096	92.06
464.316	82.06
464.536	92.06
464.755	92.06
464.975	99.06
465.195	147.06
465.414	113.06
465.634	85.06
465.854	64.06
466.073	70.06
466.293	80.06
466.512	79.06
466.732	88.06
466.951	82.06
467.171	68.06
467.391	89.06
467.61	93.06
467.829	80.06
468.049	95.06
468.268	101.06
468.488	81.06
468.707	77.06
468.927	81.06
469.146	70.06
469.365	83.06
469.585	80.06
469.804	83.06
470.023	101.06
470.243	88.06
470.462	89.06
470.681	98.06
470.901	71.06
471.12	86.06
471.339	74.06
471.558	80.06
471.777	89.06
471.997	88.06
472.216	76.06
472.435	97.06
472.654	79.06
472.873	80.06
473.092	64.06
473.311	73.06
473.53	73.06
473.749	95.06
473.968	76.06
474.187	82.06
474.406	82.06
474.625	88.06
474.844	69.06
475.063	69.06
475.282	77.06
475.501	84.06
475.72	84.06
475.939	80.06
476.158	83.06
476.377	91.06
476.596	91.06
476.814	89.06
477.033	83.06
477.252	79.06
477.471	72.06
477.69	83.06
477.908	88.06
478.127	79.06
478.346	73.06
478.564	79.06
478.783	78.06
479.002	76.06
479.22	90.06
479.439	92.06
479.658	85.06
479.876	83.06
480.095	92.06
480.313	84.06
480.532	74.06
480.751	80.06
480.969	89.06
481.188	99.06
481.406	106.06
481.624	96.06
481.843	98.06
482.061	59.06
482.28	76.06
482.498	70.06
482.717	75.06
482.935	98.06
483.153	84.06
483.372	95.06
483.59	94.06
483.808	93.06
484.027	88.06
484.245	77.06
484.463	78.06
484.681	98.06
484.9	82.06
485.118	98.06
485.336	82.06
485.554	81.06
485.772	92.06
485.99	94.06
486.209	96.06
486.427	92.06
486.645	91.06
486.863	100.06
487.081	84.06
487.299	88.06
487.517	98.06
487.735	89.06
487.953	79.06
488.171	81.06
488.389	90.06
488.607	89.06
488.825	88.06
489.043	80.06
489.261	87.06
489.479	85.06
489.696	87.06
489.914	84.06
490.132	90.06
490.35	81.06
490.568	77.06
490.786	91.06
491.003	82.06
491.221	80.06
491.439	87.06
491.657	92.06
491.874	81.06
492.092	71.06
492.31	70.06
492.527	83.06
492.745	92.06
492.963	86.06
493.18	75.06
493.398	103.06
493.615	88.06
493.833	88.06
494.05	93.06
494.268	98.06
494.485	92.06
494.703	70.06
494.92	85.06
495.138	83.06
495.355	82.06
495.573	85.06
495.79	67.06
496.008	83.06
496.225	91.06
496.442	79.06
496.66	97.06
496.877	84.06
497.094	86.06
497.312	83.06
497.529	76.06
497.746	83.06
497.963	75.06
498.181	81.06
498.398	93.06
498.615	100.06
498.832	84.06
499.049	91.06
499.267	84.06
499.484	84.06
499.701	96.06
499.918	74.06
500.135	97.06
500.352	100.06
500.569	91.06
500.786	105.06
501.003	82.06
501.22	87.06
501.437	91.06
501.654	91.06
501.871	102.06
502.088	89.06
502.305	81.06
502.522	75.06
502.739	89.06
502.956	75.06
503.172	78.06
503.389	97.06
503.606	88.06
503.823	91.06
504.04	92.06
504.256	85.06
504.473	89.06
504.69	72.06
504.907	88.06
505.123	84.06
505.34	93.06
505.557	89.06
505.773	88.06
505.99	86.06
506.207	85.06
506.423	74.06
506.64	87.06
506.856	82.06
507.073	85.06
507.289	84.06
507.506	90.06
507.722	95.06
507.939	104.06
508.155	89.06
508.372	79.06
508.588	89.06
508.805	73.06
509.021	75.06
509.238	96.06
509.454	97.06
509.67	85.06
509.887	89.06
510.103	122.06
510.319	213.06
510.536	658.06
510.752	1980.06
510.968	537.06
511.184	137.06
511.401	96.06
511.617	90.06
511.833	89.06
512.049	76.06
512.265	80.06
512.481	86.06
512.698	84.06
512.914	68.06
513.13	77.06
513.346	92.06
513.562	79.06
513.778	97.06
513.994	100.06
514.21	85.06
514.426	110.06
514.642	106.06
514.858	114.06
515.074	129.06
515.29	371.06
515.506	1169.06
515.721	441.06
515.937	129.06
516.153	99.06
516.369	89.06
516.585	82.06
516.801	81.06
517.016	82.06
517.232	90.06
517.448	83.06
517.664	90.06
517.879	95.06
518.095	88.06
518.311	86.06
