Data from Uncirc_1998_H10_HRD10591_00028.txt Node
Date: Wed Jan 03 11:25:30 EST 2024
User: Yrep
Spectrometer: HR+D1059
Trigger mode: 1
Integration Time (sec): 1.000000E-1
Scans to average: 1
Electric dark correction enabled: true
Nonlinearity correction enabled: false
Boxcar width: 0
XAxis mode: Wavelengths
Number of Pixels in Spectrum: 2048
>>>>>Begin Spectral Data<<<<<
223.165	-22.25
223.4	-22.25
223.635	-22.25
223.869	-28.25
224.104	-18.25
224.338	-19.25
224.573	-2.25
224.808	-6.25
225.042	1.75
225.277	-3.25
225.511	-4.25
225.746	-4.25
225.98	9.75
226.215	13.75
226.449	-3.25
226.683	26.75
226.918	31.75
227.152	27.75
227.387	37.75
227.621	33.75
227.856	44.75
228.09	48.75
228.324	52.75
228.559	60.75
228.793	46.75
229.027	62.75
229.262	66.75
229.496	76.75
229.73	69.75
229.964	68.75
230.199	82.75
230.433	80.75
230.667	93.75
230.901	73.75
231.136	64.75
231.37	81.75
231.604	87.75
231.838	74.75
232.072	71.75
232.306	92.75
232.541	88.75
232.775	80.75
233.009	73.75
233.243	97.75
233.477	91.75
233.711	83.75
233.945	90.75
234.179	74.75
234.413	78.75
234.647	96.75
234.881	79.75
235.115	74.75
235.349	76.75
235.583	80.75
235.817	85.75
236.051	70.75
236.285	66.75
236.519	81.75
236.753	64.75
236.987	88.75
237.221	99.75
237.455	81.75
237.689	82.75
237.922	82.75
238.156	74.75
238.39	72.75
238.624	82.75
238.858	76.75
239.091	87.75
239.325	70.75
239.559	73.75
239.793	77.75
240.027	87.75
240.26	74.75
240.494	81.75
240.728	80.75
240.961	82.75
241.195	89.75
241.429	83.75
241.662	84.75
241.896	65.75
242.13	67.75
242.363	65.75
242.597	79.75
242.83	90.75
243.064	77.75
243.298	91.75
243.531	74.75
243.765	72.75
243.998	66.75
244.232	73.75
244.465	71.75
244.699	90.75
244.932	78.75
245.166	70.75
245.399	85.75
245.633	79.75
245.866	74.75
246.099	69.75
246.333	80.75
246.566	75.75
246.8	75.75
247.033	84.75
247.266	85.75
247.5	87.75
247.733	81.75
247.966	74.75
248.2	76.75
248.433	82.75
248.666	89.75
248.899	95.75
249.133	82.75
249.366	110.75
249.599	97.75
249.832	87.75
250.066	84.75
250.299	86.75
250.532	76.75
250.765	83.75
250.998	72.75
251.231	70.75
251.465	79.75
251.698	77.75
251.931	88.75
252.164	80.75
252.397	91.75
252.63	75.75
252.863	80.75
253.096	71.75
253.329	86.75
253.562	65.75
253.795	90.75
254.028	92.75
254.261	81.75
254.494	82.75
254.727	79.75
254.96	85.75
255.193	71.75
255.426	90.75
255.659	79.75
255.892	85.75
256.124	72.75
256.357	80.75
256.59	80.75
256.823	76.75
257.056	79.75
257.289	91.75
257.521	82.75
257.754	79.75
257.987	98.75
258.22	77.75
258.452	73.75
258.685	66.75
258.918	80.75
259.151	78.75
259.383	80.75
259.616	80.75
259.849	85.75
260.081	87.75
260.314	89.75
260.547	80.75
260.779	74.75
261.012	91.75
261.244	74.75
261.477	89.75
261.71	75.75
261.942	102.75
262.175	105.75
262.407	77.75
262.64	86.75
262.872	82.75
263.105	90.75
263.337	71.75
263.57	83.75
263.802	84.75
264.035	90.75
264.267	94.75
264.499	71.75
264.732	84.75
264.964	94.75
265.197	93.75
265.429	87.75
265.661	85.75
265.894	97.75
266.126	96.75
266.358	80.75
266.591	79.75
266.823	83.75
267.055	79.75
267.287	106.75
267.52	99.75
267.752	62.75
267.984	87.75
268.216	77.75
268.448	83.75
268.681	88.75
268.913	90.75
269.145	77.75
269.377	89.75
269.609	87.75
269.841	73.75
270.073	84.75
270.306	86.75
270.538	86.75
270.77	83.75
271.002	87.75
271.234	91.75
271.466	86.75
271.698	81.75
271.93	75.75
272.162	78.75
272.394	88.75
272.626	77.75
272.858	80.75
273.09	88.75
273.322	80.75
273.553	82.75
273.785	81.75
274.017	87.75
274.249	78.75
274.481	95.75
274.713	85.75
274.945	97.75
275.176	89.75
275.408	99.75
275.64	85.75
275.872	87.75
276.104	94.75
276.335	90.75
276.567	97.75
276.799	99.75
277.031	99.75
277.262	92.75
277.494	79.75
277.726	87.75
277.957	73.75
278.189	79.75
278.421	99.75
278.652	92.75
278.884	75.75
279.115	88.75
279.347	81.75
279.579	87.75
279.81	85.75
280.042	92.75
280.273	97.75
280.505	93.75
280.736	81.75
280.968	88.75
281.199	90.75
281.431	83.75
281.662	73.75
281.894	77.75
282.125	96.75
282.356	116.75
282.588	119.75
282.819	85.75
283.051	93.75
283.282	82.75
283.513	97.75
283.745	88.75
283.976	94.75
284.207	88.75
284.439	89.75
284.67	91.75
284.901	90.75
285.132	97.75
285.364	95.75
285.595	91.75
285.826	93.75
286.057	98.75
286.288	90.75
286.52	89.75
286.751	79.75
286.982	112.75
287.213	87.75
287.444	96.75
287.675	93.75
287.906	83.75
288.138	81.75
288.369	91.75
288.6	94.75
288.831	78.75
289.062	87.75
289.293	77.75
289.524	101.75
289.755	85.75
289.986	89.75
290.217	92.75
290.448	107.75
290.679	89.75
290.91	105.75
291.141	88.75
291.371	95.75
291.602	90.75
291.833	83.75
292.064	91.75
292.295	89.75
292.526	89.75
292.757	92.75
292.987	76.75
293.218	90.75
293.449	89.75
293.68	93.75
293.91	95.75
294.141	82.75
294.372	75.75
294.603	83.75
294.833	98.75
295.064	97.75
295.295	88.75
295.525	97.75
295.756	110.75
295.987	117.75
296.217	144.75
296.448	128.75
296.679	92.75
296.909	89.75
297.14	77.75
297.37	88.75
297.601	93.75
297.831	88.75
298.062	85.75
298.292	94.75
298.523	99.75
298.753	89.75
298.984	91.75
299.214	90.75
299.445	97.75
299.675	81.75
299.905	81.75
300.136	85.75
300.366	86.75
300.597	92.75
300.827	86.75
301.057	88.75
301.288	79.75
301.518	87.75
301.748	77.75
301.979	103.75
302.209	74.75
302.439	95.75
302.669	91.75
302.9	89.75
303.13	91.75
303.36	105.75
303.59	90.75
303.82	95.75
304.051	87.75
304.281	93.75
304.511	80.75
304.741	87.75
304.971	87.75
305.201	86.75
305.431	99.75
305.661	95.75
305.891	85.75
306.121	92.75
306.352	103.75
306.582	101.75
306.812	93.75
307.042	79.75
307.272	92.75
307.502	94.75
307.731	102.75
307.961	84.75
308.191	87.75
308.421	95.75
308.651	86.75
308.881	83.75
309.111	92.75
309.341	116.75
309.571	90.75
309.8	95.75
310.03	104.75
310.26	85.75
310.49	89.75
310.72	95.75
310.949	113.75
311.179	98.75
311.409	89.75
311.639	102.75
311.868	92.75
312.098	98.75
312.328	97.75
312.557	90.75
312.787	98.75
313.017	94.75
313.246	99.75
313.476	86.75
313.706	106.75
313.935	97.75
314.165	94.75
314.394	97.75
314.624	82.75
314.853	94.75
315.083	95.75
315.312	104.75
315.542	94.75
315.771	80.75
316.001	90.75
316.23	85.75
316.46	72.75
316.689	90.75
316.919	82.75
317.148	104.75
317.377	97.75
317.607	95.75
317.836	92.75
318.065	83.75
318.295	85.75
318.524	78.75
318.753	90.75
318.983	100.75
319.212	106.75
319.441	98.75
319.67	90.75
319.9	85.75
320.129	72.75
320.358	87.75
320.587	92.75
320.816	94.75
321.046	96.75
321.275	93.75
321.504	88.75
321.733	105.75
321.962	82.75
322.191	92.75
322.42	110.75
322.649	94.75
322.878	98.75
323.108	107.75
323.337	111.75
323.566	123.75
323.795	135.75
324.024	165.75
324.253	338.75
324.482	710.75
324.71	1426.75
324.939	1823.75
325.168	690.75
325.397	204.75
325.626	153.75
325.855	129.75
326.084	125.75
326.313	121.75
326.542	135.75
326.77	203.75
326.999	393.75
327.228	807.75
327.457	1459.75
327.686	1139.75
327.914	330.75
328.143	181.75
328.372	140.75
328.6	118.75
328.829	120.75
329.058	120.75
329.287	115.75
329.515	95.75
329.744	109.75
329.972	94.75
330.201	101.75
330.43	104.75
330.658	118.75
330.887	133.75
331.115	109.75
331.344	101.75
331.572	88.75
331.801	105.75
332.03	107.75
332.258	99.75
332.486	81.75
332.715	92.75
332.943	111.75
333.172	107.75
333.4	98.75
333.629	92.75
333.857	120.75
334.085	92.75
334.314	98.75
334.542	75.75
334.771	106.75
334.999	107.75
335.227	96.75
335.455	97.75
335.684	92.75
335.912	89.75
336.14	97.75
336.369	97.75
336.597	93.75
336.825	92.75
337.053	99.75
337.281	103.75
337.51	87.75
337.738	98.75
337.966	98.75
338.194	98.75
338.422	103.75
338.65	94.75
338.878	109.75
339.106	94.75
339.334	92.75
339.562	100.75
339.79	97.75
340.018	92.75
340.246	117.75
340.474	95.75
340.702	87.75
340.93	104.75
341.158	108.75
341.386	103.75
341.614	102.75
341.842	88.75
342.07	92.75
342.298	99.75
342.526	98.75
342.754	98.75
342.981	90.75
343.209	87.75
343.437	101.75
343.665	91.75
343.893	93.75
344.12	93.75
344.348	90.75
344.576	82.75
344.804	90.75
345.031	94.75
345.259	95.75
345.487	98.75
345.714	97.75
345.942	104.75
346.17	92.75
346.397	93.75
346.625	98.75
346.853	94.75
347.08	98.75
347.308	98.75
347.535	99.75
347.763	106.75
347.99	77.75
348.218	93.75
348.445	102.75
348.673	97.75
348.9	104.75
349.128	96.75
349.355	93.75
349.583	91.75
349.81	101.75
350.037	88.75
350.265	106.75
350.492	97.75
350.72	99.75
350.947	110.75
351.174	102.75
351.402	115.75
351.629	98.75
351.856	96.75
352.083	104.75
352.311	97.75
352.538	102.75
352.765	112.75
352.992	122.75
353.22	110.75
353.447	90.75
353.674	98.75
353.901	85.75
354.128	99.75
354.355	86.75
354.583	94.75
354.81	108.75
355.037	95.75
355.264	95.75
355.491	86.75
355.718	90.75
355.945	77.75
356.172	97.75
356.399	107.75
356.626	89.75
356.853	98.75
357.08	109.75
357.307	106.75
357.534	92.75
357.761	101.75
357.988	87.75
358.215	94.75
358.441	94.75
358.668	99.75
358.895	90.75
359.122	95.75
359.349	80.75
359.576	94.75
359.802	94.75
360.029	104.75
360.256	101.75
360.483	91.75
360.709	91.75
360.936	87.75
361.163	96.75
361.39	97.75
361.616	90.75
361.843	89.75
362.07	80.75
362.296	97.75
362.523	93.75
362.749	85.75
362.976	82.75
363.203	85.75
363.429	81.75
363.656	91.75
363.882	102.75
364.109	80.75
364.335	85.75
364.562	91.75
364.788	84.75
365.015	102.75
365.241	96.75
365.468	106.75
365.694	103.75
365.92	109.75
366.147	91.75
366.373	91.75
366.599	86.75
366.826	86.75
367.052	85.75
367.278	97.75
367.505	97.75
367.731	89.75
367.957	97.75
368.184	99.75
368.41	88.75
368.636	108.75
368.862	120.75
369.089	90.75
369.315	83.75
369.541	80.75
369.767	71.75
369.993	82.75
370.219	90.75
370.445	85.75
370.672	87.75
370.898	91.75
371.124	96.75
371.35	92.75
371.576	82.75
371.802	92.75
372.028	85.75
372.254	94.75
372.48	89.75
372.706	82.75
372.932	86.75
373.158	87.75
373.384	86.75
373.61	92.75
373.835	85.75
374.061	93.75
374.287	83.75
374.513	98.75
374.739	88.75
374.965	84.75
375.191	93.75
375.416	82.75
375.642	99.75
375.868	92.75
376.094	104.75
376.319	83.75
376.545	70.75
376.771	83.75
376.997	85.75
377.222	79.75
377.448	73.75
377.674	71.75
377.899	82.75
378.125	78.75
378.35	82.75
378.576	100.75
378.802	99.75
379.027	76.75
379.253	86.75
379.478	78.75
379.704	91.75
379.929	77.75
380.155	88.75
380.38	82.75
380.606	81.75
380.831	103.75
381.057	92.75
381.282	101.75
381.507	84.75
381.733	88.75
381.958	88.75
382.184	92.75
382.409	85.75
382.634	98.75
382.86	93.75
383.085	113.75
383.31	93.75
383.535	100.75
383.761	105.75
383.986	99.75
384.211	110.75
384.436	94.75
384.662	99.75
384.887	97.75
385.112	89.75
385.337	104.75
385.562	102.75
385.787	98.75
386.013	104.75
386.238	100.75
386.463	105.75
386.688	97.75
386.913	101.75
387.138	102.75
387.363	99.75
387.588	109.75
387.813	111.75
388.038	100.75
388.263	111.75
388.488	95.75
388.713	97.75
388.938	97.75
389.163	87.75
389.387	93.75
389.612	79.75
389.837	85.75
390.062	90.75
390.287	84.75
390.512	94.75
390.736	84.75
390.961	81.75
391.186	85.75
391.411	101.75
391.636	95.75
391.86	93.75
392.085	81.75
392.31	84.75
392.534	82.75
392.759	94.75
392.984	78.75
393.208	91.75
393.433	88.75
393.658	86.75
393.882	76.75
394.107	88.75
394.331	83.75
394.556	93.75
394.78	91.75
395.005	83.75
395.229	94.75
395.454	96.75
395.678	79.75
395.903	88.75
396.127	91.75
396.352	95.75
396.576	79.75
396.801	84.75
397.025	92.75
397.249	86.75
397.474	86.75
397.698	73.75
397.922	76.75
398.147	94.75
398.371	92.75
398.595	100.75
398.82	93.75
399.044	70.75
399.268	83.75
399.492	80.75
399.717	91.75
399.941	79.75
400.165	92.75
400.389	93.75
400.613	94.75
400.837	74.75
401.062	72.75
401.286	80.75
401.51	90.75
401.734	92.75
401.958	97.75
402.182	116.75
402.406	124.75
402.63	99.75
402.854	86.75
403.078	93.75
403.302	81.75
403.526	77.75
403.75	76.75
403.974	87.75
404.198	87.75
404.422	86.75
404.645	87.75
404.869	91.75
405.093	80.75
405.317	95.75
405.541	87.75
405.765	91.75
405.988	105.75
406.212	161.75
406.436	191.75
406.66	130.75
406.883	86.75
407.107	85.75
407.331	80.75
407.555	93.75
407.778	101.75
408.002	97.75
408.226	96.75
408.449	92.75
408.673	101.75
408.896	81.75
409.12	90.75
409.344	90.75
409.567	81.75
409.791	103.75
410.014	99.75
410.238	95.75
410.461	93.75
410.685	94.75
410.908	91.75
411.132	109.75
411.355	103.75
411.578	90.75
411.802	104.75
412.025	81.75
412.249	77.75
412.472	87.75
412.695	86.75
412.919	69.75
413.142	82.75
413.365	84.75
413.589	92.75
413.812	92.75
414.035	91.75
414.258	89.75
414.482	96.75
414.705	99.75
414.928	84.75
415.151	97.75
415.374	92.75
415.597	92.75
415.821	87.75
416.044	88.75
416.267	86.75
416.49	82.75
416.713	97.75
416.936	81.75
417.159	88.75
417.382	95.75
417.605	83.75
417.828	93.75
418.051	108.75
418.274	96.75
418.497	75.75
418.72	90.75
418.943	76.75
419.166	86.75
419.389	90.75
419.611	97.75
419.834	97.75
420.057	103.75
420.28	83.75
420.503	90.75
420.726	89.75
420.948	86.75
421.171	91.75
421.394	102.75
421.617	90.75
421.839	89.75
422.062	103.75
422.285	105.75
422.507	100.75
422.73	97.75
422.953	95.75
423.175	89.75
423.398	89.75
423.621	83.75
423.843	93.75
424.066	90.75
424.288	99.75
424.511	89.75
424.733	87.75
424.956	90.75
425.178	97.75
425.401	96.75
425.623	110.75
425.846	89.75
426.068	98.75
426.291	94.75
426.513	95.75
426.735	89.75
426.958	84.75
427.18	102.75
427.402	129.75
427.625	137.75
427.847	133.75
428.069	87.75
428.292	89.75
428.514	82.75
428.736	94.75
428.958	84.75
429.181	83.75
429.403	83.75
429.625	89.75
429.847	86.75
430.069	87.75
430.292	79.75
430.514	92.75
430.736	94.75
430.958	91.75
431.18	85.75
431.402	85.75
431.624	80.75
431.846	91.75
432.068	90.75
432.29	87.75
432.512	86.75
432.734	83.75
432.956	81.75
433.178	75.75
433.4	91.75
433.622	92.75
433.844	99.75
434.066	92.75
434.287	81.75
434.509	82.75
434.731	90.75
434.953	96.75
435.175	80.75
435.397	86.75
435.618	95.75
435.84	109.75
436.062	112.75
436.284	102.75
436.505	98.75
436.727	93.75
436.949	90.75
437.17	103.75
437.392	90.75
437.614	104.75
437.835	97.75
438.057	102.75
438.278	103.75
438.5	109.75
438.721	101.75
438.943	93.75
439.165	91.75
439.386	91.75
439.608	95.75
439.829	121.75
440.05	111.75
440.272	120.75
440.493	98.75
440.715	93.75
440.936	102.75
441.158	93.75
441.379	82.75
441.6	85.75
441.822	90.75
442.043	106.75
442.264	118.75
442.486	87.75
442.707	89.75
442.928	92.75
443.149	104.75
443.371	117.75
443.592	99.75
443.813	104.75
444.034	91.75
444.255	90.75
444.476	85.75
444.698	89.75
444.919	89.75
445.14	142.75
445.361	120.75
445.582	111.75
445.803	126.75
446.024	120.75
446.245	122.75
446.466	90.75
446.687	92.75
446.908	85.75
447.129	92.75
447.35	74.75
447.571	75.75
447.792	84.75
448.013	94.75
448.234	95.75
448.455	103.75
448.675	106.75
448.896	117.75
449.117	108.75
449.338	104.75
449.559	129.75
449.779	127.75
450	89.75
450.221	93.75
450.442	97.75
450.662	94.75
450.883	105.75
451.104	109.75
451.324	87.75
451.545	78.75
451.766	88.75
451.986	94.75
452.207	79.75
452.428	91.75
452.648	94.75
452.869	98.75
453.089	104.75
453.31	97.75
453.53	89.75
453.751	87.75
453.971	107.75
454.192	88.75
454.412	89.75
454.633	98.75
454.853	77.75
455.073	83.75
455.294	90.75
455.514	87.75
455.734	94.75
455.955	77.75
456.175	89.75
456.395	89.75
456.616	81.75
456.836	79.75
457.056	95.75
457.276	95.75
457.497	81.75
457.717	68.75
457.937	90.75
458.157	87.75
458.377	90.75
458.598	99.75
458.818	129.75
459.038	146.75
459.258	110.75
459.478	86.75
459.698	97.75
459.918	108.75
460.138	75.75
460.358	76.75
460.578	94.75
460.798	77.75
461.018	87.75
461.238	85.75
461.458	92.75
461.678	81.75
461.898	83.75
462.118	92.75
462.338	90.75
462.558	87.75
462.777	83.75
462.997	85.75
463.217	94.75
463.437	97.75
463.657	91.75
463.876	93.75
464.096	99.75
464.316	93.75
464.536	87.75
464.755	87.75
464.975	98.75
465.195	137.75
465.414	144.75
465.634	105.75
465.854	77.75
466.073	101.75
466.293	82.75
466.512	94.75
466.732	80.75
466.951	88.75
467.171	97.75
467.391	87.75
467.61	92.75
467.829	88.75
468.049	70.75
468.268	95.75
468.488	90.75
468.707	103.75
468.927	95.75
469.146	89.75
469.365	74.75
469.585	91.75
469.804	96.75
470.023	93.75
470.243	86.75
470.462	99.75
470.681	97.75
470.901	96.75
471.12	81.75
471.339	87.75
471.558	90.75
471.777	87.75
471.997	79.75
472.216	90.75
472.435	91.75
472.654	87.75
472.873	74.75
473.092	85.75
473.311	80.75
473.53	86.75
473.749	89.75
473.968	104.75
474.187	97.75
474.406	92.75
474.625	93.75
474.844	84.75
475.063	83.75
475.282	79.75
475.501	71.75
475.72	93.75
475.939	104.75
476.158	97.75
476.377	91.75
476.596	86.75
476.814	89.75
477.033	88.75
477.252	89.75
477.471	89.75
477.69	88.75
477.908	95.75
478.127	78.75
478.346	89.75
478.564	103.75
478.783	103.75
479.002	82.75
479.22	110.75
479.439	91.75
479.658	97.75
479.876	105.75
480.095	93.75
480.313	88.75
480.532	88.75
480.751	85.75
480.969	97.75
481.188	109.75
481.406	98.75
481.624	89.75
481.843	83.75
482.061	91.75
482.28	82.75
482.498	86.75
482.717	89.75
482.935	72.75
483.153	97.75
483.372	99.75
483.59	90.75
483.808	79.75
484.027	87.75
484.245	76.75
484.463	88.75
484.681	101.75
484.9	101.75
485.118	97.75
485.336	105.75
485.554	113.75
485.772	99.75
485.99	95.75
486.209	89.75
486.427	100.75
486.645	112.75
486.863	113.75
487.081	98.75
487.299	93.75
487.517	111.75
487.735	96.75
487.953	94.75
488.171	98.75
488.389	95.75
488.607	93.75
488.825	96.75
489.043	86.75
489.261	77.75
489.479	82.75
489.696	84.75
489.914	85.75
490.132	89.75
490.35	79.75
490.568	86.75
490.786	89.75
491.003	78.75
491.221	93.75
491.439	94.75
491.657	71.75
491.874	89.75
492.092	87.75
492.31	102.75
492.527	100.75
492.745	99.75
492.963	91.75
493.18	74.75
493.398	88.75
493.615	99.75
493.833	95.75
494.05	105.75
494.268	98.75
494.485	91.75
494.703	103.75
494.92	96.75
495.138	90.75
495.355	93.75
495.573	87.75
495.79	76.75
496.008	95.75
496.225	93.75
496.442	85.75
496.66	89.75
496.877	93.75
497.094	98.75
497.312	75.75
497.529	92.75
497.746	85.75
497.963	93.75
498.181	84.75
498.398	95.75
498.615	94.75
498.832	93.75
499.049	101.75
499.267	95.75
499.484	79.75
499.701	90.75
499.918	85.75
500.135	74.75
500.352	82.75
500.569	92.75
500.786	94.75
501.003	93.75
501.22	98.75
501.437	86.75
501.654	93.75
501.871	102.75
502.088	92.75
502.305	90.75
502.522	89.75
502.739	92.75
502.956	98.75
503.172	103.75
503.389	85.75
503.606	107.75
503.823	96.75
504.04	96.75
504.256	94.75
504.473	89.75
504.69	96.75
504.907	93.75
505.123	91.75
505.34	93.75
505.557	94.75
505.773	90.75
505.99	90.75
506.207	93.75
506.423	92.75
506.64	97.75
506.856	79.75
507.073	90.75
507.289	89.75
507.506	106.75
507.722	105.75
507.939	117.75
508.155	99.75
508.372	98.75
508.588	101.75
508.805	87.75
509.021	103.75
509.238	97.75
509.454	84.75
509.67	98.75
509.887	108.75
510.103	125.75
510.319	186.75
510.536	684.75
510.752	1981.75
510.968	557.75
511.184	139.75
511.401	112.75
511.617	105.75
511.833	85.75
512.049	89.75
512.265	81.75
512.481	107.75
512.698	87.75
512.914	94.75
513.13	93.75
513.346	93.75
513.562	86.75
513.778	99.75
513.994	90.75
514.21	89.75
514.426	107.75
514.642	130.75
514.858	115.75
515.074	138.75
515.29	355.75
515.506	1135.75
515.721	433.75
515.937	138.75
516.153	91.75
516.369	99.75
516.585	102.75
