Data from Uncirc_1998_H10_HRD10591_00075.txt Node
Date: Wed Jan 03 11:25:39 EST 2024
User: Yrep
Spectrometer: HR+D1059
Trigger mode: 1
Integration Time (sec): 1.000000E-1
Scans to average: 1
Electric dark correction enabled: true
Nonlinearity correction enabled: false
Boxcar width: 0
XAxis mode: Wavelengths
Number of Pixels in Spectrum: 2048
>>>>>Begin Spectral Data<<<<<
223.165	-15.19
223.4	-15.19
223.635	-15.19
223.869	-8.19
224.104	-25.19
224.338	-18.19
224.573	-15.19
224.808	-6.19
225.042	-6.19
225.277	-14.19
225.511	3.81
225.746	-12.19
225.98	-0.19
226.215	17.81
226.449	14.81
226.683	23.81
226.918	24.81
227.152	35.81
227.387	46.81
227.621	32.81
227.856	44.81
228.09	46.81
228.324	32.81
228.559	50.81
228.793	65.81
229.027	51.81
229.262	68.81
229.496	75.81
229.73	70.81
229.964	82.81
230.199	75.81
230.433	78.81
230.667	86.81
230.901	77.81
231.136	91.81
231.37	83.81
231.604	77.81
231.838	82.81
232.072	71.81
232.306	71.81
232.541	68.81
232.775	83.81
233.009	83.81
233.243	86.81
233.477	92.81
233.711	86.81
233.945	63.81
234.179	81.81
234.413	93.81
234.647	77.81
234.881	73.81
235.115	83.81
235.349	79.81
235.583	66.81
235.817	88.81
236.051	78.81
236.285	67.81
236.519	75.81
236.753	78.81
236.987	64.81
237.221	93.81
237.455	77.81
237.689	78.81
237.922	73.81
238.156	74.81
238.39	85.81
238.624	78.81
238.858	90.81
239.091	73.81
239.325	78.81
239.559	62.81
239.793	75.81
240.027	76.81
240.26	87.81
240.494	63.81
240.728	72.81
240.961	63.81
241.195	81.81
241.429	74.81
241.662	76.81
241.896	79.81
242.13	91.81
242.363	65.81
242.597	79.81
242.83	95.81
243.064	92.81
243.298	78.81
243.531	81.81
243.765	71.81
243.998	83.81
244.232	71.81
244.465	76.81
244.699	69.81
244.932	67.81
245.166	83.81
245.399	80.81
245.633	79.81
245.866	76.81
246.099	79.81
246.333	82.81
246.566	80.81
246.8	71.81
247.033	81.81
247.266	82.81
247.5	82.81
247.733	76.81
247.966	94.81
248.2	67.81
248.433	84.81
248.666	94.81
248.899	75.81
249.133	72.81
249.366	89.81
249.599	92.81
249.832	82.81
250.066	93.81
250.299	85.81
250.532	76.81
250.765	83.81
250.998	84.81
251.231	85.81
251.465	78.81
251.698	63.81
251.931	89.81
252.164	88.81
252.397	94.81
252.63	71.81
252.863	78.81
253.096	78.81
253.329	90.81
253.562	89.81
253.795	88.81
254.028	71.81
254.261	84.81
254.494	74.81
254.727	84.81
254.96	84.81
255.193	76.81
255.426	84.81
255.659	72.81
255.892	85.81
256.124	80.81
256.357	82.81
256.59	78.81
256.823	89.81
257.056	72.81
257.289	84.81
257.521	78.81
257.754	79.81
257.987	90.81
258.22	91.81
258.452	79.81
258.685	72.81
258.918	78.81
259.151	85.81
259.383	90.81
259.616	82.81
259.849	81.81
260.081	86.81
260.314	87.81
260.547	81.81
260.779	98.81
261.012	78.81
261.244	84.81
261.477	93.81
261.71	79.81
261.942	100.81
262.175	104.81
262.407	80.81
262.64	86.81
262.872	83.81
263.105	102.81
263.337	76.81
263.57	83.81
263.802	74.81
264.035	95.81
264.267	90.81
264.499	80.81
264.732	87.81
264.964	82.81
265.197	66.81
265.429	70.81
265.661	83.81
265.894	82.81
266.126	90.81
266.358	96.81
266.591	78.81
266.823	96.81
267.055	76.81
267.287	77.81
267.52	77.81
267.752	81.81
267.984	75.81
268.216	63.81
268.448	66.81
268.681	83.81
268.913	96.81
269.145	94.81
269.377	79.81
269.609	82.81
269.841	88.81
270.073	100.81
270.306	96.81
270.538	103.81
270.77	90.81
271.002	67.81
271.234	78.81
271.466	86.81
271.698	72.81
271.93	86.81
272.162	85.81
272.394	86.81
272.626	93.81
272.858	92.81
273.09	90.81
273.322	78.81
273.553	84.81
273.785	75.81
274.017	85.81
274.249	86.81
274.481	85.81
274.713	81.81
274.945	77.81
275.176	80.81
275.408	76.81
275.64	97.81
275.872	87.81
276.104	83.81
276.335	96.81
276.567	81.81
276.799	94.81
277.031	96.81
277.262	85.81
277.494	79.81
277.726	82.81
277.957	93.81
278.189	82.81
278.421	82.81
278.652	79.81
278.884	88.81
279.115	79.81
279.347	76.81
279.579	91.81
279.81	80.81
280.042	74.81
280.273	93.81
280.505	93.81
280.736	84.81
280.968	79.81
281.199	90.81
281.431	78.81
281.662	72.81
281.894	95.81
282.125	107.81
282.356	105.81
282.588	122.81
282.819	101.81
283.051	97.81
283.282	90.81
283.513	79.81
283.745	88.81
283.976	73.81
284.207	87.81
284.439	96.81
284.67	90.81
284.901	79.81
285.132	78.81
285.364	94.81
285.595	74.81
285.826	90.81
286.057	86.81
286.288	91.81
286.52	87.81
286.751	89.81
286.982	91.81
287.213	76.81
287.444	95.81
287.675	107.81
287.906	84.81
288.138	89.81
288.369	96.81
288.6	100.81
288.831	80.81
289.062	94.81
289.293	94.81
289.524	91.81
289.755	83.81
289.986	81.81
290.217	80.81
290.448	82.81
290.679	88.81
290.91	92.81
291.141	94.81
291.371	78.81
291.602	83.81
291.833	107.81
292.064	95.81
292.295	82.81
292.526	83.81
292.757	96.81
292.987	96.81
293.218	81.81
293.449	74.81
293.68	86.81
293.91	98.81
294.141	96.81
294.372	82.81
294.603	96.81
294.833	91.81
295.064	96.81
295.295	91.81
295.525	102.81
295.756	82.81
295.987	105.81
296.217	118.81
296.448	107.81
296.679	82.81
296.909	90.81
297.14	89.81
297.37	95.81
297.601	85.81
297.831	96.81
298.062	95.81
298.292	83.81
298.523	88.81
298.753	68.81
298.984	80.81
299.214	86.81
299.445	84.81
299.675	106.81
299.905	77.81
300.136	97.81
300.366	86.81
300.597	100.81
300.827	89.81
301.057	85.81
301.288	78.81
301.518	91.81
301.748	78.81
301.979	106.81
302.209	105.81
302.439	92.81
302.669	94.81
302.9	81.81
303.13	84.81
303.36	100.81
303.59	91.81
303.82	87.81
304.051	82.81
304.281	80.81
304.511	91.81
304.741	73.81
304.971	83.81
305.201	92.81
305.431	92.81
305.661	79.81
305.891	87.81
306.121	81.81
306.352	83.81
306.582	109.81
306.812	103.81
307.042	92.81
307.272	90.81
307.502	87.81
307.731	91.81
307.961	87.81
308.191	89.81
308.421	101.81
308.651	94.81
308.881	81.81
309.111	82.81
309.341	100.81
309.571	104.81
309.8	94.81
310.03	94.81
310.26	92.81
310.49	80.81
310.72	100.81
310.949	94.81
311.179	99.81
311.409	79.81
311.639	88.81
311.868	89.81
312.098	83.81
312.328	98.81
312.557	103.81
312.787	104.81
313.017	101.81
313.246	86.81
313.476	87.81
313.706	98.81
313.935	92.81
314.165	112.81
314.394	111.81
314.624	99.81
314.853	102.81
315.083	92.81
315.312	95.81
315.542	92.81
315.771	99.81
316.001	102.81
316.23	89.81
316.46	80.81
316.689	85.81
316.919	97.81
317.148	103.81
317.377	88.81
317.607	78.81
317.836	87.81
318.065	93.81
318.295	84.81
318.524	98.81
318.753	85.81
318.983	83.81
319.212	89.81
319.441	98.81
319.67	109.81
319.9	103.81
320.129	81.81
320.358	72.81
320.587	89.81
320.816	84.81
321.046	109.81
321.275	93.81
321.504	84.81
321.733	98.81
321.962	111.81
322.191	98.81
322.42	103.81
322.649	100.81
322.878	103.81
323.108	103.81
323.337	112.81
323.566	116.81
323.795	135.81
324.024	208.81
324.253	334.81
324.482	737.81
324.71	1502.81
324.939	1932.81
325.168	722.81
325.397	227.81
325.626	152.81
325.855	118.81
326.084	105.81
326.313	115.81
326.542	166.81
326.77	218.81
326.999	412.81
327.228	864.81
327.457	1531.81
327.686	1206.81
327.914	343.81
328.143	202.81
328.372	143.81
328.6	127.81
328.829	106.81
329.058	112.81
329.287	115.81
329.515	99.81
329.744	94.81
329.972	100.81
330.201	111.81
330.43	107.81
330.658	124.81
330.887	127.81
331.115	112.81
331.344	95.81
331.572	110.81
331.801	90.81
332.03	95.81
332.258	110.81
332.486	117.81
332.715	89.81
332.943	92.81
333.172	96.81
333.4	91.81
333.629	97.81
333.857	111.81
334.085	93.81
334.314	95.81
334.542	82.81
334.771	91.81
334.999	99.81
335.227	94.81
335.455	70.81
335.684	93.81
335.912	102.81
336.14	98.81
336.369	80.81
336.597	91.81
336.825	98.81
337.053	85.81
337.281	99.81
337.51	82.81
337.738	105.81
337.966	86.81
338.194	109.81
338.422	103.81
338.65	94.81
338.878	89.81
339.106	91.81
339.334	85.81
339.562	89.81
339.79	89.81
340.018	87.81
340.246	86.81
340.474	108.81
340.702	88.81
340.93	85.81
341.158	77.81
341.386	74.81
341.614	93.81
341.842	97.81
342.07	89.81
342.298	98.81
342.526	96.81
342.754	81.81
342.981	75.81
343.209	93.81
343.437	90.81
343.665	83.81
343.893	77.81
344.12	92.81
344.348	103.81
344.576	77.81
344.804	92.81
345.031	94.81
345.259	93.81
345.487	107.81
345.714	96.81
345.942	88.81
346.17	95.81
346.397	93.81
346.625	93.81
346.853	96.81
347.08	105.81
347.308	103.81
347.535	108.81
347.763	93.81
347.99	93.81
348.218	110.81
348.445	118.81
348.673	102.81
348.9	91.81
349.128	97.81
349.355	82.81
349.583	95.81
349.81	89.81
350.037	99.81
350.265	95.81
350.492	98.81
350.72	95.81
350.947	112.81
351.174	109.81
351.402	109.81
351.629	99.81
351.856	112.81
352.083	99.81
352.311	104.81
352.538	105.81
352.765	105.81
352.992	110.81
353.22	106.81
353.447	96.81
353.674	98.81
353.901	87.81
354.128	98.81
354.355	97.81
354.583	97.81
354.81	88.81
355.037	84.81
355.264	106.81
355.491	95.81
355.718	88.81
355.945	94.81
356.172	95.81
356.399	78.81
356.626	102.81
356.853	91.81
357.08	78.81
357.307	77.81
357.534	78.81
357.761	93.81
357.988	108.81
358.215	93.81
358.441	102.81
358.668	92.81
358.895	94.81
359.122	75.81
359.349	92.81
359.576	96.81
359.802	106.81
360.029	99.81
360.256	93.81
360.483	93.81
360.709	88.81
360.936	109.81
361.163	100.81
361.39	109.81
361.616	88.81
361.843	86.81
362.07	104.81
362.296	95.81
362.523	90.81
362.749	88.81
362.976	82.81
363.203	93.81
363.429	88.81
363.656	90.81
363.882	86.81
364.109	96.81
364.335	96.81
364.562	91.81
364.788	105.81
365.015	95.81
365.241	91.81
365.468	103.81
365.694	113.81
365.92	106.81
366.147	90.81
366.373	91.81
366.599	89.81
366.826	99.81
367.052	103.81
367.278	83.81
367.505	100.81
367.731	88.81
367.957	99.81
368.184	86.81
368.41	97.81
368.636	89.81
368.862	110.81
369.089	96.81
369.315	93.81
369.541	95.81
369.767	98.81
369.993	97.81
370.219	86.81
370.445	86.81
370.672	98.81
370.898	82.81
371.124	81.81
371.35	75.81
371.576	95.81
371.802	86.81
372.028	91.81
372.254	83.81
372.48	88.81
372.706	82.81
372.932	82.81
373.158	94.81
373.384	80.81
373.61	95.81
373.835	87.81
374.061	94.81
374.287	100.81
374.513	90.81
374.739	93.81
374.965	106.81
375.191	78.81
375.416	93.81
375.642	90.81
375.868	87.81
376.094	87.81
376.319	88.81
376.545	95.81
376.771	88.81
376.997	88.81
377.222	90.81
377.448	91.81
377.674	91.81
377.899	93.81
378.125	87.81
378.35	98.81
378.576	99.81
378.802	97.81
379.027	97.81
379.253	94.81
379.478	85.81
379.704	95.81
379.929	83.81
380.155	110.81
380.38	110.81
380.606	106.81
380.831	81.81
381.057	95.81
381.282	103.81
381.507	80.81
381.733	101.81
381.958	104.81
382.184	99.81
382.409	97.81
382.634	105.81
382.86	103.81
383.085	96.81
383.31	107.81
383.535	112.81
383.761	92.81
383.986	107.81
384.211	94.81
384.436	96.81
384.662	98.81
384.887	94.81
385.112	90.81
385.337	94.81
385.562	93.81
385.787	96.81
386.013	123.81
386.238	96.81
386.463	93.81
386.688	102.81
386.913	95.81
387.138	92.81
387.363	99.81
387.588	94.81
387.813	98.81
388.038	101.81
388.263	104.81
388.488	102.81
388.713	101.81
388.938	99.81
389.163	100.81
389.387	93.81
389.612	101.81
389.837	95.81
390.062	97.81
390.287	90.81
390.512	93.81
390.736	95.81
390.961	97.81
391.186	91.81
391.411	98.81
391.636	92.81
391.86	80.81
392.085	77.81
392.31	98.81
392.534	95.81
392.759	72.81
392.984	84.81
393.208	81.81
393.433	86.81
393.658	92.81
393.882	84.81
394.107	100.81
394.331	88.81
394.556	91.81
394.78	74.81
395.005	93.81
395.229	82.81
395.454	93.81
395.678	83.81
395.903	81.81
396.127	86.81
396.352	90.81
396.576	92.81
396.801	78.81
397.025	98.81
397.249	91.81
397.474	87.81
397.698	90.81
397.922	94.81
398.147	80.81
398.371	87.81
398.595	77.81
398.82	76.81
399.044	96.81
399.268	89.81
399.492	83.81
399.717	87.81
399.941	94.81
400.165	104.81
400.389	85.81
400.613	83.81
400.837	87.81
401.062	85.81
401.286	81.81
401.51	83.81
401.734	97.81
401.958	103.81
402.182	109.81
402.406	153.81
402.63	108.81
402.854	83.81
403.078	84.81
403.302	105.81
403.526	92.81
403.75	82.81
403.974	74.81
404.198	77.81
404.422	78.81
404.645	96.81
404.869	88.81
405.093	82.81
405.317	87.81
405.541	91.81
405.765	87.81
405.988	117.81
406.212	141.81
406.436	179.81
406.66	125.81
406.883	97.81
407.107	89.81
407.331	89.81
407.555	99.81
407.778	108.81
408.002	102.81
408.226	91.81
408.449	85.81
408.673	84.81
408.896	86.81
409.12	78.81
409.344	82.81
409.567	89.81
409.791	87.81
410.014	108.81
410.238	97.81
410.461	77.81
410.685	103.81
410.908	102.81
411.132	81.81
411.355	102.81
411.578	79.81
411.802	94.81
412.025	87.81
412.249	92.81
412.472	99.81
412.695	94.81
412.919	101.81
413.142	86.81
413.365	93.81
413.589	109.81
413.812	107.81
414.035	85.81
414.258	86.81
414.482	89.81
414.705	97.81
414.928	88.81
415.151	96.81
415.374	99.81
415.597	103.81
415.821	96.81
416.044	82.81
416.267	87.81
416.49	86.81
416.713	78.81
416.936	83.81
417.159	86.81
417.382	80.81
417.605	79.81
417.828	96.81
418.051	88.81
418.274	89.81
418.497	90.81
418.72	92.81
418.943	86.81
419.166	87.81
419.389	88.81
419.611	94.81
419.834	93.81
420.057	102.81
420.28	87.81
420.503	100.81
420.726	86.81
420.948	95.81
421.171	96.81
421.394	91.81
421.617	91.81
421.839	79.81
422.062	94.81
422.285	90.81
422.507	97.81
422.73	104.81
422.953	89.81
423.175	102.81
423.398	89.81
423.621	100.81
423.843	78.81
424.066	98.81
424.288	78.81
424.511	79.81
424.733	91.81
424.956	111.81
425.178	94.81
425.401	98.81
425.623	94.81
425.846	90.81
426.068	71.81
426.291	82.81
426.513	95.81
426.735	89.81
426.958	92.81
427.18	104.81
427.402	130.81
427.625	132.81
427.847	114.81
428.069	82.81
428.292	81.81
428.514	103.81
428.736	90.81
428.958	96.81
429.181	94.81
429.403	82.81
429.625	93.81
429.847	98.81
430.069	103.81
430.292	97.81
430.514	91.81
430.736	92.81
430.958	91.81
431.18	79.81
431.402	83.81
431.624	68.81
431.846	82.81
432.068	89.81
432.29	82.81
432.512	84.81
432.734	77.81
432.956	88.81
433.178	90.81
433.4	90.81
433.622	94.81
433.844	88.81
434.066	83.81
434.287	94.81
434.509	83.81
434.731	83.81
434.953	100.81
435.175	91.81
435.397	88.81
435.618	94.81
435.84	109.81
436.062	124.81
436.284	127.81
436.505	96.81
436.727	95.81
436.949	85.81
437.17	107.81
437.392	90.81
437.614	90.81
437.835	104.81
438.057	113.81
438.278	105.81
438.5	99.81
438.721	130.81
438.943	105.81
439.165	97.81
439.386	83.81
439.608	81.81
439.829	85.81
440.05	120.81
440.272	136.81
440.493	82.81
440.715	97.81
440.936	96.81
441.158	90.81
441.379	83.81
441.6	100.81
441.822	81.81
442.043	86.81
442.264	100.81
442.486	105.81
442.707	103.81
442.928	106.81
443.149	113.81
443.371	135.81
443.592	103.81
443.813	114.81
444.034	120.81
444.255	97.81
444.476	84.81
444.698	80.81
444.919	80.81
445.14	127.81
445.361	118.81
445.582	136.81
445.803	134.81
446.024	123.81
446.245	115.81
446.466	99.81
446.687	85.81
446.908	87.81
447.129	98.81
447.35	83.81
447.571	94.81
447.792	91.81
448.013	103.81
448.234	96.81
448.455	93.81
448.675	125.81
448.896	134.81
449.117	93.81
449.338	85.81
449.559	122.81
449.779	115.81
450	83.81
450.221	83.81
450.442	87.81
450.662	101.81
450.883	93.81
451.104	97.81
451.324	86.81
451.545	93.81
451.766	77.81
451.986	92.81
452.207	97.81
452.428	94.81
452.648	94.81
452.869	99.81
453.089	95.81
453.31	106.81
453.53	86.81
453.751	78.81
453.971	87.81
454.192	99.81
454.412	89.81
454.633	83.81
454.853	85.81
455.073	85.81
455.294	80.81
455.514	104.81
455.734	94.81
455.955	83.81
456.175	87.81
456.395	86.81
456.616	92.81
456.836	72.81
457.056	87.81
457.276	82.81
457.497	86.81
457.717	72.81
457.937	91.81
458.157	80.81
458.377	96.81
458.598	99.81
458.818	150.81
459.038	139.81
459.258	111.81
459.478	96.81
459.698	95.81
459.918	82.81
460.138	100.81
460.358	102.81
460.578	93.81
460.798	84.81
461.018	96.81
461.238	86.81
461.458	89.81
461.678	110.81
461.898	78.81
462.118	86.81
462.338	72.81
462.558	74.81
462.777	86.81
462.997	86.81
463.217	79.81
463.437	72.81
463.657	87.81
463.876	103.81
464.096	91.81
464.316	95.81
464.536	86.81
464.755	90.81
464.975	112.81
465.195	148.81
465.414	136.81
465.634	79.81
465.854	86.81
466.073	92.81
466.293	93.81
466.512	70.81
466.732	82.81
466.951	88.81
467.171	99.81
467.391	106.81
467.61	105.81
467.829	109.81
468.049	118.81
468.268	88.81
468.488	85.81
468.707	89.81
468.927	95.81
469.146	76.81
469.365	97.81
469.585	89.81
469.804	83.81
470.023	80.81
470.243	92.81
470.462	101.81
470.681	99.81
470.901	97.81
471.12	88.81
471.339	94.81
471.558	97.81
471.777	82.81
471.997	90.81
472.216	94.81
472.435	84.81
472.654	81.81
472.873	82.81
473.092	78.81
473.311	82.81
473.53	85.81
473.749	73.81
473.968	90.81
474.187	90.81
474.406	87.81
474.625	92.81
474.844	83.81
475.063	102.81
475.282	93.81
475.501	88.81
475.72	86.81
475.939	95.81
476.158	103.81
476.377	93.81
476.596	104.81
476.814	99.81
477.033	88.81
477.252	90.81
477.471	86.81
477.69	96.81
477.908	84.81
478.127	103.81
478.346	91.81
478.564	97.81
478.783	91.81
479.002	107.81
479.22	95.81
479.439	108.81
479.658	103.81
479.876	83.81
480.095	78.81
480.313	94.81
480.532	82.81
480.751	80.81
480.969	94.81
481.188	96.81
481.406	94.81
481.624	105.81
481.843	86.81
482.061	82.81
482.28	84.81
482.498	73.81
482.717	87.81
482.935	99.81
483.153	88.81
483.372	100.81
483.59	85.81
483.808	89.81
484.027	77.81
484.245	106.81
484.463	85.81
484.681	96.81
484.9	107.81
485.118	99.81
485.336	88.81
485.554	91.81
485.772	99.81
485.99	104.81
486.209	100.81
486.427	94.81
486.645	105.81
486.863	112.81
487.081	98.81
487.299	101.81
487.517	91.81
487.735	91.81
487.953	95.81
488.171	89.81
488.389	98.81
488.607	97.81
488.825	87.81
489.043	98.81
489.261	85.81
489.479	73.81
489.696	86.81
489.914	78.81
490.132	95.81
490.35	75.81
490.568	83.81
490.786	88.81
491.003	90.81
491.221	92.81
491.439	88.81
491.657	91.81
491.874	108.81
492.092	98.81
492.31	95.81
492.527	100.81
492.745	86.81
492.963	90.81
493.18	87.81
493.398	103.81
493.615	96.81
493.833	113.81
494.05	96.81
494.268	81.81
494.485	72.81
494.703	88.81
494.92	97.81
495.138	98.81
495.355	76.81
495.573	96.81
495.79	95.81
496.008	94.81
496.225	89.81
496.442	94.81
496.66	89.81
496.877	96.81
497.094	95.81
497.312	84.81
497.529	88.81
497.746	95.81
497.963	99.81
498.181	95.81
498.398	87.81
498.615	99.81
498.832	101.81
499.049	83.81
499.267	103.81
499.484	96.81
499.701	93.81
499.918	94.81
500.135	95.81
500.352	89.81
500.569	97.81
500.786	91.81
501.003	95.81
501.22	93.81
501.437	95.81
501.654	97.81
501.871	90.81
502.088	93.81
502.305	90.81
502.522	97.81
502.739	94.81
502.956	84.81
503.172	82.81
503.389	95.81
503.606	96.81
503.823	98.81
504.04	107.81
504.256	89.81
504.473	97.81
504.69	97.81
504.907	83.81
505.123	79.81
505.34	111.81
505.557	89.81
505.773	93.81
505.99	86.81
506.207	79.81
506.423	89.81
506.64	103.81
506.856	93.81
507.073	96.81
507.289	77.81
507.506	106.81
507.722	110.81
507.939	122.81
508.155	89.81
508.372	105.81
508.588	94.81
508.805	87.81
509.021	94.81
509.238	88.81
509.454	111.81
509.67	91.81
509.887	105.81
510.103	138.81
510.319	170.81
510.536	644.81
510.752	1941.81
510.968	550.81
511.184	135.81
511.401	99.81
511.617	99.81
511.833	94.81
512.049	74.81
512.265	87.81
512.481	91.81
512.698	84.81
512.914	82.81
513.13	91.81
513.346	79.81
513.562	96.81
513.778	105.81
513.994	89.81
514.21	98.81
514.426	107.81
514.642	123.81
514.858	119.81
515.074	158.81
515.29	379.81
515.506	1144.81
515.721	432.81
515.937	140.81
516.153	94.81
