Data from Uncirc_1998_H10_HRD10591_00050.txt Node
Date: Wed Jan 03 11:25:34 EST 2024
User: Yrep
Spectrometer: HR+D1059
Trigger mode: 1
Integration Time (sec): 1.000000E-1
Scans to average: 1
Electric dark correction enabled: true
Nonlinearity correction enabled: false
Boxcar width: 0
XAxis mode: Wavelengths
Number of Pixels in Spectrum: 2048
>>>>>Begin Spectral Data<<<<<
223.165	-18.19
223.4	-18.19
223.635	-18.19
223.869	-15.19
224.104	-22.19
224.338	-11.19
224.573	-40.19
224.808	-16.19
225.042	-7.19
225.277	-9.19
225.511	5.81
225.746	8.81
225.98	-3.19
226.215	9.81
226.449	21.81
226.683	23.81
226.918	30.81
227.152	41.81
227.387	31.81
227.621	35.81
227.856	51.81
228.09	57.81
228.324	56.81
228.559	62.81
228.793	64.81
229.027	67.81
229.262	74.81
229.496	59.81
229.73	86.81
229.964	88.81
230.199	63.81
230.433	78.81
230.667	79.81
230.901	51.81
231.136	74.81
231.37	69.81
231.604	86.81
231.838	88.81
232.072	73.81
232.306	94.81
232.541	66.81
232.775	85.81
233.009	79.81
233.243	92.81
233.477	94.81
233.711	75.81
233.945	79.81
234.179	96.81
234.413	81.81
234.647	80.81
234.881	82.81
235.115	73.81
235.349	84.81
235.583	77.81
235.817	91.81
236.051	89.81
236.285	89.81
236.519	78.81
236.753	71.81
236.987	78.81
237.221	74.81
237.455	77.81
237.689	79.81
237.922	79.81
238.156	71.81
238.39	74.81
238.624	82.81
238.858	86.81
239.091	81.81
239.325	89.81
239.559	94.81
239.793	74.81
240.027	80.81
240.26	77.81
240.494	87.81
240.728	72.81
240.961	81.81
241.195	70.81
241.429	71.81
241.662	79.81
241.896	78.81
242.13	75.81
242.363	63.81
242.597	66.81
242.83	81.81
243.064	88.81
243.298	73.81
243.531	71.81
243.765	87.81
243.998	77.81
244.232	77.81
244.465	89.81
244.699	82.81
244.932	80.81
245.166	59.81
245.399	72.81
245.633	76.81
245.866	70.81
246.099	74.81
246.333	69.81
246.566	85.81
246.8	82.81
247.033	78.81
247.266	79.81
247.5	72.81
247.733	80.81
247.966	90.81
248.2	73.81
248.433	85.81
248.666	71.81
248.899	81.81
249.133	81.81
249.366	92.81
249.599	78.81
249.832	90.81
250.066	96.81
250.299	80.81
250.532	74.81
250.765	68.81
250.998	77.81
251.231	71.81
251.465	81.81
251.698	78.81
251.931	78.81
252.164	76.81
252.397	74.81
252.63	71.81
252.863	90.81
253.096	78.81
253.329	90.81
253.562	66.81
253.795	78.81
254.028	86.81
254.261	79.81
254.494	89.81
254.727	76.81
254.96	72.81
255.193	81.81
255.426	87.81
255.659	74.81
255.892	81.81
256.124	93.81
256.357	73.81
256.59	86.81
256.823	87.81
257.056	91.81
257.289	90.81
257.521	93.81
257.754	83.81
257.987	77.81
258.22	85.81
258.452	77.81
258.685	86.81
258.918	86.81
259.151	91.81
259.383	89.81
259.616	86.81
259.849	88.81
260.081	81.81
260.314	77.81
260.547	99.81
260.779	80.81
261.012	76.81
261.244	83.81
261.477	87.81
261.71	83.81
261.942	86.81
262.175	98.81
262.407	86.81
262.64	89.81
262.872	82.81
263.105	79.81
263.337	88.81
263.57	73.81
263.802	92.81
264.035	93.81
264.267	80.81
264.499	91.81
264.732	86.81
264.964	72.81
265.197	84.81
265.429	76.81
265.661	79.81
265.894	80.81
266.126	78.81
266.358	80.81
266.591	87.81
266.823	86.81
267.055	92.81
267.287	82.81
267.52	75.81
267.752	80.81
267.984	87.81
268.216	68.81
268.448	95.81
268.681	88.81
268.913	90.81
269.145	76.81
269.377	91.81
269.609	87.81
269.841	88.81
270.073	77.81
270.306	82.81
270.538	81.81
270.77	82.81
271.002	103.81
271.234	106.81
271.466	95.81
271.698	93.81
271.93	77.81
272.162	86.81
272.394	86.81
272.626	80.81
272.858	92.81
273.09	93.81
273.322	91.81
273.553	70.81
273.785	89.81
274.017	83.81
274.249	99.81
274.481	88.81
274.713	86.81
274.945	71.81
275.176	76.81
275.408	92.81
275.64	87.81
275.872	94.81
276.104	85.81
276.335	84.81
276.567	91.81
276.799	106.81
277.031	76.81
277.262	90.81
277.494	79.81
277.726	71.81
277.957	77.81
278.189	94.81
278.421	79.81
278.652	95.81
278.884	83.81
279.115	90.81
279.347	91.81
279.579	72.81
279.81	92.81
280.042	89.81
280.273	94.81
280.505	88.81
280.736	67.81
280.968	96.81
281.199	89.81
281.431	90.81
281.662	91.81
281.894	77.81
282.125	92.81
282.356	115.81
282.588	134.81
282.819	104.81
283.051	91.81
283.282	83.81
283.513	86.81
283.745	98.81
283.976	90.81
284.207	102.81
284.439	94.81
284.67	88.81
284.901	94.81
285.132	95.81
285.364	85.81
285.595	93.81
285.826	90.81
286.057	91.81
286.288	73.81
286.52	83.81
286.751	93.81
286.982	83.81
287.213	97.81
287.444	87.81
287.675	91.81
287.906	82.81
288.138	86.81
288.369	83.81
288.6	83.81
288.831	70.81
289.062	73.81
289.293	93.81
289.524	82.81
289.755	97.81
289.986	78.81
290.217	96.81
290.448	73.81
290.679	96.81
290.91	91.81
291.141	78.81
291.371	89.81
291.602	74.81
291.833	73.81
292.064	82.81
292.295	91.81
292.526	83.81
292.757	98.81
292.987	95.81
293.218	85.81
293.449	97.81
293.68	82.81
293.91	70.81
294.141	99.81
294.372	86.81
294.603	89.81
294.833	79.81
295.064	96.81
295.295	94.81
295.525	97.81
295.756	95.81
295.987	106.81
296.217	126.81
296.448	119.81
296.679	86.81
296.909	91.81
297.14	94.81
297.37	87.81
297.601	93.81
297.831	81.81
298.062	85.81
298.292	109.81
298.523	101.81
298.753	99.81
298.984	98.81
299.214	101.81
299.445	81.81
299.675	95.81
299.905	77.81
300.136	96.81
300.366	91.81
300.597	85.81
300.827	90.81
301.057	94.81
301.288	113.81
301.518	92.81
301.748	100.81
301.979	94.81
302.209	82.81
302.439	83.81
302.669	96.81
302.9	96.81
303.13	81.81
303.36	101.81
303.59	108.81
303.82	97.81
304.051	76.81
304.281	111.81
304.511	92.81
304.741	96.81
304.971	89.81
305.201	98.81
305.431	98.81
305.661	86.81
305.891	74.81
306.121	90.81
306.352	92.81
306.582	96.81
306.812	99.81
307.042	88.81
307.272	86.81
307.502	100.81
307.731	85.81
307.961	88.81
308.191	92.81
308.421	89.81
308.651	88.81
308.881	90.81
309.111	82.81
309.341	96.81
309.571	104.81
309.8	96.81
310.03	80.81
310.26	93.81
310.49	96.81
310.72	97.81
310.949	92.81
311.179	90.81
311.409	95.81
311.639	101.81
311.868	96.81
312.098	89.81
312.328	99.81
312.557	95.81
312.787	99.81
313.017	106.81
313.246	102.81
313.476	102.81
313.706	96.81
313.935	83.81
314.165	97.81
314.394	86.81
314.624	88.81
314.853	94.81
315.083	89.81
315.312	91.81
315.542	89.81
315.771	98.81
316.001	93.81
316.23	76.81
316.46	93.81
316.689	104.81
316.919	97.81
317.148	85.81
317.377	104.81
317.607	96.81
317.836	89.81
318.065	86.81
318.295	79.81
318.524	89.81
318.753	89.81
318.983	94.81
319.212	85.81
319.441	103.81
319.67	117.81
319.9	94.81
320.129	82.81
320.358	82.81
320.587	106.81
320.816	91.81
321.046	102.81
321.275	93.81
321.504	99.81
321.733	96.81
321.962	111.81
322.191	101.81
322.42	105.81
322.649	100.81
322.878	115.81
323.108	117.81
323.337	117.81
323.566	134.81
323.795	144.81
324.024	179.81
324.253	369.81
324.482	783.81
324.71	1595.81
324.939	2112.81
325.168	770.81
325.397	218.81
325.626	137.81
325.855	120.81
326.084	124.81
326.313	130.81
326.542	145.81
326.77	230.81
326.999	432.81
327.228	887.81
327.457	1578.81
327.686	1268.81
327.914	351.81
328.143	197.81
328.372	141.81
328.6	113.81
328.829	120.81
329.058	122.81
329.287	120.81
329.515	97.81
329.744	97.81
329.972	106.81
330.201	93.81
330.43	111.81
330.658	135.81
330.887	115.81
331.115	115.81
331.344	99.81
331.572	98.81
331.801	101.81
332.03	121.81
332.258	97.81
332.486	85.81
332.715	83.81
332.943	98.81
333.172	97.81
333.4	99.81
333.629	94.81
333.857	122.81
334.085	110.81
334.314	107.81
334.542	110.81
334.771	96.81
334.999	97.81
335.227	92.81
335.455	111.81
335.684	90.81
335.912	90.81
336.14	102.81
336.369	101.81
336.597	109.81
336.825	91.81
337.053	96.81
337.281	103.81
337.51	90.81
337.738	100.81
337.966	78.81
338.194	89.81
338.422	85.81
338.65	103.81
338.878	92.81
339.106	98.81
339.334	92.81
339.562	87.81
339.79	87.81
340.018	98.81
340.246	86.81
340.474	90.81
340.702	97.81
340.93	82.81
341.158	82.81
341.386	81.81
341.614	99.81
341.842	90.81
342.07	94.81
342.298	99.81
342.526	100.81
342.754	86.81
342.981	91.81
343.209	98.81
343.437	107.81
343.665	94.81
343.893	92.81
344.12	87.81
344.348	108.81
344.576	90.81
344.804	80.81
345.031	79.81
345.259	100.81
345.487	94.81
345.714	98.81
345.942	92.81
346.17	94.81
346.397	83.81
346.625	92.81
346.853	85.81
347.08	92.81
347.308	83.81
347.535	99.81
347.763	84.81
347.99	99.81
348.218	94.81
348.445	103.81
348.673	103.81
348.9	105.81
349.128	98.81
349.355	92.81
349.583	87.81
349.81	104.81
350.037	92.81
350.265	92.81
350.492	102.81
350.72	100.81
350.947	101.81
351.174	106.81
351.402	113.81
351.629	94.81
351.856	83.81
352.083	85.81
352.311	109.81
352.538	108.81
352.765	95.81
352.992	112.81
353.22	105.81
353.447	93.81
353.674	95.81
353.901	91.81
354.128	106.81
354.355	90.81
354.583	98.81
354.81	88.81
355.037	97.81
355.264	82.81
355.491	98.81
355.718	105.81
355.945	82.81
356.172	97.81
356.399	88.81
356.626	83.81
356.853	73.81
357.08	89.81
357.307	86.81
357.534	86.81
357.761	89.81
357.988	89.81
358.215	93.81
358.441	93.81
358.668	90.81
358.895	87.81
359.122	77.81
359.349	92.81
359.576	78.81
359.802	90.81
360.029	111.81
360.256	101.81
360.483	96.81
360.709	95.81
360.936	97.81
361.163	92.81
361.39	80.81
361.616	98.81
361.843	99.81
362.07	87.81
362.296	85.81
362.523	97.81
362.749	84.81
362.976	89.81
363.203	89.81
363.429	90.81
363.656	98.81
363.882	94.81
364.109	93.81
364.335	83.81
364.562	80.81
364.788	99.81
365.015	87.81
365.241	95.81
365.468	96.81
365.694	110.81
365.92	79.81
366.147	87.81
366.373	96.81
366.599	102.81
366.826	89.81
367.052	89.81
367.278	85.81
367.505	84.81
367.731	80.81
367.957	93.81
368.184	76.81
368.41	103.81
368.636	107.81
368.862	99.81
369.089	106.81
369.315	85.81
369.541	87.81
369.767	67.81
369.993	78.81
370.219	89.81
370.445	96.81
370.672	87.81
370.898	99.81
371.124	88.81
371.35	82.81
371.576	99.81
371.802	76.81
372.028	93.81
372.254	75.81
372.48	85.81
372.706	81.81
372.932	92.81
373.158	88.81
373.384	87.81
373.61	78.81
373.835	86.81
374.061	84.81
374.287	82.81
374.513	92.81
374.739	83.81
374.965	96.81
375.191	98.81
375.416	81.81
375.642	102.81
375.868	81.81
376.094	89.81
376.319	101.81
376.545	80.81
376.771	82.81
376.997	93.81
377.222	91.81
377.448	82.81
377.674	84.81
377.899	96.81
378.125	93.81
378.35	95.81
378.576	89.81
378.802	88.81
379.027	78.81
379.253	78.81
379.478	88.81
379.704	87.81
379.929	82.81
380.155	82.81
380.38	95.81
380.606	86.81
380.831	78.81
381.057	99.81
381.282	110.81
381.507	96.81
381.733	97.81
381.958	88.81
382.184	93.81
382.409	93.81
382.634	98.81
382.86	102.81
383.085	109.81
383.31	101.81
383.535	88.81
383.761	93.81
383.986	94.81
384.211	95.81
384.436	86.81
384.662	95.81
384.887	107.81
385.112	106.81
385.337	112.81
385.562	86.81
385.787	105.81
386.013	93.81
386.238	102.81
386.463	98.81
386.688	110.81
386.913	92.81
387.138	85.81
387.363	100.81
387.588	93.81
387.813	96.81
388.038	111.81
388.263	116.81
388.488	103.81
388.713	101.81
388.938	97.81
389.163	88.81
389.387	85.81
389.612	79.81
389.837	89.81
390.062	93.81
390.287	94.81
390.512	107.81
390.736	91.81
390.961	98.81
391.186	95.81
391.411	91.81
391.636	85.81
391.86	89.81
392.085	82.81
392.31	79.81
392.534	75.81
392.759	94.81
392.984	79.81
393.208	77.81
393.433	90.81
393.658	83.81
393.882	88.81
394.107	107.81
394.331	79.81
394.556	93.81
394.78	97.81
395.005	89.81
395.229	94.81
395.454	83.81
395.678	88.81
395.903	98.81
396.127	92.81
396.352	88.81
396.576	85.81
396.801	89.81
397.025	95.81
397.249	89.81
397.474	90.81
397.698	100.81
397.922	97.81
398.147	88.81
398.371	87.81
398.595	77.81
398.82	85.81
399.044	96.81
399.268	93.81
399.492	84.81
399.717	88.81
399.941	93.81
400.165	96.81
400.389	78.81
400.613	91.81
400.837	70.81
401.062	92.81
401.286	82.81
401.51	79.81
401.734	77.81
401.958	109.81
402.182	122.81
402.406	130.81
402.63	106.81
402.854	90.81
403.078	96.81
403.302	94.81
403.526	92.81
403.75	96.81
403.974	101.81
404.198	95.81
404.422	93.81
404.645	89.81
404.869	88.81
405.093	96.81
405.317	93.81
405.541	99.81
405.765	80.81
405.988	111.81
406.212	154.81
406.436	199.81
406.66	135.81
406.883	97.81
407.107	93.81
407.331	91.81
407.555	98.81
407.778	104.81
408.002	98.81
408.226	89.81
408.449	89.81
408.673	85.81
408.896	98.81
409.12	75.81
409.344	81.81
409.567	86.81
409.791	99.81
410.014	91.81
410.238	98.81
410.461	83.81
410.685	91.81
410.908	103.81
411.132	114.81
411.355	104.81
411.578	93.81
411.802	94.81
412.025	90.81
412.249	89.81
412.472	82.81
412.695	96.81
412.919	96.81
413.142	102.81
413.365	92.81
413.589	95.81
413.812	88.81
414.035	110.81
414.258	80.81
414.482	82.81
414.705	86.81
414.928	69.81
415.151	85.81
415.374	94.81
415.597	82.81
415.821	85.81
416.044	87.81
416.267	77.81
416.49	95.81
416.713	93.81
416.936	86.81
417.159	83.81
417.382	91.81
417.605	91.81
417.828	93.81
418.051	89.81
418.274	97.81
418.497	96.81
418.72	97.81
418.943	89.81
419.166	87.81
419.389	95.81
419.611	89.81
419.834	79.81
420.057	95.81
420.28	95.81
420.503	86.81
420.726	110.81
420.948	100.81
421.171	96.81
421.394	103.81
421.617	85.81
421.839	92.81
422.062	102.81
422.285	96.81
422.507	95.81
422.73	108.81
422.953	81.81
423.175	84.81
423.398	103.81
423.621	88.81
423.843	95.81
424.066	85.81
424.288	86.81
424.511	90.81
424.733	94.81
424.956	106.81
425.178	88.81
425.401	98.81
425.623	102.81
425.846	89.81
426.068	92.81
426.291	92.81
426.513	80.81
426.735	87.81
426.958	95.81
427.18	113.81
427.402	134.81
427.625	170.81
427.847	128.81
428.069	105.81
428.292	91.81
428.514	85.81
428.736	93.81
428.958	78.81
429.181	96.81
429.403	94.81
429.625	90.81
429.847	86.81
430.069	91.81
430.292	92.81
430.514	79.81
430.736	75.81
430.958	87.81
431.18	80.81
431.402	90.81
431.624	88.81
431.846	71.81
432.068	93.81
432.29	89.81
432.512	74.81
432.734	79.81
432.956	80.81
433.178	110.81
433.4	90.81
433.622	99.81
433.844	85.81
434.066	92.81
434.287	82.81
434.509	86.81
434.731	84.81
434.953	82.81
435.175	87.81
435.397	99.81
435.618	89.81
435.84	115.81
436.062	109.81
436.284	105.81
436.505	89.81
436.727	83.81
436.949	99.81
437.17	105.81
437.392	94.81
437.614	105.81
437.835	114.81
438.057	106.81
438.278	113.81
438.5	99.81
438.721	102.81
438.943	89.81
439.165	83.81
439.386	82.81
439.608	85.81
439.829	107.81
440.05	103.81
440.272	126.81
440.493	103.81
440.715	97.81
440.936	81.81
441.158	93.81
441.379	85.81
441.6	95.81
441.822	96.81
442.043	80.81
442.264	109.81
442.486	107.81
442.707	101.81
442.928	105.81
443.149	123.81
443.371	108.81
443.592	101.81
443.813	89.81
444.034	99.81
444.255	89.81
444.476	81.81
444.698	86.81
444.919	91.81
445.14	136.81
445.361	124.81
445.582	97.81
445.803	118.81
446.024	122.81
446.245	121.81
446.466	105.81
446.687	87.81
446.908	95.81
447.129	79.81
447.35	78.81
447.571	87.81
447.792	87.81
448.013	98.81
448.234	109.81
448.455	102.81
448.675	105.81
448.896	107.81
449.117	86.81
449.338	97.81
449.559	139.81
449.779	140.81
450	96.81
450.221	86.81
450.442	85.81
450.662	91.81
450.883	98.81
451.104	109.81
451.324	96.81
451.545	80.81
451.766	74.81
451.986	76.81
452.207	82.81
452.428	100.81
452.648	106.81
452.869	119.81
453.089	109.81
453.31	110.81
453.53	88.81
453.751	71.81
453.971	87.81
454.192	90.81
454.412	81.81
454.633	88.81
454.853	81.81
455.073	75.81
455.294	85.81
455.514	96.81
455.734	95.81
455.955	80.81
456.175	97.81
456.395	90.81
456.616	97.81
456.836	88.81
457.056	82.81
457.276	104.81
457.497	80.81
457.717	88.81
457.937	92.81
458.157	102.81
458.377	94.81
458.598	103.81
458.818	130.81
459.038	147.81
459.258	105.81
459.478	87.81
459.698	103.81
459.918	94.81
460.138	89.81
460.358	88.81
460.578	93.81
460.798	94.81
461.018	77.81
461.238	87.81
461.458	80.81
461.678	94.81
461.898	92.81
462.118	83.81
462.338	89.81
462.558	83.81
462.777	103.81
462.997	98.81
463.217	83.81
463.437	83.81
463.657	81.81
463.876	96.81
464.096	78.81
464.316	91.81
464.536	104.81
464.755	106.81
464.975	110.81
465.195	132.81
465.414	130.81
465.634	101.81
465.854	92.81
466.073	87.81
466.293	91.81
466.512	88.81
466.732	82.81
466.951	91.81
467.171	106.81
467.391	90.81
467.61	94.81
467.829	79.81
468.049	94.81
468.268	89.81
468.488	94.81
468.707	76.81
468.927	86.81
469.146	91.81
469.365	85.81
469.585	75.81
469.804	95.81
470.023	90.81
470.243	95.81
470.462	90.81
470.681	101.81
470.901	88.81
471.12	87.81
471.339	76.81
471.558	74.81
471.777	86.81
471.997	93.81
472.216	73.81
472.435	93.81
472.654	77.81
472.873	83.81
473.092	81.81
473.311	95.81
473.53	105.81
473.749	78.81
473.968	87.81
474.187	86.81
474.406	88.81
474.625	94.81
474.844	90.81
475.063	78.81
475.282	78.81
475.501	93.81
475.72	91.81
475.939	87.81
476.158	100.81
476.377	95.81
476.596	91.81
476.814	92.81
477.033	96.81
477.252	102.81
477.471	103.81
477.69	91.81
477.908	79.81
478.127	92.81
478.346	94.81
478.564	91.81
478.783	80.81
479.002	87.81
479.22	104.81
479.439	98.81
479.658	95.81
479.876	94.81
480.095	88.81
480.313	104.81
480.532	88.81
480.751	89.81
480.969	80.81
481.188	115.81
481.406	110.81
481.624	92.81
481.843	95.81
482.061	77.81
482.28	92.81
482.498	102.81
482.717	69.81
482.935	89.81
483.153	97.81
483.372	80.81
483.59	98.81
483.808	82.81
484.027	79.81
484.245	91.81
484.463	100.81
484.681	83.81
484.9	83.81
485.118	109.81
485.336	91.81
485.554	85.81
485.772	89.81
485.99	113.81
486.209	99.81
486.427	93.81
486.645	89.81
486.863	102.81
487.081	101.81
487.299	87.81
487.517	86.81
487.735	86.81
487.953	87.81
488.171	83.81
488.389	96.81
488.607	84.81
488.825	79.81
489.043	90.81
489.261	98.81
489.479	81.81
489.696	87.81
489.914	81.81
490.132	96.81
490.35	84.81
490.568	105.81
490.786	96.81
491.003	85.81
491.221	80.81
491.439	86.81
491.657	97.81
491.874	86.81
492.092	90.81
492.31	87.81
492.527	86.81
492.745	91.81
492.963	96.81
493.18	95.81
493.398	83.81
493.615	93.81
493.833	94.81
494.05	101.81
494.268	87.81
494.485	85.81
494.703	91.81
494.92	86.81
495.138	93.81
495.355	99.81
495.573	89.81
495.79	88.81
496.008	88.81
496.225	87.81
496.442	103.81
496.66	90.81
496.877	75.81
497.094	93.81
497.312	94.81
497.529	86.81
497.746	83.81
497.963	94.81
498.181	92.81
498.398	105.81
498.615	107.81
498.832	104.81
499.049	92.81
499.267	87.81
499.484	79.81
499.701	89.81
499.918	83.81
500.135	72.81
500.352	92.81
500.569	91.81
500.786	94.81
501.003	94.81
501.22	96.81
501.437	93.81
501.654	91.81
501.871	88.81
502.088	84.81
502.305	81.81
502.522	89.81
502.739	91.81
502.956	94.81
503.172	94.81
503.389	97.81
503.606	107.81
503.823	98.81
504.04	86.81
504.256	94.81
504.473	90.81
504.69	84.81
504.907	70.81
505.123	84.81
505.34	83.81
505.557	81.81
505.773	80.81
505.99	76.81
506.207	103.81
506.423	83.81
506.64	97.81
506.856	93.81
507.073	92.81
507.289	96.81
507.506	86.81
507.722	99.81
507.939	111.81
508.155	101.81
508.372	93.81
508.588	94.81
508.805	99.81
509.021	86.81
509.238	97.81
509.454	98.81
509.67	99.81
509.887	97.81
510.103	137.81
510.319	205.81
510.536	675.81
510.752	2045.81
510.968	575.81
511.184	149.81
511.401	89.81
511.617	99.81
511.833	89.81
512.049	95.81
512.265	79.81
512.481	105.81
512.698	79.81
512.914	93.81
513.13	80.81
513.346	81.81
513.562	99.81
513.778	92.81
513.994	106.81
514.21	92.81
514.426	110.81
514.642	138.81
514.858	122.81
515.074	154.81
515.29	389.81
515.506	1206.81
515.721	468.81
515.937	140.81
516.153	104.81
516.369	93.81
516.585	75.81
