Data from Uncirc_1998_H10_HRD10591_00089.txt Node
Date: Wed Jan 03 11:25:42 EST 2024
User: Yrep
Spectrometer: HR+D1059
Trigger mode: 1
Integration Time (sec): 1.000000E-1
Scans to average: 1
Electric dark correction enabled: true
Nonlinearity correction enabled: false
Boxcar width: 0
XAxis mode: Wavelengths
Number of Pixels in Spectrum: 2048
>>>>>Begin Spectral Data<<<<<
223.165	-28.25
223.4	-28.25
223.635	-28.25
223.869	-16.25
224.104	-20.25
224.338	-8.25
224.573	-25.25
224.808	-24.25
225.042	-5.25
225.277	4.75
225.511	12.75
225.746	-5.25
225.98	6.75
226.215	10.75
226.449	16.75
226.683	24.75
226.918	33.75
227.152	22.75
227.387	36.75
227.621	39.75
227.856	41.75
228.09	47.75
228.324	40.75
228.559	57.75
228.793	46.75
229.027	59.75
229.262	64.75
229.496	77.75
229.73	79.75
229.964	89.75
230.199	72.75
230.433	66.75
230.667	76.75
230.901	68.75
231.136	79.75
231.37	79.75
231.604	88.75
231.838	84.75
232.072	81.75
232.306	79.75
232.541	82.75
232.775	84.75
233.009	85.75
233.243	78.75
233.477	93.75
233.711	75.75
233.945	75.75
234.179	79.75
234.413	76.75
234.647	70.75
234.881	77.75
235.115	71.75
235.349	71.75
235.583	70.75
235.817	69.75
236.051	80.75
236.285	82.75
236.519	64.75
236.753	73.75
236.987	65.75
237.221	88.75
237.455	74.75
237.689	87.75
237.922	73.75
238.156	69.75
238.39	71.75
238.624	76.75
238.858	68.75
239.091	72.75
239.325	76.75
239.559	72.75
239.793	65.75
240.027	85.75
240.26	78.75
240.494	70.75
240.728	85.75
240.961	71.75
241.195	84.75
241.429	82.75
241.662	76.75
241.896	58.75
242.13	85.75
242.363	73.75
242.597	80.75
242.83	86.75
243.064	72.75
243.298	80.75
243.531	70.75
243.765	61.75
243.998	68.75
244.232	81.75
244.465	74.75
244.699	87.75
244.932	84.75
245.166	72.75
245.399	77.75
245.633	82.75
245.866	81.75
246.099	74.75
246.333	74.75
246.566	75.75
246.8	72.75
247.033	72.75
247.266	77.75
247.5	67.75
247.733	84.75
247.966	64.75
248.2	91.75
248.433	89.75
248.666	70.75
248.899	74.75
249.133	96.75
249.366	88.75
249.599	84.75
249.832	85.75
250.066	87.75
250.299	84.75
250.532	69.75
250.765	74.75
250.998	70.75
251.231	84.75
251.465	82.75
251.698	86.75
251.931	84.75
252.164	76.75
252.397	79.75
252.63	80.75
252.863	80.75
253.096	64.75
253.329	69.75
253.562	72.75
253.795	82.75
254.028	71.75
254.261	74.75
254.494	77.75
254.727	80.75
254.96	71.75
255.193	75.75
255.426	80.75
255.659	88.75
255.892	82.75
256.124	86.75
256.357	96.75
256.59	79.75
256.823	59.75
257.056	77.75
257.289	82.75
257.521	74.75
257.754	84.75
257.987	76.75
258.22	83.75
258.452	87.75
258.685	79.75
258.918	74.75
259.151	86.75
259.383	68.75
259.616	78.75
259.849	63.75
260.081	65.75
260.314	84.75
260.547	74.75
260.779	73.75
261.012	81.75
261.244	74.75
261.477	92.75
261.71	93.75
261.942	98.75
262.175	120.75
262.407	85.75
262.64	74.75
262.872	84.75
263.105	73.75
263.337	73.75
263.57	73.75
263.802	76.75
264.035	78.75
264.267	89.75
264.499	81.75
264.732	83.75
264.964	76.75
265.197	83.75
265.429	86.75
265.661	84.75
265.894	81.75
266.126	97.75
266.358	84.75
266.591	72.75
266.823	91.75
267.055	85.75
267.287	85.75
267.52	84.75
267.752	86.75
267.984	80.75
268.216	67.75
268.448	84.75
268.681	93.75
268.913	85.75
269.145	75.75
269.377	73.75
269.609	98.75
269.841	92.75
270.073	84.75
270.306	98.75
270.538	77.75
270.77	84.75
271.002	85.75
271.234	78.75
271.466	106.75
271.698	94.75
271.93	89.75
272.162	73.75
272.394	76.75
272.626	88.75
272.858	102.75
273.09	87.75
273.322	69.75
273.553	79.75
273.785	85.75
274.017	83.75
274.249	85.75
274.481	79.75
274.713	100.75
274.945	83.75
275.176	56.75
275.408	101.75
275.64	80.75
275.872	81.75
276.104	90.75
276.335	95.75
276.567	99.75
276.799	100.75
277.031	82.75
277.262	97.75
277.494	86.75
277.726	94.75
277.957	90.75
278.189	84.75
278.421	94.75
278.652	76.75
278.884	78.75
279.115	88.75
279.347	88.75
279.579	98.75
279.81	87.75
280.042	83.75
280.273	85.75
280.505	98.75
280.736	90.75
280.968	88.75
281.199	90.75
281.431	91.75
281.662	86.75
281.894	73.75
282.125	97.75
282.356	108.75
282.588	118.75
282.819	112.75
283.051	82.75
283.282	81.75
283.513	88.75
283.745	76.75
283.976	97.75
284.207	81.75
284.439	97.75
284.67	89.75
284.901	82.75
285.132	72.75
285.364	81.75
285.595	87.75
285.826	81.75
286.057	78.75
286.288	106.75
286.52	86.75
286.751	79.75
286.982	80.75
287.213	82.75
287.444	79.75
287.675	82.75
287.906	83.75
288.138	93.75
288.369	90.75
288.6	86.75
288.831	89.75
289.062	96.75
289.293	81.75
289.524	81.75
289.755	92.75
289.986	88.75
290.217	75.75
290.448	81.75
290.679	90.75
290.91	93.75
291.141	86.75
291.371	90.75
291.602	78.75
291.833	86.75
292.064	65.75
292.295	79.75
292.526	89.75
292.757	95.75
292.987	80.75
293.218	82.75
293.449	74.75
293.68	81.75
293.91	83.75
294.141	97.75
294.372	91.75
294.603	93.75
294.833	93.75
295.064	84.75
295.295	85.75
295.525	87.75
295.756	93.75
295.987	105.75
296.217	136.75
296.448	113.75
296.679	95.75
296.909	91.75
297.14	80.75
297.37	93.75
297.601	78.75
297.831	97.75
298.062	87.75
298.292	78.75
298.523	88.75
298.753	82.75
298.984	88.75
299.214	82.75
299.445	89.75
299.675	84.75
299.905	84.75
300.136	95.75
300.366	75.75
300.597	97.75
300.827	93.75
301.057	90.75
301.288	109.75
301.518	91.75
301.748	88.75
301.979	88.75
302.209	93.75
302.439	78.75
302.669	92.75
302.9	85.75
303.13	90.75
303.36	91.75
303.59	93.75
303.82	92.75
304.051	82.75
304.281	81.75
304.511	97.75
304.741	76.75
304.971	77.75
305.201	88.75
305.431	94.75
305.661	82.75
305.891	83.75
306.121	94.75
306.352	88.75
306.582	97.75
306.812	92.75
307.042	95.75
307.272	83.75
307.502	85.75
307.731	87.75
307.961	89.75
308.191	88.75
308.421	104.75
308.651	84.75
308.881	75.75
309.111	90.75
309.341	82.75
309.571	87.75
309.8	94.75
310.03	83.75
310.26	88.75
310.49	87.75
310.72	92.75
310.949	94.75
311.179	100.75
311.409	100.75
311.639	86.75
311.868	87.75
312.098	98.75
312.328	97.75
312.557	93.75
312.787	100.75
313.017	103.75
313.246	88.75
313.476	95.75
313.706	86.75
313.935	97.75
314.165	97.75
314.394	89.75
314.624	81.75
314.853	86.75
315.083	92.75
315.312	93.75
315.542	98.75
315.771	105.75
316.001	93.75
316.23	96.75
316.46	86.75
316.689	98.75
316.919	85.75
317.148	101.75
317.377	85.75
317.607	86.75
317.836	86.75
318.065	94.75
318.295	88.75
318.524	89.75
318.753	91.75
318.983	92.75
319.212	103.75
319.441	97.75
319.67	97.75
319.9	87.75
320.129	87.75
320.358	87.75
320.587	91.75
320.816	97.75
321.046	104.75
321.275	113.75
321.504	85.75
321.733	92.75
321.962	96.75
322.191	88.75
322.42	98.75
322.649	108.75
322.878	112.75
323.108	111.75
323.337	125.75
323.566	130.75
323.795	133.75
324.024	203.75
324.253	353.75
324.482	730.75
324.71	1502.75
324.939	1940.75
325.168	706.75
325.397	217.75
325.626	150.75
325.855	132.75
326.084	108.75
326.313	119.75
326.542	139.75
326.77	216.75
326.999	409.75
327.228	841.75
327.457	1507.75
327.686	1178.75
327.914	338.75
328.143	170.75
328.372	129.75
328.6	117.75
328.829	111.75
329.058	123.75
329.287	119.75
329.515	110.75
329.744	100.75
329.972	110.75
330.201	105.75
330.43	82.75
330.658	119.75
330.887	114.75
331.115	110.75
331.344	80.75
331.572	88.75
331.801	92.75
332.03	105.75
332.258	106.75
332.486	96.75
332.715	100.75
332.943	98.75
333.172	89.75
333.4	107.75
333.629	97.75
333.857	111.75
334.085	94.75
334.314	99.75
334.542	86.75
334.771	112.75
334.999	92.75
335.227	102.75
335.455	85.75
335.684	72.75
335.912	95.75
336.14	100.75
336.369	100.75
336.597	97.75
336.825	92.75
337.053	80.75
337.281	92.75
337.51	86.75
337.738	70.75
337.966	91.75
338.194	103.75
338.422	92.75
338.65	87.75
338.878	89.75
339.106	77.75
339.334	87.75
339.562	90.75
339.79	88.75
340.018	94.75
340.246	100.75
340.474	97.75
340.702	76.75
340.93	91.75
341.158	87.75
341.386	88.75
341.614	90.75
341.842	88.75
342.07	95.75
342.298	91.75
342.526	82.75
342.754	89.75
342.981	92.75
343.209	91.75
343.437	110.75
343.665	99.75
343.893	91.75
344.12	101.75
344.348	88.75
344.576	77.75
344.804	104.75
345.031	93.75
345.259	84.75
345.487	91.75
345.714	83.75
345.942	80.75
346.17	89.75
346.397	76.75
346.625	92.75
346.853	85.75
347.08	81.75
347.308	88.75
347.535	88.75
347.763	103.75
347.99	98.75
348.218	94.75
348.445	107.75
348.673	92.75
348.9	91.75
349.128	90.75
349.355	82.75
349.583	93.75
349.81	92.75
350.037	101.75
350.265	89.75
350.492	95.75
350.72	90.75
350.947	86.75
351.174	107.75
351.402	89.75
351.629	108.75
351.856	90.75
352.083	94.75
352.311	110.75
352.538	117.75
352.765	120.75
352.992	99.75
353.22	113.75
353.447	95.75
353.674	95.75
353.901	97.75
354.128	91.75
354.355	93.75
354.583	106.75
354.81	92.75
355.037	99.75
355.264	89.75
355.491	84.75
355.718	86.75
355.945	82.75
356.172	80.75
356.399	103.75
356.626	96.75
356.853	91.75
357.08	90.75
357.307	103.75
357.534	86.75
357.761	97.75
357.988	104.75
358.215	92.75
358.441	91.75
358.668	98.75
358.895	81.75
359.122	77.75
359.349	81.75
359.576	97.75
359.802	100.75
360.029	107.75
360.256	111.75
360.483	104.75
360.709	95.75
360.936	96.75
361.163	93.75
361.39	94.75
361.616	92.75
361.843	92.75
362.07	81.75
362.296	96.75
362.523	88.75
362.749	106.75
362.976	91.75
363.203	84.75
363.429	79.75
363.656	72.75
363.882	84.75
364.109	93.75
364.335	104.75
364.562	78.75
364.788	84.75
365.015	81.75
365.241	108.75
365.468	111.75
365.694	96.75
365.92	96.75
366.147	93.75
366.373	80.75
366.599	91.75
366.826	85.75
367.052	82.75
367.278	94.75
367.505	105.75
367.731	98.75
367.957	87.75
368.184	92.75
368.41	96.75
368.636	116.75
368.862	113.75
369.089	106.75
369.315	88.75
369.541	102.75
369.767	78.75
369.993	86.75
370.219	79.75
370.445	80.75
370.672	87.75
370.898	88.75
371.124	87.75
371.35	96.75
371.576	81.75
371.802	82.75
372.028	89.75
372.254	85.75
372.48	81.75
372.706	91.75
372.932	71.75
373.158	90.75
373.384	106.75
373.61	89.75
373.835	91.75
374.061	90.75
374.287	84.75
374.513	86.75
374.739	97.75
374.965	88.75
375.191	84.75
375.416	87.75
375.642	95.75
375.868	87.75
376.094	88.75
376.319	77.75
376.545	94.75
376.771	97.75
376.997	84.75
377.222	98.75
377.448	100.75
377.674	95.75
377.899	84.75
378.125	96.75
378.35	89.75
378.576	103.75
378.802	95.75
379.027	83.75
379.253	80.75
379.478	91.75
379.704	97.75
379.929	86.75
380.155	85.75
380.38	100.75
380.606	104.75
380.831	96.75
381.057	101.75
381.282	103.75
381.507	88.75
381.733	89.75
381.958	101.75
382.184	87.75
382.409	97.75
382.634	103.75
382.86	95.75
383.085	105.75
383.31	88.75
383.535	86.75
383.761	91.75
383.986	81.75
384.211	80.75
384.436	93.75
384.662	92.75
384.887	110.75
385.112	97.75
385.337	92.75
385.562	106.75
385.787	86.75
386.013	101.75
386.238	107.75
386.463	105.75
386.688	111.75
386.913	82.75
387.138	93.75
387.363	94.75
387.588	93.75
387.813	106.75
388.038	93.75
388.263	97.75
388.488	103.75
388.713	89.75
388.938	98.75
389.163	102.75
389.387	91.75
389.612	92.75
389.837	90.75
390.062	90.75
390.287	90.75
390.512	88.75
390.736	107.75
390.961	91.75
391.186	99.75
391.411	91.75
391.636	93.75
391.86	82.75
392.085	89.75
392.31	91.75
392.534	78.75
392.759	87.75
392.984	100.75
393.208	77.75
393.433	96.75
393.658	81.75
393.882	83.75
394.107	68.75
394.331	89.75
394.556	68.75
394.78	82.75
395.005	83.75
395.229	88.75
395.454	88.75
395.678	101.75
395.903	93.75
396.127	83.75
396.352	91.75
396.576	84.75
396.801	85.75
397.025	86.75
397.249	88.75
397.474	93.75
397.698	103.75
397.922	81.75
398.147	82.75
398.371	80.75
398.595	90.75
398.82	80.75
399.044	82.75
399.268	80.75
399.492	82.75
399.717	79.75
399.941	80.75
400.165	90.75
400.389	106.75
400.613	80.75
400.837	92.75
401.062	74.75
401.286	96.75
401.51	83.75
401.734	93.75
401.958	117.75
402.182	121.75
402.406	134.75
402.63	115.75
402.854	85.75
403.078	94.75
403.302	94.75
403.526	109.75
403.75	93.75
403.974	85.75
404.198	97.75
404.422	81.75
404.645	97.75
404.869	86.75
405.093	84.75
405.317	101.75
405.541	97.75
405.765	92.75
405.988	105.75
406.212	177.75
406.436	189.75
406.66	127.75
406.883	102.75
407.107	83.75
407.331	105.75
407.555	98.75
407.778	84.75
408.002	78.75
408.226	79.75
408.449	80.75
408.673	79.75
408.896	82.75
409.12	87.75
409.344	92.75
409.567	96.75
409.791	101.75
410.014	110.75
410.238	86.75
410.461	84.75
410.685	77.75
410.908	76.75
411.132	104.75
411.355	94.75
411.578	99.75
411.802	87.75
412.025	86.75
412.249	79.75
412.472	71.75
412.695	85.75
412.919	87.75
413.142	88.75
413.365	92.75
413.589	85.75
413.812	81.75
414.035	87.75
414.258	85.75
414.482	90.75
414.705	82.75
414.928	95.75
415.151	90.75
415.374	78.75
415.597	89.75
415.821	80.75
416.044	90.75
416.267	88.75
416.49	75.75
416.713	76.75
416.936	94.75
417.159	85.75
417.382	96.75
417.605	100.75
417.828	93.75
418.051	80.75
418.274	86.75
418.497	85.75
418.72	87.75
418.943	90.75
419.166	94.75
419.389	96.75
419.611	80.75
419.834	93.75
420.057	88.75
420.28	85.75
420.503	89.75
420.726	81.75
420.948	97.75
421.171	96.75
421.394	88.75
421.617	84.75
421.839	82.75
422.062	89.75
422.285	90.75
422.507	94.75
422.73	95.75
422.953	83.75
423.175	95.75
423.398	74.75
423.621	85.75
423.843	85.75
424.066	87.75
424.288	82.75
424.511	86.75
424.733	89.75
424.956	102.75
425.178	92.75
425.401	113.75
425.623	97.75
425.846	95.75
426.068	86.75
426.291	91.75
426.513	87.75
426.735	100.75
426.958	92.75
427.18	102.75
427.402	124.75
427.625	132.75
427.847	116.75
428.069	90.75
428.292	87.75
428.514	76.75
428.736	76.75
428.958	72.75
429.181	90.75
429.403	88.75
429.625	81.75
429.847	93.75
430.069	89.75
430.292	92.75
430.514	80.75
430.736	86.75
430.958	90.75
431.18	87.75
431.402	81.75
431.624	85.75
431.846	76.75
432.068	89.75
432.29	84.75
432.512	84.75
432.734	94.75
432.956	87.75
433.178	91.75
433.4	94.75
433.622	94.75
433.844	82.75
434.066	78.75
434.287	94.75
434.509	79.75
434.731	98.75
434.953	89.75
435.175	99.75
435.397	71.75
435.618	73.75
435.84	104.75
436.062	107.75
436.284	118.75
436.505	87.75
436.727	95.75
436.949	107.75
437.17	89.75
437.392	77.75
437.614	90.75
437.835	100.75
438.057	108.75
438.278	103.75
438.5	108.75
438.721	110.75
438.943	97.75
439.165	74.75
439.386	90.75
439.608	88.75
439.829	97.75
440.05	117.75
440.272	113.75
440.493	93.75
440.715	73.75
440.936	101.75
441.158	92.75
441.379	74.75
441.6	95.75
441.822	97.75
442.043	106.75
442.264	98.75
442.486	90.75
442.707	104.75
442.928	104.75
443.149	123.75
443.371	133.75
443.592	99.75
443.813	108.75
444.034	86.75
444.255	80.75
444.476	80.75
444.698	82.75
444.919	85.75
445.14	132.75
445.361	113.75
445.582	109.75
445.803	127.75
446.024	144.75
446.245	128.75
446.466	93.75
446.687	83.75
446.908	82.75
447.129	90.75
447.35	76.75
447.571	77.75
447.792	87.75
448.013	90.75
448.234	86.75
448.455	90.75
448.675	112.75
448.896	115.75
449.117	89.75
449.338	107.75
449.559	135.75
449.779	107.75
450	86.75
450.221	80.75
450.442	77.75
450.662	100.75
450.883	84.75
451.104	102.75
451.324	89.75
451.545	105.75
451.766	96.75
451.986	74.75
452.207	85.75
452.428	91.75
452.648	93.75
452.869	105.75
453.089	88.75
453.31	109.75
453.53	86.75
453.751	84.75
453.971	98.75
454.192	107.75
454.412	93.75
454.633	99.75
454.853	92.75
455.073	93.75
455.294	90.75
455.514	94.75
455.734	82.75
455.955	92.75
456.175	89.75
456.395	93.75
456.616	89.75
456.836	72.75
457.056	90.75
457.276	91.75
457.497	77.75
457.717	73.75
457.937	85.75
458.157	74.75
458.377	97.75
458.598	122.75
458.818	137.75
459.038	144.75
459.258	96.75
459.478	90.75
459.698	80.75
459.918	85.75
460.138	85.75
460.358	80.75
460.578	84.75
460.798	89.75
461.018	91.75
461.238	73.75
461.458	96.75
461.678	94.75
461.898	82.75
462.118	90.75
462.338	88.75
462.558	80.75
462.777	85.75
462.997	88.75
463.217	83.75
463.437	81.75
463.657	81.75
463.876	76.75
464.096	95.75
464.316	104.75
464.536	83.75
464.755	84.75
464.975	109.75
465.195	150.75
465.414	145.75
465.634	91.75
465.854	88.75
466.073	102.75
466.293	81.75
466.512	65.75
466.732	86.75
466.951	98.75
467.171	91.75
467.391	75.75
467.61	95.75
467.829	98.75
468.049	86.75
468.268	98.75
468.488	78.75
468.707	97.75
468.927	84.75
469.146	80.75
469.365	80.75
469.585	96.75
469.804	97.75
470.023	85.75
470.243	83.75
470.462	93.75
470.681	100.75
470.901	88.75
471.12	77.75
471.339	81.75
471.558	87.75
471.777	98.75
471.997	93.75
472.216	95.75
472.435	92.75
472.654	89.75
472.873	90.75
473.092	79.75
473.311	91.75
473.53	88.75
473.749	94.75
473.968	89.75
474.187	96.75
474.406	84.75
474.625	77.75
474.844	89.75
475.063	89.75
475.282	92.75
475.501	89.75
475.72	80.75
475.939	76.75
476.158	94.75
476.377	88.75
476.596	87.75
476.814	90.75
477.033	90.75
477.252	85.75
477.471	97.75
477.69	79.75
477.908	92.75
478.127	95.75
478.346	90.75
478.564	88.75
478.783	100.75
479.002	88.75
479.22	84.75
479.439	102.75
479.658	106.75
479.876	80.75
480.095	86.75
480.313	100.75
480.532	94.75
480.751	79.75
480.969	91.75
481.188	113.75
481.406	97.75
481.624	78.75
481.843	95.75
482.061	76.75
482.28	80.75
482.498	79.75
482.717	94.75
482.935	92.75
483.153	69.75
483.372	88.75
483.59	85.75
483.808	78.75
484.027	86.75
484.245	97.75
484.463	85.75
484.681	83.75
484.9	79.75
485.118	98.75
485.336	81.75
485.554	82.75
485.772	84.75
485.99	96.75
486.209	115.75
486.427	97.75
486.645	105.75
486.863	105.75
487.081	112.75
487.299	93.75
487.517	90.75
487.735	92.75
487.953	95.75
488.171	90.75
488.389	97.75
488.607	92.75
488.825	89.75
489.043	93.75
489.261	85.75
489.479	90.75
489.696	94.75
489.914	87.75
490.132	84.75
490.35	96.75
490.568	80.75
490.786	80.75
491.003	85.75
491.221	82.75
491.439	85.75
491.657	98.75
491.874	90.75
492.092	89.75
492.31	84.75
492.527	72.75
492.745	88.75
492.963	77.75
493.18	74.75
493.398	82.75
493.615	96.75
493.833	88.75
494.05	81.75
494.268	85.75
494.485	82.75
494.703	89.75
494.92	84.75
495.138	86.75
495.355	81.75
495.573	102.75
495.79	91.75
496.008	100.75
496.225	86.75
496.442	88.75
496.66	105.75
496.877	87.75
497.094	92.75
497.312	81.75
497.529	87.75
497.746	87.75
497.963	77.75
498.181	81.75
498.398	108.75
498.615	110.75
498.832	105.75
499.049	90.75
499.267	84.75
499.484	84.75
499.701	80.75
499.918	103.75
500.135	101.75
500.352	75.75
500.569	102.75
500.786	91.75
501.003	92.75
501.22	86.75
501.437	84.75
501.654	95.75
501.871	102.75
502.088	97.75
502.305	90.75
502.522	87.75
502.739	90.75
502.956	90.75
503.172	92.75
503.389	100.75
503.606	101.75
503.823	89.75
504.04	95.75
504.256	88.75
504.473	87.75
504.69	72.75
504.907	100.75
505.123	84.75
505.34	89.75
505.557	98.75
505.773	98.75
505.99	96.75
506.207	80.75
506.423	80.75
506.64	84.75
506.856	75.75
507.073	79.75
507.289	90.75
507.506	84.75
507.722	107.75
507.939	93.75
508.155	89.75
508.372	81.75
508.588	95.75
508.805	101.75
509.021	80.75
509.238	110.75
509.454	98.75
509.67	108.75
509.887	112.75
510.103	117.75
510.319	202.75
510.536	703.75
510.752	2156.75
510.968	590.75
511.184	143.75
511.401	112.75
511.617	96.75
511.833	68.75
512.049	94.75
512.265	93.75
512.481	96.75
512.698	101.75
512.914	102.75
513.13	89.75
513.346	106.75
513.562	93.75
513.778	92.75
513.994	101.75
514.21	89.75
514.426	105.75
514.642	122.75
514.858	127.75
515.074	147.75
515.29	395.75
515.506	1275.75
515.721	483.75
515.937	130.75
516.153	88.75
516.369	103.75
516.585	77.75
