Data from Uncirc_1998_H10_HRD10591_00097.txt Node
Date: Wed Jan 03 11:25:44 EST 2024
User: Yrep
Spectrometer: HR+D1059
Trigger mode: 1
Integration Time (sec): 1.000000E-1
Scans to average: 1
Electric dark correction enabled: true
Nonlinearity correction enabled: false
Boxcar width: 0
XAxis mode: Wavelengths
Number of Pixels in Spectrum: 2048
>>>>>Begin Spectral Data<<<<<
223.165	-18.94
223.4	-18.94
223.635	-18.94
223.869	-38.94
224.104	-26.94
224.338	-7.94
224.573	-5.94
224.808	-16.94
225.042	0.06
225.277	-3.94
225.511	9.06
225.746	-8.94
225.98	11.06
226.215	23.06
226.449	9.06
226.683	20.06
226.918	20.06
227.152	36.06
227.387	25.06
227.621	37.06
227.856	47.06
228.09	53.06
228.324	60.06
228.559	41.06
228.793	68.06
229.027	62.06
229.262	56.06
229.496	62.06
229.73	76.06
229.964	93.06
230.199	96.06
230.433	85.06
230.667	90.06
230.901	72.06
231.136	78.06
231.37	79.06
231.604	93.06
231.838	84.06
232.072	91.06
232.306	77.06
232.541	77.06
232.775	89.06
233.009	73.06
233.243	84.06
233.477	83.06
233.711	92.06
233.945	79.06
234.179	79.06
234.413	74.06
234.647	76.06
234.881	69.06
235.115	79.06
235.349	96.06
235.583	81.06
235.817	96.06
236.051	72.06
236.285	77.06
236.519	76.06
236.753	73.06
236.987	75.06
237.221	88.06
237.455	76.06
237.689	80.06
237.922	85.06
238.156	83.06
238.39	83.06
238.624	57.06
238.858	77.06
239.091	83.06
239.325	72.06
239.559	92.06
239.793	88.06
240.027	76.06
240.26	71.06
240.494	79.06
240.728	78.06
240.961	67.06
241.195	77.06
241.429	73.06
241.662	78.06
241.896	83.06
242.13	67.06
242.363	77.06
242.597	64.06
242.83	68.06
243.064	74.06
243.298	79.06
243.531	75.06
243.765	89.06
243.998	77.06
244.232	69.06
244.465	83.06
244.699	79.06
244.932	68.06
245.166	79.06
245.399	75.06
245.633	84.06
245.866	66.06
246.099	72.06
246.333	78.06
246.566	77.06
246.8	79.06
247.033	56.06
247.266	77.06
247.5	78.06
247.733	89.06
247.966	79.06
248.2	84.06
248.433	71.06
248.666	62.06
248.899	79.06
249.133	81.06
249.366	94.06
249.599	87.06
249.832	85.06
250.066	85.06
250.299	81.06
250.532	86.06
250.765	80.06
250.998	77.06
251.231	85.06
251.465	73.06
251.698	91.06
251.931	67.06
252.164	89.06
252.397	69.06
252.63	67.06
252.863	55.06
253.096	87.06
253.329	83.06
253.562	83.06
253.795	75.06
254.028	84.06
254.261	65.06
254.494	79.06
254.727	76.06
254.96	88.06
255.193	84.06
255.426	83.06
255.659	69.06
255.892	75.06
256.124	75.06
256.357	76.06
256.59	89.06
256.823	81.06
257.056	71.06
257.289	82.06
257.521	76.06
257.754	77.06
257.987	77.06
258.22	78.06
258.452	85.06
258.685	73.06
258.918	87.06
259.151	82.06
259.383	90.06
259.616	72.06
259.849	79.06
260.081	83.06
260.314	81.06
260.547	84.06
260.779	79.06
261.012	88.06
261.244	94.06
261.477	84.06
261.71	95.06
261.942	106.06
262.175	108.06
262.407	90.06
262.64	80.06
262.872	86.06
263.105	79.06
263.337	97.06
263.57	76.06
263.802	88.06
264.035	90.06
264.267	87.06
264.499	88.06
264.732	94.06
264.964	89.06
265.197	90.06
265.429	81.06
265.661	67.06
265.894	79.06
266.126	85.06
266.358	88.06
266.591	87.06
266.823	68.06
267.055	83.06
267.287	90.06
267.52	91.06
267.752	90.06
267.984	94.06
268.216	83.06
268.448	68.06
268.681	84.06
268.913	84.06
269.145	90.06
269.377	94.06
269.609	91.06
269.841	98.06
270.073	89.06
270.306	81.06
270.538	87.06
270.77	77.06
271.002	87.06
271.234	84.06
271.466	86.06
271.698	81.06
271.93	93.06
272.162	98.06
272.394	93.06
272.626	103.06
272.858	83.06
273.09	73.06
273.322	91.06
273.553	85.06
273.785	84.06
274.017	81.06
274.249	81.06
274.481	91.06
274.713	101.06
274.945	83.06
275.176	99.06
275.408	83.06
275.64	85.06
275.872	83.06
276.104	75.06
276.335	88.06
276.567	98.06
276.799	104.06
277.031	105.06
277.262	82.06
277.494	97.06
277.726	89.06
277.957	71.06
278.189	82.06
278.421	98.06
278.652	82.06
278.884	84.06
279.115	84.06
279.347	86.06
279.579	82.06
279.81	77.06
280.042	74.06
280.273	93.06
280.505	97.06
280.736	82.06
280.968	94.06
281.199	84.06
281.431	83.06
281.662	87.06
281.894	80.06
282.125	100.06
282.356	113.06
282.588	117.06
282.819	106.06
283.051	97.06
283.282	91.06
283.513	100.06
283.745	91.06
283.976	73.06
284.207	97.06
284.439	82.06
284.67	95.06
284.901	88.06
285.132	108.06
285.364	80.06
285.595	96.06
285.826	77.06
286.057	81.06
286.288	75.06
286.52	84.06
286.751	85.06
286.982	88.06
287.213	85.06
287.444	100.06
287.675	91.06
287.906	99.06
288.138	88.06
288.369	82.06
288.6	88.06
288.831	91.06
289.062	91.06
289.293	85.06
289.524	90.06
289.755	75.06
289.986	74.06
290.217	107.06
290.448	98.06
290.679	90.06
290.91	87.06
291.141	83.06
291.371	87.06
291.602	95.06
291.833	98.06
292.064	92.06
292.295	76.06
292.526	95.06
292.757	97.06
292.987	94.06
293.218	81.06
293.449	84.06
293.68	100.06
293.91	88.06
294.141	89.06
294.372	90.06
294.603	77.06
294.833	80.06
295.064	85.06
295.295	84.06
295.525	101.06
295.756	90.06
295.987	115.06
296.217	115.06
296.448	116.06
296.679	107.06
296.909	82.06
297.14	78.06
297.37	84.06
297.601	87.06
297.831	102.06
298.062	93.06
298.292	91.06
298.523	83.06
298.753	98.06
298.984	98.06
299.214	87.06
299.445	83.06
299.675	99.06
299.905	106.06
300.136	96.06
300.366	84.06
300.597	97.06
300.827	88.06
301.057	85.06
301.288	102.06
301.518	75.06
301.748	96.06
301.979	100.06
302.209	81.06
302.439	87.06
302.669	89.06
302.9	75.06
303.13	92.06
303.36	93.06
303.59	97.06
303.82	111.06
304.051	89.06
304.281	103.06
304.511	107.06
304.741	95.06
304.971	83.06
305.201	83.06
305.431	97.06
305.661	90.06
305.891	95.06
306.121	106.06
306.352	97.06
306.582	93.06
306.812	106.06
307.042	91.06
307.272	84.06
307.502	85.06
307.731	98.06
307.961	86.06
308.191	80.06
308.421	85.06
308.651	91.06
308.881	92.06
309.111	82.06
309.341	96.06
309.571	99.06
309.8	92.06
310.03	91.06
310.26	97.06
310.49	105.06
310.72	91.06
310.949	113.06
311.179	93.06
311.409	83.06
311.639	92.06
311.868	93.06
312.098	97.06
312.328	98.06
312.557	96.06
312.787	96.06
313.017	93.06
313.246	93.06
313.476	84.06
313.706	85.06
313.935	90.06
314.165	104.06
314.394	106.06
314.624	106.06
314.853	95.06
315.083	95.06
315.312	98.06
315.542	101.06
315.771	100.06
316.001	95.06
316.23	87.06
316.46	91.06
316.689	93.06
316.919	111.06
317.148	88.06
317.377	95.06
317.607	97.06
317.836	99.06
318.065	100.06
318.295	89.06
318.524	85.06
318.753	100.06
318.983	87.06
319.212	106.06
319.441	103.06
319.67	105.06
319.9	91.06
320.129	100.06
320.358	88.06
320.587	98.06
320.816	97.06
321.046	110.06
321.275	101.06
321.504	100.06
321.733	100.06
321.962	101.06
322.191	95.06
322.42	110.06
322.649	102.06
322.878	109.06
323.108	108.06
323.337	114.06
323.566	117.06
323.795	144.06
324.024	203.06
324.253	369.06
324.482	752.06
324.71	1545.06
324.939	1971.06
325.168	737.06
325.397	224.06
325.626	157.06
325.855	127.06
326.084	126.06
326.313	132.06
326.542	139.06
326.77	205.06
326.999	434.06
327.228	865.06
327.457	1572.06
327.686	1254.06
327.914	314.06
328.143	179.06
328.372	135.06
328.6	120.06
328.829	108.06
329.058	113.06
329.287	128.06
329.515	114.06
329.744	107.06
329.972	100.06
330.201	94.06
330.43	92.06
330.658	112.06
330.887	137.06
331.115	92.06
331.344	106.06
331.572	100.06
331.801	93.06
332.03	101.06
332.258	105.06
332.486	95.06
332.715	105.06
332.943	84.06
333.172	85.06
333.4	108.06
333.629	105.06
333.857	97.06
334.085	98.06
334.314	112.06
334.542	99.06
334.771	92.06
334.999	99.06
335.227	91.06
335.455	84.06
335.684	95.06
335.912	99.06
336.14	110.06
336.369	107.06
336.597	97.06
336.825	105.06
337.053	84.06
337.281	88.06
337.51	99.06
337.738	84.06
337.966	91.06
338.194	79.06
338.422	91.06
338.65	87.06
338.878	95.06
339.106	94.06
339.334	96.06
339.562	89.06
339.79	90.06
340.018	84.06
340.246	87.06
340.474	82.06
340.702	86.06
340.93	105.06
341.158	87.06
341.386	99.06
341.614	90.06
341.842	99.06
342.07	87.06
342.298	95.06
342.526	85.06
342.754	91.06
342.981	89.06
343.209	88.06
343.437	95.06
343.665	96.06
343.893	89.06
344.12	91.06
344.348	83.06
344.576	83.06
344.804	95.06
345.031	97.06
345.259	105.06
345.487	80.06
345.714	90.06
345.942	98.06
346.17	91.06
346.397	101.06
346.625	105.06
346.853	90.06
347.08	91.06
347.308	88.06
347.535	94.06
347.763	101.06
347.99	103.06
348.218	108.06
348.445	94.06
348.673	96.06
348.9	99.06
349.128	98.06
349.355	92.06
349.583	97.06
349.81	101.06
350.037	91.06
350.265	93.06
350.492	96.06
350.72	101.06
350.947	107.06
351.174	105.06
351.402	105.06
351.629	88.06
351.856	100.06
352.083	97.06
352.311	99.06
352.538	92.06
352.765	96.06
352.992	105.06
353.22	123.06
353.447	99.06
353.674	101.06
353.901	90.06
354.128	91.06
354.355	95.06
354.583	88.06
354.81	101.06
355.037	97.06
355.264	95.06
355.491	92.06
355.718	94.06
355.945	90.06
356.172	95.06
356.399	100.06
356.626	75.06
356.853	92.06
357.08	82.06
357.307	84.06
357.534	95.06
357.761	92.06
357.988	90.06
358.215	88.06
358.441	102.06
358.668	83.06
358.895	103.06
359.122	93.06
359.349	82.06
359.576	83.06
359.802	85.06
360.029	116.06
360.256	99.06
360.483	93.06
360.709	94.06
360.936	88.06
361.163	93.06
361.39	106.06
361.616	99.06
361.843	89.06
362.07	93.06
362.296	88.06
362.523	75.06
362.749	104.06
362.976	85.06
363.203	89.06
363.429	85.06
363.656	93.06
363.882	81.06
364.109	102.06
364.335	95.06
364.562	91.06
364.788	80.06
365.015	97.06
365.241	101.06
365.468	104.06
365.694	105.06
365.92	99.06
366.147	83.06
366.373	86.06
366.599	97.06
366.826	94.06
367.052	91.06
367.278	97.06
367.505	84.06
367.731	95.06
367.957	104.06
368.184	95.06
368.41	94.06
368.636	93.06
368.862	108.06
369.089	99.06
369.315	96.06
369.541	87.06
369.767	97.06
369.993	109.06
370.219	85.06
370.445	97.06
370.672	94.06
370.898	81.06
371.124	89.06
371.35	85.06
371.576	84.06
371.802	76.06
372.028	104.06
372.254	99.06
372.48	94.06
372.706	85.06
372.932	89.06
373.158	93.06
373.384	87.06
373.61	103.06
373.835	89.06
374.061	93.06
374.287	83.06
374.513	90.06
374.739	81.06
374.965	85.06
375.191	75.06
375.416	85.06
375.642	82.06
375.868	98.06
376.094	88.06
376.319	92.06
376.545	87.06
376.771	93.06
376.997	85.06
377.222	82.06
377.448	100.06
377.674	97.06
377.899	100.06
378.125	91.06
378.35	95.06
378.576	85.06
378.802	84.06
379.027	91.06
379.253	92.06
379.478	105.06
379.704	91.06
379.929	104.06
380.155	99.06
380.38	98.06
380.606	92.06
380.831	100.06
381.057	98.06
381.282	104.06
381.507	105.06
381.733	106.06
381.958	91.06
382.184	108.06
382.409	104.06
382.634	85.06
382.86	99.06
383.085	105.06
383.31	91.06
383.535	99.06
383.761	100.06
383.986	93.06
384.211	92.06
384.436	111.06
384.662	99.06
384.887	106.06
385.112	90.06
385.337	94.06
385.562	95.06
385.787	108.06
386.013	108.06
386.238	116.06
386.463	94.06
386.688	104.06
386.913	95.06
387.138	99.06
387.363	94.06
387.588	98.06
387.813	107.06
388.038	97.06
388.263	96.06
388.488	97.06
388.713	95.06
388.938	97.06
389.163	109.06
389.387	111.06
389.612	89.06
389.837	79.06
390.062	87.06
390.287	89.06
390.512	83.06
390.736	80.06
390.961	100.06
391.186	80.06
391.411	100.06
391.636	84.06
391.86	89.06
392.085	99.06
392.31	80.06
392.534	88.06
392.759	99.06
392.984	99.06
393.208	96.06
393.433	93.06
393.658	80.06
393.882	95.06
394.107	85.06
394.331	76.06
394.556	99.06
394.78	94.06
395.005	80.06
395.229	91.06
395.454	74.06
395.678	95.06
395.903	80.06
396.127	95.06
396.352	92.06
396.576	98.06
396.801	96.06
397.025	83.06
397.249	81.06
397.474	84.06
397.698	84.06
397.922	73.06
398.147	100.06
398.371	97.06
398.595	79.06
398.82	112.06
399.044	92.06
399.268	82.06
399.492	93.06
399.717	96.06
399.941	102.06
400.165	93.06
400.389	75.06
400.613	72.06
400.837	95.06
401.062	88.06
401.286	83.06
401.51	83.06
401.734	107.06
401.958	98.06
402.182	123.06
402.406	143.06
402.63	114.06
402.854	89.06
403.078	82.06
403.302	81.06
403.526	79.06
403.75	99.06
403.974	95.06
404.198	88.06
404.422	107.06
404.645	78.06
404.869	89.06
405.093	98.06
405.317	87.06
405.541	104.06
405.765	107.06
405.988	112.06
406.212	148.06
406.436	195.06
406.66	142.06
406.883	102.06
407.107	109.06
407.331	107.06
407.555	96.06
407.778	103.06
408.002	95.06
408.226	109.06
408.449	92.06
408.673	92.06
408.896	100.06
409.12	99.06
409.344	95.06
409.567	107.06
409.791	87.06
410.014	89.06
410.238	88.06
410.461	91.06
410.685	98.06
410.908	99.06
411.132	111.06
411.355	109.06
411.578	79.06
411.802	104.06
412.025	88.06
412.249	94.06
412.472	105.06
412.695	111.06
412.919	74.06
413.142	107.06
413.365	98.06
413.589	95.06
413.812	84.06
414.035	94.06
414.258	81.06
414.482	97.06
414.705	88.06
414.928	96.06
415.151	100.06
415.374	105.06
415.597	88.06
415.821	91.06
416.044	94.06
416.267	83.06
416.49	88.06
416.713	77.06
416.936	99.06
417.159	91.06
417.382	92.06
417.605	99.06
417.828	88.06
418.051	87.06
418.274	70.06
418.497	87.06
418.72	91.06
418.943	96.06
419.166	92.06
419.389	87.06
419.611	93.06
419.834	85.06
420.057	98.06
420.28	79.06
420.503	102.06
420.726	88.06
420.948	95.06
421.171	70.06
421.394	102.06
421.617	95.06
421.839	87.06
422.062	104.06
422.285	89.06
422.507	104.06
422.73	100.06
422.953	89.06
423.175	89.06
423.398	106.06
423.621	94.06
423.843	89.06
424.066	82.06
424.288	100.06
424.511	99.06
424.733	105.06
424.956	97.06
425.178	103.06
425.401	93.06
425.623	104.06
425.846	93.06
426.068	76.06
426.291	86.06
426.513	100.06
426.735	110.06
426.958	107.06
427.18	107.06
427.402	128.06
427.625	150.06
427.847	107.06
428.069	101.06
428.292	95.06
428.514	81.06
428.736	96.06
428.958	88.06
429.181	88.06
429.403	91.06
429.625	93.06
429.847	100.06
430.069	105.06
430.292	99.06
430.514	83.06
430.736	91.06
430.958	98.06
431.18	80.06
431.402	90.06
431.624	99.06
431.846	78.06
432.068	95.06
432.29	99.06
432.512	97.06
432.734	96.06
432.956	92.06
433.178	105.06
433.4	97.06
433.622	92.06
433.844	78.06
434.066	87.06
434.287	88.06
434.509	84.06
434.731	92.06
434.953	75.06
435.175	83.06
435.397	75.06
435.618	87.06
435.84	97.06
436.062	119.06
436.284	94.06
436.505	91.06
436.727	107.06
436.949	102.06
437.17	89.06
437.392	92.06
437.614	102.06
437.835	98.06
438.057	117.06
438.278	110.06
438.5	114.06
438.721	124.06
438.943	114.06
439.165	95.06
439.386	88.06
439.608	83.06
439.829	97.06
440.05	113.06
440.272	130.06
440.493	104.06
440.715	95.06
440.936	90.06
441.158	91.06
441.379	83.06
441.6	107.06
441.822	94.06
442.043	98.06
442.264	96.06
442.486	109.06
442.707	84.06
442.928	104.06
443.149	114.06
443.371	123.06
443.592	100.06
443.813	113.06
444.034	116.06
444.255	85.06
444.476	99.06
444.698	98.06
444.919	100.06
445.14	131.06
445.361	114.06
445.582	113.06
445.803	139.06
446.024	130.06
446.245	133.06
446.466	122.06
446.687	99.06
446.908	81.06
447.129	91.06
447.35	87.06
447.571	82.06
447.792	89.06
448.013	96.06
448.234	106.06
448.455	105.06
448.675	107.06
448.896	117.06
449.117	96.06
449.338	90.06
449.559	149.06
449.779	137.06
450	96.06
450.221	97.06
450.442	85.06
450.662	85.06
450.883	96.06
451.104	107.06
451.324	101.06
451.545	89.06
451.766	88.06
451.986	80.06
452.207	88.06
452.428	95.06
452.648	107.06
452.869	98.06
453.089	111.06
453.31	104.06
453.53	95.06
453.751	91.06
453.971	99.06
454.192	111.06
454.412	116.06
454.633	91.06
454.853	75.06
455.073	96.06
455.294	87.06
455.514	98.06
455.734	89.06
455.955	95.06
456.175	81.06
456.395	106.06
456.616	90.06
456.836	78.06
457.056	86.06
457.276	83.06
457.497	89.06
457.717	86.06
457.937	89.06
458.157	76.06
458.377	98.06
458.598	98.06
458.818	128.06
459.038	149.06
459.258	105.06
459.478	98.06
459.698	94.06
459.918	87.06
460.138	85.06
460.358	96.06
460.578	84.06
460.798	91.06
461.018	75.06
461.238	89.06
461.458	71.06
461.678	91.06
461.898	92.06
462.118	95.06
462.338	85.06
462.558	110.06
462.777	78.06
462.997	89.06
463.217	100.06
463.437	84.06
463.657	88.06
463.876	108.06
464.096	94.06
464.316	81.06
464.536	99.06
464.755	95.06
464.975	109.06
465.195	158.06
465.414	152.06
465.634	97.06
465.854	91.06
466.073	95.06
466.293	91.06
466.512	92.06
466.732	80.06
466.951	77.06
467.171	88.06
467.391	95.06
467.61	106.06
467.829	92.06
468.049	90.06
468.268	88.06
468.488	92.06
468.707	78.06
468.927	86.06
469.146	88.06
469.365	85.06
469.585	91.06
469.804	88.06
470.023	103.06
470.243	81.06
470.462	81.06
470.681	107.06
470.901	82.06
471.12	96.06
471.339	84.06
471.558	93.06
471.777	88.06
471.997	95.06
472.216	79.06
472.435	102.06
472.654	79.06
472.873	84.06
473.092	77.06
473.311	92.06
473.53	91.06
473.749	92.06
473.968	102.06
474.187	99.06
474.406	95.06
474.625	99.06
474.844	92.06
475.063	90.06
475.282	87.06
475.501	94.06
475.72	90.06
475.939	78.06
476.158	77.06
476.377	85.06
476.596	76.06
476.814	92.06
477.033	95.06
477.252	87.06
477.471	93.06
477.69	73.06
477.908	108.06
478.127	94.06
478.346	79.06
478.564	94.06
478.783	95.06
479.002	98.06
479.22	94.06
479.439	101.06
479.658	81.06
479.876	107.06
480.095	91.06
480.313	83.06
480.532	87.06
480.751	96.06
480.969	101.06
481.188	124.06
481.406	94.06
481.624	92.06
481.843	83.06
482.061	95.06
482.28	75.06
482.498	100.06
482.717	95.06
482.935	78.06
483.153	101.06
483.372	101.06
483.59	99.06
483.808	83.06
484.027	100.06
484.245	89.06
484.463	101.06
484.681	108.06
484.9	96.06
485.118	96.06
485.336	95.06
485.554	93.06
485.772	107.06
485.99	105.06
486.209	104.06
486.427	108.06
486.645	118.06
486.863	104.06
487.081	94.06
487.299	106.06
487.517	92.06
487.735	95.06
487.953	93.06
488.171	85.06
488.389	116.06
488.607	92.06
488.825	87.06
489.043	98.06
489.261	85.06
489.479	82.06
489.696	104.06
489.914	84.06
490.132	107.06
490.35	108.06
490.568	97.06
490.786	105.06
491.003	97.06
491.221	98.06
491.439	85.06
491.657	104.06
491.874	103.06
492.092	89.06
492.31	107.06
492.527	96.06
492.745	104.06
492.963	79.06
493.18	87.06
493.398	91.06
493.615	100.06
493.833	101.06
494.05	101.06
494.268	95.06
494.485	100.06
494.703	84.06
494.92	92.06
495.138	75.06
495.355	80.06
495.573	87.06
495.79	94.06
496.008	99.06
496.225	103.06
496.442	104.06
496.66	109.06
496.877	99.06
497.094	101.06
497.312	80.06
497.529	82.06
497.746	104.06
497.963	101.06
498.181	88.06
498.398	95.06
498.615	119.06
498.832	88.06
499.049	97.06
499.267	80.06
499.484	93.06
499.701	101.06
499.918	101.06
500.135	75.06
500.352	98.06
500.569	101.06
500.786	84.06
501.003	100.06
501.22	92.06
501.437	102.06
501.654	96.06
501.871	122.06
502.088	90.06
502.305	89.06
502.522	81.06
502.739	73.06
502.956	110.06
503.172	83.06
503.389	102.06
503.606	101.06
503.823	103.06
504.04	99.06
504.256	93.06
504.473	103.06
504.69	85.06
504.907	97.06
505.123	95.06
505.34	91.06
505.557	82.06
505.773	101.06
505.99	88.06
506.207	91.06
506.423	95.06
506.64	90.06
506.856	91.06
507.073	93.06
507.289	92.06
507.506	94.06
507.722	101.06
507.939	114.06
508.155	85.06
508.372	110.06
508.588	92.06
508.805	96.06
509.021	101.06
509.238	111.06
509.454	114.06
509.67	88.06
509.887	108.06
510.103	116.06
510.319	195.06
510.536	685.06
510.752	2089.06
510.968	585.06
511.184	146.06
511.401	111.06
511.617	87.06
511.833	95.06
512.049	104.06
512.265	97.06
512.481	100.06
512.698	96.06
512.914	89.06
513.13	98.06
513.346	99.06
513.562	93.06
513.778	100.06
513.994	104.06
514.21	107.06
514.426	112.06
514.642	116.06
514.858	107.06
515.074	140.06
515.29	389.06
