Data from Uncirc_1998_H10_HRD10591_00029.txt Node
Date: Wed Jan 03 11:25:30 EST 2024
User: Yrep
Spectrometer: HR+D1059
Trigger mode: 1
Integration Time (sec): 1.000000E-1
Scans to average: 1
Electric dark correction enabled: true
Nonlinearity correction enabled: false
Boxcar width: 0
XAxis mode: Wavelengths
Number of Pixels in Spectrum: 2048
>>>>>Begin Spectral Data<<<<<
223.165	-22.62
223.4	-22.62
223.635	-22.62
223.869	-9.62
224.104	-26.62
224.338	-23.62
224.573	-12.62
224.808	4.38
225.042	-4.62
225.277	-15.62
225.511	2.38
225.746	-2.62
225.98	10.38
226.215	4.38
226.449	9.38
226.683	25.38
226.918	32.38
227.152	29.38
227.387	44.38
227.621	51.38
227.856	57.38
228.09	42.38
228.324	53.38
228.559	63.38
228.793	61.38
229.027	57.38
229.262	65.38
229.496	57.38
229.73	77.38
229.964	56.38
230.199	76.38
230.433	78.38
230.667	75.38
230.901	68.38
231.136	82.38
231.37	78.38
231.604	73.38
231.838	80.38
232.072	87.38
232.306	76.38
232.541	92.38
232.775	79.38
233.009	81.38
233.243	82.38
233.477	90.38
233.711	83.38
233.945	68.38
234.179	84.38
234.413	79.38
234.647	76.38
234.881	70.38
235.115	80.38
235.349	71.38
235.583	81.38
235.817	88.38
236.051	72.38
236.285	72.38
236.519	80.38
236.753	68.38
236.987	66.38
237.221	80.38
237.455	79.38
237.689	82.38
237.922	79.38
238.156	66.38
238.39	81.38
238.624	71.38
238.858	85.38
239.091	59.38
239.325	88.38
239.559	70.38
239.793	99.38
240.027	82.38
240.26	81.38
240.494	79.38
240.728	61.38
240.961	78.38
241.195	74.38
241.429	68.38
241.662	71.38
241.896	78.38
242.13	71.38
242.363	68.38
242.597	77.38
242.83	76.38
243.064	77.38
243.298	72.38
243.531	72.38
243.765	82.38
243.998	85.38
244.232	80.38
244.465	80.38
244.699	68.38
244.932	74.38
245.166	75.38
245.399	80.38
245.633	72.38
245.866	72.38
246.099	70.38
246.333	72.38
246.566	77.38
246.8	68.38
247.033	76.38
247.266	80.38
247.5	69.38
247.733	88.38
247.966	76.38
248.2	71.38
248.433	81.38
248.666	85.38
248.899	69.38
249.133	77.38
249.366	109.38
249.599	92.38
249.832	72.38
250.066	80.38
250.299	69.38
250.532	83.38
250.765	70.38
250.998	91.38
251.231	84.38
251.465	71.38
251.698	76.38
251.931	76.38
252.164	70.38
252.397	78.38
252.63	76.38
252.863	75.38
253.096	79.38
253.329	71.38
253.562	71.38
253.795	64.38
254.028	77.38
254.261	76.38
254.494	76.38
254.727	89.38
254.96	68.38
255.193	76.38
255.426	73.38
255.659	81.38
255.892	82.38
256.124	69.38
256.357	94.38
256.59	89.38
256.823	88.38
257.056	76.38
257.289	82.38
257.521	84.38
257.754	81.38
257.987	76.38
258.22	72.38
258.452	81.38
258.685	82.38
258.918	93.38
259.151	79.38
259.383	88.38
259.616	76.38
259.849	88.38
260.081	78.38
260.314	90.38
260.547	81.38
260.779	78.38
261.012	64.38
261.244	92.38
261.477	86.38
261.71	96.38
261.942	117.38
262.175	102.38
262.407	87.38
262.64	71.38
262.872	79.38
263.105	76.38
263.337	81.38
263.57	76.38
263.802	77.38
264.035	90.38
264.267	65.38
264.499	78.38
264.732	73.38
264.964	85.38
265.197	88.38
265.429	86.38
265.661	82.38
265.894	88.38
266.126	71.38
266.358	67.38
266.591	92.38
266.823	97.38
267.055	79.38
267.287	77.38
267.52	76.38
267.752	86.38
267.984	76.38
268.216	73.38
268.448	101.38
268.681	85.38
268.913	82.38
269.145	93.38
269.377	84.38
269.609	87.38
269.841	85.38
270.073	76.38
270.306	96.38
270.538	77.38
270.77	82.38
271.002	69.38
271.234	74.38
271.466	94.38
271.698	78.38
271.93	73.38
272.162	92.38
272.394	100.38
272.626	85.38
272.858	84.38
273.09	74.38
273.322	90.38
273.553	82.38
273.785	77.38
274.017	92.38
274.249	80.38
274.481	81.38
274.713	92.38
274.945	80.38
275.176	90.38
275.408	86.38
275.64	86.38
275.872	78.38
276.104	79.38
276.335	91.38
276.567	76.38
276.799	94.38
277.031	89.38
277.262	96.38
277.494	93.38
277.726	73.38
277.957	87.38
278.189	86.38
278.421	79.38
278.652	89.38
278.884	88.38
279.115	78.38
279.347	93.38
279.579	78.38
279.81	89.38
280.042	77.38
280.273	63.38
280.505	82.38
280.736	93.38
280.968	92.38
281.199	85.38
281.431	84.38
281.662	86.38
281.894	95.38
282.125	74.38
282.356	110.38
282.588	132.38
282.819	89.38
283.051	88.38
283.282	87.38
283.513	88.38
283.745	86.38
283.976	82.38
284.207	83.38
284.439	80.38
284.67	84.38
284.901	77.38
285.132	80.38
285.364	79.38
285.595	76.38
285.826	85.38
286.057	84.38
286.288	80.38
286.52	79.38
286.751	90.38
286.982	87.38
287.213	81.38
287.444	86.38
287.675	87.38
287.906	96.38
288.138	97.38
288.369	93.38
288.6	95.38
288.831	94.38
289.062	91.38
289.293	96.38
289.524	83.38
289.755	74.38
289.986	90.38
290.217	80.38
290.448	79.38
290.679	92.38
290.91	93.38
291.141	72.38
291.371	74.38
291.602	88.38
291.833	76.38
292.064	76.38
292.295	88.38
292.526	84.38
292.757	89.38
292.987	94.38
293.218	86.38
293.449	91.38
293.68	72.38
293.91	83.38
294.141	92.38
294.372	89.38
294.603	84.38
294.833	72.38
295.064	86.38
295.295	79.38
295.525	87.38
295.756	97.38
295.987	110.38
296.217	132.38
296.448	112.38
296.679	92.38
296.909	85.38
297.14	96.38
297.37	87.38
297.601	89.38
297.831	81.38
298.062	76.38
298.292	105.38
298.523	88.38
298.753	86.38
298.984	76.38
299.214	89.38
299.445	95.38
299.675	109.38
299.905	97.38
300.136	89.38
300.366	78.38
300.597	73.38
300.827	94.38
301.057	88.38
301.288	98.38
301.518	102.38
301.748	79.38
301.979	109.38
302.209	90.38
302.439	79.38
302.669	83.38
302.9	93.38
303.13	96.38
303.36	94.38
303.59	93.38
303.82	107.38
304.051	100.38
304.281	92.38
304.511	72.38
304.741	95.38
304.971	90.38
305.201	94.38
305.431	77.38
305.661	81.38
305.891	96.38
306.121	98.38
306.352	103.38
306.582	102.38
306.812	98.38
307.042	96.38
307.272	93.38
307.502	91.38
307.731	90.38
307.961	97.38
308.191	76.38
308.421	82.38
308.651	92.38
308.881	88.38
309.111	82.38
309.341	86.38
309.571	98.38
309.8	88.38
310.03	89.38
310.26	90.38
310.49	89.38
310.72	85.38
310.949	82.38
311.179	101.38
311.409	93.38
311.639	79.38
311.868	82.38
312.098	98.38
312.328	108.38
312.557	81.38
312.787	94.38
313.017	100.38
313.246	97.38
313.476	87.38
313.706	104.38
313.935	98.38
314.165	107.38
314.394	96.38
314.624	92.38
314.853	94.38
315.083	83.38
315.312	89.38
315.542	88.38
315.771	90.38
316.001	96.38
316.23	80.38
316.46	99.38
316.689	90.38
316.919	97.38
317.148	90.38
317.377	87.38
317.607	93.38
317.836	99.38
318.065	90.38
318.295	105.38
318.524	89.38
318.753	88.38
318.983	92.38
319.212	93.38
319.441	96.38
319.67	100.38
319.9	95.38
320.129	86.38
320.358	104.38
320.587	87.38
320.816	93.38
321.046	92.38
321.275	88.38
321.504	86.38
321.733	105.38
321.962	91.38
322.191	111.38
322.42	97.38
322.649	107.38
322.878	104.38
323.108	110.38
323.337	117.38
323.566	127.38
323.795	155.38
324.024	189.38
324.253	384.38
324.482	783.38
324.71	1622.38
324.939	2102.38
325.168	761.38
325.397	227.38
325.626	120.38
325.855	124.38
326.084	129.38
326.313	117.38
326.542	137.38
326.77	228.38
326.999	418.38
327.228	884.38
327.457	1661.38
327.686	1298.38
327.914	354.38
328.143	189.38
328.372	133.38
328.6	115.38
328.829	114.38
329.058	113.38
329.287	121.38
329.515	104.38
329.744	112.38
329.972	78.38
330.201	99.38
330.43	80.38
330.658	99.38
330.887	144.38
331.115	109.38
331.344	97.38
331.572	98.38
331.801	107.38
332.03	93.38
332.258	94.38
332.486	89.38
332.715	84.38
332.943	107.38
333.172	95.38
333.4	90.38
333.629	113.38
333.857	101.38
334.085	95.38
334.314	94.38
334.542	92.38
334.771	102.38
334.999	108.38
335.227	89.38
335.455	102.38
335.684	95.38
335.912	96.38
336.14	102.38
336.369	104.38
336.597	83.38
336.825	94.38
337.053	88.38
337.281	99.38
337.51	91.38
337.738	96.38
337.966	92.38
338.194	99.38
338.422	98.38
338.65	95.38
338.878	90.38
339.106	90.38
339.334	91.38
339.562	95.38
339.79	94.38
340.018	90.38
340.246	79.38
340.474	89.38
340.702	76.38
340.93	97.38
341.158	87.38
341.386	93.38
341.614	90.38
341.842	103.38
342.07	84.38
342.298	80.38
342.526	85.38
342.754	98.38
342.981	100.38
343.209	88.38
343.437	96.38
343.665	92.38
343.893	85.38
344.12	92.38
344.348	90.38
344.576	87.38
344.804	88.38
345.031	89.38
345.259	91.38
345.487	91.38
345.714	81.38
345.942	89.38
346.17	98.38
346.397	85.38
346.625	79.38
346.853	78.38
347.08	98.38
347.308	114.38
347.535	112.38
347.763	89.38
347.99	104.38
348.218	103.38
348.445	111.38
348.673	98.38
348.9	87.38
349.128	82.38
349.355	78.38
349.583	82.38
349.81	87.38
350.037	95.38
350.265	108.38
350.492	92.38
350.72	95.38
350.947	95.38
351.174	101.38
351.402	100.38
351.629	94.38
351.856	68.38
352.083	98.38
352.311	102.38
352.538	86.38
352.765	109.38
352.992	113.38
353.22	104.38
353.447	94.38
353.674	88.38
353.901	114.38
354.128	88.38
354.355	111.38
354.583	96.38
354.81	95.38
355.037	98.38
355.264	114.38
355.491	92.38
355.718	87.38
355.945	76.38
356.172	94.38
356.399	93.38
356.626	97.38
356.853	89.38
357.08	89.38
357.307	90.38
357.534	88.38
357.761	89.38
357.988	83.38
358.215	93.38
358.441	99.38
358.668	90.38
358.895	70.38
359.122	97.38
359.349	94.38
359.576	96.38
359.802	94.38
360.029	99.38
360.256	114.38
360.483	86.38
360.709	98.38
360.936	87.38
361.163	113.38
361.39	97.38
361.616	98.38
361.843	97.38
362.07	95.38
362.296	103.38
362.523	92.38
362.749	88.38
362.976	85.38
363.203	86.38
363.429	80.38
363.656	89.38
363.882	94.38
364.109	85.38
364.335	105.38
364.562	97.38
364.788	92.38
365.015	86.38
365.241	95.38
365.468	91.38
365.694	121.38
365.92	95.38
366.147	98.38
366.373	86.38
366.599	66.38
366.826	88.38
367.052	102.38
367.278	94.38
367.505	85.38
367.731	88.38
367.957	95.38
368.184	94.38
368.41	90.38
368.636	100.38
368.862	87.38
369.089	100.38
369.315	80.38
369.541	94.38
369.767	97.38
369.993	78.38
370.219	88.38
370.445	92.38
370.672	85.38
370.898	85.38
371.124	80.38
371.35	97.38
371.576	82.38
371.802	88.38
372.028	90.38
372.254	94.38
372.48	93.38
372.706	91.38
372.932	83.38
373.158	81.38
373.384	93.38
373.61	92.38
373.835	108.38
374.061	87.38
374.287	88.38
374.513	88.38
374.739	90.38
374.965	82.38
375.191	91.38
375.416	88.38
375.642	93.38
375.868	84.38
376.094	80.38
376.319	81.38
376.545	76.38
376.771	85.38
376.997	99.38
377.222	90.38
377.448	95.38
377.674	85.38
377.899	92.38
378.125	90.38
378.35	86.38
378.576	89.38
378.802	77.38
379.027	77.38
379.253	101.38
379.478	88.38
379.704	93.38
379.929	85.38
380.155	94.38
380.38	90.38
380.606	100.38
380.831	100.38
381.057	109.38
381.282	92.38
381.507	97.38
381.733	99.38
381.958	102.38
382.184	92.38
382.409	92.38
382.634	89.38
382.86	98.38
383.085	90.38
383.31	96.38
383.535	90.38
383.761	94.38
383.986	99.38
384.211	93.38
384.436	91.38
384.662	94.38
384.887	103.38
385.112	101.38
385.337	109.38
385.562	97.38
385.787	84.38
386.013	97.38
386.238	96.38
386.463	97.38
386.688	96.38
386.913	99.38
387.138	94.38
387.363	105.38
387.588	88.38
387.813	100.38
388.038	117.38
388.263	105.38
388.488	112.38
388.713	79.38
388.938	101.38
389.163	90.38
389.387	96.38
389.612	97.38
389.837	95.38
390.062	90.38
390.287	93.38
390.512	79.38
390.736	84.38
390.961	76.38
391.186	81.38
391.411	83.38
391.636	84.38
391.86	88.38
392.085	88.38
392.31	88.38
392.534	77.38
392.759	82.38
392.984	96.38
393.208	92.38
393.433	75.38
393.658	86.38
393.882	98.38
394.107	86.38
394.331	90.38
394.556	94.38
394.78	91.38
395.005	97.38
395.229	89.38
395.454	93.38
395.678	93.38
395.903	83.38
396.127	84.38
396.352	89.38
396.576	82.38
396.801	97.38
397.025	93.38
397.249	69.38
397.474	95.38
397.698	82.38
397.922	81.38
398.147	84.38
398.371	64.38
398.595	84.38
398.82	88.38
399.044	87.38
399.268	86.38
399.492	93.38
399.717	85.38
399.941	96.38
400.165	89.38
400.389	84.38
400.613	87.38
400.837	84.38
401.062	95.38
401.286	79.38
401.51	88.38
401.734	74.38
401.958	87.38
402.182	115.38
402.406	144.38
402.63	109.38
402.854	89.38
403.078	85.38
403.302	77.38
403.526	81.38
403.75	104.38
403.974	84.38
404.198	73.38
404.422	96.38
404.645	85.38
404.869	85.38
405.093	95.38
405.317	92.38
405.541	100.38
405.765	85.38
405.988	105.38
406.212	152.38
406.436	188.38
406.66	125.38
406.883	103.38
407.107	82.38
407.331	80.38
407.555	111.38
407.778	104.38
408.002	92.38
408.226	92.38
408.449	80.38
408.673	80.38
408.896	88.38
409.12	95.38
409.344	83.38
409.567	88.38
409.791	88.38
410.014	74.38
410.238	85.38
410.461	89.38
410.685	84.38
410.908	93.38
411.132	105.38
411.355	106.38
411.578	85.38
411.802	79.38
412.025	86.38
412.249	95.38
412.472	69.38
412.695	82.38
412.919	79.38
413.142	79.38
413.365	73.38
413.589	90.38
413.812	89.38
414.035	89.38
414.258	93.38
414.482	98.38
414.705	88.38
414.928	85.38
415.151	82.38
415.374	91.38
415.597	86.38
415.821	72.38
416.044	85.38
416.267	80.38
416.49	80.38
416.713	81.38
416.936	94.38
417.159	78.38
417.382	90.38
417.605	88.38
417.828	70.38
418.051	71.38
418.274	91.38
418.497	90.38
418.72	90.38
418.943	91.38
419.166	88.38
419.389	73.38
419.611	88.38
419.834	95.38
420.057	81.38
420.28	91.38
420.503	71.38
420.726	94.38
420.948	94.38
421.171	108.38
421.394	107.38
421.617	84.38
421.839	103.38
422.062	77.38
422.285	103.38
422.507	89.38
422.73	100.38
422.953	94.38
423.175	93.38
423.398	94.38
423.621	78.38
423.843	79.38
424.066	70.38
424.288	86.38
424.511	96.38
424.733	89.38
424.956	85.38
425.178	108.38
425.401	97.38
425.623	99.38
425.846	95.38
426.068	85.38
426.291	90.38
426.513	93.38
426.735	93.38
426.958	92.38
427.18	103.38
427.402	136.38
427.625	152.38
427.847	116.38
428.069	98.38
428.292	78.38
428.514	86.38
428.736	79.38
428.958	95.38
429.181	89.38
429.403	81.38
429.625	77.38
429.847	99.38
430.069	100.38
430.292	98.38
430.514	81.38
430.736	87.38
430.958	80.38
431.18	72.38
431.402	83.38
431.624	85.38
431.846	76.38
432.068	80.38
432.29	87.38
432.512	79.38
432.734	81.38
432.956	83.38
433.178	92.38
433.4	98.38
433.622	84.38
433.844	88.38
434.066	77.38
434.287	86.38
434.509	84.38
434.731	76.38
434.953	87.38
435.175	84.38
435.397	93.38
435.618	78.38
435.84	98.38
436.062	99.38
436.284	113.38
436.505	110.38
436.727	106.38
436.949	94.38
437.17	93.38
437.392	70.38
437.614	108.38
437.835	89.38
438.057	106.38
438.278	93.38
438.5	101.38
438.721	129.38
438.943	107.38
439.165	88.38
439.386	84.38
439.608	80.38
439.829	103.38
440.05	108.38
440.272	142.38
440.493	95.38
440.715	88.38
440.936	85.38
441.158	81.38
441.379	72.38
441.6	94.38
441.822	92.38
442.043	81.38
442.264	108.38
442.486	109.38
442.707	100.38
442.928	92.38
443.149	125.38
443.371	115.38
443.592	104.38
443.813	121.38
444.034	86.38
444.255	85.38
444.476	90.38
444.698	72.38
444.919	92.38
445.14	127.38
445.361	124.38
445.582	126.38
445.803	133.38
446.024	140.38
446.245	135.38
446.466	115.38
446.687	94.38
446.908	83.38
447.129	104.38
447.35	89.38
447.571	76.38
447.792	82.38
448.013	90.38
448.234	97.38
448.455	95.38
448.675	109.38
448.896	107.38
449.117	87.38
449.338	101.38
449.559	127.38
449.779	126.38
450	96.38
450.221	73.38
450.442	86.38
450.662	81.38
450.883	102.38
451.104	109.38
451.324	92.38
451.545	81.38
451.766	85.38
451.986	92.38
452.207	81.38
452.428	96.38
452.648	98.38
452.869	95.38
453.089	94.38
453.31	104.38
453.53	96.38
453.751	93.38
453.971	98.38
454.192	107.38
454.412	80.38
454.633	80.38
454.853	85.38
455.073	88.38
455.294	107.38
455.514	101.38
455.734	87.38
455.955	68.38
456.175	78.38
456.395	88.38
456.616	91.38
456.836	84.38
457.056	86.38
457.276	87.38
457.497	76.38
457.717	85.38
457.937	83.38
458.157	79.38
458.377	73.38
458.598	94.38
458.818	130.38
459.038	130.38
459.258	121.38
459.478	92.38
459.698	78.38
459.918	86.38
460.138	96.38
460.358	88.38
460.578	84.38
460.798	93.38
461.018	76.38
461.238	89.38
461.458	77.38
461.678	81.38
461.898	75.38
462.118	84.38
462.338	61.38
462.558	76.38
462.777	73.38
462.997	86.38
463.217	89.38
463.437	93.38
463.657	85.38
463.876	79.38
464.096	96.38
464.316	86.38
464.536	94.38
464.755	96.38
464.975	94.38
465.195	132.38
465.414	154.38
465.634	95.38
465.854	76.38
466.073	76.38
466.293	88.38
466.512	78.38
466.732	81.38
466.951	87.38
467.171	75.38
467.391	93.38
467.61	94.38
467.829	79.38
468.049	99.38
468.268	90.38
468.488	78.38
468.707	85.38
468.927	91.38
469.146	88.38
469.365	84.38
469.585	76.38
469.804	104.38
470.023	90.38
470.243	88.38
470.462	103.38
470.681	111.38
470.901	95.38
471.12	65.38
471.339	80.38
471.558	93.38
471.777	89.38
471.997	93.38
472.216	79.38
472.435	90.38
472.654	78.38
472.873	90.38
473.092	94.38
473.311	91.38
473.53	79.38
473.749	94.38
473.968	92.38
474.187	121.38
474.406	96.38
474.625	84.38
474.844	79.38
475.063	80.38
475.282	73.38
475.501	83.38
475.72	82.38
475.939	76.38
476.158	77.38
476.377	83.38
476.596	85.38
476.814	100.38
477.033	89.38
477.252	91.38
477.471	80.38
477.69	94.38
477.908	80.38
478.127	87.38
478.346	83.38
478.564	79.38
478.783	87.38
479.002	98.38
479.22	105.38
479.439	101.38
479.658	101.38
479.876	82.38
480.095	78.38
480.313	85.38
480.532	84.38
480.751	97.38
480.969	88.38
481.188	95.38
481.406	105.38
481.624	98.38
481.843	78.38
482.061	80.38
482.28	73.38
482.498	81.38
482.717	83.38
482.935	88.38
483.153	98.38
483.372	88.38
483.59	87.38
483.808	84.38
484.027	96.38
484.245	94.38
484.463	81.38
484.681	95.38
484.9	85.38
485.118	95.38
485.336	94.38
485.554	94.38
485.772	99.38
485.99	99.38
486.209	96.38
486.427	103.38
486.645	106.38
486.863	92.38
487.081	108.38
487.299	96.38
487.517	89.38
487.735	95.38
487.953	87.38
488.171	76.38
488.389	79.38
488.607	101.38
488.825	95.38
489.043	80.38
489.261	93.38
489.479	71.38
489.696	95.38
489.914	82.38
490.132	88.38
490.35	90.38
490.568	94.38
490.786	87.38
491.003	91.38
491.221	103.38
491.439	95.38
491.657	95.38
491.874	94.38
492.092	90.38
492.31	85.38
492.527	70.38
492.745	86.38
492.963	73.38
493.18	82.38
493.398	88.38
493.615	93.38
493.833	93.38
494.05	87.38
494.268	84.38
494.485	96.38
494.703	85.38
494.92	81.38
495.138	96.38
495.355	94.38
495.573	77.38
495.79	86.38
496.008	99.38
496.225	84.38
496.442	87.38
496.66	78.38
496.877	80.38
497.094	100.38
497.312	87.38
497.529	95.38
497.746	87.38
497.963	82.38
498.181	101.38
498.398	82.38
498.615	103.38
498.832	104.38
499.049	78.38
499.267	91.38
499.484	90.38
499.701	92.38
499.918	103.38
500.135	94.38
500.352	80.38
500.569	85.38
500.786	98.38
501.003	87.38
501.22	83.38
501.437	94.38
501.654	83.38
501.871	103.38
502.088	73.38
502.305	81.38
502.522	80.38
502.739	82.38
502.956	86.38
503.172	92.38
503.389	98.38
503.606	89.38
503.823	93.38
504.04	101.38
504.256	87.38
504.473	90.38
504.69	90.38
504.907	97.38
505.123	77.38
505.34	93.38
505.557	85.38
505.773	95.38
505.99	82.38
506.207	101.38
506.423	92.38
506.64	88.38
506.856	93.38
507.073	96.38
507.289	103.38
507.506	110.38
507.722	102.38
507.939	94.38
508.155	92.38
508.372	89.38
508.588	86.38
508.805	94.38
509.021	92.38
509.238	94.38
509.454	100.38
509.67	110.38
509.887	104.38
510.103	118.38
510.319	190.38
510.536	630.38
510.752	1902.38
510.968	542.38
511.184	157.38
511.401	111.38
511.617	104.38
511.833	93.38
512.049	93.38
512.265	90.38
512.481	88.38
512.698	97.38
512.914	82.38
513.13	96.38
513.346	99.38
513.562	77.38
513.778	78.38
513.994	94.38
514.21	98.38
514.426	121.38
514.642	112.38
514.858	110.38
515.074	152.38
515.29	378.38
515.506	1176.38
515.721	436.38
515.937	138.38
516.153	106.38
516.369	104.38
516.585	99.38
516.801	85.38
517.016	90.38
