Data from Uncirc_1998_H10_HRD10591_00053.txt Node
Date: Wed Jan 03 11:25:35 EST 2024
User: Yrep
Spectrometer: HR+D1059
Trigger mode: 1
Integration Time (sec): 1.000000E-1
Scans to average: 1
Electric dark correction enabled: true
Nonlinearity correction enabled: false
Boxcar width: 0
XAxis mode: Wavelengths
Number of Pixels in Spectrum: 2048
>>>>>Begin Spectral Data<<<<<
223.165	-1.5
223.4	-1.5
223.635	-1.5
223.869	-17.5
224.104	-21.5
224.338	-4.5
224.573	-23.5
224.808	-16.5
225.042	-10.5
225.277	-3.5
225.511	-12.5
225.746	3.5
225.98	9.5
226.215	23.5
226.449	11.5
226.683	11.5
226.918	26.5
227.152	25.5
227.387	34.5
227.621	37.5
227.856	57.5
228.09	53.5
228.324	57.5
228.559	49.5
228.793	58.5
229.027	72.5
229.262	71.5
229.496	84.5
229.73	80.5
229.964	90.5
230.199	85.5
230.433	82.5
230.667	76.5
230.901	60.5
231.136	81.5
231.37	79.5
231.604	80.5
231.838	82.5
232.072	80.5
232.306	81.5
232.541	77.5
232.775	86.5
233.009	82.5
233.243	98.5
233.477	77.5
233.711	81.5
233.945	73.5
234.179	84.5
234.413	94.5
234.647	88.5
234.881	65.5
235.115	66.5
235.349	92.5
235.583	80.5
235.817	74.5
236.051	72.5
236.285	72.5
236.519	86.5
236.753	82.5
236.987	85.5
237.221	73.5
237.455	79.5
237.689	76.5
237.922	72.5
238.156	76.5
238.39	82.5
238.624	73.5
238.858	83.5
239.091	72.5
239.325	70.5
239.559	78.5
239.793	90.5
240.027	79.5
240.26	67.5
240.494	77.5
240.728	82.5
240.961	71.5
241.195	65.5
241.429	66.5
241.662	76.5
241.896	77.5
242.13	65.5
242.363	81.5
242.597	75.5
242.83	82.5
243.064	75.5
243.298	75.5
243.531	75.5
243.765	66.5
243.998	79.5
244.232	86.5
244.465	60.5
244.699	73.5
244.932	93.5
245.166	70.5
245.399	78.5
245.633	66.5
245.866	76.5
246.099	66.5
246.333	69.5
246.566	80.5
246.8	81.5
247.033	76.5
247.266	66.5
247.5	79.5
247.733	72.5
247.966	66.5
248.2	85.5
248.433	97.5
248.666	78.5
248.899	90.5
249.133	72.5
249.366	101.5
249.599	105.5
249.832	91.5
250.066	81.5
250.299	82.5
250.532	84.5
250.765	85.5
250.998	88.5
251.231	77.5
251.465	90.5
251.698	75.5
251.931	87.5
252.164	85.5
252.397	73.5
252.63	91.5
252.863	66.5
253.096	79.5
253.329	92.5
253.562	82.5
253.795	79.5
254.028	75.5
254.261	82.5
254.494	75.5
254.727	92.5
254.96	79.5
255.193	80.5
255.426	84.5
255.659	77.5
255.892	62.5
256.124	81.5
256.357	82.5
256.59	76.5
256.823	102.5
257.056	85.5
257.289	64.5
257.521	96.5
257.754	89.5
257.987	75.5
258.22	76.5
258.452	80.5
258.685	82.5
258.918	90.5
259.151	88.5
259.383	98.5
259.616	61.5
259.849	87.5
260.081	69.5
260.314	82.5
260.547	76.5
260.779	89.5
261.012	84.5
261.244	83.5
261.477	71.5
261.71	93.5
261.942	94.5
262.175	108.5
262.407	87.5
262.64	83.5
262.872	86.5
263.105	89.5
263.337	79.5
263.57	71.5
263.802	85.5
264.035	83.5
264.267	82.5
264.499	75.5
264.732	85.5
264.964	80.5
265.197	73.5
265.429	75.5
265.661	75.5
265.894	87.5
266.126	86.5
266.358	87.5
266.591	91.5
266.823	91.5
267.055	67.5
267.287	83.5
267.52	84.5
267.752	73.5
267.984	82.5
268.216	98.5
268.448	88.5
268.681	81.5
268.913	85.5
269.145	95.5
269.377	65.5
269.609	86.5
269.841	66.5
270.073	101.5
270.306	91.5
270.538	82.5
270.77	83.5
271.002	89.5
271.234	79.5
271.466	98.5
271.698	86.5
271.93	77.5
272.162	81.5
272.394	82.5
272.626	74.5
272.858	72.5
273.09	78.5
273.322	85.5
273.553	81.5
273.785	76.5
274.017	78.5
274.249	89.5
274.481	73.5
274.713	89.5
274.945	82.5
275.176	77.5
275.408	75.5
275.64	81.5
275.872	85.5
276.104	90.5
276.335	88.5
276.567	96.5
276.799	102.5
277.031	96.5
277.262	83.5
277.494	92.5
277.726	86.5
277.957	86.5
278.189	74.5
278.421	74.5
278.652	80.5
278.884	78.5
279.115	80.5
279.347	90.5
279.579	80.5
279.81	79.5
280.042	88.5
280.273	94.5
280.505	87.5
280.736	83.5
280.968	98.5
281.199	90.5
281.431	78.5
281.662	105.5
281.894	94.5
282.125	100.5
282.356	136.5
282.588	129.5
282.819	99.5
283.051	80.5
283.282	84.5
283.513	98.5
283.745	92.5
283.976	79.5
284.207	86.5
284.439	82.5
284.67	86.5
284.901	74.5
285.132	73.5
285.364	78.5
285.595	88.5
285.826	90.5
286.057	84.5
286.288	86.5
286.52	83.5
286.751	94.5
286.982	85.5
287.213	80.5
287.444	85.5
287.675	73.5
287.906	81.5
288.138	89.5
288.369	86.5
288.6	97.5
288.831	91.5
289.062	90.5
289.293	96.5
289.524	66.5
289.755	74.5
289.986	99.5
290.217	80.5
290.448	83.5
290.679	90.5
290.91	72.5
291.141	81.5
291.371	73.5
291.602	74.5
291.833	85.5
292.064	90.5
292.295	82.5
292.526	86.5
292.757	94.5
292.987	84.5
293.218	89.5
293.449	82.5
293.68	86.5
293.91	102.5
294.141	90.5
294.372	89.5
294.603	79.5
294.833	81.5
295.064	94.5
295.295	105.5
295.525	87.5
295.756	96.5
295.987	106.5
296.217	129.5
296.448	113.5
296.679	105.5
296.909	100.5
297.14	110.5
297.37	94.5
297.601	84.5
297.831	81.5
298.062	90.5
298.292	103.5
298.523	83.5
298.753	105.5
298.984	84.5
299.214	86.5
299.445	89.5
299.675	87.5
299.905	88.5
300.136	97.5
300.366	90.5
300.597	89.5
300.827	95.5
301.057	94.5
301.288	95.5
301.518	89.5
301.748	83.5
301.979	104.5
302.209	80.5
302.439	99.5
302.669	87.5
302.9	83.5
303.13	95.5
303.36	88.5
303.59	102.5
303.82	110.5
304.051	101.5
304.281	112.5
304.511	97.5
304.741	86.5
304.971	80.5
305.201	94.5
305.431	94.5
305.661	96.5
305.891	99.5
306.121	90.5
306.352	112.5
306.582	102.5
306.812	100.5
307.042	91.5
307.272	96.5
307.502	97.5
307.731	93.5
307.961	73.5
308.191	90.5
308.421	94.5
308.651	103.5
308.881	95.5
309.111	102.5
309.341	87.5
309.571	89.5
309.8	103.5
310.03	95.5
310.26	89.5
310.49	97.5
310.72	85.5
310.949	98.5
311.179	96.5
311.409	90.5
311.639	99.5
311.868	89.5
312.098	100.5
312.328	98.5
312.557	88.5
312.787	105.5
313.017	96.5
313.246	92.5
313.476	95.5
313.706	87.5
313.935	83.5
314.165	89.5
314.394	105.5
314.624	98.5
314.853	92.5
315.083	96.5
315.312	101.5
315.542	83.5
315.771	69.5
316.001	93.5
316.23	96.5
316.46	97.5
316.689	85.5
316.919	71.5
317.148	87.5
317.377	103.5
317.607	93.5
317.836	94.5
318.065	87.5
318.295	97.5
318.524	93.5
318.753	88.5
318.983	98.5
319.212	95.5
319.441	93.5
319.67	114.5
319.9	94.5
320.129	96.5
320.358	101.5
320.587	99.5
320.816	102.5
321.046	98.5
321.275	92.5
321.504	91.5
321.733	95.5
321.962	86.5
322.191	83.5
322.42	98.5
322.649	106.5
322.878	100.5
323.108	115.5
323.337	118.5
323.566	111.5
323.795	129.5
324.024	181.5
324.253	353.5
324.482	708.5
324.71	1389.5
324.939	1859.5
325.168	682.5
325.397	202.5
325.626	126.5
325.855	120.5
326.084	121.5
326.313	117.5
326.542	140.5
326.77	225.5
326.999	419.5
327.228	805.5
327.457	1465.5
327.686	1159.5
327.914	336.5
328.143	175.5
328.372	144.5
328.6	129.5
328.829	113.5
329.058	101.5
329.287	122.5
329.515	94.5
329.744	104.5
329.972	107.5
330.201	97.5
330.43	96.5
330.658	111.5
330.887	124.5
331.115	98.5
331.344	94.5
331.572	115.5
331.801	98.5
332.03	97.5
332.258	92.5
332.486	89.5
332.715	115.5
332.943	95.5
333.172	94.5
333.4	96.5
333.629	107.5
333.857	82.5
334.085	108.5
334.314	98.5
334.542	104.5
334.771	89.5
334.999	92.5
335.227	102.5
335.455	85.5
335.684	99.5
335.912	99.5
336.14	83.5
336.369	90.5
336.597	97.5
336.825	85.5
337.053	85.5
337.281	95.5
337.51	82.5
337.738	114.5
337.966	100.5
338.194	103.5
338.422	102.5
338.65	93.5
338.878	98.5
339.106	99.5
339.334	83.5
339.562	84.5
339.79	81.5
340.018	94.5
340.246	84.5
340.474	79.5
340.702	87.5
340.93	83.5
341.158	86.5
341.386	98.5
341.614	92.5
341.842	95.5
342.07	85.5
342.298	90.5
342.526	106.5
342.754	77.5
342.981	90.5
343.209	94.5
343.437	98.5
343.665	94.5
343.893	106.5
344.12	88.5
344.348	87.5
344.576	96.5
344.804	89.5
345.031	93.5
345.259	89.5
345.487	90.5
345.714	93.5
345.942	91.5
346.17	87.5
346.397	99.5
346.625	107.5
346.853	106.5
347.08	86.5
347.308	86.5
347.535	89.5
347.763	85.5
347.99	103.5
348.218	94.5
348.445	113.5
348.673	87.5
348.9	97.5
349.128	90.5
349.355	108.5
349.583	92.5
349.81	84.5
350.037	89.5
350.265	100.5
350.492	88.5
350.72	88.5
350.947	95.5
351.174	105.5
351.402	95.5
351.629	111.5
351.856	93.5
352.083	99.5
352.311	98.5
352.538	89.5
352.765	103.5
352.992	114.5
353.22	114.5
353.447	93.5
353.674	102.5
353.901	89.5
354.128	90.5
354.355	106.5
354.583	85.5
354.81	90.5
355.037	115.5
355.264	99.5
355.491	79.5
355.718	91.5
355.945	102.5
356.172	91.5
356.399	80.5
356.626	95.5
356.853	100.5
357.08	88.5
357.307	96.5
357.534	93.5
357.761	79.5
357.988	95.5
358.215	95.5
358.441	86.5
358.668	97.5
358.895	86.5
359.122	88.5
359.349	89.5
359.576	82.5
359.802	89.5
360.029	102.5
360.256	92.5
360.483	91.5
360.709	91.5
360.936	101.5
361.163	97.5
361.39	98.5
361.616	106.5
361.843	76.5
362.07	87.5
362.296	87.5
362.523	73.5
362.749	91.5
362.976	91.5
363.203	83.5
363.429	77.5
363.656	91.5
363.882	104.5
364.109	92.5
364.335	102.5
364.562	90.5
364.788	93.5
365.015	92.5
365.241	104.5
365.468	94.5
365.694	89.5
365.92	97.5
366.147	85.5
366.373	90.5
366.599	96.5
366.826	83.5
367.052	88.5
367.278	77.5
367.505	91.5
367.731	91.5
367.957	75.5
368.184	76.5
368.41	95.5
368.636	98.5
368.862	113.5
369.089	108.5
369.315	93.5
369.541	82.5
369.767	80.5
369.993	87.5
370.219	85.5
370.445	80.5
370.672	90.5
370.898	85.5
371.124	90.5
371.35	93.5
371.576	80.5
371.802	68.5
372.028	85.5
372.254	98.5
372.48	104.5
372.706	96.5
372.932	81.5
373.158	86.5
373.384	95.5
373.61	98.5
373.835	96.5
374.061	86.5
374.287	107.5
374.513	92.5
374.739	110.5
374.965	93.5
375.191	85.5
375.416	89.5
375.642	81.5
375.868	92.5
376.094	105.5
376.319	83.5
376.545	85.5
376.771	79.5
376.997	96.5
377.222	103.5
377.448	92.5
377.674	101.5
377.899	90.5
378.125	94.5
378.35	86.5
378.576	102.5
378.802	90.5
379.027	80.5
379.253	96.5
379.478	92.5
379.704	83.5
379.929	69.5
380.155	78.5
380.38	90.5
380.606	85.5
380.831	87.5
381.057	93.5
381.282	91.5
381.507	86.5
381.733	109.5
381.958	92.5
382.184	99.5
382.409	89.5
382.634	101.5
382.86	91.5
383.085	97.5
383.31	104.5
383.535	104.5
383.761	85.5
383.986	91.5
384.211	94.5
384.436	111.5
384.662	100.5
384.887	91.5
385.112	90.5
385.337	103.5
385.562	105.5
385.787	106.5
386.013	89.5
386.238	108.5
386.463	97.5
386.688	110.5
386.913	82.5
387.138	96.5
387.363	86.5
387.588	95.5
387.813	111.5
388.038	104.5
388.263	112.5
388.488	102.5
388.713	98.5
388.938	106.5
389.163	99.5
389.387	96.5
389.612	81.5
389.837	82.5
390.062	84.5
390.287	102.5
390.512	100.5
390.736	92.5
390.961	104.5
391.186	102.5
391.411	88.5
391.636	100.5
391.86	81.5
392.085	93.5
392.31	86.5
392.534	96.5
392.759	95.5
392.984	83.5
393.208	65.5
393.433	82.5
393.658	77.5
393.882	86.5
394.107	91.5
394.331	78.5
394.556	81.5
394.78	87.5
395.005	99.5
395.229	97.5
395.454	73.5
395.678	88.5
395.903	81.5
396.127	85.5
396.352	88.5
396.576	86.5
396.801	86.5
397.025	79.5
397.249	81.5
397.474	91.5
397.698	79.5
397.922	89.5
398.147	95.5
398.371	88.5
398.595	81.5
398.82	82.5
399.044	83.5
399.268	89.5
399.492	73.5
399.717	98.5
399.941	66.5
400.165	91.5
400.389	93.5
400.613	81.5
400.837	86.5
401.062	78.5
401.286	90.5
401.51	82.5
401.734	110.5
401.958	93.5
402.182	117.5
402.406	143.5
402.63	101.5
402.854	87.5
403.078	81.5
403.302	89.5
403.526	79.5
403.75	77.5
403.974	84.5
404.198	98.5
404.422	86.5
404.645	91.5
404.869	82.5
405.093	82.5
405.317	96.5
405.541	98.5
405.765	79.5
405.988	105.5
406.212	167.5
406.436	211.5
406.66	145.5
406.883	93.5
407.107	85.5
407.331	82.5
407.555	83.5
407.778	80.5
408.002	102.5
408.226	84.5
408.449	94.5
408.673	116.5
408.896	105.5
409.12	102.5
409.344	85.5
409.567	97.5
409.791	89.5
410.014	92.5
410.238	101.5
410.461	100.5
410.685	104.5
410.908	96.5
411.132	106.5
411.355	96.5
411.578	93.5
411.802	83.5
412.025	94.5
412.249	94.5
412.472	93.5
412.695	94.5
412.919	88.5
413.142	94.5
413.365	86.5
413.589	91.5
413.812	72.5
414.035	95.5
414.258	85.5
414.482	84.5
414.705	77.5
414.928	96.5
415.151	95.5
415.374	92.5
415.597	82.5
415.821	92.5
416.044	93.5
416.267	81.5
416.49	74.5
416.713	84.5
416.936	83.5
417.159	93.5
417.382	97.5
417.605	107.5
417.828	85.5
418.051	93.5
418.274	77.5
418.497	91.5
418.72	99.5
418.943	88.5
419.166	85.5
419.389	97.5
419.611	86.5
419.834	99.5
420.057	80.5
420.28	92.5
420.503	76.5
420.726	79.5
420.948	90.5
421.171	93.5
421.394	97.5
421.617	87.5
421.839	82.5
422.062	94.5
422.285	104.5
422.507	95.5
422.73	118.5
422.953	83.5
423.175	83.5
423.398	89.5
423.621	100.5
423.843	96.5
424.066	78.5
424.288	97.5
424.511	85.5
424.733	94.5
424.956	95.5
425.178	91.5
425.401	93.5
425.623	103.5
425.846	79.5
426.068	85.5
426.291	98.5
426.513	98.5
426.735	91.5
426.958	96.5
427.18	73.5
427.402	120.5
427.625	141.5
427.847	117.5
428.069	93.5
428.292	74.5
428.514	85.5
428.736	87.5
428.958	92.5
429.181	92.5
429.403	92.5
429.625	92.5
429.847	78.5
430.069	87.5
430.292	87.5
430.514	65.5
430.736	70.5
430.958	88.5
431.18	75.5
431.402	83.5
431.624	87.5
431.846	89.5
432.068	77.5
432.29	93.5
432.512	94.5
432.734	94.5
432.956	99.5
433.178	96.5
433.4	99.5
433.622	92.5
433.844	92.5
434.066	88.5
434.287	87.5
434.509	102.5
434.731	73.5
434.953	87.5
435.175	103.5
435.397	98.5
435.618	95.5
435.84	87.5
436.062	117.5
436.284	99.5
436.505	94.5
436.727	98.5
436.949	86.5
437.17	90.5
437.392	81.5
437.614	87.5
437.835	99.5
438.057	106.5
438.278	102.5
438.5	102.5
438.721	110.5
438.943	94.5
439.165	87.5
439.386	69.5
439.608	89.5
439.829	102.5
440.05	107.5
440.272	141.5
440.493	85.5
440.715	93.5
440.936	87.5
441.158	97.5
441.379	82.5
441.6	77.5
441.822	92.5
442.043	87.5
442.264	96.5
442.486	92.5
442.707	95.5
442.928	106.5
443.149	124.5
443.371	104.5
443.592	99.5
443.813	99.5
444.034	99.5
444.255	98.5
444.476	82.5
444.698	95.5
444.919	82.5
445.14	137.5
445.361	122.5
445.582	110.5
445.803	125.5
446.024	106.5
446.245	132.5
446.466	103.5
446.687	93.5
446.908	96.5
447.129	74.5
447.35	93.5
447.571	71.5
447.792	95.5
448.013	96.5
448.234	103.5
448.455	105.5
448.675	115.5
448.896	110.5
449.117	109.5
449.338	98.5
449.559	120.5
449.779	126.5
450	85.5
450.221	80.5
450.442	84.5
450.662	99.5
450.883	101.5
451.104	105.5
451.324	86.5
451.545	78.5
451.766	82.5
451.986	82.5
452.207	97.5
452.428	93.5
452.648	100.5
452.869	102.5
453.089	81.5
453.31	106.5
453.53	95.5
453.751	107.5
453.971	98.5
454.192	104.5
454.412	83.5
454.633	87.5
454.853	88.5
455.073	90.5
455.294	84.5
455.514	93.5
455.734	89.5
455.955	77.5
456.175	100.5
456.395	86.5
456.616	95.5
456.836	83.5
457.056	71.5
457.276	89.5
457.497	80.5
457.717	91.5
457.937	95.5
458.157	94.5
458.377	78.5
458.598	112.5
458.818	130.5
459.038	124.5
459.258	110.5
459.478	92.5
459.698	89.5
459.918	98.5
460.138	90.5
460.358	88.5
460.578	93.5
460.798	89.5
461.018	78.5
461.238	83.5
461.458	91.5
461.678	91.5
461.898	94.5
462.118	90.5
462.338	91.5
462.558	91.5
462.777	89.5
462.997	89.5
463.217	88.5
463.437	89.5
463.657	90.5
463.876	78.5
464.096	83.5
464.316	71.5
464.536	72.5
464.755	87.5
464.975	96.5
465.195	137.5
465.414	129.5
465.634	94.5
465.854	97.5
466.073	85.5
466.293	78.5
466.512	83.5
466.732	91.5
466.951	88.5
467.171	98.5
467.391	86.5
467.61	89.5
467.829	96.5
468.049	80.5
468.268	90.5
468.488	97.5
468.707	87.5
468.927	76.5
469.146	75.5
469.365	81.5
469.585	86.5
469.804	96.5
470.023	97.5
470.243	97.5
470.462	93.5
470.681	94.5
470.901	88.5
471.12	68.5
471.339	89.5
471.558	94.5
471.777	83.5
471.997	79.5
472.216	93.5
472.435	104.5
472.654	93.5
472.873	93.5
473.092	89.5
473.311	96.5
473.53	71.5
473.749	72.5
473.968	83.5
474.187	95.5
474.406	83.5
474.625	100.5
474.844	102.5
475.063	76.5
475.282	93.5
475.501	90.5
475.72	89.5
475.939	79.5
476.158	94.5
476.377	96.5
476.596	99.5
476.814	87.5
477.033	87.5
477.252	86.5
477.471	101.5
477.69	88.5
477.908	93.5
478.127	94.5
478.346	78.5
478.564	96.5
478.783	89.5
479.002	102.5
479.22	93.5
479.439	98.5
479.658	98.5
479.876	81.5
480.095	83.5
480.313	99.5
480.532	93.5
480.751	105.5
480.969	95.5
481.188	100.5
481.406	93.5
481.624	93.5
481.843	78.5
482.061	81.5
482.28	93.5
482.498	64.5
482.717	80.5
482.935	105.5
483.153	94.5
483.372	93.5
483.59	88.5
483.808	86.5
484.027	94.5
484.245	95.5
484.463	85.5
484.681	83.5
484.9	96.5
485.118	91.5
485.336	80.5
485.554	107.5
485.772	97.5
485.99	118.5
486.209	98.5
486.427	91.5
486.645	112.5
486.863	115.5
487.081	83.5
487.299	106.5
487.517	86.5
487.735	82.5
487.953	90.5
488.171	93.5
488.389	92.5
488.607	92.5
488.825	94.5
489.043	97.5
489.261	88.5
489.479	96.5
489.696	85.5
489.914	101.5
490.132	89.5
490.35	88.5
490.568	83.5
490.786	85.5
491.003	85.5
491.221	83.5
491.439	94.5
491.657	91.5
491.874	84.5
492.092	89.5
492.31	91.5
492.527	98.5
492.745	86.5
492.963	88.5
493.18	87.5
493.398	88.5
493.615	83.5
493.833	91.5
494.05	83.5
494.268	94.5
494.485	103.5
494.703	98.5
494.92	95.5
495.138	98.5
495.355	80.5
495.573	80.5
495.79	79.5
496.008	90.5
496.225	87.5
496.442	82.5
496.66	99.5
496.877	93.5
497.094	94.5
497.312	85.5
497.529	80.5
497.746	91.5
497.963	87.5
498.181	82.5
498.398	103.5
498.615	111.5
498.832	103.5
499.049	105.5
499.267	95.5
499.484	98.5
499.701	107.5
499.918	77.5
500.135	91.5
500.352	81.5
500.569	86.5
500.786	85.5
501.003	75.5
501.22	81.5
501.437	82.5
501.654	96.5
501.871	97.5
502.088	99.5
502.305	76.5
502.522	86.5
502.739	88.5
502.956	83.5
503.172	83.5
503.389	95.5
503.606	96.5
503.823	113.5
504.04	79.5
504.256	91.5
504.473	96.5
504.69	83.5
504.907	85.5
505.123	85.5
505.34	83.5
505.557	83.5
505.773	85.5
505.99	90.5
506.207	84.5
506.423	78.5
506.64	80.5
506.856	98.5
507.073	98.5
507.289	86.5
507.506	93.5
507.722	107.5
507.939	94.5
508.155	96.5
508.372	94.5
508.588	89.5
508.805	82.5
509.021	105.5
509.238	91.5
509.454	108.5
509.67	99.5
509.887	107.5
510.103	119.5
510.319	200.5
510.536	618.5
510.752	1913.5
510.968	555.5
511.184	132.5
511.401	96.5
511.617	97.5
511.833	92.5
512.049	92.5
512.265	103.5
512.481	97.5
512.698	90.5
512.914	86.5
513.13	98.5
513.346	93.5
513.562	89.5
513.778	99.5
513.994	95.5
514.21	94.5
514.426	108.5
514.642	123.5
514.858	120.5
515.074	145.5
515.29	383.5
515.506	1143.5
515.721	450.5
515.937	138.5
516.153	99.5
516.369	88.5
516.585	97.5
516.801	98.5
517.016	88.5
517.232	99.5
517.448	89.5
517.664	87.5
517.879	96.5
518.095	82.5
518.311	92.5
518.527	90.5
518.742	88.5
518.958	87.5
519.173	88.5
519.389	96.5
519.605	102.5
519.82	96.5
520.036	94.5
520.251	108.5
520.467	103.5
520.682	113.5
520.898	119.5
521.113	115.5
521.329	113.5
521.544	169.5
521.76	456.5
521.975	1919.5
522.19	1133.5
522.406	259.5
522.621	119.5
522.836	105.5
523.052	97.5
523.267	98.5
523.482	102.5
523.698	91.5
523.913	109.5
524.128	106.5
524.343	101.5
524.559	89.5
524.774	109.5
524.989	109.5
525.204	103.5
525.419	98.5
525.634	93.5
525.849	94.5
526.064	80.5
526.28	95.5
526.495	87.5
526.71	90.5
526.925	99.5
527.14	82.5
527.355	82.5
527.57	85.5
527.785	98.5
527.999	97.5
528.214	90.5
528.429	92.5
528.644	98.5
528.859	105.5
529.074	91.5
529.289	126.5
529.503	151.5
529.718	117.5
529.933	79.5
530.148	83.5
530.363	92.5
530.577	87.5
530.792	77.5
531.007	95.5
531.221	96.5
531.436	81.5
531.651	95.5
531.865	91.5
532.08	91.5
532.295	92.5
532.509	90.5
532.724	94.5
532.938	95.5
533.153	87.5
533.367	95.5
533.582	90.5
533.796	86.5
534.011	86.5
534.225	91.5
534.44	98.5
534.654	86.5
534.868	97.5
535.083	93.5
535.297	95.5
535.511	99.5
535.726	106.5
535.94	97.5
536.154	100.5
536.369	106.5
