Data from Uncirc_1998_H10_HRD10591_00002.txt Node
Date: Wed Jan 03 11:25:25 EST 2024
User: Yrep
Spectrometer: HR+D1059
Trigger mode: 1
Integration Time (sec): 1.000000E-1
Scans to average: 1
Electric dark correction enabled: true
Nonlinearity correction enabled: false
Boxcar width: 0
XAxis mode: Wavelengths
Number of Pixels in Spectrum: 2048
>>>>>Begin Spectral Data<<<<<
223.165	-10.31
223.4	-10.31
223.635	-10.31
223.869	-19.31
224.104	-26.31
224.338	-15.31
224.573	-14.31
224.808	-24.31
225.042	3.69
225.277	-0.31
225.511	-4.31
225.746	-7.31
225.98	2.69
226.215	17.69
226.449	24.69
226.683	25.69
226.918	27.69
227.152	19.69
227.387	44.69
227.621	31.69
227.856	30.69
228.09	39.69
228.324	43.69
228.559	54.69
228.793	40.69
229.027	67.69
229.262	59.69
229.496	67.69
229.73	78.69
229.964	73.69
230.199	57.69
230.433	62.69
230.667	84.69
230.901	69.69
231.136	71.69
231.37	79.69
231.604	77.69
231.838	82.69
232.072	78.69
232.306	90.69
232.541	88.69
232.775	74.69
233.009	76.69
233.243	74.69
233.477	74.69
233.711	88.69
233.945	67.69
234.179	80.69
234.413	87.69
234.647	71.69
234.881	93.69
235.115	71.69
235.349	68.69
235.583	64.69
235.817	63.69
236.051	73.69
236.285	71.69
236.519	66.69
236.753	65.69
236.987	64.69
237.221	62.69
237.455	76.69
237.689	79.69
237.922	72.69
238.156	73.69
238.39	77.69
238.624	90.69
238.858	73.69
239.091	80.69
239.325	76.69
239.559	86.69
239.793	72.69
240.027	75.69
240.26	62.69
240.494	91.69
240.728	77.69
240.961	76.69
241.195	73.69
241.429	73.69
241.662	80.69
241.896	56.69
242.13	75.69
242.363	67.69
242.597	70.69
242.83	68.69
243.064	76.69
243.298	85.69
243.531	72.69
243.765	75.69
243.998	80.69
244.232	92.69
244.465	65.69
244.699	77.69
244.932	79.69
245.166	75.69
245.399	87.69
245.633	72.69
245.866	77.69
246.099	84.69
246.333	97.69
246.566	83.69
246.8	97.69
247.033	77.69
247.266	75.69
247.5	74.69
247.733	78.69
247.966	75.69
248.2	76.69
248.433	78.69
248.666	59.69
248.899	88.69
249.133	85.69
249.366	88.69
249.599	90.69
249.832	79.69
250.066	73.69
250.299	93.69
250.532	69.69
250.765	84.69
250.998	76.69
251.231	71.69
251.465	85.69
251.698	80.69
251.931	84.69
252.164	73.69
252.397	87.69
252.63	79.69
252.863	78.69
253.096	82.69
253.329	70.69
253.562	80.69
253.795	91.69
254.028	88.69
254.261	81.69
254.494	59.69
254.727	92.69
254.96	79.69
255.193	88.69
255.426	87.69
255.659	71.69
255.892	78.69
256.124	80.69
256.357	80.69
256.59	86.69
256.823	75.69
257.056	83.69
257.289	84.69
257.521	87.69
257.754	73.69
257.987	73.69
258.22	82.69
258.452	77.69
258.685	77.69
258.918	88.69
259.151	86.69
259.383	96.69
259.616	89.69
259.849	81.69
260.081	89.69
260.314	79.69
260.547	76.69
260.779	83.69
261.012	81.69
261.244	83.69
261.477	77.69
261.71	86.69
261.942	96.69
262.175	94.69
262.407	79.69
262.64	82.69
262.872	63.69
263.105	77.69
263.337	81.69
263.57	83.69
263.802	80.69
264.035	97.69
264.267	83.69
264.499	60.69
264.732	77.69
264.964	67.69
265.197	78.69
265.429	81.69
265.661	85.69
265.894	87.69
266.126	92.69
266.358	91.69
266.591	69.69
266.823	76.69
267.055	77.69
267.287	72.69
267.52	82.69
267.752	77.69
267.984	80.69
268.216	81.69
268.448	96.69
268.681	80.69
268.913	86.69
269.145	88.69
269.377	77.69
269.609	83.69
269.841	82.69
270.073	74.69
270.306	65.69
270.538	83.69
270.77	90.69
271.002	84.69
271.234	77.69
271.466	93.69
271.698	89.69
271.93	85.69
272.162	67.69
272.394	92.69
272.626	79.69
272.858	74.69
273.09	94.69
273.322	78.69
273.553	80.69
273.785	87.69
274.017	85.69
274.249	75.69
274.481	67.69
274.713	77.69
274.945	92.69
275.176	79.69
275.408	71.69
275.64	88.69
275.872	97.69
276.104	79.69
276.335	100.69
276.567	82.69
276.799	85.69
277.031	80.69
277.262	72.69
277.494	88.69
277.726	95.69
277.957	90.69
278.189	107.69
278.421	85.69
278.652	80.69
278.884	86.69
279.115	76.69
279.347	86.69
279.579	99.69
279.81	87.69
280.042	71.69
280.273	94.69
280.505	84.69
280.736	78.69
280.968	77.69
281.199	75.69
281.431	79.69
281.662	73.69
281.894	93.69
282.125	88.69
282.356	103.69
282.588	107.69
282.819	88.69
283.051	83.69
283.282	80.69
283.513	91.69
283.745	91.69
283.976	85.69
284.207	79.69
284.439	84.69
284.67	88.69
284.901	67.69
285.132	80.69
285.364	79.69
285.595	81.69
285.826	97.69
286.057	76.69
286.288	92.69
286.52	88.69
286.751	82.69
286.982	85.69
287.213	81.69
287.444	88.69
287.675	87.69
287.906	77.69
288.138	93.69
288.369	75.69
288.6	87.69
288.831	87.69
289.062	78.69
289.293	85.69
289.524	88.69
289.755	79.69
289.986	83.69
290.217	86.69
290.448	77.69
290.679	81.69
290.91	71.69
291.141	89.69
291.371	75.69
291.602	85.69
291.833	83.69
292.064	89.69
292.295	97.69
292.526	81.69
292.757	83.69
292.987	75.69
293.218	92.69
293.449	79.69
293.68	107.69
293.91	87.69
294.141	85.69
294.372	87.69
294.603	87.69
294.833	94.69
295.064	86.69
295.295	88.69
295.525	76.69
295.756	98.69
295.987	95.69
296.217	129.69
296.448	108.69
296.679	103.69
296.909	74.69
297.14	77.69
297.37	80.69
297.601	88.69
297.831	92.69
298.062	81.69
298.292	103.69
298.523	96.69
298.753	101.69
298.984	87.69
299.214	95.69
299.445	81.69
299.675	76.69
299.905	90.69
300.136	92.69
300.366	102.69
300.597	96.69
300.827	97.69
301.057	89.69
301.288	98.69
301.518	88.69
301.748	83.69
301.979	104.69
302.209	94.69
302.439	80.69
302.669	96.69
302.9	101.69
303.13	79.69
303.36	91.69
303.59	100.69
303.82	107.69
304.051	85.69
304.281	90.69
304.511	81.69
304.741	102.69
304.971	83.69
305.201	80.69
305.431	91.69
305.661	84.69
305.891	87.69
306.121	92.69
306.352	97.69
306.582	90.69
306.812	82.69
307.042	87.69
307.272	93.69
307.502	88.69
307.731	91.69
307.961	86.69
308.191	81.69
308.421	79.69
308.651	81.69
308.881	93.69
309.111	92.69
309.341	94.69
309.571	82.69
309.8	90.69
310.03	91.69
310.26	93.69
310.49	86.69
310.72	88.69
310.949	96.69
311.179	84.69
311.409	93.69
311.639	78.69
311.868	80.69
312.098	93.69
312.328	89.69
312.557	107.69
312.787	101.69
313.017	86.69
313.246	99.69
313.476	74.69
313.706	81.69
313.935	103.69
314.165	92.69
314.394	101.69
314.624	91.69
314.853	93.69
315.083	82.69
315.312	100.69
315.542	92.69
315.771	80.69
316.001	109.69
316.23	79.69
316.46	83.69
316.689	81.69
316.919	84.69
317.148	98.69
317.377	78.69
317.607	96.69
317.836	94.69
318.065	87.69
318.295	95.69
318.524	93.69
318.753	92.69
318.983	100.69
319.212	100.69
319.441	88.69
319.67	109.69
319.9	97.69
320.129	82.69
320.358	88.69
320.587	88.69
320.816	88.69
321.046	94.69
321.275	92.69
321.504	94.69
321.733	100.69
321.962	97.69
322.191	97.69
322.42	97.69
322.649	75.69
322.878	101.69
323.108	104.69
323.337	116.69
323.566	104.69
323.795	128.69
324.024	180.69
324.253	340.69
324.482	691.69
324.71	1365.69
324.939	1751.69
325.168	645.69
325.397	199.69
325.626	135.69
325.855	117.69
326.084	119.69
326.313	115.69
326.542	129.69
326.77	203.69
326.999	401.69
327.228	803.69
327.457	1399.69
327.686	1089.69
327.914	327.69
328.143	206.69
328.372	153.69
328.6	127.69
328.829	103.69
329.058	118.69
329.287	116.69
329.515	95.69
329.744	84.69
329.972	95.69
330.201	88.69
330.43	101.69
330.658	116.69
330.887	115.69
331.115	90.69
331.344	98.69
331.572	86.69
331.801	84.69
332.03	103.69
332.258	89.69
332.486	107.69
332.715	88.69
332.943	83.69
333.172	93.69
333.4	81.69
333.629	86.69
333.857	104.69
334.085	100.69
334.314	91.69
334.542	96.69
334.771	105.69
334.999	100.69
335.227	100.69
335.455	103.69
335.684	99.69
335.912	94.69
336.14	97.69
336.369	93.69
336.597	88.69
336.825	97.69
337.053	89.69
337.281	105.69
337.51	100.69
337.738	95.69
337.966	93.69
338.194	104.69
338.422	110.69
338.65	94.69
338.878	96.69
339.106	77.69
339.334	112.69
339.562	95.69
339.79	83.69
340.018	91.69
340.246	86.69
340.474	91.69
340.702	104.69
340.93	91.69
341.158	103.69
341.386	89.69
341.614	90.69
341.842	85.69
342.07	92.69
342.298	86.69
342.526	102.69
342.754	85.69
342.981	79.69
343.209	97.69
343.437	105.69
343.665	92.69
343.893	93.69
344.12	102.69
344.348	83.69
344.576	83.69
344.804	75.69
345.031	84.69
345.259	94.69
345.487	105.69
345.714	86.69
345.942	92.69
346.17	100.69
346.397	103.69
346.625	91.69
346.853	83.69
347.08	94.69
347.308	94.69
347.535	95.69
347.763	85.69
347.99	88.69
348.218	119.69
348.445	112.69
348.673	92.69
348.9	88.69
349.128	85.69
349.355	97.69
349.583	89.69
349.81	99.69
350.037	91.69
350.265	82.69
350.492	80.69
350.72	91.69
350.947	102.69
351.174	91.69
351.402	94.69
351.629	111.69
351.856	93.69
352.083	96.69
352.311	95.69
352.538	92.69
352.765	90.69
352.992	118.69
353.22	107.69
353.447	99.69
353.674	106.69
353.901	88.69
354.128	96.69
354.355	94.69
354.583	89.69
354.81	95.69
355.037	94.69
355.264	85.69
355.491	88.69
355.718	95.69
355.945	85.69
356.172	114.69
356.399	102.69
356.626	107.69
356.853	102.69
357.08	98.69
357.307	104.69
357.534	83.69
357.761	114.69
357.988	102.69
358.215	86.69
358.441	93.69
358.668	88.69
358.895	99.69
359.122	82.69
359.349	69.69
359.576	90.69
359.802	98.69
360.029	101.69
360.256	117.69
360.483	108.69
360.709	80.69
360.936	95.69
361.163	94.69
361.39	72.69
361.616	107.69
361.843	79.69
362.07	97.69
362.296	92.69
362.523	92.69
362.749	104.69
362.976	87.69
363.203	82.69
363.429	86.69
363.656	80.69
363.882	82.69
364.109	95.69
364.335	102.69
364.562	85.69
364.788	94.69
365.015	73.69
365.241	94.69
365.468	99.69
365.694	96.69
365.92	100.69
366.147	88.69
366.373	84.69
366.599	71.69
366.826	83.69
367.052	78.69
367.278	84.69
367.505	97.69
367.731	97.69
367.957	93.69
368.184	78.69
368.41	94.69
368.636	101.69
368.862	103.69
369.089	94.69
369.315	86.69
369.541	84.69
369.767	83.69
369.993	95.69
370.219	91.69
370.445	102.69
370.672	93.69
370.898	93.69
371.124	92.69
371.35	84.69
371.576	86.69
371.802	85.69
372.028	86.69
372.254	89.69
372.48	90.69
372.706	91.69
372.932	91.69
373.158	75.69
373.384	77.69
373.61	99.69
373.835	89.69
374.061	93.69
374.287	99.69
374.513	90.69
374.739	77.69
374.965	79.69
375.191	78.69
375.416	85.69
375.642	86.69
375.868	74.69
376.094	90.69
376.319	96.69
376.545	88.69
376.771	92.69
376.997	84.69
377.222	87.69
377.448	84.69
377.674	91.69
377.899	103.69
378.125	96.69
378.35	78.69
378.576	94.69
378.802	85.69
379.027	72.69
379.253	82.69
379.478	81.69
379.704	91.69
379.929	92.69
380.155	104.69
380.38	90.69
380.606	86.69
380.831	75.69
381.057	78.69
381.282	99.69
381.507	89.69
381.733	99.69
381.958	105.69
382.184	94.69
382.409	106.69
382.634	97.69
382.86	85.69
383.085	92.69
383.31	102.69
383.535	89.69
383.761	100.69
383.986	107.69
384.211	95.69
384.436	101.69
384.662	87.69
384.887	111.69
385.112	112.69
385.337	97.69
385.562	107.69
385.787	99.69
386.013	112.69
386.238	112.69
386.463	108.69
386.688	96.69
386.913	86.69
387.138	102.69
387.363	104.69
387.588	87.69
387.813	99.69
388.038	106.69
388.263	113.69
388.488	97.69
388.713	96.69
388.938	95.69
389.163	97.69
389.387	92.69
389.612	101.69
389.837	90.69
390.062	83.69
390.287	89.69
390.512	96.69
390.736	90.69
390.961	95.69
391.186	86.69
391.411	97.69
391.636	92.69
391.86	78.69
392.085	85.69
392.31	84.69
392.534	83.69
392.759	102.69
392.984	87.69
393.208	103.69
393.433	85.69
393.658	88.69
393.882	92.69
394.107	89.69
394.331	85.69
394.556	78.69
394.78	95.69
395.005	92.69
395.229	93.69
395.454	78.69
395.678	88.69
395.903	92.69
396.127	94.69
396.352	88.69
396.576	72.69
396.801	75.69
397.025	86.69
397.249	87.69
397.474	85.69
397.698	77.69
397.922	79.69
398.147	75.69
398.371	72.69
398.595	83.69
398.82	93.69
399.044	104.69
399.268	82.69
399.492	90.69
399.717	86.69
399.941	91.69
400.165	93.69
400.389	91.69
400.613	95.69
400.837	85.69
401.062	71.69
401.286	87.69
401.51	76.69
401.734	81.69
401.958	104.69
402.182	101.69
402.406	136.69
402.63	100.69
402.854	88.69
403.078	90.69
403.302	80.69
403.526	104.69
403.75	96.69
403.974	86.69
404.198	74.69
404.422	101.69
404.645	79.69
404.869	89.69
405.093	87.69
405.317	101.69
405.541	77.69
405.765	89.69
405.988	101.69
406.212	145.69
406.436	188.69
406.66	128.69
406.883	95.69
407.107	78.69
407.331	96.69
407.555	78.69
407.778	94.69
408.002	83.69
408.226	96.69
408.449	84.69
408.673	94.69
408.896	94.69
409.12	85.69
409.344	88.69
409.567	86.69
409.791	92.69
410.014	91.69
410.238	80.69
410.461	93.69
410.685	106.69
410.908	102.69
411.132	90.69
411.355	117.69
411.578	108.69
411.802	81.69
412.025	96.69
412.249	101.69
412.472	85.69
412.695	99.69
412.919	87.69
413.142	78.69
413.365	81.69
413.589	95.69
413.812	78.69
414.035	94.69
414.258	86.69
414.482	86.69
414.705	86.69
414.928	82.69
415.151	87.69
415.374	73.69
415.597	90.69
415.821	96.69
416.044	95.69
416.267	85.69
416.49	81.69
416.713	78.69
416.936	71.69
417.159	69.69
417.382	89.69
417.605	92.69
417.828	92.69
418.051	76.69
418.274	86.69
418.497	86.69
418.72	87.69
418.943	94.69
419.166	89.69
419.389	89.69
419.611	73.69
419.834	65.69
420.057	87.69
420.28	100.69
420.503	90.69
420.726	92.69
420.948	91.69
421.171	91.69
421.394	98.69
421.617	86.69
421.839	87.69
422.062	79.69
422.285	93.69
422.507	89.69
422.73	94.69
422.953	103.69
423.175	95.69
423.398	92.69
423.621	92.69
423.843	76.69
424.066	64.69
424.288	101.69
424.511	80.69
424.733	89.69
424.956	102.69
425.178	103.69
425.401	97.69
425.623	101.69
425.846	93.69
426.068	81.69
426.291	94.69
426.513	79.69
426.735	96.69
426.958	93.69
427.18	97.69
427.402	122.69
427.625	153.69
427.847	122.69
428.069	93.69
428.292	97.69
428.514	85.69
428.736	85.69
428.958	102.69
429.181	93.69
429.403	89.69
429.625	88.69
429.847	88.69
430.069	90.69
430.292	80.69
430.514	83.69
430.736	80.69
430.958	89.69
431.18	85.69
431.402	79.69
431.624	89.69
431.846	92.69
432.068	90.69
432.29	93.69
432.512	105.69
432.734	104.69
432.956	89.69
433.178	93.69
433.4	91.69
433.622	86.69
433.844	95.69
434.066	92.69
434.287	92.69
434.509	95.69
434.731	91.69
434.953	79.69
435.175	89.69
435.397	83.69
435.618	79.69
435.84	93.69
436.062	101.69
436.284	99.69
436.505	105.69
436.727	93.69
436.949	87.69
437.17	80.69
437.392	75.69
437.614	91.69
437.835	103.69
438.057	92.69
438.278	111.69
438.5	87.69
438.721	117.69
438.943	97.69
439.165	88.69
439.386	78.69
439.608	83.69
439.829	96.69
440.05	102.69
440.272	111.69
440.493	93.69
440.715	85.69
440.936	95.69
441.158	87.69
441.379	89.69
441.6	83.69
441.822	96.69
442.043	92.69
442.264	97.69
442.486	91.69
442.707	81.69
442.928	77.69
443.149	104.69
443.371	119.69
443.592	84.69
443.813	92.69
444.034	74.69
444.255	102.69
444.476	94.69
444.698	79.69
444.919	95.69
445.14	124.69
445.361	123.69
445.582	108.69
445.803	133.69
446.024	123.69
446.245	123.69
446.466	113.69
446.687	84.69
446.908	77.69
447.129	83.69
447.35	83.69
447.571	84.69
447.792	88.69
448.013	87.69
448.234	87.69
448.455	77.69
448.675	95.69
448.896	99.69
449.117	97.69
449.338	109.69
449.559	121.69
449.779	116.69
450	100.69
450.221	77.69
450.442	82.69
450.662	84.69
450.883	83.69
451.104	88.69
451.324	76.69
451.545	94.69
451.766	85.69
451.986	89.69
452.207	81.69
452.428	90.69
452.648	79.69
452.869	93.69
453.089	111.69
453.31	115.69
453.53	83.69
453.751	80.69
453.971	101.69
454.192	105.69
454.412	91.69
454.633	103.69
454.853	62.69
455.073	79.69
455.294	110.69
455.514	88.69
455.734	90.69
455.955	79.69
456.175	79.69
456.395	89.69
456.616	96.69
456.836	88.69
457.056	88.69
457.276	73.69
457.497	83.69
457.717	88.69
457.937	87.69
458.157	87.69
458.377	85.69
458.598	99.69
458.818	127.69
459.038	132.69
459.258	107.69
459.478	96.69
459.698	91.69
459.918	80.69
460.138	83.69
460.358	77.69
460.578	84.69
460.798	95.69
461.018	78.69
461.238	86.69
461.458	92.69
461.678	88.69
461.898	79.69
462.118	93.69
462.338	85.69
462.558	89.69
462.777	86.69
462.997	74.69
463.217	102.69
463.437	91.69
463.657	97.69
463.876	89.69
464.096	93.69
464.316	92.69
464.536	92.69
464.755	77.69
464.975	101.69
465.195	136.69
465.414	126.69
465.634	87.69
465.854	85.69
466.073	87.69
466.293	78.69
466.512	71.69
466.732	88.69
466.951	86.69
467.171	79.69
467.391	90.69
467.61	102.69
467.829	102.69
468.049	87.69
468.268	85.69
468.488	85.69
468.707	86.69
468.927	76.69
469.146	81.69
469.365	83.69
469.585	88.69
469.804	97.69
470.023	72.69
470.243	80.69
470.462	103.69
470.681	79.69
470.901	77.69
471.12	83.69
471.339	92.69
471.558	81.69
471.777	87.69
471.997	76.69
472.216	94.69
472.435	81.69
472.654	97.69
472.873	102.69
473.092	87.69
473.311	96.69
473.53	69.69
473.749	89.69
473.968	104.69
474.187	93.69
474.406	87.69
474.625	88.69
474.844	89.69
475.063	80.69
475.282	79.69
475.501	85.69
475.72	92.69
475.939	86.69
476.158	89.69
476.377	96.69
476.596	103.69
476.814	95.69
477.033	83.69
477.252	87.69
477.471	92.69
477.69	80.69
477.908	91.69
478.127	94.69
478.346	71.69
478.564	88.69
478.783	81.69
479.002	94.69
479.22	93.69
479.439	100.69
479.658	81.69
479.876	96.69
480.095	95.69
480.313	84.69
480.532	85.69
480.751	78.69
480.969	107.69
481.188	112.69
481.406	95.69
481.624	89.69
481.843	91.69
482.061	90.69
482.28	93.69
482.498	87.69
482.717	83.69
482.935	88.69
483.153	84.69
483.372	70.69
483.59	80.69
483.808	92.69
484.027	83.69
484.245	78.69
484.463	88.69
484.681	96.69
484.9	98.69
485.118	84.69
485.336	91.69
485.554	101.69
485.772	97.69
485.99	115.69
486.209	110.69
486.427	105.69
486.645	118.69
486.863	101.69
487.081	96.69
487.299	88.69
487.517	109.69
487.735	97.69
487.953	92.69
488.171	92.69
488.389	94.69
488.607	78.69
488.825	90.69
489.043	88.69
489.261	87.69
489.479	99.69
489.696	91.69
489.914	96.69
490.132	100.69
490.35	91.69
490.568	94.69
490.786	83.69
491.003	68.69
491.221	88.69
491.439	96.69
491.657	92.69
491.874	99.69
492.092	92.69
492.31	89.69
492.527	107.69
492.745	85.69
492.963	81.69
493.18	93.69
493.398	90.69
493.615	77.69
493.833	87.69
494.05	87.69
494.268	87.69
494.485	79.69
494.703	86.69
494.92	83.69
495.138	92.69
495.355	83.69
495.573	93.69
495.79	86.69
496.008	91.69
496.225	96.69
496.442	74.69
496.66	83.69
496.877	88.69
497.094	89.69
497.312	82.69
497.529	85.69
497.746	91.69
497.963	83.69
498.181	87.69
498.398	93.69
498.615	95.69
498.832	93.69
499.049	81.69
499.267	77.69
499.484	81.69
499.701	92.69
499.918	90.69
500.135	95.69
500.352	91.69
500.569	88.69
500.786	83.69
501.003	92.69
501.22	88.69
501.437	86.69
501.654	91.69
501.871	87.69
502.088	86.69
502.305	80.69
502.522	78.69
502.739	105.69
502.956	88.69
503.172	86.69
503.389	94.69
503.606	102.69
503.823	93.69
504.04	87.69
504.256	68.69
504.473	82.69
504.69	77.69
504.907	76.69
505.123	70.69
505.34	86.69
505.557	97.69
505.773	104.69
505.99	91.69
506.207	91.69
506.423	84.69
506.64	86.69
506.856	93.69
507.073	102.69
507.289	97.69
507.506	92.69
507.722	96.69
507.939	96.69
508.155	92.69
508.372	92.69
508.588	99.69
508.805	79.69
509.021	105.69
509.238	109.69
509.454	95.69
509.67	94.69
509.887	100.69
510.103	111.69
510.319	188.69
510.536	573.69
510.752	1665.69
510.968	477.69
511.184	151.69
511.401	110.69
511.617	103.69
511.833	93.69
512.049	85.69
512.265	85.69
512.481	100.69
512.698	83.69
512.914	74.69
513.13	92.69
513.346	100.69
513.562	83.69
513.778	99.69
513.994	100.69
514.21	97.69
514.426	106.69
514.642	119.69
514.858	104.69
515.074	145.69
515.29	352.69
515.506	1022.69
515.721	390.69
515.937	139.69
516.153	104.69
516.369	102.69
516.585	83.69
516.801	105.69
