Data from Uncirc_1998_H10_HRD10591_00058.txt Node
Date: Wed Jan 03 11:25:36 EST 2024
User: Yrep
Spectrometer: HR+D1059
Trigger mode: 1
Integration Time (sec): 1.000000E-1
Scans to average: 1
Electric dark correction enabled: true
Nonlinearity correction enabled: false
Boxcar width: 0
XAxis mode: Wavelengths
Number of Pixels in Spectrum: 2048
>>>>>Begin Spectral Data<<<<<
223.165	-15.69
223.4	-15.69
223.635	-15.69
223.869	-4.69
224.104	-29.69
224.338	-12.69
224.573	-23.69
224.808	-31.69
225.042	5.31
225.277	-8.69
225.511	-7.69
225.746	0.31
225.98	9.31
226.215	23.31
226.449	21.31
226.683	14.31
226.918	28.31
227.152	32.31
227.387	33.31
227.621	39.31
227.856	37.31
228.09	43.31
228.324	55.31
228.559	55.31
228.793	51.31
229.027	64.31
229.262	64.31
229.496	72.31
229.73	73.31
229.964	96.31
230.199	73.31
230.433	79.31
230.667	68.31
230.901	60.31
231.136	79.31
231.37	78.31
231.604	84.31
231.838	75.31
232.072	73.31
232.306	79.31
232.541	83.31
232.775	73.31
233.009	72.31
233.243	79.31
233.477	79.31
233.711	75.31
233.945	77.31
234.179	76.31
234.413	79.31
234.647	71.31
234.881	73.31
235.115	68.31
235.349	69.31
235.583	86.31
235.817	90.31
236.051	76.31
236.285	77.31
236.519	59.31
236.753	71.31
236.987	67.31
237.221	73.31
237.455	73.31
237.689	72.31
237.922	72.31
238.156	67.31
238.39	69.31
238.624	69.31
238.858	64.31
239.091	87.31
239.325	83.31
239.559	77.31
239.793	67.31
240.027	66.31
240.26	72.31
240.494	83.31
240.728	69.31
240.961	60.31
241.195	75.31
241.429	77.31
241.662	60.31
241.896	85.31
242.13	78.31
242.363	64.31
242.597	96.31
242.83	78.31
243.064	60.31
243.298	69.31
243.531	69.31
243.765	72.31
243.998	91.31
244.232	75.31
244.465	80.31
244.699	91.31
244.932	73.31
245.166	75.31
245.399	93.31
245.633	82.31
245.866	74.31
246.099	71.31
246.333	76.31
246.566	77.31
246.8	73.31
247.033	68.31
247.266	64.31
247.5	86.31
247.733	73.31
247.966	67.31
248.2	79.31
248.433	90.31
248.666	78.31
248.899	80.31
249.133	93.31
249.366	87.31
249.599	95.31
249.832	96.31
250.066	88.31
250.299	76.31
250.532	79.31
250.765	81.31
250.998	74.31
251.231	73.31
251.465	80.31
251.698	77.31
251.931	84.31
252.164	70.31
252.397	85.31
252.63	75.31
252.863	84.31
253.096	82.31
253.329	74.31
253.562	68.31
253.795	75.31
254.028	84.31
254.261	81.31
254.494	75.31
254.727	77.31
254.96	75.31
255.193	80.31
255.426	68.31
255.659	69.31
255.892	83.31
256.124	71.31
256.357	79.31
256.59	71.31
256.823	77.31
257.056	84.31
257.289	81.31
257.521	70.31
257.754	71.31
257.987	80.31
258.22	81.31
258.452	80.31
258.685	79.31
258.918	75.31
259.151	86.31
259.383	65.31
259.616	87.31
259.849	90.31
260.081	77.31
260.314	82.31
260.547	78.31
260.779	75.31
261.012	76.31
261.244	84.31
261.477	81.31
261.71	85.31
261.942	97.31
262.175	112.31
262.407	84.31
262.64	73.31
262.872	75.31
263.105	68.31
263.337	70.31
263.57	80.31
263.802	80.31
264.035	77.31
264.267	77.31
264.499	71.31
264.732	74.31
264.964	77.31
265.197	55.31
265.429	83.31
265.661	84.31
265.894	83.31
266.126	86.31
266.358	83.31
266.591	63.31
266.823	71.31
267.055	94.31
267.287	95.31
267.52	80.31
267.752	69.31
267.984	80.31
268.216	87.31
268.448	88.31
268.681	74.31
268.913	85.31
269.145	81.31
269.377	92.31
269.609	81.31
269.841	77.31
270.073	87.31
270.306	77.31
270.538	83.31
270.77	80.31
271.002	77.31
271.234	86.31
271.466	87.31
271.698	75.31
271.93	88.31
272.162	70.31
272.394	87.31
272.626	75.31
272.858	77.31
273.09	76.31
273.322	75.31
273.553	89.31
273.785	85.31
274.017	77.31
274.249	68.31
274.481	73.31
274.713	83.31
274.945	69.31
275.176	84.31
275.408	80.31
275.64	87.31
275.872	82.31
276.104	89.31
276.335	84.31
276.567	83.31
276.799	99.31
277.031	92.31
277.262	83.31
277.494	87.31
277.726	83.31
277.957	91.31
278.189	86.31
278.421	87.31
278.652	102.31
278.884	89.31
279.115	65.31
279.347	89.31
279.579	86.31
279.81	79.31
280.042	88.31
280.273	78.31
280.505	74.31
280.736	85.31
280.968	92.31
281.199	91.31
281.431	68.31
281.662	87.31
281.894	93.31
282.125	85.31
282.356	104.31
282.588	132.31
282.819	94.31
283.051	86.31
283.282	87.31
283.513	88.31
283.745	97.31
283.976	88.31
284.207	75.31
284.439	82.31
284.67	84.31
284.901	75.31
285.132	87.31
285.364	89.31
285.595	104.31
285.826	88.31
286.057	84.31
286.288	85.31
286.52	79.31
286.751	87.31
286.982	90.31
287.213	88.31
287.444	74.31
287.675	79.31
287.906	93.31
288.138	84.31
288.369	101.31
288.6	96.31
288.831	87.31
289.062	86.31
289.293	78.31
289.524	86.31
289.755	88.31
289.986	82.31
290.217	81.31
290.448	83.31
290.679	85.31
290.91	93.31
291.141	83.31
291.371	95.31
291.602	81.31
291.833	91.31
292.064	83.31
292.295	79.31
292.526	107.31
292.757	93.31
292.987	83.31
293.218	71.31
293.449	88.31
293.68	82.31
293.91	82.31
294.141	82.31
294.372	91.31
294.603	91.31
294.833	84.31
295.064	96.31
295.295	80.31
295.525	86.31
295.756	102.31
295.987	109.31
296.217	127.31
296.448	103.31
296.679	80.31
296.909	95.31
297.14	84.31
297.37	93.31
297.601	77.31
297.831	90.31
298.062	97.31
298.292	89.31
298.523	80.31
298.753	82.31
298.984	83.31
299.214	81.31
299.445	92.31
299.675	85.31
299.905	84.31
300.136	83.31
300.366	81.31
300.597	90.31
300.827	105.31
301.057	97.31
301.288	108.31
301.518	84.31
301.748	83.31
301.979	100.31
302.209	100.31
302.439	81.31
302.669	95.31
302.9	81.31
303.13	100.31
303.36	97.31
303.59	87.31
303.82	83.31
304.051	85.31
304.281	83.31
304.511	82.31
304.741	95.31
304.971	92.31
305.201	83.31
305.431	89.31
305.661	87.31
305.891	91.31
306.121	100.31
306.352	100.31
306.582	85.31
306.812	75.31
307.042	93.31
307.272	92.31
307.502	103.31
307.731	82.31
307.961	91.31
308.191	91.31
308.421	87.31
308.651	76.31
308.881	91.31
309.111	83.31
309.341	96.31
309.571	105.31
309.8	93.31
310.03	94.31
310.26	98.31
310.49	109.31
310.72	89.31
310.949	81.31
311.179	102.31
311.409	85.31
311.639	86.31
311.868	92.31
312.098	93.31
312.328	103.31
312.557	89.31
312.787	107.31
313.017	103.31
313.246	99.31
313.476	97.31
313.706	105.31
313.935	91.31
314.165	79.31
314.394	104.31
314.624	88.31
314.853	74.31
315.083	104.31
315.312	96.31
315.542	85.31
315.771	79.31
316.001	89.31
316.23	86.31
316.46	93.31
316.689	92.31
316.919	92.31
317.148	107.31
317.377	95.31
317.607	92.31
317.836	107.31
318.065	85.31
318.295	86.31
318.524	83.31
318.753	105.31
318.983	88.31
319.212	93.31
319.441	100.31
319.67	99.31
319.9	78.31
320.129	84.31
320.358	92.31
320.587	90.31
320.816	93.31
321.046	107.31
321.275	97.31
321.504	93.31
321.733	96.31
321.962	88.31
322.191	90.31
322.42	99.31
322.649	91.31
322.878	104.31
323.108	105.31
323.337	115.31
323.566	125.31
323.795	137.31
324.024	180.31
324.253	379.31
324.482	743.31
324.71	1514.31
324.939	1935.31
325.168	728.31
325.397	214.31
325.626	123.31
325.855	115.31
326.084	119.31
326.313	122.31
326.542	155.31
326.77	216.31
326.999	413.31
327.228	816.31
327.457	1504.31
327.686	1215.31
327.914	355.31
328.143	181.31
328.372	131.31
328.6	131.31
328.829	99.31
329.058	119.31
329.287	117.31
329.515	91.31
329.744	103.31
329.972	94.31
330.201	101.31
330.43	101.31
330.658	115.31
330.887	124.31
331.115	108.31
331.344	105.31
331.572	100.31
331.801	97.31
332.03	92.31
332.258	87.31
332.486	93.31
332.715	106.31
332.943	83.31
333.172	87.31
333.4	94.31
333.629	99.31
333.857	113.31
334.085	109.31
334.314	86.31
334.542	98.31
334.771	103.31
334.999	91.31
335.227	95.31
335.455	86.31
335.684	88.31
335.912	85.31
336.14	90.31
336.369	88.31
336.597	93.31
336.825	92.31
337.053	91.31
337.281	91.31
337.51	96.31
337.738	97.31
337.966	88.31
338.194	91.31
338.422	120.31
338.65	102.31
338.878	89.31
339.106	89.31
339.334	95.31
339.562	92.31
339.79	91.31
340.018	96.31
340.246	79.31
340.474	84.31
340.702	77.31
340.93	103.31
341.158	96.31
341.386	77.31
341.614	83.31
341.842	86.31
342.07	82.31
342.298	91.31
342.526	87.31
342.754	78.31
342.981	80.31
343.209	97.31
343.437	94.31
343.665	79.31
343.893	79.31
344.12	80.31
344.348	88.31
344.576	82.31
344.804	83.31
345.031	75.31
345.259	96.31
345.487	95.31
345.714	86.31
345.942	106.31
346.17	89.31
346.397	103.31
346.625	105.31
346.853	98.31
347.08	94.31
347.308	95.31
347.535	94.31
347.763	103.31
347.99	95.31
348.218	102.31
348.445	92.31
348.673	99.31
348.9	93.31
349.128	89.31
349.355	79.31
349.583	104.31
349.81	93.31
350.037	100.31
350.265	93.31
350.492	93.31
350.72	78.31
350.947	98.31
351.174	102.31
351.402	97.31
351.629	101.31
351.856	82.31
352.083	106.31
352.311	96.31
352.538	100.31
352.765	96.31
352.992	104.31
353.22	106.31
353.447	92.31
353.674	100.31
353.901	92.31
354.128	91.31
354.355	83.31
354.583	108.31
354.81	87.31
355.037	99.31
355.264	94.31
355.491	84.31
355.718	86.31
355.945	97.31
356.172	94.31
356.399	97.31
356.626	100.31
356.853	93.31
357.08	101.31
357.307	95.31
357.534	96.31
357.761	89.31
357.988	97.31
358.215	96.31
358.441	91.31
358.668	93.31
358.895	72.31
359.122	91.31
359.349	89.31
359.576	82.31
359.802	101.31
360.029	99.31
360.256	97.31
360.483	85.31
360.709	77.31
360.936	109.31
361.163	83.31
361.39	97.31
361.616	97.31
361.843	91.31
362.07	83.31
362.296	89.31
362.523	106.31
362.749	87.31
362.976	91.31
363.203	83.31
363.429	77.31
363.656	88.31
363.882	82.31
364.109	92.31
364.335	84.31
364.562	79.31
364.788	102.31
365.015	84.31
365.241	89.31
365.468	94.31
365.694	95.31
365.92	100.31
366.147	95.31
366.373	100.31
366.599	84.31
366.826	76.31
367.052	94.31
367.278	88.31
367.505	88.31
367.731	93.31
367.957	87.31
368.184	106.31
368.41	95.31
368.636	104.31
368.862	101.31
369.089	110.31
369.315	90.31
369.541	86.31
369.767	80.31
369.993	95.31
370.219	90.31
370.445	88.31
370.672	84.31
370.898	80.31
371.124	75.31
371.35	90.31
371.576	85.31
371.802	81.31
372.028	83.31
372.254	93.31
372.48	77.31
372.706	73.31
372.932	98.31
373.158	88.31
373.384	83.31
373.61	107.31
373.835	77.31
374.061	82.31
374.287	95.31
374.513	84.31
374.739	76.31
374.965	97.31
375.191	86.31
375.416	85.31
375.642	100.31
375.868	112.31
376.094	85.31
376.319	90.31
376.545	89.31
376.771	89.31
376.997	104.31
377.222	84.31
377.448	97.31
377.674	102.31
377.899	75.31
378.125	86.31
378.35	96.31
378.576	90.31
378.802	88.31
379.027	83.31
379.253	102.31
379.478	102.31
379.704	97.31
379.929	85.31
380.155	85.31
380.38	91.31
380.606	88.31
380.831	88.31
381.057	94.31
381.282	87.31
381.507	84.31
381.733	99.31
381.958	86.31
382.184	79.31
382.409	94.31
382.634	105.31
382.86	96.31
383.085	109.31
383.31	92.31
383.535	90.31
383.761	103.31
383.986	105.31
384.211	93.31
384.436	103.31
384.662	99.31
384.887	106.31
385.112	95.31
385.337	102.31
385.562	100.31
385.787	90.31
386.013	97.31
386.238	103.31
386.463	117.31
386.688	91.31
386.913	89.31
387.138	104.31
387.363	112.31
387.588	96.31
387.813	85.31
388.038	103.31
388.263	110.31
388.488	112.31
388.713	105.31
388.938	83.31
389.163	94.31
389.387	96.31
389.612	91.31
389.837	91.31
390.062	86.31
390.287	82.31
390.512	80.31
390.736	93.31
390.961	74.31
391.186	96.31
391.411	89.31
391.636	85.31
391.86	92.31
392.085	85.31
392.31	95.31
392.534	88.31
392.759	85.31
392.984	79.31
393.208	90.31
393.433	74.31
393.658	83.31
393.882	95.31
394.107	87.31
394.331	85.31
394.556	91.31
394.78	100.31
395.005	94.31
395.229	94.31
395.454	79.31
395.678	84.31
395.903	89.31
396.127	91.31
396.352	88.31
396.576	79.31
396.801	93.31
397.025	86.31
397.249	78.31
397.474	94.31
397.698	85.31
397.922	83.31
398.147	60.31
398.371	82.31
398.595	80.31
398.82	83.31
399.044	100.31
399.268	102.31
399.492	81.31
399.717	85.31
399.941	82.31
400.165	73.31
400.389	88.31
400.613	69.31
400.837	92.31
401.062	82.31
401.286	88.31
401.51	84.31
401.734	95.31
401.958	94.31
402.182	112.31
402.406	150.31
402.63	103.31
402.854	87.31
403.078	81.31
403.302	80.31
403.526	78.31
403.75	101.31
403.974	89.31
404.198	96.31
404.422	92.31
404.645	84.31
404.869	88.31
405.093	92.31
405.317	103.31
405.541	88.31
405.765	84.31
405.988	109.31
406.212	151.31
406.436	215.31
406.66	120.31
406.883	79.31
407.107	91.31
407.331	103.31
407.555	96.31
407.778	102.31
408.002	77.31
408.226	87.31
408.449	86.31
408.673	71.31
408.896	90.31
409.12	96.31
409.344	76.31
409.567	91.31
409.791	83.31
410.014	95.31
410.238	89.31
410.461	81.31
410.685	94.31
410.908	102.31
411.132	99.31
411.355	111.31
411.578	108.31
411.802	80.31
412.025	91.31
412.249	92.31
412.472	93.31
412.695	93.31
412.919	81.31
413.142	96.31
413.365	84.31
413.589	87.31
413.812	91.31
414.035	92.31
414.258	89.31
414.482	95.31
414.705	84.31
414.928	90.31
415.151	108.31
415.374	92.31
415.597	87.31
415.821	77.31
416.044	88.31
416.267	77.31
416.49	72.31
416.713	80.31
416.936	88.31
417.159	93.31
417.382	86.31
417.605	94.31
417.828	75.31
418.051	72.31
418.274	78.31
418.497	91.31
418.72	96.31
418.943	86.31
419.166	95.31
419.389	84.31
419.611	90.31
419.834	94.31
420.057	86.31
420.28	95.31
420.503	82.31
420.726	77.31
420.948	80.31
421.171	106.31
421.394	93.31
421.617	82.31
421.839	86.31
422.062	80.31
422.285	88.31
422.507	94.31
422.73	99.31
422.953	78.31
423.175	74.31
423.398	85.31
423.621	93.31
423.843	76.31
424.066	93.31
424.288	107.31
424.511	78.31
424.733	103.31
424.956	102.31
425.178	109.31
425.401	93.31
425.623	91.31
425.846	102.31
426.068	81.31
426.291	83.31
426.513	95.31
426.735	92.31
426.958	92.31
427.18	102.31
427.402	120.31
427.625	155.31
427.847	129.31
428.069	75.31
428.292	93.31
428.514	96.31
428.736	89.31
428.958	93.31
429.181	91.31
429.403	93.31
429.625	84.31
429.847	89.31
430.069	95.31
430.292	85.31
430.514	82.31
430.736	94.31
430.958	107.31
431.18	82.31
431.402	91.31
431.624	88.31
431.846	95.31
432.068	92.31
432.29	93.31
432.512	89.31
432.734	84.31
432.956	91.31
433.178	95.31
433.4	100.31
433.622	78.31
433.844	80.31
434.066	75.31
434.287	75.31
434.509	87.31
434.731	88.31
434.953	90.31
435.175	81.31
435.397	85.31
435.618	83.31
435.84	103.31
436.062	115.31
436.284	108.31
436.505	112.31
436.727	83.31
436.949	86.31
437.17	96.31
437.392	89.31
437.614	92.31
437.835	87.31
438.057	109.31
438.278	105.31
438.5	87.31
438.721	120.31
438.943	98.31
439.165	84.31
439.386	80.31
439.608	71.31
439.829	101.31
440.05	123.31
440.272	132.31
440.493	84.31
440.715	74.31
440.936	88.31
441.158	86.31
441.379	77.31
441.6	89.31
441.822	89.31
442.043	92.31
442.264	110.31
442.486	95.31
442.707	92.31
442.928	87.31
443.149	110.31
443.371	122.31
443.592	97.31
443.813	100.31
444.034	113.31
444.255	68.31
444.476	88.31
444.698	81.31
444.919	77.31
445.14	124.31
445.361	110.31
445.582	104.31
445.803	109.31
446.024	118.31
446.245	127.31
446.466	99.31
446.687	96.31
446.908	83.31
447.129	79.31
447.35	85.31
447.571	90.31
447.792	90.31
448.013	100.31
448.234	109.31
448.455	95.31
448.675	103.31
448.896	119.31
449.117	92.31
449.338	102.31
449.559	136.31
449.779	126.31
450	88.31
450.221	87.31
450.442	94.31
450.662	81.31
450.883	95.31
451.104	109.31
451.324	103.31
451.545	97.31
451.766	97.31
451.986	88.31
452.207	84.31
452.428	87.31
452.648	97.31
452.869	100.31
453.089	100.31
453.31	112.31
453.53	92.31
453.751	100.31
453.971	102.31
454.192	109.31
454.412	83.31
454.633	87.31
454.853	86.31
455.073	96.31
455.294	77.31
455.514	74.31
455.734	85.31
455.955	88.31
456.175	87.31
456.395	98.31
456.616	77.31
456.836	83.31
457.056	80.31
457.276	78.31
457.497	89.31
457.717	84.31
457.937	84.31
458.157	84.31
458.377	93.31
458.598	86.31
458.818	124.31
459.038	149.31
459.258	112.31
459.478	87.31
459.698	87.31
459.918	93.31
460.138	69.31
460.358	89.31
460.578	86.31
460.798	93.31
461.018	89.31
461.238	85.31
461.458	79.31
461.678	87.31
461.898	84.31
462.118	69.31
462.338	83.31
462.558	85.31
462.777	74.31
462.997	80.31
463.217	81.31
463.437	75.31
463.657	87.31
463.876	88.31
464.096	84.31
464.316	75.31
464.536	85.31
464.755	81.31
464.975	89.31
465.195	147.31
465.414	143.31
465.634	99.31
465.854	97.31
466.073	92.31
466.293	87.31
466.512	99.31
466.732	78.31
466.951	86.31
467.171	76.31
467.391	92.31
467.61	95.31
467.829	93.31
468.049	89.31
468.268	77.31
468.488	71.31
468.707	94.31
468.927	72.31
469.146	76.31
469.365	93.31
469.585	81.31
469.804	86.31
470.023	92.31
470.243	92.31
470.462	108.31
470.681	110.31
470.901	76.31
471.12	93.31
471.339	84.31
471.558	74.31
471.777	75.31
471.997	91.31
472.216	97.31
472.435	89.31
472.654	93.31
472.873	78.31
473.092	89.31
473.311	80.31
473.53	91.31
473.749	85.31
473.968	102.31
474.187	99.31
474.406	105.31
474.625	109.31
474.844	93.31
475.063	82.31
475.282	84.31
475.501	70.31
475.72	93.31
475.939	83.31
476.158	86.31
476.377	88.31
476.596	81.31
476.814	99.31
477.033	93.31
477.252	86.31
477.471	86.31
477.69	92.31
477.908	102.31
478.127	96.31
478.346	89.31
478.564	91.31
478.783	90.31
479.002	98.31
479.22	77.31
479.439	91.31
479.658	96.31
479.876	97.31
480.095	87.31
480.313	92.31
480.532	85.31
480.751	78.31
480.969	97.31
481.188	97.31
481.406	86.31
481.624	91.31
481.843	87.31
482.061	74.31
482.28	94.31
482.498	99.31
482.717	66.31
482.935	83.31
483.153	86.31
483.372	91.31
483.59	87.31
483.808	88.31
484.027	90.31
484.245	103.31
484.463	83.31
484.681	100.31
484.9	85.31
485.118	82.31
485.336	101.31
485.554	88.31
485.772	107.31
485.99	96.31
486.209	79.31
486.427	96.31
486.645	100.31
486.863	102.31
487.081	101.31
487.299	87.31
487.517	77.31
487.735	98.31
487.953	91.31
488.171	91.31
488.389	90.31
488.607	104.31
488.825	90.31
489.043	81.31
489.261	83.31
489.479	101.31
489.696	95.31
489.914	94.31
490.132	84.31
490.35	101.31
490.568	87.31
490.786	84.31
491.003	73.31
491.221	96.31
491.439	95.31
491.657	104.31
491.874	95.31
492.092	100.31
492.31	86.31
492.527	85.31
492.745	100.31
492.963	85.31
493.18	91.31
493.398	86.31
493.615	106.31
493.833	95.31
494.05	91.31
494.268	93.31
494.485	92.31
494.703	102.31
494.92	103.31
495.138	89.31
495.355	79.31
495.573	81.31
495.79	74.31
496.008	92.31
496.225	79.31
496.442	85.31
496.66	94.31
496.877	83.31
497.094	87.31
497.312	80.31
497.529	85.31
497.746	92.31
497.963	92.31
498.181	86.31
498.398	85.31
498.615	84.31
498.832	98.31
499.049	82.31
499.267	89.31
499.484	72.31
499.701	104.31
499.918	91.31
500.135	97.31
500.352	87.31
500.569	105.31
500.786	78.31
501.003	87.31
501.22	80.31
501.437	105.31
501.654	97.31
501.871	93.31
502.088	84.31
502.305	93.31
502.522	89.31
502.739	75.31
502.956	88.31
503.172	103.31
503.389	105.31
503.606	112.31
503.823	98.31
504.04	92.31
504.256	77.31
504.473	91.31
504.69	75.31
504.907	103.31
505.123	86.31
505.34	95.31
505.557	78.31
505.773	101.31
505.99	94.31
506.207	86.31
506.423	81.31
506.64	84.31
506.856	95.31
507.073	85.31
507.289	88.31
507.506	84.31
507.722	100.31
507.939	105.31
508.155	109.31
508.372	98.31
508.588	80.31
508.805	92.31
509.021	102.31
509.238	88.31
509.454	93.31
509.67	104.31
509.887	112.31
510.103	128.31
510.319	208.31
510.536	699.31
510.752	2139.31
510.968	588.31
511.184	141.31
511.401	107.31
511.617	87.31
511.833	87.31
512.049	96.31
512.265	95.31
512.481	88.31
512.698	86.31
512.914	87.31
513.13	85.31
513.346	102.31
513.562	91.31
513.778	87.31
513.994	84.31
514.21	112.31
514.426	115.31
514.642	124.31
514.858	120.31
515.074	143.31
515.29	419.31
515.506	1268.31
515.721	453.31
515.937	148.31
516.153	97.31
516.369	97.31
516.585	113.31
