Data from Uncirc_1998_H10_HRD10591_00098.txt Node
Date: Wed Jan 03 11:25:44 EST 2024
User: Yrep
Spectrometer: HR+D1059
Trigger mode: 1
Integration Time (sec): 1.000000E-1
Scans to average: 1
Electric dark correction enabled: true
Nonlinearity correction enabled: false
Boxcar width: 0
XAxis mode: Wavelengths
Number of Pixels in Spectrum: 2048
>>>>>Begin Spectral Data<<<<<
223.165	-19.38
223.4	-19.38
223.635	-19.38
223.869	-12.38
224.104	-18.38
224.338	-18.38
224.573	-0.38
224.808	-19.38
225.042	-12.38
225.277	-14.38
225.511	2.62
225.746	7.62
225.98	8.62
226.215	16.62
226.449	22.62
226.683	9.62
226.918	28.62
227.152	18.62
227.387	37.62
227.621	28.62
227.856	45.62
228.09	36.62
228.324	35.62
228.559	55.62
228.793	61.62
229.027	73.62
229.262	64.62
229.496	72.62
229.73	86.62
229.964	81.62
230.199	76.62
230.433	87.62
230.667	72.62
230.901	77.62
231.136	71.62
231.37	84.62
231.604	67.62
231.838	76.62
232.072	85.62
232.306	86.62
232.541	94.62
232.775	85.62
233.009	93.62
233.243	92.62
233.477	76.62
233.711	87.62
233.945	73.62
234.179	90.62
234.413	90.62
234.647	75.62
234.881	66.62
235.115	71.62
235.349	83.62
235.583	76.62
235.817	66.62
236.051	69.62
236.285	81.62
236.519	80.62
236.753	73.62
236.987	90.62
237.221	77.62
237.455	82.62
237.689	71.62
237.922	83.62
238.156	71.62
238.39	81.62
238.624	77.62
238.858	75.62
239.091	88.62
239.325	87.62
239.559	81.62
239.793	72.62
240.027	87.62
240.26	78.62
240.494	71.62
240.728	71.62
240.961	88.62
241.195	81.62
241.429	64.62
241.662	80.62
241.896	68.62
242.13	74.62
242.363	87.62
242.597	80.62
242.83	75.62
243.064	89.62
243.298	79.62
243.531	87.62
243.765	68.62
243.998	80.62
244.232	80.62
244.465	77.62
244.699	78.62
244.932	68.62
245.166	76.62
245.399	89.62
245.633	80.62
245.866	72.62
246.099	69.62
246.333	77.62
246.566	73.62
246.8	79.62
247.033	70.62
247.266	65.62
247.5	82.62
247.733	86.62
247.966	66.62
248.2	74.62
248.433	78.62
248.666	91.62
248.899	78.62
249.133	82.62
249.366	89.62
249.599	85.62
249.832	88.62
250.066	95.62
250.299	72.62
250.532	82.62
250.765	86.62
250.998	80.62
251.231	79.62
251.465	91.62
251.698	86.62
251.931	76.62
252.164	82.62
252.397	73.62
252.63	89.62
252.863	83.62
253.096	79.62
253.329	74.62
253.562	83.62
253.795	80.62
254.028	81.62
254.261	74.62
254.494	95.62
254.727	91.62
254.96	80.62
255.193	86.62
255.426	94.62
255.659	80.62
255.892	92.62
256.124	80.62
256.357	91.62
256.59	86.62
256.823	78.62
257.056	86.62
257.289	87.62
257.521	87.62
257.754	81.62
257.987	86.62
258.22	82.62
258.452	90.62
258.685	76.62
258.918	74.62
259.151	82.62
259.383	79.62
259.616	78.62
259.849	81.62
260.081	86.62
260.314	86.62
260.547	77.62
260.779	67.62
261.012	81.62
261.244	80.62
261.477	91.62
261.71	92.62
261.942	97.62
262.175	102.62
262.407	83.62
262.64	84.62
262.872	92.62
263.105	89.62
263.337	84.62
263.57	86.62
263.802	79.62
264.035	78.62
264.267	82.62
264.499	84.62
264.732	84.62
264.964	81.62
265.197	85.62
265.429	83.62
265.661	102.62
265.894	89.62
266.126	97.62
266.358	87.62
266.591	96.62
266.823	87.62
267.055	82.62
267.287	92.62
267.52	72.62
267.752	80.62
267.984	94.62
268.216	83.62
268.448	80.62
268.681	93.62
268.913	80.62
269.145	87.62
269.377	78.62
269.609	96.62
269.841	97.62
270.073	92.62
270.306	75.62
270.538	82.62
270.77	86.62
271.002	91.62
271.234	92.62
271.466	99.62
271.698	67.62
271.93	87.62
272.162	79.62
272.394	83.62
272.626	81.62
272.858	60.62
273.09	76.62
273.322	77.62
273.553	84.62
273.785	90.62
274.017	76.62
274.249	81.62
274.481	93.62
274.713	90.62
274.945	74.62
275.176	86.62
275.408	85.62
275.64	79.62
275.872	75.62
276.104	78.62
276.335	93.62
276.567	103.62
276.799	107.62
277.031	104.62
277.262	89.62
277.494	88.62
277.726	83.62
277.957	98.62
278.189	86.62
278.421	91.62
278.652	86.62
278.884	88.62
279.115	80.62
279.347	80.62
279.579	99.62
279.81	68.62
280.042	82.62
280.273	80.62
280.505	91.62
280.736	81.62
280.968	80.62
281.199	95.62
281.431	84.62
281.662	88.62
281.894	89.62
282.125	110.62
282.356	104.62
282.588	138.62
282.819	103.62
283.051	95.62
283.282	78.62
283.513	97.62
283.745	83.62
283.976	98.62
284.207	82.62
284.439	65.62
284.67	86.62
284.901	78.62
285.132	87.62
285.364	81.62
285.595	94.62
285.826	82.62
286.057	90.62
286.288	82.62
286.52	85.62
286.751	95.62
286.982	80.62
287.213	84.62
287.444	82.62
287.675	77.62
287.906	79.62
288.138	80.62
288.369	114.62
288.6	88.62
288.831	91.62
289.062	92.62
289.293	98.62
289.524	90.62
289.755	88.62
289.986	90.62
290.217	100.62
290.448	90.62
290.679	89.62
290.91	86.62
291.141	91.62
291.371	83.62
291.602	97.62
291.833	96.62
292.064	88.62
292.295	77.62
292.526	101.62
292.757	94.62
292.987	87.62
293.218	86.62
293.449	85.62
293.68	95.62
293.91	77.62
294.141	90.62
294.372	93.62
294.603	92.62
294.833	80.62
295.064	86.62
295.295	95.62
295.525	92.62
295.756	100.62
295.987	107.62
296.217	132.62
296.448	115.62
296.679	98.62
296.909	86.62
297.14	74.62
297.37	76.62
297.601	90.62
297.831	88.62
298.062	94.62
298.292	94.62
298.523	68.62
298.753	81.62
298.984	90.62
299.214	83.62
299.445	83.62
299.675	86.62
299.905	90.62
300.136	85.62
300.366	92.62
300.597	91.62
300.827	88.62
301.057	88.62
301.288	98.62
301.518	110.62
301.748	93.62
301.979	110.62
302.209	91.62
302.439	86.62
302.669	94.62
302.9	95.62
303.13	79.62
303.36	84.62
303.59	103.62
303.82	88.62
304.051	94.62
304.281	96.62
304.511	98.62
304.741	87.62
304.971	84.62
305.201	86.62
305.431	89.62
305.661	95.62
305.891	91.62
306.121	90.62
306.352	95.62
306.582	105.62
306.812	111.62
307.042	85.62
307.272	100.62
307.502	84.62
307.731	97.62
307.961	89.62
308.191	95.62
308.421	100.62
308.651	94.62
308.881	93.62
309.111	101.62
309.341	103.62
309.571	107.62
309.8	85.62
310.03	92.62
310.26	102.62
310.49	82.62
310.72	104.62
310.949	99.62
311.179	92.62
311.409	96.62
311.639	97.62
311.868	110.62
312.098	106.62
312.328	98.62
312.557	92.62
312.787	115.62
313.017	108.62
313.246	98.62
313.476	87.62
313.706	100.62
313.935	100.62
314.165	92.62
314.394	104.62
314.624	86.62
314.853	78.62
315.083	100.62
315.312	84.62
315.542	81.62
315.771	95.62
316.001	96.62
316.23	108.62
316.46	82.62
316.689	91.62
316.919	77.62
317.148	109.62
317.377	84.62
317.607	105.62
317.836	96.62
318.065	89.62
318.295	100.62
318.524	78.62
318.753	85.62
318.983	95.62
319.212	95.62
319.441	107.62
319.67	105.62
319.9	86.62
320.129	88.62
320.358	87.62
320.587	89.62
320.816	102.62
321.046	90.62
321.275	98.62
321.504	90.62
321.733	87.62
321.962	100.62
322.191	113.62
322.42	93.62
322.649	100.62
322.878	112.62
323.108	109.62
323.337	128.62
323.566	119.62
323.795	164.62
324.024	214.62
324.253	394.62
324.482	817.62
324.71	1670.62
324.939	2198.62
325.168	785.62
325.397	241.62
325.626	146.62
325.855	120.62
326.084	126.62
326.313	132.62
326.542	124.62
326.77	226.62
326.999	446.62
327.228	942.62
327.457	1712.62
327.686	1344.62
327.914	367.62
328.143	182.62
328.372	144.62
328.6	122.62
328.829	131.62
329.058	112.62
329.287	120.62
329.515	98.62
329.744	101.62
329.972	86.62
330.201	95.62
330.43	111.62
330.658	117.62
330.887	134.62
331.115	118.62
331.344	106.62
331.572	104.62
331.801	88.62
332.03	107.62
332.258	90.62
332.486	104.62
332.715	74.62
332.943	93.62
333.172	86.62
333.4	102.62
333.629	94.62
333.857	118.62
334.085	95.62
334.314	96.62
334.542	100.62
334.771	89.62
334.999	97.62
335.227	100.62
335.455	90.62
335.684	100.62
335.912	89.62
336.14	96.62
336.369	91.62
336.597	95.62
336.825	106.62
337.053	98.62
337.281	98.62
337.51	94.62
337.738	91.62
337.966	100.62
338.194	90.62
338.422	94.62
338.65	99.62
338.878	90.62
339.106	88.62
339.334	106.62
339.562	89.62
339.79	105.62
340.018	104.62
340.246	94.62
340.474	85.62
340.702	90.62
340.93	88.62
341.158	92.62
341.386	86.62
341.614	90.62
341.842	92.62
342.07	88.62
342.298	89.62
342.526	104.62
342.754	96.62
342.981	94.62
343.209	98.62
343.437	100.62
343.665	82.62
343.893	91.62
344.12	86.62
344.348	92.62
344.576	92.62
344.804	94.62
345.031	96.62
345.259	82.62
345.487	78.62
345.714	91.62
345.942	97.62
346.17	79.62
346.397	90.62
346.625	89.62
346.853	97.62
347.08	87.62
347.308	101.62
347.535	103.62
347.763	104.62
347.99	101.62
348.218	77.62
348.445	87.62
348.673	110.62
348.9	94.62
349.128	112.62
349.355	95.62
349.583	99.62
349.81	108.62
350.037	111.62
350.265	88.62
350.492	95.62
350.72	91.62
350.947	104.62
351.174	102.62
351.402	98.62
351.629	95.62
351.856	104.62
352.083	106.62
352.311	103.62
352.538	91.62
352.765	92.62
352.992	112.62
353.22	119.62
353.447	109.62
353.674	100.62
353.901	96.62
354.128	94.62
354.355	84.62
354.583	103.62
354.81	77.62
355.037	88.62
355.264	105.62
355.491	102.62
355.718	88.62
355.945	97.62
356.172	103.62
356.399	98.62
356.626	95.62
356.853	100.62
357.08	103.62
357.307	84.62
357.534	97.62
357.761	83.62
357.988	79.62
358.215	104.62
358.441	93.62
358.668	105.62
358.895	76.62
359.122	90.62
359.349	82.62
359.576	89.62
359.802	115.62
360.029	105.62
360.256	96.62
360.483	96.62
360.709	88.62
360.936	88.62
361.163	93.62
361.39	95.62
361.616	92.62
361.843	84.62
362.07	103.62
362.296	85.62
362.523	78.62
362.749	90.62
362.976	80.62
363.203	83.62
363.429	95.62
363.656	90.62
363.882	80.62
364.109	85.62
364.335	96.62
364.562	99.62
364.788	91.62
365.015	94.62
365.241	102.62
365.468	107.62
365.694	101.62
365.92	95.62
366.147	96.62
366.373	75.62
366.599	94.62
366.826	78.62
367.052	97.62
367.278	91.62
367.505	99.62
367.731	107.62
367.957	91.62
368.184	80.62
368.41	90.62
368.636	109.62
368.862	105.62
369.089	104.62
369.315	86.62
369.541	86.62
369.767	90.62
369.993	80.62
370.219	94.62
370.445	91.62
370.672	77.62
370.898	86.62
371.124	97.62
371.35	81.62
371.576	82.62
371.802	75.62
372.028	90.62
372.254	85.62
372.48	94.62
372.706	87.62
372.932	92.62
373.158	86.62
373.384	93.62
373.61	99.62
373.835	79.62
374.061	88.62
374.287	83.62
374.513	86.62
374.739	99.62
374.965	92.62
375.191	95.62
375.416	94.62
375.642	88.62
375.868	99.62
376.094	96.62
376.319	83.62
376.545	92.62
376.771	106.62
376.997	88.62
377.222	92.62
377.448	92.62
377.674	85.62
377.899	91.62
378.125	106.62
378.35	98.62
378.576	93.62
378.802	97.62
379.027	97.62
379.253	83.62
379.478	107.62
379.704	86.62
379.929	102.62
380.155	103.62
380.38	78.62
380.606	96.62
380.831	100.62
381.057	103.62
381.282	83.62
381.507	104.62
381.733	96.62
381.958	99.62
382.184	95.62
382.409	102.62
382.634	95.62
382.86	89.62
383.085	107.62
383.31	86.62
383.535	102.62
383.761	101.62
383.986	85.62
384.211	91.62
384.436	96.62
384.662	99.62
384.887	100.62
385.112	110.62
385.337	97.62
385.562	95.62
385.787	107.62
386.013	91.62
386.238	105.62
386.463	94.62
386.688	99.62
386.913	106.62
387.138	100.62
387.363	99.62
387.588	85.62
387.813	107.62
388.038	100.62
388.263	121.62
388.488	115.62
388.713	92.62
388.938	103.62
389.163	110.62
389.387	99.62
389.612	95.62
389.837	109.62
390.062	94.62
390.287	88.62
390.512	86.62
390.736	87.62
390.961	90.62
391.186	104.62
391.411	91.62
391.636	74.62
391.86	93.62
392.085	93.62
392.31	87.62
392.534	106.62
392.759	73.62
392.984	91.62
393.208	74.62
393.433	85.62
393.658	95.62
393.882	90.62
394.107	89.62
394.331	90.62
394.556	87.62
394.78	92.62
395.005	90.62
395.229	79.62
395.454	94.62
395.678	91.62
395.903	104.62
396.127	84.62
396.352	77.62
396.576	87.62
396.801	90.62
397.025	98.62
397.249	95.62
397.474	97.62
397.698	73.62
397.922	90.62
398.147	84.62
398.371	82.62
398.595	93.62
398.82	78.62
399.044	99.62
399.268	94.62
399.492	91.62
399.717	78.62
399.941	95.62
400.165	95.62
400.389	102.62
400.613	84.62
400.837	90.62
401.062	77.62
401.286	80.62
401.51	90.62
401.734	82.62
401.958	95.62
402.182	123.62
402.406	154.62
402.63	102.62
402.854	97.62
403.078	89.62
403.302	96.62
403.526	99.62
403.75	95.62
403.974	93.62
404.198	106.62
404.422	92.62
404.645	91.62
404.869	97.62
405.093	86.62
405.317	88.62
405.541	90.62
405.765	99.62
405.988	100.62
406.212	154.62
406.436	231.62
406.66	128.62
406.883	110.62
407.107	90.62
407.331	96.62
407.555	106.62
407.778	87.62
408.002	86.62
408.226	90.62
408.449	76.62
408.673	98.62
408.896	101.62
409.12	85.62
409.344	65.62
409.567	80.62
409.791	97.62
410.014	88.62
410.238	92.62
410.461	90.62
410.685	92.62
410.908	107.62
411.132	100.62
411.355	83.62
411.578	86.62
411.802	100.62
412.025	90.62
412.249	100.62
412.472	88.62
412.695	86.62
412.919	83.62
413.142	94.62
413.365	72.62
413.589	91.62
413.812	84.62
414.035	96.62
414.258	105.62
414.482	90.62
414.705	83.62
414.928	89.62
415.151	96.62
415.374	86.62
415.597	86.62
415.821	87.62
416.044	91.62
416.267	106.62
416.49	81.62
416.713	91.62
416.936	93.62
417.159	96.62
417.382	77.62
417.605	97.62
417.828	87.62
418.051	95.62
418.274	87.62
418.497	91.62
418.72	88.62
418.943	95.62
419.166	95.62
419.389	85.62
419.611	74.62
419.834	97.62
420.057	75.62
420.28	94.62
420.503	102.62
420.726	99.62
420.948	90.62
421.171	100.62
421.394	98.62
421.617	89.62
421.839	95.62
422.062	84.62
422.285	99.62
422.507	103.62
422.73	97.62
422.953	100.62
423.175	88.62
423.398	97.62
423.621	100.62
423.843	84.62
424.066	84.62
424.288	89.62
424.511	99.62
424.733	91.62
424.956	104.62
425.178	83.62
425.401	102.62
425.623	92.62
425.846	103.62
426.068	93.62
426.291	92.62
426.513	91.62
426.735	82.62
426.958	97.62
427.18	106.62
427.402	131.62
427.625	174.62
427.847	121.62
428.069	100.62
428.292	94.62
428.514	92.62
428.736	89.62
428.958	77.62
429.181	94.62
429.403	91.62
429.625	89.62
429.847	96.62
430.069	106.62
430.292	105.62
430.514	92.62
430.736	89.62
430.958	90.62
431.18	88.62
431.402	75.62
431.624	87.62
431.846	74.62
432.068	78.62
432.29	81.62
432.512	85.62
432.734	89.62
432.956	93.62
433.178	104.62
433.4	86.62
433.622	86.62
433.844	100.62
434.066	94.62
434.287	90.62
434.509	80.62
434.731	98.62
434.953	96.62
435.175	103.62
435.397	88.62
435.618	111.62
435.84	104.62
436.062	115.62
436.284	123.62
436.505	107.62
436.727	102.62
436.949	97.62
437.17	83.62
437.392	97.62
437.614	94.62
437.835	108.62
438.057	118.62
438.278	115.62
438.5	109.62
438.721	116.62
438.943	111.62
439.165	71.62
439.386	88.62
439.608	97.62
439.829	96.62
440.05	124.62
440.272	140.62
440.493	99.62
440.715	78.62
440.936	90.62
441.158	99.62
441.379	90.62
441.6	88.62
441.822	99.62
442.043	105.62
442.264	109.62
442.486	107.62
442.707	98.62
442.928	105.62
443.149	123.62
443.371	125.62
443.592	107.62
443.813	112.62
444.034	113.62
444.255	83.62
444.476	83.62
444.698	93.62
444.919	87.62
445.14	140.62
445.361	123.62
445.582	93.62
445.803	119.62
446.024	129.62
446.245	129.62
446.466	119.62
446.687	99.62
446.908	75.62
447.129	89.62
447.35	86.62
447.571	88.62
447.792	101.62
448.013	92.62
448.234	95.62
448.455	102.62
448.675	113.62
448.896	112.62
449.117	98.62
449.338	102.62
449.559	125.62
449.779	146.62
450	86.62
450.221	98.62
450.442	100.62
450.662	80.62
450.883	108.62
451.104	113.62
451.324	100.62
451.545	90.62
451.766	90.62
451.986	92.62
452.207	89.62
452.428	94.62
452.648	96.62
452.869	104.62
453.089	98.62
453.31	115.62
453.53	100.62
453.751	86.62
453.971	95.62
454.192	97.62
454.412	78.62
454.633	86.62
454.853	95.62
455.073	90.62
455.294	80.62
455.514	97.62
455.734	82.62
455.955	66.62
456.175	80.62
456.395	90.62
456.616	74.62
456.836	100.62
457.056	89.62
457.276	91.62
457.497	87.62
457.717	89.62
457.937	88.62
458.157	85.62
458.377	90.62
458.598	114.62
458.818	132.62
459.038	154.62
459.258	111.62
459.478	89.62
459.698	89.62
459.918	87.62
460.138	87.62
460.358	98.62
460.578	80.62
460.798	75.62
461.018	101.62
461.238	105.62
461.458	67.62
461.678	102.62
461.898	79.62
462.118	82.62
462.338	83.62
462.558	87.62
462.777	86.62
462.997	95.62
463.217	87.62
463.437	82.62
463.657	82.62
463.876	78.62
464.096	91.62
464.316	87.62
464.536	98.62
464.755	95.62
464.975	108.62
465.195	165.62
465.414	146.62
465.634	100.62
465.854	79.62
466.073	96.62
466.293	90.62
466.512	84.62
466.732	99.62
466.951	105.62
467.171	74.62
467.391	96.62
467.61	100.62
467.829	87.62
468.049	95.62
468.268	97.62
468.488	77.62
468.707	91.62
468.927	76.62
469.146	101.62
469.365	88.62
469.585	88.62
469.804	96.62
470.023	88.62
470.243	109.62
470.462	82.62
470.681	104.62
470.901	83.62
471.12	89.62
471.339	90.62
471.558	98.62
471.777	92.62
471.997	86.62
472.216	93.62
472.435	102.62
472.654	96.62
472.873	101.62
473.092	93.62
473.311	74.62
473.53	89.62
473.749	92.62
473.968	96.62
474.187	105.62
474.406	91.62
474.625	101.62
474.844	80.62
475.063	91.62
475.282	88.62
475.501	79.62
475.72	95.62
475.939	79.62
476.158	94.62
476.377	82.62
476.596	84.62
476.814	91.62
477.033	91.62
477.252	95.62
477.471	78.62
477.69	96.62
477.908	79.62
478.127	99.62
478.346	95.62
478.564	86.62
478.783	97.62
479.002	86.62
479.22	81.62
479.439	88.62
479.658	97.62
479.876	95.62
480.095	94.62
480.313	90.62
480.532	99.62
480.751	97.62
480.969	101.62
481.188	110.62
481.406	90.62
481.624	88.62
481.843	99.62
482.061	98.62
482.28	94.62
482.498	94.62
482.717	81.62
482.935	82.62
483.153	97.62
483.372	77.62
483.59	97.62
483.808	93.62
484.027	104.62
484.245	107.62
484.463	107.62
484.681	92.62
484.9	89.62
485.118	102.62
485.336	99.62
485.554	85.62
485.772	92.62
485.99	101.62
486.209	102.62
486.427	105.62
486.645	98.62
486.863	106.62
487.081	106.62
487.299	84.62
487.517	94.62
487.735	88.62
487.953	98.62
488.171	82.62
488.389	88.62
488.607	92.62
488.825	98.62
489.043	86.62
489.261	106.62
489.479	90.62
489.696	92.62
489.914	90.62
490.132	87.62
490.35	98.62
490.568	81.62
490.786	79.62
491.003	89.62
491.221	89.62
491.439	79.62
491.657	79.62
491.874	94.62
492.092	75.62
492.31	106.62
492.527	91.62
492.745	79.62
492.963	96.62
493.18	103.62
493.398	85.62
493.615	91.62
493.833	91.62
494.05	76.62
494.268	79.62
494.485	83.62
494.703	81.62
494.92	81.62
495.138	76.62
495.355	81.62
495.573	100.62
495.79	91.62
496.008	90.62
496.225	87.62
496.442	86.62
496.66	89.62
496.877	104.62
497.094	96.62
497.312	96.62
497.529	80.62
497.746	103.62
497.963	90.62
498.181	97.62
498.398	92.62
498.615	102.62
498.832	100.62
499.049	86.62
499.267	95.62
499.484	87.62
499.701	81.62
499.918	81.62
500.135	81.62
500.352	84.62
500.569	81.62
500.786	106.62
501.003	82.62
501.22	82.62
501.437	92.62
501.654	96.62
501.871	87.62
502.088	88.62
502.305	103.62
502.522	86.62
502.739	100.62
502.956	89.62
503.172	90.62
503.389	109.62
503.606	102.62
503.823	101.62
504.04	90.62
504.256	83.62
504.473	76.62
504.69	90.62
504.907	89.62
505.123	91.62
505.34	81.62
505.557	88.62
505.773	91.62
505.99	83.62
506.207	99.62
506.423	84.62
506.64	105.62
506.856	89.62
507.073	94.62
507.289	96.62
507.506	93.62
507.722	99.62
507.939	105.62
508.155	85.62
508.372	94.62
508.588	89.62
508.805	91.62
509.021	100.62
509.238	103.62
509.454	91.62
509.67	81.62
509.887	115.62
510.103	150.62
510.319	217.62
510.536	732.62
510.752	2258.62
510.968	636.62
511.184	144.62
511.401	105.62
511.617	102.62
511.833	81.62
512.049	86.62
512.265	99.62
512.481	83.62
512.698	90.62
512.914	105.62
513.13	87.62
513.346	94.62
513.562	97.62
513.778	117.62
513.994	107.62
514.21	112.62
514.426	114.62
514.642	131.62
514.858	147.62
515.074	155.62
515.29	416.62
515.506	1360.62
515.721	510.62
