Data from Uncirc_1998_H10_HRD10591_00049.txt Node
Date: Wed Jan 03 11:25:34 EST 2024
User: Yrep
Spectrometer: HR+D1059
Trigger mode: 1
Integration Time (sec): 1.000000E-1
Scans to average: 1
Electric dark correction enabled: true
Nonlinearity correction enabled: false
Boxcar width: 0
XAxis mode: Wavelengths
Number of Pixels in Spectrum: 2048
>>>>>Begin Spectral Data<<<<<
223.165	-26.44
223.4	-26.44
223.635	-26.44
223.869	-13.44
224.104	-10.44
224.338	-20.44
224.573	-3.44
224.808	-2.44
225.042	-7.44
225.277	-17.44
225.511	-5.44
225.746	-2.44
225.98	7.56
226.215	11.56
226.449	9.56
226.683	25.56
226.918	26.56
227.152	28.56
227.387	39.56
227.621	30.56
227.856	37.56
228.09	53.56
228.324	55.56
228.559	47.56
228.793	63.56
229.027	59.56
229.262	57.56
229.496	47.56
229.73	82.56
229.964	79.56
230.199	75.56
230.433	74.56
230.667	77.56
230.901	66.56
231.136	87.56
231.37	87.56
231.604	87.56
231.838	87.56
232.072	88.56
232.306	81.56
232.541	80.56
232.775	93.56
233.009	83.56
233.243	86.56
233.477	77.56
233.711	71.56
233.945	75.56
234.179	85.56
234.413	79.56
234.647	66.56
234.881	87.56
235.115	78.56
235.349	83.56
235.583	73.56
235.817	61.56
236.051	83.56
236.285	59.56
236.519	84.56
236.753	81.56
236.987	82.56
237.221	74.56
237.455	69.56
237.689	85.56
237.922	77.56
238.156	62.56
238.39	76.56
238.624	73.56
238.858	75.56
239.091	94.56
239.325	75.56
239.559	67.56
239.793	71.56
240.027	71.56
240.26	77.56
240.494	76.56
240.728	71.56
240.961	71.56
241.195	78.56
241.429	78.56
241.662	72.56
241.896	84.56
242.13	84.56
242.363	89.56
242.597	73.56
242.83	73.56
243.064	67.56
243.298	92.56
243.531	64.56
243.765	77.56
243.998	86.56
244.232	67.56
244.465	80.56
244.699	92.56
244.932	77.56
245.166	77.56
245.399	73.56
245.633	86.56
245.866	79.56
246.099	78.56
246.333	76.56
246.566	78.56
246.8	89.56
247.033	83.56
247.266	80.56
247.5	86.56
247.733	65.56
247.966	86.56
248.2	73.56
248.433	73.56
248.666	90.56
248.899	93.56
249.133	84.56
249.366	103.56
249.599	96.56
249.832	97.56
250.066	85.56
250.299	66.56
250.532	71.56
250.765	75.56
250.998	82.56
251.231	66.56
251.465	83.56
251.698	64.56
251.931	69.56
252.164	87.56
252.397	75.56
252.63	83.56
252.863	79.56
253.096	76.56
253.329	80.56
253.562	68.56
253.795	82.56
254.028	80.56
254.261	81.56
254.494	85.56
254.727	73.56
254.96	83.56
255.193	80.56
255.426	76.56
255.659	80.56
255.892	91.56
256.124	71.56
256.357	98.56
256.59	81.56
256.823	95.56
257.056	87.56
257.289	78.56
257.521	78.56
257.754	71.56
257.987	77.56
258.22	89.56
258.452	62.56
258.685	81.56
258.918	93.56
259.151	95.56
259.383	82.56
259.616	81.56
259.849	75.56
260.081	82.56
260.314	72.56
260.547	78.56
260.779	73.56
261.012	88.56
261.244	83.56
261.477	79.56
261.71	78.56
261.942	94.56
262.175	105.56
262.407	79.56
262.64	82.56
262.872	77.56
263.105	83.56
263.337	78.56
263.57	88.56
263.802	91.56
264.035	85.56
264.267	74.56
264.499	71.56
264.732	92.56
264.964	71.56
265.197	83.56
265.429	81.56
265.661	83.56
265.894	87.56
266.126	82.56
266.358	105.56
266.591	80.56
266.823	83.56
267.055	72.56
267.287	81.56
267.52	79.56
267.752	81.56
267.984	94.56
268.216	66.56
268.448	82.56
268.681	73.56
268.913	83.56
269.145	81.56
269.377	89.56
269.609	93.56
269.841	91.56
270.073	89.56
270.306	81.56
270.538	72.56
270.77	77.56
271.002	89.56
271.234	80.56
271.466	85.56
271.698	81.56
271.93	87.56
272.162	81.56
272.394	93.56
272.626	73.56
272.858	86.56
273.09	92.56
273.322	80.56
273.553	71.56
273.785	69.56
274.017	79.56
274.249	87.56
274.481	74.56
274.713	89.56
274.945	90.56
275.176	89.56
275.408	84.56
275.64	70.56
275.872	90.56
276.104	89.56
276.335	72.56
276.567	87.56
276.799	83.56
277.031	88.56
277.262	81.56
277.494	94.56
277.726	81.56
277.957	85.56
278.189	94.56
278.421	78.56
278.652	86.56
278.884	99.56
279.115	89.56
279.347	93.56
279.579	94.56
279.81	82.56
280.042	80.56
280.273	78.56
280.505	88.56
280.736	93.56
280.968	86.56
281.199	97.56
281.431	96.56
281.662	89.56
281.894	98.56
282.125	91.56
282.356	121.56
282.588	119.56
282.819	113.56
283.051	87.56
283.282	87.56
283.513	90.56
283.745	91.56
283.976	85.56
284.207	93.56
284.439	76.56
284.67	83.56
284.901	75.56
285.132	77.56
285.364	84.56
285.595	91.56
285.826	85.56
286.057	87.56
286.288	81.56
286.52	91.56
286.751	88.56
286.982	103.56
287.213	90.56
287.444	88.56
287.675	80.56
287.906	76.56
288.138	85.56
288.369	88.56
288.6	88.56
288.831	98.56
289.062	91.56
289.293	83.56
289.524	81.56
289.755	88.56
289.986	96.56
290.217	87.56
290.448	77.56
290.679	90.56
290.91	114.56
291.141	79.56
291.371	78.56
291.602	90.56
291.833	91.56
292.064	85.56
292.295	91.56
292.526	76.56
292.757	89.56
292.987	95.56
293.218	86.56
293.449	74.56
293.68	94.56
293.91	95.56
294.141	98.56
294.372	93.56
294.603	66.56
294.833	85.56
295.064	85.56
295.295	82.56
295.525	93.56
295.756	101.56
295.987	93.56
296.217	120.56
296.448	114.56
296.679	88.56
296.909	94.56
297.14	95.56
297.37	85.56
297.601	82.56
297.831	86.56
298.062	99.56
298.292	86.56
298.523	91.56
298.753	91.56
298.984	85.56
299.214	92.56
299.445	86.56
299.675	96.56
299.905	88.56
300.136	96.56
300.366	67.56
300.597	83.56
300.827	88.56
301.057	83.56
301.288	94.56
301.518	98.56
301.748	89.56
301.979	112.56
302.209	80.56
302.439	74.56
302.669	99.56
302.9	77.56
303.13	88.56
303.36	103.56
303.59	89.56
303.82	100.56
304.051	88.56
304.281	90.56
304.511	93.56
304.741	81.56
304.971	87.56
305.201	97.56
305.431	91.56
305.661	90.56
305.891	77.56
306.121	85.56
306.352	103.56
306.582	91.56
306.812	95.56
307.042	82.56
307.272	82.56
307.502	94.56
307.731	98.56
307.961	88.56
308.191	83.56
308.421	90.56
308.651	83.56
308.881	83.56
309.111	93.56
309.341	90.56
309.571	106.56
309.8	96.56
310.03	83.56
310.26	90.56
310.49	97.56
310.72	79.56
310.949	95.56
311.179	90.56
311.409	96.56
311.639	82.56
311.868	99.56
312.098	90.56
312.328	99.56
312.557	97.56
312.787	105.56
313.017	109.56
313.246	95.56
313.476	88.56
313.706	97.56
313.935	93.56
314.165	79.56
314.394	99.56
314.624	101.56
314.853	80.56
315.083	88.56
315.312	100.56
315.542	85.56
315.771	80.56
316.001	83.56
316.23	79.56
316.46	98.56
316.689	85.56
316.919	85.56
317.148	91.56
317.377	91.56
317.607	99.56
317.836	85.56
318.065	87.56
318.295	82.56
318.524	90.56
318.753	95.56
318.983	95.56
319.212	82.56
319.441	96.56
319.67	99.56
319.9	101.56
320.129	91.56
320.358	99.56
320.587	105.56
320.816	91.56
321.046	103.56
321.275	81.56
321.504	87.56
321.733	109.56
321.962	95.56
322.191	90.56
322.42	105.56
322.649	96.56
322.878	95.56
323.108	97.56
323.337	100.56
323.566	128.56
323.795	130.56
324.024	184.56
324.253	342.56
324.482	665.56
324.71	1358.56
324.939	1761.56
325.168	680.56
325.397	211.56
325.626	142.56
325.855	120.56
326.084	121.56
326.313	124.56
326.542	155.56
326.77	192.56
326.999	398.56
327.228	781.56
327.457	1411.56
327.686	1114.56
327.914	315.56
328.143	167.56
328.372	118.56
328.6	107.56
328.829	99.56
329.058	105.56
329.287	107.56
329.515	101.56
329.744	98.56
329.972	99.56
330.201	107.56
330.43	105.56
330.658	114.56
330.887	116.56
331.115	94.56
331.344	100.56
331.572	94.56
331.801	96.56
332.03	103.56
332.258	91.56
332.486	93.56
332.715	95.56
332.943	86.56
333.172	89.56
333.4	104.56
333.629	104.56
333.857	108.56
334.085	102.56
334.314	99.56
334.542	97.56
334.771	103.56
334.999	98.56
335.227	80.56
335.455	90.56
335.684	88.56
335.912	99.56
336.14	90.56
336.369	90.56
336.597	109.56
336.825	102.56
337.053	95.56
337.281	93.56
337.51	91.56
337.738	82.56
337.966	86.56
338.194	90.56
338.422	94.56
338.65	89.56
338.878	92.56
339.106	99.56
339.334	90.56
339.562	85.56
339.79	84.56
340.018	83.56
340.246	86.56
340.474	105.56
340.702	90.56
340.93	90.56
341.158	86.56
341.386	101.56
341.614	92.56
341.842	87.56
342.07	95.56
342.298	90.56
342.526	97.56
342.754	99.56
342.981	92.56
343.209	78.56
343.437	106.56
343.665	89.56
343.893	104.56
344.12	94.56
344.348	89.56
344.576	89.56
344.804	86.56
345.031	87.56
345.259	115.56
345.487	97.56
345.714	87.56
345.942	81.56
346.17	99.56
346.397	91.56
346.625	81.56
346.853	86.56
347.08	81.56
347.308	96.56
347.535	97.56
347.763	96.56
347.99	96.56
348.218	102.56
348.445	105.56
348.673	101.56
348.9	89.56
349.128	100.56
349.355	78.56
349.583	90.56
349.81	91.56
350.037	89.56
350.265	104.56
350.492	90.56
350.72	88.56
350.947	78.56
351.174	112.56
351.402	105.56
351.629	101.56
351.856	93.56
352.083	100.56
352.311	99.56
352.538	96.56
352.765	113.56
352.992	114.56
353.22	113.56
353.447	105.56
353.674	110.56
353.901	90.56
354.128	96.56
354.355	94.56
354.583	83.56
354.81	91.56
355.037	110.56
355.264	97.56
355.491	92.56
355.718	108.56
355.945	90.56
356.172	85.56
356.399	97.56
356.626	98.56
356.853	81.56
357.08	88.56
357.307	91.56
357.534	97.56
357.761	106.56
357.988	102.56
358.215	89.56
358.441	105.56
358.668	94.56
358.895	79.56
359.122	106.56
359.349	97.56
359.576	87.56
359.802	106.56
360.029	86.56
360.256	95.56
360.483	95.56
360.709	83.56
360.936	94.56
361.163	93.56
361.39	95.56
361.616	97.56
361.843	102.56
362.07	93.56
362.296	102.56
362.523	83.56
362.749	93.56
362.976	88.56
363.203	96.56
363.429	91.56
363.656	67.56
363.882	82.56
364.109	83.56
364.335	88.56
364.562	95.56
364.788	95.56
365.015	78.56
365.241	94.56
365.468	106.56
365.694	90.56
365.92	105.56
366.147	87.56
366.373	75.56
366.599	70.56
366.826	93.56
367.052	93.56
367.278	74.56
367.505	97.56
367.731	93.56
367.957	80.56
368.184	95.56
368.41	89.56
368.636	105.56
368.862	102.56
369.089	89.56
369.315	88.56
369.541	82.56
369.767	85.56
369.993	88.56
370.219	78.56
370.445	95.56
370.672	91.56
370.898	103.56
371.124	77.56
371.35	94.56
371.576	90.56
371.802	77.56
372.028	88.56
372.254	80.56
372.48	93.56
372.706	89.56
372.932	79.56
373.158	88.56
373.384	94.56
373.61	92.56
373.835	78.56
374.061	85.56
374.287	83.56
374.513	77.56
374.739	93.56
374.965	94.56
375.191	89.56
375.416	93.56
375.642	97.56
375.868	91.56
376.094	98.56
376.319	98.56
376.545	88.56
376.771	89.56
376.997	96.56
377.222	84.56
377.448	93.56
377.674	92.56
377.899	70.56
378.125	74.56
378.35	96.56
378.576	95.56
378.802	75.56
379.027	81.56
379.253	102.56
379.478	85.56
379.704	83.56
379.929	92.56
380.155	75.56
380.38	96.56
380.606	88.56
380.831	87.56
381.057	91.56
381.282	94.56
381.507	98.56
381.733	93.56
381.958	86.56
382.184	96.56
382.409	89.56
382.634	102.56
382.86	79.56
383.085	108.56
383.31	88.56
383.535	90.56
383.761	93.56
383.986	91.56
384.211	98.56
384.436	85.56
384.662	98.56
384.887	98.56
385.112	101.56
385.337	113.56
385.562	97.56
385.787	105.56
386.013	105.56
386.238	107.56
386.463	96.56
386.688	86.56
386.913	106.56
387.138	102.56
387.363	93.56
387.588	81.56
387.813	97.56
388.038	83.56
388.263	82.56
388.488	100.56
388.713	92.56
388.938	99.56
389.163	97.56
389.387	96.56
389.612	106.56
389.837	92.56
390.062	97.56
390.287	89.56
390.512	84.56
390.736	87.56
390.961	93.56
391.186	89.56
391.411	79.56
391.636	99.56
391.86	85.56
392.085	69.56
392.31	71.56
392.534	82.56
392.759	75.56
392.984	96.56
393.208	81.56
393.433	89.56
393.658	82.56
393.882	68.56
394.107	83.56
394.331	93.56
394.556	88.56
394.78	81.56
395.005	85.56
395.229	81.56
395.454	83.56
395.678	83.56
395.903	74.56
396.127	91.56
396.352	80.56
396.576	74.56
396.801	90.56
397.025	84.56
397.249	96.56
397.474	90.56
397.698	95.56
397.922	82.56
398.147	86.56
398.371	92.56
398.595	84.56
398.82	75.56
399.044	85.56
399.268	91.56
399.492	85.56
399.717	73.56
399.941	88.56
400.165	96.56
400.389	101.56
400.613	91.56
400.837	88.56
401.062	82.56
401.286	81.56
401.51	94.56
401.734	79.56
401.958	96.56
402.182	123.56
402.406	135.56
402.63	99.56
402.854	86.56
403.078	97.56
403.302	94.56
403.526	81.56
403.75	89.56
403.974	95.56
404.198	89.56
404.422	101.56
404.645	73.56
404.869	75.56
405.093	103.56
405.317	97.56
405.541	94.56
405.765	99.56
405.988	112.56
406.212	142.56
406.436	203.56
406.66	128.56
406.883	101.56
407.107	97.56
407.331	103.56
407.555	108.56
407.778	82.56
408.002	113.56
408.226	93.56
408.449	89.56
408.673	105.56
408.896	93.56
409.12	99.56
409.344	78.56
409.567	77.56
409.791	85.56
410.014	93.56
410.238	83.56
410.461	83.56
410.685	93.56
410.908	89.56
411.132	91.56
411.355	105.56
411.578	98.56
411.802	83.56
412.025	95.56
412.249	93.56
412.472	87.56
412.695	89.56
412.919	92.56
413.142	93.56
413.365	94.56
413.589	81.56
413.812	77.56
414.035	87.56
414.258	89.56
414.482	99.56
414.705	106.56
414.928	91.56
415.151	95.56
415.374	111.56
415.597	82.56
415.821	81.56
416.044	91.56
416.267	96.56
416.49	84.56
416.713	95.56
416.936	89.56
417.159	86.56
417.382	77.56
417.605	89.56
417.828	87.56
418.051	80.56
418.274	81.56
418.497	87.56
418.72	75.56
418.943	89.56
419.166	76.56
419.389	82.56
419.611	86.56
419.834	105.56
420.057	96.56
420.28	95.56
420.503	94.56
420.726	93.56
420.948	91.56
421.171	86.56
421.394	92.56
421.617	95.56
421.839	84.56
422.062	91.56
422.285	84.56
422.507	89.56
422.73	93.56
422.953	83.56
423.175	71.56
423.398	90.56
423.621	74.56
423.843	97.56
424.066	80.56
424.288	94.56
424.511	86.56
424.733	75.56
424.956	101.56
425.178	83.56
425.401	94.56
425.623	94.56
425.846	81.56
426.068	99.56
426.291	94.56
426.513	85.56
426.735	89.56
426.958	84.56
427.18	107.56
427.402	122.56
427.625	152.56
427.847	113.56
428.069	123.56
428.292	86.56
428.514	87.56
428.736	90.56
428.958	79.56
429.181	83.56
429.403	61.56
429.625	99.56
429.847	90.56
430.069	82.56
430.292	94.56
430.514	81.56
430.736	92.56
430.958	86.56
431.18	86.56
431.402	78.56
431.624	90.56
431.846	77.56
432.068	96.56
432.29	82.56
432.512	85.56
432.734	84.56
432.956	87.56
433.178	86.56
433.4	99.56
433.622	92.56
433.844	82.56
434.066	97.56
434.287	89.56
434.509	98.56
434.731	93.56
434.953	98.56
435.175	99.56
435.397	86.56
435.618	95.56
435.84	105.56
436.062	107.56
436.284	101.56
436.505	93.56
436.727	94.56
436.949	78.56
437.17	86.56
437.392	93.56
437.614	92.56
437.835	98.56
438.057	95.56
438.278	106.56
438.5	97.56
438.721	111.56
438.943	91.56
439.165	75.56
439.386	78.56
439.608	93.56
439.829	98.56
440.05	108.56
440.272	141.56
440.493	96.56
440.715	71.56
440.936	73.56
441.158	80.56
441.379	87.56
441.6	88.56
441.822	93.56
442.043	98.56
442.264	98.56
442.486	90.56
442.707	97.56
442.928	89.56
443.149	120.56
443.371	126.56
443.592	102.56
443.813	103.56
444.034	100.56
444.255	84.56
444.476	79.56
444.698	83.56
444.919	79.56
445.14	119.56
445.361	110.56
445.582	116.56
445.803	105.56
446.024	108.56
446.245	117.56
446.466	98.56
446.687	82.56
446.908	84.56
447.129	73.56
447.35	83.56
447.571	76.56
447.792	78.56
448.013	117.56
448.234	103.56
448.455	102.56
448.675	99.56
448.896	104.56
449.117	115.56
449.338	105.56
449.559	112.56
449.779	127.56
450	91.56
450.221	96.56
450.442	91.56
450.662	88.56
450.883	88.56
451.104	92.56
451.324	101.56
451.545	81.56
451.766	95.56
451.986	83.56
452.207	73.56
452.428	106.56
452.648	95.56
452.869	108.56
453.089	120.56
453.31	105.56
453.53	92.56
453.751	83.56
453.971	89.56
454.192	85.56
454.412	107.56
454.633	97.56
454.853	96.56
455.073	76.56
455.294	98.56
455.514	88.56
455.734	102.56
455.955	77.56
456.175	87.56
456.395	84.56
456.616	96.56
456.836	99.56
457.056	94.56
457.276	94.56
457.497	93.56
457.717	81.56
457.937	79.56
458.157	88.56
458.377	93.56
458.598	97.56
458.818	122.56
459.038	142.56
459.258	100.56
459.478	100.56
459.698	79.56
459.918	79.56
460.138	89.56
460.358	85.56
460.578	90.56
460.798	98.56
461.018	96.56
461.238	79.56
461.458	89.56
461.678	81.56
461.898	73.56
462.118	84.56
462.338	78.56
462.558	83.56
462.777	95.56
462.997	93.56
463.217	74.56
463.437	100.56
463.657	89.56
463.876	89.56
464.096	101.56
464.316	92.56
464.536	87.56
464.755	93.56
464.975	102.56
465.195	152.56
465.414	128.56
465.634	84.56
465.854	93.56
466.073	99.56
466.293	95.56
466.512	82.56
466.732	83.56
466.951	77.56
467.171	84.56
467.391	88.56
467.61	93.56
467.829	89.56
468.049	82.56
468.268	80.56
468.488	92.56
468.707	104.56
468.927	89.56
469.146	92.56
469.365	93.56
469.585	85.56
469.804	79.56
470.023	103.56
470.243	92.56
470.462	97.56
470.681	111.56
470.901	108.56
471.12	86.56
471.339	75.56
471.558	85.56
471.777	83.56
471.997	91.56
472.216	93.56
472.435	88.56
472.654	98.56
472.873	79.56
473.092	78.56
473.311	96.56
473.53	82.56
473.749	90.56
473.968	102.56
474.187	94.56
474.406	90.56
474.625	94.56
474.844	86.56
475.063	74.56
475.282	87.56
475.501	88.56
475.72	95.56
475.939	88.56
476.158	82.56
476.377	96.56
476.596	88.56
476.814	83.56
477.033	99.56
477.252	85.56
477.471	75.56
477.69	81.56
477.908	95.56
478.127	86.56
478.346	98.56
478.564	89.56
478.783	104.56
479.002	93.56
479.22	75.56
479.439	102.56
479.658	86.56
479.876	99.56
480.095	94.56
480.313	83.56
480.532	97.56
480.751	92.56
480.969	71.56
481.188	92.56
481.406	85.56
481.624	84.56
481.843	87.56
482.061	96.56
482.28	97.56
482.498	83.56
482.717	58.56
482.935	87.56
483.153	97.56
483.372	91.56
483.59	87.56
483.808	95.56
484.027	100.56
484.245	86.56
484.463	91.56
484.681	92.56
484.9	85.56
485.118	82.56
485.336	98.56
485.554	93.56
485.772	85.56
485.99	98.56
486.209	109.56
486.427	105.56
486.645	110.56
486.863	109.56
487.081	105.56
487.299	95.56
487.517	102.56
487.735	85.56
487.953	87.56
488.171	94.56
488.389	93.56
488.607	90.56
488.825	99.56
489.043	87.56
489.261	86.56
489.479	76.56
489.696	86.56
489.914	77.56
490.132	89.56
490.35	94.56
490.568	81.56
490.786	98.56
491.003	89.56
491.221	98.56
491.439	105.56
491.657	85.56
491.874	89.56
492.092	88.56
492.31	89.56
492.527	79.56
492.745	88.56
492.963	97.56
493.18	90.56
493.398	107.56
493.615	97.56
493.833	91.56
494.05	89.56
494.268	89.56
494.485	83.56
494.703	98.56
494.92	81.56
495.138	88.56
495.355	97.56
495.573	84.56
495.79	90.56
496.008	90.56
496.225	82.56
496.442	80.56
496.66	86.56
496.877	83.56
497.094	99.56
497.312	95.56
497.529	106.56
497.746	95.56
497.963	90.56
498.181	82.56
498.398	89.56
498.615	95.56
498.832	91.56
499.049	85.56
499.267	93.56
499.484	83.56
499.701	80.56
499.918	93.56
500.135	91.56
500.352	90.56
500.569	103.56
500.786	91.56
501.003	83.56
501.22	86.56
501.437	108.56
501.654	103.56
501.871	116.56
502.088	81.56
502.305	82.56
502.522	96.56
502.739	80.56
502.956	88.56
503.172	97.56
503.389	96.56
503.606	96.56
503.823	92.56
504.04	95.56
504.256	90.56
504.473	103.56
504.69	98.56
504.907	97.56
505.123	101.56
505.34	100.56
505.557	97.56
505.773	88.56
505.99	90.56
506.207	89.56
506.423	86.56
506.64	84.56
506.856	89.56
507.073	91.56
507.289	105.56
507.506	88.56
507.722	99.56
507.939	113.56
508.155	103.56
508.372	98.56
508.588	94.56
508.805	90.56
509.021	94.56
509.238	97.56
509.454	99.56
509.67	95.56
509.887	112.56
510.103	115.56
510.319	187.56
510.536	618.56
510.752	1845.56
510.968	523.56
511.184	138.56
511.401	96.56
511.617	92.56
511.833	97.56
512.049	89.56
512.265	79.56
512.481	86.56
512.698	85.56
512.914	93.56
513.13	91.56
513.346	104.56
513.562	104.56
513.778	104.56
513.994	96.56
514.21	79.56
514.426	113.56
514.642	117.56
514.858	116.56
515.074	145.56
515.29	361.56
515.506	1142.56
515.721	433.56
515.937	120.56
516.153	103.56
516.369	105.56
516.585	81.56
516.801	99.56
