Data from Uncirc_1998_H10_HRD10591_00091.txt Node
Date: Wed Jan 03 11:25:43 EST 2024
User: Yrep
Spectrometer: HR+D1059
Trigger mode: 1
Integration Time (sec): 1.000000E-1
Scans to average: 1
Electric dark correction enabled: true
Nonlinearity correction enabled: false
Boxcar width: 0
XAxis mode: Wavelengths
Number of Pixels in Spectrum: 2048
>>>>>Begin Spectral Data<<<<<
223.165	-4.38
223.4	-4.38
223.635	-4.38
223.869	-14.38
224.104	-18.38
224.338	-10.38
224.573	-10.38
224.808	-21.38
225.042	-6.38
225.277	-9.38
225.511	-14.38
225.746	-8.38
225.98	0.62
226.215	10.62
226.449	7.62
226.683	34.62
226.918	33.62
227.152	30.62
227.387	37.62
227.621	33.62
227.856	47.62
228.09	55.62
228.324	61.62
228.559	51.62
228.793	58.62
229.027	58.62
229.262	69.62
229.496	88.62
229.73	88.62
229.964	83.62
230.199	66.62
230.433	60.62
230.667	78.62
230.901	71.62
231.136	85.62
231.37	65.62
231.604	79.62
231.838	79.62
232.072	96.62
232.306	84.62
232.541	77.62
232.775	80.62
233.009	80.62
233.243	85.62
233.477	88.62
233.711	89.62
233.945	95.62
234.179	82.62
234.413	94.62
234.647	87.62
234.881	94.62
235.115	80.62
235.349	88.62
235.583	84.62
235.817	84.62
236.051	75.62
236.285	77.62
236.519	88.62
236.753	79.62
236.987	79.62
237.221	92.62
237.455	78.62
237.689	78.62
237.922	82.62
238.156	84.62
238.39	77.62
238.624	81.62
238.858	78.62
239.091	66.62
239.325	70.62
239.559	74.62
239.793	60.62
240.027	74.62
240.26	73.62
240.494	68.62
240.728	67.62
240.961	75.62
241.195	82.62
241.429	77.62
241.662	83.62
241.896	78.62
242.13	74.62
242.363	69.62
242.597	84.62
242.83	62.62
243.064	83.62
243.298	88.62
243.531	80.62
243.765	66.62
243.998	77.62
244.232	73.62
244.465	86.62
244.699	85.62
244.932	78.62
245.166	72.62
245.399	84.62
245.633	92.62
245.866	79.62
246.099	86.62
246.333	92.62
246.566	88.62
246.8	78.62
247.033	80.62
247.266	98.62
247.5	85.62
247.733	93.62
247.966	92.62
248.2	82.62
248.433	83.62
248.666	86.62
248.899	77.62
249.133	80.62
249.366	93.62
249.599	95.62
249.832	76.62
250.066	81.62
250.299	77.62
250.532	82.62
250.765	89.62
250.998	76.62
251.231	76.62
251.465	82.62
251.698	76.62
251.931	72.62
252.164	76.62
252.397	78.62
252.63	82.62
252.863	80.62
253.096	82.62
253.329	88.62
253.562	83.62
253.795	92.62
254.028	79.62
254.261	80.62
254.494	78.62
254.727	81.62
254.96	86.62
255.193	70.62
255.426	70.62
255.659	84.62
255.892	86.62
256.124	74.62
256.357	89.62
256.59	89.62
256.823	89.62
257.056	75.62
257.289	80.62
257.521	90.62
257.754	76.62
257.987	87.62
258.22	76.62
258.452	98.62
258.685	92.62
258.918	68.62
259.151	85.62
259.383	89.62
259.616	82.62
259.849	84.62
260.081	82.62
260.314	77.62
260.547	72.62
260.779	85.62
261.012	90.62
261.244	91.62
261.477	84.62
261.71	96.62
261.942	94.62
262.175	97.62
262.407	82.62
262.64	84.62
262.872	84.62
263.105	101.62
263.337	91.62
263.57	87.62
263.802	91.62
264.035	73.62
264.267	95.62
264.499	80.62
264.732	78.62
264.964	89.62
265.197	86.62
265.429	88.62
265.661	89.62
265.894	97.62
266.126	86.62
266.358	86.62
266.591	79.62
266.823	75.62
267.055	83.62
267.287	96.62
267.52	93.62
267.752	87.62
267.984	88.62
268.216	80.62
268.448	88.62
268.681	72.62
268.913	84.62
269.145	95.62
269.377	98.62
269.609	84.62
269.841	86.62
270.073	84.62
270.306	80.62
270.538	88.62
270.77	78.62
271.002	91.62
271.234	96.62
271.466	89.62
271.698	94.62
271.93	77.62
272.162	86.62
272.394	87.62
272.626	77.62
272.858	85.62
273.09	81.62
273.322	91.62
273.553	87.62
273.785	81.62
274.017	72.62
274.249	86.62
274.481	86.62
274.713	81.62
274.945	95.62
275.176	101.62
275.408	93.62
275.64	76.62
275.872	96.62
276.104	97.62
276.335	95.62
276.567	104.62
276.799	99.62
277.031	115.62
277.262	93.62
277.494	93.62
277.726	92.62
277.957	91.62
278.189	90.62
278.421	95.62
278.652	86.62
278.884	92.62
279.115	87.62
279.347	88.62
279.579	87.62
279.81	88.62
280.042	86.62
280.273	81.62
280.505	85.62
280.736	90.62
280.968	99.62
281.199	83.62
281.431	98.62
281.662	84.62
281.894	82.62
282.125	100.62
282.356	112.62
282.588	127.62
282.819	112.62
283.051	84.62
283.282	96.62
283.513	84.62
283.745	80.62
283.976	75.62
284.207	90.62
284.439	73.62
284.67	89.62
284.901	81.62
285.132	73.62
285.364	93.62
285.595	76.62
285.826	89.62
286.057	91.62
286.288	77.62
286.52	99.62
286.751	95.62
286.982	82.62
287.213	85.62
287.444	94.62
287.675	92.62
287.906	95.62
288.138	99.62
288.369	110.62
288.6	90.62
288.831	108.62
289.062	91.62
289.293	90.62
289.524	95.62
289.755	105.62
289.986	93.62
290.217	90.62
290.448	84.62
290.679	75.62
290.91	100.62
291.141	100.62
291.371	104.62
291.602	80.62
291.833	87.62
292.064	90.62
292.295	93.62
292.526	88.62
292.757	102.62
292.987	90.62
293.218	88.62
293.449	85.62
293.68	98.62
293.91	81.62
294.141	99.62
294.372	102.62
294.603	100.62
294.833	93.62
295.064	91.62
295.295	93.62
295.525	101.62
295.756	110.62
295.987	118.62
296.217	133.62
296.448	108.62
296.679	92.62
296.909	94.62
297.14	84.62
297.37	88.62
297.601	85.62
297.831	88.62
298.062	94.62
298.292	84.62
298.523	111.62
298.753	88.62
298.984	98.62
299.214	92.62
299.445	87.62
299.675	97.62
299.905	91.62
300.136	98.62
300.366	99.62
300.597	77.62
300.827	97.62
301.057	96.62
301.288	102.62
301.518	91.62
301.748	102.62
301.979	101.62
302.209	92.62
302.439	102.62
302.669	93.62
302.9	88.62
303.13	83.62
303.36	99.62
303.59	114.62
303.82	110.62
304.051	100.62
304.281	90.62
304.511	102.62
304.741	87.62
304.971	84.62
305.201	74.62
305.431	96.62
305.661	103.62
305.891	79.62
306.121	101.62
306.352	93.62
306.582	102.62
306.812	84.62
307.042	88.62
307.272	101.62
307.502	81.62
307.731	94.62
307.961	88.62
308.191	93.62
308.421	90.62
308.651	99.62
308.881	94.62
309.111	104.62
309.341	93.62
309.571	114.62
309.8	94.62
310.03	105.62
310.26	103.62
310.49	101.62
310.72	107.62
310.949	108.62
311.179	102.62
311.409	88.62
311.639	91.62
311.868	105.62
312.098	99.62
312.328	98.62
312.557	98.62
312.787	97.62
313.017	107.62
313.246	94.62
313.476	90.62
313.706	96.62
313.935	94.62
314.165	111.62
314.394	100.62
314.624	88.62
314.853	94.62
315.083	85.62
315.312	97.62
315.542	92.62
315.771	88.62
316.001	109.62
316.23	86.62
316.46	91.62
316.689	92.62
316.919	93.62
317.148	91.62
317.377	93.62
317.607	101.62
317.836	100.62
318.065	92.62
318.295	97.62
318.524	101.62
318.753	99.62
318.983	99.62
319.212	84.62
319.441	124.62
319.67	121.62
319.9	94.62
320.129	87.62
320.358	99.62
320.587	98.62
320.816	87.62
321.046	98.62
321.275	100.62
321.504	85.62
321.733	102.62
321.962	106.62
322.191	104.62
322.42	97.62
322.649	100.62
322.878	103.62
323.108	132.62
323.337	142.62
323.566	130.62
323.795	149.62
324.024	196.62
324.253	394.62
324.482	808.62
324.71	1660.62
324.939	2165.62
325.168	789.62
325.397	234.62
325.626	136.62
325.855	124.62
326.084	133.62
326.313	136.62
326.542	156.62
326.77	235.62
326.999	460.62
327.228	946.62
327.457	1702.62
327.686	1310.62
327.914	372.62
328.143	196.62
328.372	154.62
328.6	119.62
328.829	114.62
329.058	125.62
329.287	128.62
329.515	107.62
329.744	110.62
329.972	109.62
330.201	102.62
330.43	98.62
330.658	120.62
330.887	132.62
331.115	115.62
331.344	106.62
331.572	93.62
331.801	101.62
332.03	112.62
332.258	107.62
332.486	94.62
332.715	98.62
332.943	95.62
333.172	91.62
333.4	93.62
333.629	112.62
333.857	113.62
334.085	99.62
334.314	110.62
334.542	107.62
334.771	107.62
334.999	102.62
335.227	120.62
335.455	96.62
335.684	110.62
335.912	108.62
336.14	106.62
336.369	102.62
336.597	98.62
336.825	100.62
337.053	93.62
337.281	104.62
337.51	92.62
337.738	114.62
337.966	100.62
338.194	107.62
338.422	88.62
338.65	101.62
338.878	115.62
339.106	102.62
339.334	102.62
339.562	100.62
339.79	89.62
340.018	95.62
340.246	96.62
340.474	97.62
340.702	114.62
340.93	101.62
341.158	101.62
341.386	104.62
341.614	99.62
341.842	98.62
342.07	87.62
342.298	101.62
342.526	84.62
342.754	96.62
342.981	97.62
343.209	100.62
343.437	95.62
343.665	100.62
343.893	94.62
344.12	92.62
344.348	78.62
344.576	84.62
344.804	87.62
345.031	92.62
345.259	101.62
345.487	104.62
345.714	101.62
345.942	88.62
346.17	97.62
346.397	91.62
346.625	98.62
346.853	98.62
347.08	83.62
347.308	97.62
347.535	111.62
347.763	113.62
347.99	104.62
348.218	104.62
348.445	105.62
348.673	110.62
348.9	94.62
349.128	93.62
349.355	110.62
349.583	89.62
349.81	96.62
350.037	81.62
350.265	106.62
350.492	86.62
350.72	102.62
350.947	116.62
351.174	122.62
351.402	111.62
351.629	97.62
351.856	93.62
352.083	101.62
352.311	105.62
352.538	96.62
352.765	114.62
352.992	121.62
353.22	115.62
353.447	93.62
353.674	86.62
353.901	102.62
354.128	105.62
354.355	90.62
354.583	102.62
354.81	111.62
355.037	106.62
355.264	99.62
355.491	90.62
355.718	98.62
355.945	99.62
356.172	98.62
356.399	95.62
356.626	99.62
356.853	94.62
357.08	92.62
357.307	92.62
357.534	92.62
357.761	103.62
357.988	95.62
358.215	102.62
358.441	99.62
358.668	100.62
358.895	85.62
359.122	81.62
359.349	90.62
359.576	89.62
359.802	102.62
360.029	116.62
360.256	97.62
360.483	107.62
360.709	73.62
360.936	99.62
361.163	113.62
361.39	107.62
361.616	101.62
361.843	102.62
362.07	100.62
362.296	99.62
362.523	92.62
362.749	79.62
362.976	92.62
363.203	104.62
363.429	85.62
363.656	92.62
363.882	77.62
364.109	87.62
364.335	95.62
364.562	91.62
364.788	89.62
365.015	95.62
365.241	96.62
365.468	110.62
365.694	96.62
365.92	92.62
366.147	84.62
366.373	90.62
366.599	82.62
366.826	91.62
367.052	106.62
367.278	96.62
367.505	93.62
367.731	94.62
367.957	100.62
368.184	94.62
368.41	105.62
368.636	102.62
368.862	102.62
369.089	104.62
369.315	101.62
369.541	99.62
369.767	84.62
369.993	91.62
370.219	88.62
370.445	88.62
370.672	71.62
370.898	85.62
371.124	84.62
371.35	73.62
371.576	89.62
371.802	80.62
372.028	85.62
372.254	93.62
372.48	90.62
372.706	78.62
372.932	91.62
373.158	98.62
373.384	102.62
373.61	98.62
373.835	98.62
374.061	98.62
374.287	85.62
374.513	85.62
374.739	97.62
374.965	100.62
375.191	101.62
375.416	98.62
375.642	88.62
375.868	90.62
376.094	99.62
376.319	83.62
376.545	95.62
376.771	94.62
376.997	99.62
377.222	86.62
377.448	108.62
377.674	85.62
377.899	85.62
378.125	96.62
378.35	88.62
378.576	80.62
378.802	80.62
379.027	82.62
379.253	89.62
379.478	99.62
379.704	98.62
379.929	74.62
380.155	97.62
380.38	104.62
380.606	92.62
380.831	100.62
381.057	96.62
381.282	90.62
381.507	95.62
381.733	121.62
381.958	96.62
382.184	100.62
382.409	100.62
382.634	101.62
382.86	102.62
383.085	104.62
383.31	93.62
383.535	103.62
383.761	85.62
383.986	89.62
384.211	94.62
384.436	101.62
384.662	102.62
384.887	116.62
385.112	111.62
385.337	97.62
385.562	111.62
385.787	111.62
386.013	114.62
386.238	109.62
386.463	106.62
386.688	101.62
386.913	112.62
387.138	95.62
387.363	102.62
387.588	106.62
387.813	109.62
388.038	81.62
388.263	98.62
388.488	102.62
388.713	102.62
388.938	110.62
389.163	98.62
389.387	109.62
389.612	108.62
389.837	91.62
390.062	92.62
390.287	93.62
390.512	101.62
390.736	108.62
390.961	96.62
391.186	93.62
391.411	82.62
391.636	105.62
391.86	95.62
392.085	88.62
392.31	83.62
392.534	84.62
392.759	84.62
392.984	101.62
393.208	93.62
393.433	88.62
393.658	85.62
393.882	97.62
394.107	91.62
394.331	96.62
394.556	93.62
394.78	86.62
395.005	103.62
395.229	99.62
395.454	101.62
395.678	86.62
395.903	78.62
396.127	100.62
396.352	85.62
396.576	83.62
396.801	72.62
397.025	81.62
397.249	98.62
397.474	92.62
397.698	96.62
397.922	86.62
398.147	65.62
398.371	91.62
398.595	94.62
398.82	98.62
399.044	95.62
399.268	92.62
399.492	92.62
399.717	87.62
399.941	99.62
400.165	103.62
400.389	105.62
400.613	101.62
400.837	101.62
401.062	90.62
401.286	89.62
401.51	91.62
401.734	86.62
401.958	102.62
402.182	121.62
402.406	158.62
402.63	105.62
402.854	99.62
403.078	105.62
403.302	93.62
403.526	84.62
403.75	89.62
403.974	100.62
404.198	95.62
404.422	104.62
404.645	106.62
404.869	84.62
405.093	97.62
405.317	102.62
405.541	93.62
405.765	102.62
405.988	124.62
406.212	171.62
406.436	219.62
406.66	142.62
406.883	111.62
407.107	99.62
407.331	92.62
407.555	99.62
407.778	104.62
408.002	90.62
408.226	83.62
408.449	92.62
408.673	92.62
408.896	97.62
409.12	101.62
409.344	89.62
409.567	89.62
409.791	94.62
410.014	100.62
410.238	84.62
410.461	91.62
410.685	98.62
410.908	109.62
411.132	106.62
411.355	96.62
411.578	84.62
411.802	75.62
412.025	89.62
412.249	87.62
412.472	94.62
412.695	94.62
412.919	86.62
413.142	92.62
413.365	82.62
413.589	96.62
413.812	84.62
414.035	100.62
414.258	99.62
414.482	83.62
414.705	96.62
414.928	84.62
415.151	100.62
415.374	91.62
415.597	89.62
415.821	106.62
416.044	78.62
416.267	94.62
416.49	91.62
416.713	87.62
416.936	97.62
417.159	96.62
417.382	83.62
417.605	84.62
417.828	98.62
418.051	77.62
418.274	97.62
418.497	97.62
418.72	90.62
418.943	86.62
419.166	81.62
419.389	73.62
419.611	96.62
419.834	81.62
420.057	84.62
420.28	102.62
420.503	99.62
420.726	94.62
420.948	87.62
421.171	100.62
421.394	79.62
421.617	92.62
421.839	91.62
422.062	90.62
422.285	83.62
422.507	100.62
422.73	101.62
422.953	86.62
423.175	102.62
423.398	85.62
423.621	93.62
423.843	92.62
424.066	84.62
424.288	92.62
424.511	95.62
424.733	94.62
424.956	101.62
425.178	86.62
425.401	90.62
425.623	99.62
425.846	100.62
426.068	94.62
426.291	92.62
426.513	102.62
426.735	85.62
426.958	96.62
427.18	119.62
427.402	122.62
427.625	158.62
427.847	128.62
428.069	116.62
428.292	89.62
428.514	94.62
428.736	84.62
428.958	82.62
429.181	95.62
429.403	91.62
429.625	98.62
429.847	91.62
430.069	86.62
430.292	90.62
430.514	94.62
430.736	92.62
430.958	93.62
431.18	89.62
431.402	88.62
431.624	98.62
431.846	92.62
432.068	83.62
432.29	92.62
432.512	101.62
432.734	85.62
432.956	78.62
433.178	96.62
433.4	83.62
433.622	94.62
433.844	92.62
434.066	103.62
434.287	102.62
434.509	102.62
434.731	90.62
434.953	101.62
435.175	88.62
435.397	84.62
435.618	80.62
435.84	108.62
436.062	125.62
436.284	113.62
436.505	101.62
436.727	103.62
436.949	97.62
437.17	103.62
437.392	101.62
437.614	95.62
437.835	97.62
438.057	121.62
438.278	92.62
438.5	100.62
438.721	117.62
438.943	104.62
439.165	97.62
439.386	89.62
439.608	97.62
439.829	105.62
440.05	113.62
440.272	147.62
440.493	94.62
440.715	82.62
440.936	91.62
441.158	113.62
441.379	92.62
441.6	106.62
441.822	82.62
442.043	101.62
442.264	105.62
442.486	113.62
442.707	92.62
442.928	100.62
443.149	130.62
443.371	136.62
443.592	99.62
443.813	115.62
444.034	118.62
444.255	97.62
444.476	89.62
444.698	95.62
444.919	101.62
445.14	129.62
445.361	129.62
445.582	106.62
445.803	147.62
446.024	134.62
446.245	149.62
446.466	108.62
446.687	89.62
446.908	85.62
447.129	96.62
447.35	107.62
447.571	99.62
447.792	102.62
448.013	101.62
448.234	100.62
448.455	112.62
448.675	117.62
448.896	125.62
449.117	91.62
449.338	119.62
449.559	151.62
449.779	124.62
450	97.62
450.221	101.62
450.442	92.62
450.662	95.62
450.883	107.62
451.104	108.62
451.324	93.62
451.545	89.62
451.766	80.62
451.986	72.62
452.207	89.62
452.428	77.62
452.648	98.62
452.869	110.62
453.089	105.62
453.31	106.62
453.53	102.62
453.751	97.62
453.971	100.62
454.192	108.62
454.412	100.62
454.633	76.62
454.853	80.62
455.073	83.62
455.294	77.62
455.514	107.62
455.734	104.62
455.955	73.62
456.175	89.62
456.395	90.62
456.616	90.62
456.836	86.62
457.056	89.62
457.276	82.62
457.497	91.62
457.717	108.62
457.937	80.62
458.157	88.62
458.377	93.62
458.598	105.62
458.818	157.62
459.038	152.62
459.258	117.62
459.478	90.62
459.698	84.62
459.918	93.62
460.138	99.62
460.358	89.62
460.578	82.62
460.798	86.62
461.018	88.62
461.238	85.62
461.458	86.62
461.678	89.62
461.898	98.62
462.118	91.62
462.338	96.62
462.558	86.62
462.777	85.62
462.997	86.62
463.217	88.62
463.437	95.62
463.657	81.62
463.876	83.62
464.096	82.62
464.316	90.62
464.536	96.62
464.755	94.62
464.975	96.62
465.195	165.62
465.414	152.62
465.634	91.62
465.854	85.62
466.073	76.62
466.293	102.62
466.512	87.62
466.732	80.62
466.951	76.62
467.171	101.62
467.391	108.62
467.61	95.62
467.829	85.62
468.049	101.62
468.268	89.62
468.488	90.62
468.707	85.62
468.927	82.62
469.146	95.62
469.365	80.62
469.585	101.62
469.804	108.62
470.023	98.62
470.243	110.62
470.462	101.62
470.681	105.62
470.901	97.62
471.12	81.62
471.339	91.62
471.558	81.62
471.777	90.62
471.997	97.62
472.216	96.62
472.435	104.62
472.654	97.62
472.873	80.62
473.092	75.62
473.311	83.62
473.53	94.62
473.749	84.62
473.968	112.62
474.187	118.62
474.406	96.62
474.625	82.62
474.844	95.62
475.063	94.62
475.282	95.62
475.501	90.62
475.72	95.62
475.939	94.62
476.158	104.62
476.377	96.62
476.596	82.62
476.814	92.62
477.033	101.62
477.252	94.62
477.471	95.62
477.69	97.62
477.908	83.62
478.127	91.62
478.346	91.62
478.564	90.62
478.783	103.62
479.002	103.62
479.22	98.62
479.439	92.62
479.658	107.62
479.876	85.62
480.095	110.62
480.313	109.62
480.532	84.62
480.751	88.62
480.969	106.62
481.188	108.62
481.406	108.62
481.624	91.62
481.843	89.62
482.061	94.62
482.28	105.62
482.498	87.62
482.717	88.62
482.935	91.62
483.153	86.62
483.372	82.62
483.59	82.62
483.808	90.62
484.027	86.62
484.245	93.62
484.463	85.62
484.681	100.62
484.9	89.62
485.118	88.62
485.336	91.62
485.554	87.62
485.772	90.62
485.99	100.62
486.209	104.62
486.427	109.62
486.645	108.62
486.863	112.62
487.081	106.62
487.299	83.62
487.517	104.62
487.735	99.62
487.953	102.62
488.171	94.62
488.389	99.62
488.607	105.62
488.825	92.62
489.043	91.62
489.261	72.62
489.479	87.62
489.696	85.62
489.914	89.62
490.132	93.62
490.35	106.62
490.568	93.62
490.786	77.62
491.003	103.62
491.221	92.62
491.439	80.62
491.657	101.62
491.874	92.62
492.092	94.62
492.31	104.62
492.527	86.62
492.745	82.62
492.963	84.62
493.18	84.62
493.398	97.62
493.615	102.62
493.833	88.62
494.05	73.62
494.268	85.62
494.485	88.62
494.703	91.62
494.92	85.62
495.138	88.62
495.355	96.62
495.573	93.62
495.79	91.62
496.008	93.62
496.225	91.62
496.442	88.62
496.66	98.62
496.877	90.62
497.094	102.62
497.312	89.62
497.529	84.62
497.746	93.62
497.963	89.62
498.181	94.62
498.398	84.62
498.615	116.62
498.832	97.62
499.049	90.62
499.267	102.62
499.484	104.62
499.701	98.62
499.918	72.62
500.135	90.62
500.352	99.62
500.569	86.62
500.786	90.62
501.003	98.62
501.22	85.62
501.437	102.62
501.654	95.62
501.871	88.62
502.088	82.62
502.305	90.62
502.522	91.62
502.739	92.62
502.956	95.62
503.172	91.62
503.389	96.62
503.606	114.62
503.823	104.62
504.04	93.62
504.256	88.62
504.473	89.62
504.69	89.62
504.907	98.62
505.123	98.62
505.34	94.62
505.557	99.62
505.773	102.62
505.99	80.62
506.207	75.62
506.423	93.62
506.64	91.62
506.856	85.62
507.073	80.62
507.289	100.62
507.506	92.62
507.722	103.62
507.939	120.62
508.155	106.62
508.372	118.62
508.588	89.62
508.805	98.62
509.021	104.62
509.238	93.62
509.454	92.62
509.67	101.62
509.887	112.62
510.103	123.62
510.319	204.62
510.536	742.62
510.752	2184.62
510.968	625.62
511.184	158.62
511.401	107.62
511.617	88.62
511.833	103.62
512.049	94.62
512.265	80.62
512.481	99.62
512.698	89.62
512.914	95.62
513.13	96.62
513.346	94.62
513.562	83.62
513.778	93.62
513.994	102.62
514.21	85.62
514.426	112.62
514.642	132.62
