Data from Uncirc_1998_H10_HRD10591_00006.txt Node
Date: Wed Jan 03 11:25:26 EST 2024
User: Yrep
Spectrometer: HR+D1059
Trigger mode: 1
Integration Time (sec): 1.000000E-1
Scans to average: 1
Electric dark correction enabled: true
Nonlinearity correction enabled: false
Boxcar width: 0
XAxis mode: Wavelengths
Number of Pixels in Spectrum: 2048
>>>>>Begin Spectral Data<<<<<
223.165	-20.19
223.4	-20.19
223.635	-20.19
223.869	-20.19
224.104	-12.19
224.338	-16.19
224.573	10.81
224.808	-21.19
225.042	-4.19
225.277	-12.19
225.511	-3.19
225.746	11.81
225.98	6.81
226.215	-1.19
226.449	7.81
226.683	14.81
226.918	23.81
227.152	34.81
227.387	48.81
227.621	42.81
227.856	39.81
228.09	58.81
228.324	54.81
228.559	56.81
228.793	68.81
229.027	70.81
229.262	66.81
229.496	67.81
229.73	78.81
229.964	80.81
230.199	70.81
230.433	72.81
230.667	69.81
230.901	75.81
231.136	84.81
231.37	89.81
231.604	93.81
231.838	76.81
232.072	82.81
232.306	75.81
232.541	79.81
232.775	79.81
233.009	69.81
233.243	93.81
233.477	80.81
233.711	77.81
233.945	92.81
234.179	70.81
234.413	94.81
234.647	66.81
234.881	85.81
235.115	67.81
235.349	67.81
235.583	76.81
235.817	86.81
236.051	65.81
236.285	78.81
236.519	83.81
236.753	86.81
236.987	85.81
237.221	78.81
237.455	83.81
237.689	77.81
237.922	68.81
238.156	74.81
238.39	78.81
238.624	80.81
238.858	70.81
239.091	74.81
239.325	69.81
239.559	93.81
239.793	83.81
240.027	83.81
240.26	90.81
240.494	92.81
240.728	82.81
240.961	71.81
241.195	77.81
241.429	86.81
241.662	71.81
241.896	72.81
242.13	62.81
242.363	86.81
242.597	73.81
242.83	70.81
243.064	80.81
243.298	77.81
243.531	88.81
243.765	80.81
243.998	74.81
244.232	83.81
244.465	63.81
244.699	80.81
244.932	61.81
245.166	80.81
245.399	76.81
245.633	84.81
245.866	80.81
246.099	84.81
246.333	67.81
246.566	81.81
246.8	78.81
247.033	76.81
247.266	87.81
247.5	77.81
247.733	75.81
247.966	80.81
248.2	88.81
248.433	88.81
248.666	86.81
248.899	74.81
249.133	69.81
249.366	92.81
249.599	105.81
249.832	80.81
250.066	72.81
250.299	86.81
250.532	80.81
250.765	82.81
250.998	82.81
251.231	73.81
251.465	70.81
251.698	61.81
251.931	95.81
252.164	75.81
252.397	83.81
252.63	86.81
252.863	93.81
253.096	78.81
253.329	81.81
253.562	67.81
253.795	81.81
254.028	104.81
254.261	89.81
254.494	65.81
254.727	75.81
254.96	78.81
255.193	85.81
255.426	91.81
255.659	88.81
255.892	90.81
256.124	76.81
256.357	79.81
256.59	91.81
256.823	97.81
257.056	84.81
257.289	85.81
257.521	78.81
257.754	66.81
257.987	80.81
258.22	95.81
258.452	81.81
258.685	89.81
258.918	73.81
259.151	67.81
259.383	83.81
259.616	83.81
259.849	84.81
260.081	95.81
260.314	76.81
260.547	74.81
260.779	88.81
261.012	73.81
261.244	84.81
261.477	91.81
261.71	78.81
261.942	107.81
262.175	110.81
262.407	92.81
262.64	94.81
262.872	79.81
263.105	76.81
263.337	85.81
263.57	78.81
263.802	86.81
264.035	77.81
264.267	89.81
264.499	80.81
264.732	84.81
264.964	72.81
265.197	82.81
265.429	79.81
265.661	90.81
265.894	71.81
266.126	80.81
266.358	72.81
266.591	72.81
266.823	77.81
267.055	98.81
267.287	86.81
267.52	94.81
267.752	79.81
267.984	84.81
268.216	92.81
268.448	87.81
268.681	77.81
268.913	78.81
269.145	75.81
269.377	84.81
269.609	81.81
269.841	92.81
270.073	99.81
270.306	87.81
270.538	91.81
270.77	90.81
271.002	80.81
271.234	86.81
271.466	90.81
271.698	81.81
271.93	78.81
272.162	106.81
272.394	97.81
272.626	83.81
272.858	78.81
273.09	83.81
273.322	80.81
273.553	79.81
273.785	73.81
274.017	67.81
274.249	78.81
274.481	84.81
274.713	86.81
274.945	68.81
275.176	80.81
275.408	81.81
275.64	84.81
275.872	84.81
276.104	82.81
276.335	87.81
276.567	86.81
276.799	103.81
277.031	93.81
277.262	95.81
277.494	80.81
277.726	88.81
277.957	85.81
278.189	86.81
278.421	92.81
278.652	87.81
278.884	86.81
279.115	96.81
279.347	90.81
279.579	87.81
279.81	80.81
280.042	87.81
280.273	84.81
280.505	90.81
280.736	92.81
280.968	87.81
281.199	79.81
281.431	90.81
281.662	82.81
281.894	88.81
282.125	96.81
282.356	113.81
282.588	135.81
282.819	116.81
283.051	92.81
283.282	79.81
283.513	92.81
283.745	85.81
283.976	85.81
284.207	99.81
284.439	81.81
284.67	73.81
284.901	91.81
285.132	86.81
285.364	92.81
285.595	94.81
285.826	79.81
286.057	80.81
286.288	85.81
286.52	78.81
286.751	81.81
286.982	98.81
287.213	88.81
287.444	87.81
287.675	98.81
287.906	105.81
288.138	83.81
288.369	95.81
288.6	84.81
288.831	88.81
289.062	97.81
289.293	100.81
289.524	91.81
289.755	100.81
289.986	100.81
290.217	82.81
290.448	83.81
290.679	89.81
290.91	82.81
291.141	87.81
291.371	84.81
291.602	68.81
291.833	84.81
292.064	92.81
292.295	88.81
292.526	97.81
292.757	91.81
292.987	70.81
293.218	73.81
293.449	81.81
293.68	87.81
293.91	86.81
294.141	96.81
294.372	96.81
294.603	92.81
294.833	87.81
295.064	89.81
295.295	99.81
295.525	91.81
295.756	95.81
295.987	98.81
296.217	118.81
296.448	112.81
296.679	101.81
296.909	106.81
297.14	100.81
297.37	91.81
297.601	89.81
297.831	94.81
298.062	86.81
298.292	88.81
298.523	99.81
298.753	90.81
298.984	90.81
299.214	100.81
299.445	89.81
299.675	77.81
299.905	87.81
300.136	95.81
300.366	103.81
300.597	88.81
300.827	86.81
301.057	98.81
301.288	95.81
301.518	87.81
301.748	90.81
301.979	99.81
302.209	80.81
302.439	88.81
302.669	91.81
302.9	91.81
303.13	80.81
303.36	99.81
303.59	110.81
303.82	104.81
304.051	97.81
304.281	87.81
304.511	91.81
304.741	80.81
304.971	83.81
305.201	106.81
305.431	92.81
305.661	97.81
305.891	95.81
306.121	88.81
306.352	94.81
306.582	98.81
306.812	84.81
307.042	92.81
307.272	78.81
307.502	99.81
307.731	94.81
307.961	96.81
308.191	90.81
308.421	92.81
308.651	94.81
308.881	107.81
309.111	98.81
309.341	95.81
309.571	94.81
309.8	79.81
310.03	91.81
310.26	113.81
310.49	88.81
310.72	81.81
310.949	102.81
311.179	101.81
311.409	73.81
311.639	87.81
311.868	92.81
312.098	107.81
312.328	104.81
312.557	91.81
312.787	96.81
313.017	97.81
313.246	91.81
313.476	87.81
313.706	95.81
313.935	91.81
314.165	93.81
314.394	104.81
314.624	91.81
314.853	97.81
315.083	91.81
315.312	88.81
315.542	101.81
315.771	81.81
316.001	86.81
316.23	89.81
316.46	94.81
316.689	88.81
316.919	94.81
317.148	89.81
317.377	92.81
317.607	84.81
317.836	88.81
318.065	93.81
318.295	95.81
318.524	98.81
318.753	103.81
318.983	85.81
319.212	91.81
319.441	103.81
319.67	90.81
319.9	97.81
320.129	92.81
320.358	90.81
320.587	93.81
320.816	80.81
321.046	98.81
321.275	98.81
321.504	114.81
321.733	91.81
321.962	89.81
322.191	89.81
322.42	94.81
322.649	108.81
322.878	104.81
323.108	109.81
323.337	118.81
323.566	114.81
323.795	130.81
324.024	185.81
324.253	324.81
324.482	668.81
324.71	1379.81
324.939	1792.81
325.168	674.81
325.397	218.81
325.626	140.81
325.855	127.81
326.084	125.81
326.313	119.81
326.542	136.81
326.77	204.81
326.999	406.81
327.228	792.81
327.457	1436.81
327.686	1137.81
327.914	314.81
328.143	170.81
328.372	163.81
328.6	118.81
328.829	112.81
329.058	132.81
329.287	125.81
329.515	98.81
329.744	98.81
329.972	103.81
330.201	86.81
330.43	111.81
330.658	114.81
330.887	111.81
331.115	104.81
331.344	94.81
331.572	105.81
331.801	97.81
332.03	87.81
332.258	93.81
332.486	98.81
332.715	110.81
332.943	108.81
333.172	102.81
333.4	103.81
333.629	97.81
333.857	96.81
334.085	109.81
334.314	98.81
334.542	83.81
334.771	89.81
334.999	104.81
335.227	98.81
335.455	97.81
335.684	93.81
335.912	100.81
336.14	97.81
336.369	92.81
336.597	91.81
336.825	95.81
337.053	92.81
337.281	86.81
337.51	83.81
337.738	93.81
337.966	89.81
338.194	95.81
338.422	115.81
338.65	106.81
338.878	89.81
339.106	90.81
339.334	102.81
339.562	91.81
339.79	82.81
340.018	106.81
340.246	80.81
340.474	92.81
340.702	90.81
340.93	92.81
341.158	99.81
341.386	88.81
341.614	94.81
341.842	98.81
342.07	89.81
342.298	89.81
342.526	93.81
342.754	99.81
342.981	95.81
343.209	98.81
343.437	103.81
343.665	78.81
343.893	102.81
344.12	98.81
344.348	84.81
344.576	90.81
344.804	93.81
345.031	97.81
345.259	89.81
345.487	108.81
345.714	82.81
345.942	91.81
346.17	86.81
346.397	91.81
346.625	81.81
346.853	87.81
347.08	93.81
347.308	97.81
347.535	102.81
347.763	84.81
347.99	86.81
348.218	106.81
348.445	89.81
348.673	96.81
348.9	76.81
349.128	104.81
349.355	107.81
349.583	91.81
349.81	94.81
350.037	92.81
350.265	91.81
350.492	106.81
350.72	106.81
350.947	85.81
351.174	100.81
351.402	103.81
351.629	90.81
351.856	94.81
352.083	102.81
352.311	91.81
352.538	119.81
352.765	105.81
352.992	121.81
353.22	115.81
353.447	100.81
353.674	104.81
353.901	103.81
354.128	97.81
354.355	88.81
354.583	92.81
354.81	102.81
355.037	90.81
355.264	80.81
355.491	96.81
355.718	85.81
355.945	85.81
356.172	97.81
356.399	104.81
356.626	102.81
356.853	94.81
357.08	91.81
357.307	97.81
357.534	101.81
357.761	104.81
357.988	109.81
358.215	82.81
358.441	114.81
358.668	97.81
358.895	87.81
359.122	88.81
359.349	94.81
359.576	101.81
359.802	98.81
360.029	86.81
360.256	119.81
360.483	95.81
360.709	96.81
360.936	100.81
361.163	87.81
361.39	97.81
361.616	89.81
361.843	77.81
362.07	98.81
362.296	96.81
362.523	90.81
362.749	91.81
362.976	76.81
363.203	92.81
363.429	90.81
363.656	90.81
363.882	79.81
364.109	73.81
364.335	83.81
364.562	90.81
364.788	97.81
365.015	99.81
365.241	106.81
365.468	101.81
365.694	94.81
365.92	104.81
366.147	84.81
366.373	96.81
366.599	99.81
366.826	77.81
367.052	102.81
367.278	97.81
367.505	100.81
367.731	83.81
367.957	102.81
368.184	97.81
368.41	82.81
368.636	105.81
368.862	111.81
369.089	116.81
369.315	95.81
369.541	84.81
369.767	89.81
369.993	92.81
370.219	90.81
370.445	85.81
370.672	95.81
370.898	83.81
371.124	97.81
371.35	83.81
371.576	97.81
371.802	100.81
372.028	91.81
372.254	91.81
372.48	88.81
372.706	88.81
372.932	93.81
373.158	92.81
373.384	92.81
373.61	92.81
373.835	88.81
374.061	94.81
374.287	92.81
374.513	113.81
374.739	85.81
374.965	88.81
375.191	98.81
375.416	63.81
375.642	92.81
375.868	81.81
376.094	99.81
376.319	94.81
376.545	97.81
376.771	88.81
376.997	80.81
377.222	94.81
377.448	76.81
377.674	94.81
377.899	85.81
378.125	90.81
378.35	96.81
378.576	100.81
378.802	86.81
379.027	87.81
379.253	74.81
379.478	96.81
379.704	90.81
379.929	97.81
380.155	105.81
380.38	105.81
380.606	103.81
380.831	83.81
381.057	95.81
381.282	100.81
381.507	89.81
381.733	111.81
381.958	103.81
382.184	107.81
382.409	111.81
382.634	90.81
382.86	102.81
383.085	102.81
383.31	98.81
383.535	95.81
383.761	103.81
383.986	112.81
384.211	95.81
384.436	90.81
384.662	99.81
384.887	108.81
385.112	80.81
385.337	111.81
385.562	109.81
385.787	110.81
386.013	128.81
386.238	110.81
386.463	117.81
386.688	112.81
386.913	104.81
387.138	104.81
387.363	98.81
387.588	99.81
387.813	96.81
388.038	112.81
388.263	110.81
388.488	87.81
388.713	103.81
388.938	85.81
389.163	93.81
389.387	84.81
389.612	87.81
389.837	87.81
390.062	98.81
390.287	86.81
390.512	88.81
390.736	97.81
390.961	86.81
391.186	93.81
391.411	109.81
391.636	92.81
391.86	103.81
392.085	82.81
392.31	75.81
392.534	104.81
392.759	95.81
392.984	83.81
393.208	101.81
393.433	79.81
393.658	82.81
393.882	97.81
394.107	94.81
394.331	98.81
394.556	83.81
394.78	105.81
395.005	92.81
395.229	94.81
395.454	94.81
395.678	81.81
395.903	93.81
396.127	90.81
396.352	94.81
396.576	83.81
396.801	92.81
397.025	89.81
397.249	74.81
397.474	95.81
397.698	85.81
397.922	95.81
398.147	82.81
398.371	86.81
398.595	85.81
398.82	87.81
399.044	96.81
399.268	86.81
399.492	98.81
399.717	86.81
399.941	90.81
400.165	94.81
400.389	95.81
400.613	102.81
400.837	76.81
401.062	92.81
401.286	91.81
401.51	74.81
401.734	94.81
401.958	102.81
402.182	109.81
402.406	140.81
402.63	87.81
402.854	88.81
403.078	96.81
403.302	103.81
403.526	76.81
403.75	75.81
403.974	76.81
404.198	81.81
404.422	76.81
404.645	88.81
404.869	104.81
405.093	92.81
405.317	96.81
405.541	96.81
405.765	88.81
405.988	101.81
406.212	146.81
406.436	184.81
406.66	138.81
406.883	87.81
407.107	99.81
407.331	102.81
407.555	98.81
407.778	91.81
408.002	84.81
408.226	90.81
408.449	84.81
408.673	86.81
408.896	90.81
409.12	108.81
409.344	89.81
409.567	80.81
409.791	91.81
410.014	97.81
410.238	101.81
410.461	95.81
410.685	97.81
410.908	103.81
411.132	99.81
411.355	102.81
411.578	91.81
411.802	88.81
412.025	92.81
412.249	93.81
412.472	96.81
412.695	95.81
412.919	77.81
413.142	96.81
413.365	98.81
413.589	89.81
413.812	92.81
414.035	76.81
414.258	92.81
414.482	90.81
414.705	88.81
414.928	99.81
415.151	83.81
415.374	103.81
415.597	97.81
415.821	87.81
416.044	76.81
416.267	72.81
416.49	107.81
416.713	78.81
416.936	94.81
417.159	85.81
417.382	82.81
417.605	98.81
417.828	90.81
418.051	88.81
418.274	90.81
418.497	91.81
418.72	87.81
418.943	91.81
419.166	106.81
419.389	97.81
419.611	95.81
419.834	89.81
420.057	82.81
420.28	84.81
420.503	97.81
420.726	71.81
420.948	98.81
421.171	98.81
421.394	98.81
421.617	88.81
421.839	98.81
422.062	80.81
422.285	86.81
422.507	96.81
422.73	100.81
422.953	92.81
423.175	94.81
423.398	87.81
423.621	99.81
423.843	89.81
424.066	61.81
424.288	89.81
424.511	95.81
424.733	98.81
424.956	111.81
425.178	103.81
425.401	97.81
425.623	99.81
425.846	90.81
426.068	97.81
426.291	99.81
426.513	90.81
426.735	103.81
426.958	100.81
427.18	102.81
427.402	113.81
427.625	144.81
427.847	107.81
428.069	112.81
428.292	87.81
428.514	98.81
428.736	92.81
428.958	87.81
429.181	90.81
429.403	86.81
429.625	94.81
429.847	84.81
430.069	108.81
430.292	87.81
430.514	94.81
430.736	79.81
430.958	90.81
431.18	102.81
431.402	99.81
431.624	83.81
431.846	75.81
432.068	82.81
432.29	89.81
432.512	85.81
432.734	85.81
432.956	84.81
433.178	98.81
433.4	94.81
433.622	91.81
433.844	86.81
434.066	84.81
434.287	78.81
434.509	84.81
434.731	89.81
434.953	92.81
435.175	86.81
435.397	91.81
435.618	79.81
435.84	110.81
436.062	108.81
436.284	111.81
436.505	83.81
436.727	92.81
436.949	74.81
437.17	82.81
437.392	88.81
437.614	96.81
437.835	88.81
438.057	99.81
438.278	89.81
438.5	105.81
438.721	103.81
438.943	97.81
439.165	91.81
439.386	90.81
439.608	76.81
439.829	100.81
440.05	115.81
440.272	112.81
440.493	98.81
440.715	78.81
440.936	98.81
441.158	79.81
441.379	87.81
441.6	101.81
441.822	98.81
442.043	82.81
442.264	88.81
442.486	111.81
442.707	76.81
442.928	101.81
443.149	112.81
443.371	118.81
443.592	99.81
443.813	100.81
444.034	108.81
444.255	90.81
444.476	86.81
444.698	72.81
444.919	91.81
445.14	124.81
445.361	108.81
445.582	101.81
445.803	114.81
446.024	123.81
446.245	127.81
446.466	123.81
446.687	84.81
446.908	86.81
447.129	89.81
447.35	75.81
447.571	94.81
447.792	90.81
448.013	116.81
448.234	99.81
448.455	96.81
448.675	97.81
448.896	96.81
449.117	94.81
449.338	90.81
449.559	110.81
449.779	124.81
450	84.81
450.221	70.81
450.442	95.81
450.662	90.81
450.883	89.81
451.104	99.81
451.324	87.81
451.545	84.81
451.766	99.81
451.986	105.81
452.207	100.81
452.428	92.81
452.648	89.81
452.869	92.81
453.089	104.81
453.31	98.81
453.53	98.81
453.751	85.81
453.971	98.81
454.192	94.81
454.412	99.81
454.633	80.81
454.853	87.81
455.073	82.81
455.294	77.81
455.514	85.81
455.734	93.81
455.955	96.81
456.175	74.81
456.395	74.81
456.616	92.81
456.836	81.81
457.056	96.81
457.276	92.81
457.497	92.81
457.717	88.81
457.937	96.81
458.157	89.81
458.377	82.81
458.598	99.81
458.818	119.81
459.038	130.81
459.258	111.81
459.478	87.81
459.698	92.81
459.918	95.81
460.138	84.81
460.358	86.81
460.578	98.81
460.798	94.81
461.018	91.81
461.238	90.81
461.458	92.81
461.678	86.81
461.898	90.81
462.118	83.81
462.338	89.81
462.558	83.81
462.777	87.81
462.997	82.81
463.217	85.81
463.437	83.81
463.657	96.81
463.876	94.81
464.096	91.81
464.316	82.81
464.536	94.81
464.755	80.81
464.975	91.81
465.195	141.81
465.414	124.81
465.634	97.81
465.854	83.81
466.073	93.81
466.293	89.81
466.512	83.81
466.732	97.81
466.951	79.81
467.171	99.81
467.391	93.81
467.61	96.81
467.829	103.81
468.049	84.81
468.268	99.81
468.488	90.81
468.707	76.81
468.927	72.81
469.146	88.81
469.365	78.81
469.585	95.81
469.804	97.81
470.023	98.81
470.243	82.81
470.462	102.81
470.681	119.81
470.901	95.81
471.12	83.81
471.339	81.81
471.558	83.81
471.777	94.81
471.997	99.81
472.216	95.81
472.435	93.81
472.654	86.81
472.873	102.81
473.092	94.81
473.311	86.81
473.53	79.81
473.749	92.81
473.968	102.81
474.187	91.81
474.406	98.81
474.625	83.81
474.844	92.81
475.063	86.81
475.282	88.81
475.501	88.81
475.72	89.81
475.939	88.81
476.158	86.81
476.377	77.81
476.596	91.81
476.814	91.81
477.033	103.81
477.252	92.81
477.471	77.81
477.69	91.81
477.908	79.81
478.127	86.81
478.346	82.81
478.564	80.81
478.783	95.81
479.002	89.81
479.22	101.81
479.439	78.81
479.658	101.81
479.876	84.81
480.095	97.81
480.313	84.81
480.532	94.81
480.751	99.81
480.969	106.81
481.188	115.81
481.406	116.81
481.624	83.81
481.843	84.81
482.061	84.81
482.28	79.81
482.498	98.81
482.717	95.81
482.935	92.81
483.153	96.81
483.372	90.81
483.59	84.81
483.808	93.81
484.027	83.81
484.245	76.81
484.463	86.81
484.681	91.81
484.9	88.81
485.118	96.81
485.336	99.81
485.554	92.81
485.772	100.81
485.99	103.81
486.209	115.81
486.427	103.81
486.645	108.81
486.863	112.81
487.081	93.81
487.299	97.81
487.517	94.81
487.735	101.81
487.953	98.81
488.171	78.81
488.389	83.81
488.607	110.81
488.825	88.81
489.043	89.81
489.261	99.81
489.479	86.81
489.696	93.81
489.914	90.81
490.132	90.81
490.35	94.81
490.568	96.81
490.786	83.81
491.003	85.81
491.221	88.81
491.439	105.81
491.657	90.81
491.874	102.81
492.092	88.81
492.31	77.81
492.527	73.81
492.745	78.81
492.963	89.81
493.18	88.81
493.398	88.81
493.615	98.81
493.833	87.81
494.05	89.81
494.268	86.81
494.485	82.81
494.703	86.81
494.92	83.81
495.138	89.81
495.355	90.81
495.573	82.81
495.79	82.81
496.008	81.81
496.225	95.81
496.442	107.81
496.66	87.81
496.877	94.81
497.094	90.81
497.312	79.81
497.529	73.81
497.746	90.81
497.963	91.81
498.181	99.81
498.398	95.81
498.615	104.81
498.832	99.81
499.049	91.81
499.267	92.81
499.484	74.81
499.701	90.81
499.918	86.81
500.135	97.81
500.352	82.81
500.569	100.81
500.786	96.81
501.003	95.81
501.22	80.81
501.437	91.81
501.654	109.81
501.871	111.81
502.088	99.81
502.305	91.81
502.522	96.81
502.739	77.81
502.956	92.81
503.172	84.81
503.389	100.81
503.606	92.81
503.823	87.81
504.04	106.81
504.256	97.81
504.473	74.81
504.69	80.81
504.907	93.81
505.123	106.81
505.34	82.81
505.557	91.81
505.773	103.81
505.99	82.81
506.207	89.81
506.423	89.81
506.64	88.81
506.856	76.81
507.073	91.81
507.289	74.81
507.506	92.81
507.722	103.81
507.939	126.81
508.155	91.81
508.372	96.81
508.588	65.81
508.805	98.81
509.021	92.81
509.238	103.81
509.454	98.81
509.67	101.81
509.887	83.81
510.103	126.81
510.319	189.81
510.536	612.81
510.752	1724.81
510.968	520.81
511.184	130.81
511.401	100.81
511.617	100.81
511.833	93.81
512.049	99.81
512.265	100.81
512.481	90.81
512.698	89.81
512.914	91.81
513.13	89.81
513.346	80.81
513.562	103.81
513.778	82.81
513.994	86.81
514.21	106.81
514.426	111.81
514.642	113.81
514.858	111.81
515.074	134.81
515.29	336.81
515.506	1056.81
515.721	419.81
515.937	127.81
516.153	96.81
